Channel 1 - P4;Channel 2 - O2;Channel 3 - P8;Channel 4 - T8;Channel 5 - C4;Channel 6 - Cz;Channel 7 - Fz;Channel 8 - F4;Channel 9 - Fp2;Channel 10 - F8;Channel 11 - Fp1;Channel 12 - F7;Channel 13 - F3;Channel 14 - C3;Channel 15 - T7;Channel 16 - P7;Channel 17 - P3;Channel 18 - O1;Channel 19 - Pz
3.152429637;-0.442647715;-34.17659591;15.13147858;6.117850345;1.692791939;-39.22547217;-22.32782808;12.80174584;20.74803856;9.063360338;-8.481316742;23.21311239;-51.78256169;-12.24043531;-42.8461143;2.799100079;-4.665931931;16.95848656
11.68952735;17.55986901;-10.36325706;12.12014221;18.993059;3.142555571;-0.744174194;-7.129673384;12.9324614;10.91713904;2.600626889;25.11734987;21.09986579;-13.57020985;9.746377529;-14.43790963;11.33824756;21.61680261;7.844789347
16.53077939;28.94766557;7.248027594;11.05155528;23.26929833;4.078009446;26.05539252;1.174305487;13.86736705;7.230205805;2.382820994;42.25181571;20.95509584;14.73804695;25.61874932;10.92796013;16.17515327;37.17708206;2.202709083
13.11738914;26.84305747;9.116547639;13.87272713;16.76187257;3.666914366;27.63201035;0.652852643;15.58478169;10.68085172;9.028166733;36.38053153;24.41078586;18.76886448;27.36991268;17.08990692;14.56655736;34.95441392;0.693324698
2.950956985;13.39673215;-2.229602203;19.01833437;4.315721359;1.967034988;8.919466949;-3.886935829;17.36529187;16.88651483;18.33422666;16.69311381;30.11786518;3.041669663;17.4794079;3.582949235;8.828236928;19.89019763;0.994327545
-7.78232765;-2.382780522;-15.58842968;23.07765761;-5.739498611;-0.055976292;-12.32665023;-5.825055533;18.69986513;20.25461416;24.80505986;-0.236638532;35.17016912;-15.04397176;6.173785991;-16.03715291;4.15145484;4.595988913;0.255692213
-13.06701435;-11.59748433;-20.42562773;23.56262959;-7.570359307;-1.217978084;-19.86682672;-2.356667901;19.75643405;18.65677744;25.81995249;-3.233068778;37.3570143;-19.98124589;3.12153738;-25.98810938;4.341111785;-0.285257246;-2.449868204
-11.51257274;-11.74163753;-14.5712613;20.59337592;-1.682581071;-0.976686757;-10.5376379;3.725366962;21.05490797;14.86706618;23.1757595;6.314768021;36.49192821;-9.517089595;10.22848249;-20.31327287;8.90546923;6.541787185;-5.641088351
-6.986684758;-7.599704091;-4.584431177;16.44550473;6.121368121;0.211076844;5.390531377;7.129679731;22.78601509;13.84063118;21.01752694;17.69545847;34.05127793;5.743905299;20.97877121;-5.972308712;13.72625483;17.3414259;-7.059147143
-5.151897358;-6.5016661;0.683404378;13.64474038;9.533379194;1.299665285;14.11692829;4.99314664;24.48522031;18.30753665;22.08422671;20.71793491;31.73500525;12.74372032;26.29371514;4.400171568;14.59531717;22.47582824;-5.791938747
-8.856572803;-12.10199745;-2.497372406;13.22534507;6.362560023;1.481081978;9.653993305;-0.681765964;25.34403939;26.34984209;25.38704108;13.56807261;30.22136173;6.881259917;21.75485434;3.171689387;10.6390793;18.18230684;-3.005922624
-16.06382525;-21.72478479;-10.36402389;14.32495183;-0.473060414;0.761042847;-2.459018588;-4.968763323;24.78414948;32.78428077;27.07321061;2.687415001;28.9580418;-5.42176244;10.37519305;-7.069549455;4.871312209;8.787730934;-0.765349049
-21.77455897;-29.11184105;-15.69012328;15.08124078;-5.931245005;-0.148550493;-11.15431949;-4.380644321;22.69321027;32.99363433;23.57408077;-4.115705229;26.86207968;-13.57315243;-0.827779173;-17.27433104;1.553756065;2.098021169;-0.13442327
-22.14976238;-29.92381147;-14.22061247;13.91493664;-7.03515634;-0.482067205;-9.611542405;0.241319858;19.13074227;26.02690926;14.40306287;-4.657759499;23.16611344;-12.28228148;-7.026670547;-20.47086493;2.64258024;2.343833949;-0.318877749
-17.42326405;-25.28813426;-7.929191618;10.31584636;-4.855939286;-0.050189478;-0.41525939;4.706546751;13.92544823;14.69845966;2.467660494;-3.486002132;17.78026735;-5.405888293;-9.157465655;-17.39133947;6.241110965;6.746012585;0.417700978
-11.40794945;-20.6006457;-2.689282221;4.895359342;-3.005680971;0.661358944;7.670893912;5.25999519;6.759821754;3.062375417;-8.096341532;-6.789772905;11.14152654;-1.515582991;-12.13964139;-14.76138577;8.226114117;8.337510855;2.959734653
-8.270019531;-20.86950952;-2.861175421;-0.996998466;-4.289471589;0.961839191;7.769760932;1.76117557;-2.147106303;-6.339303645;-14.63548633;-16.21279946;3.955213878;-5.829177814;-19.74795569;-18.50868941;5.597213866;2.280068359;6.341880266
-9.348526089;-26.65327395;-7.684817949;-5.773864103;-8.452078174;0.559988883;0.550560576;-2.440140219;-11.35513338;-13.27812368;-17.12231322;-27.17583914;-2.86396199;-15.81519095;-30.83847535;-28.28979167;-1.216652808;-9.855867087;8.480628646
-12.50067959;-33.88935611;-12.40959244;-8.168063508;-12.71663583;-0.211961932;-7.070923439;-3.63089634;-18.33596642;-18.53613;-17.15774145;-32.9041519;-8.162216134;-23.94955016;-40.14808123;-38.02114486;-8.87238288;-21.36679859;8.00177707
-14.20208536;-37.48052312;-12.78624808;-7.848320292;-14.32629246;-0.715762337;-8.450572983;-0.987094202;-20.67551058;-22.20815418;-16.07587777;-30.25195821;-10.77275938;-24.61113225;-42.75257621;-41.48869429;-13.86355141;-25.92972973;5.540753186
-12.42072409;-35.42089085;-8.752036147;-5.820784725;-12.74868712;-0.561675516;-2.922031046;2.876481396;-17.65609179;-23.39032906;-13.95422026;-22.14397549;-10.11244621;-18.76505313;-38.17234359;-37.75804492;-15.17386946;-22.58;3.345214877
-7.905774027;-30.04185808;-4.156010885;-4.13242363;-9.775080586;0.083115219;4.139493872;4.38897984;-11.03214313;-21.42763723;-10.27999217;-14.82493717;-6.791085016;-12.53639891;-30.63534872;-31.68520817;-14.74259759;-16.10316245;3.488415842
-3.106792023;-25.61118873;-3.05570567;-4.699881874;-7.728542482;0.674696058;6.485970066;2.213074169;-4.259777247;-17.24814143;-5.401065159;-12.77;-2.653945511;-11.43106202;-25.47713495;-29.44525002;-15.55083014;-12.82375549;6.203941882
0.034030141;-24.60640054;-6.087570232;-7.848752927;-7.557622147;0.773790153;2.506704111;-1.680265064;-0.548569714;-13.20767472;-1.157467102;-15.81530036;0.008984156;-15.62746876;-24.92579351;-33.31192507;-19.04149689;-15.53838037;9.739818322
1.422417967;-25.88817429;-10.12046325;-11.69106265;-8.448126648;0.399011395;-3.732157749;-3.884673621;-1.008613722;-11.36275538;0.141401487;-20.54691316;-0.282607594;-20.37661332;-26.80632671;-40.19515268;-23.96403147;-21.7279859;11.82348211
2.301858192;-26.12505067;-11.29892043;-13.11394132;-9.04780924;-0.037178715;-6.488129611;-2.594419257;-4.13473052;-11.71303765;-2.326986033;-23.90795793;-3.280283456;-20.70653244;-26.96164833;-44.77530042;-27.41778844;-26.14171174;11.47409398
3.631627511;-22.96228059;-8.565804431;-9.954744871;-8.957319358;-0.121474803;-3.517628964;0.909550779;-6.914973032;-12.1248174;-6.694208665;-25.25587888;-7.064518988;-15.87092616;-22.98820741;-44.02751894;-27.07232921;-25.188866;9.651106192
4.975171868;-17.0824421;-4.484450488;-2.81342319;-9.057613228;0.202194092;2.194186989;3.544840991;-6.719275354;-10.158686;-9.158923558;-25.18492442;-9.077316152;-9.577275002;-16.0063382;-39.10841451;-22.7511606;-19.40281048;8.262813428
4.88760346;-11.49650226;-2.754782437;5.03995898;-10.46326031;0.616288947;5.431294715;3.216081339;-2.677930031;-5.244719073;-6.37787581;-23.03605844;-7.490407733;-6.144834671;-9.204437448;-33.4029994;-16.29189623;-12.28207107;8.453015996
2.342020557;-8.911686829;-4.807589704;9.852843543;-13.19951566;0.742901824;3.512277906;0.583545253;4.221209256;0.752085288;2.182799432;-16.44401378;-2.102095725;-6.437926974;-4.823564516;-29.10725788;-10.06653373;-7.01953118;9.644810882
-2.180831534;-9.592697454;-8.582716921;10.14090921;-15.90317847;0.487514589;-1.502673086;-1.687763884;12.09303607;5.136506651;13.66959987;-4.021477136;5.670724095;-7.368800093;-2.444475117;-25.71888944;-5.482969971;-4.164138314;10.11080335
-6.931483043;-11.49241131;-10.50575232;7.825846576;-16.83696906;0.107333666;-4.954708627;-1.404946442;19.28717121;6.762966771;23.50231198;11.42276794;13.55793809;-5.225854284;0.019994579;-21.54803949;-2.528586563;-2.006688804;8.516585225
-10.21040738;-12.31183197;-8.76135133;6.705280656;-15.28532361;-0.039372076;-3.906493847;1.225556457;24.92569829;7.059990149;28.13251023;23.04393877;19.44611313;0.513364838;3.832364366;-16.26644965;-0.379368898;1.148136844;5.093564125
-11.58139888;-11.51226606;-4.864572711;9.317632947;-12.09237074;0.178788899;0.337508884;3.896427914;28.74884408;8.747498888;27.02614662;24.62277634;22.14344247;6.552498914;7.9579956;-11.6410936;1.717606743;5.202405557;1.475667671
-11.96393939;-10.52885717;-2.170431432;14.67848861;-8.931060414;0.558236273;3.655949319;4.346693755;30.74386696;13.35310426;22.62957233;16.27437058;21.67356682;8.876354477;10.02590973;-9.679151626;4.037533802;8.563560055;-0.600369869
-12.62680894;-11.17033034;-2.768376598;18.82688078;-7.028691541;0.758176007;2.985845901;2.360316203;31.04691151;19.72775615;18.53092751;5.785119469;19.11321635;6.574373509;8.747234376;-10.2378394;6.522515192;9.9517149;-0.602433576
-14.03178097;-13.78704255;-5.621593624;17.93538252;-6.466693732;0.613309407;-0.95840765;-0.151374951;30.153641;24.9001902;17.20361918;3.19777655;16.08707992;2.730687858;5.414493366;-10.81663202;9.006975218;9.753400741;0.541004475
-15.49708102;-16.85503077;-7.604146546;11.61276285;-6.525649373;0.276785001;-4.508142726;-0.960330706;29.05157858;26.55010341;18.82145212;12.16740791;14.06617749;1.52901558;2.973543326;-9.030642688;11.14533334;9.56860217;1.35273008
-15.84253668;-18.23082204;-6.426073085;3.718158135;-6.54614529;0.072501771;-4.495251106;0.483281434;28.9131198;24.95150214;21.71799778;25.24507008;13.69506885;4.30351132;3.449247776;-5.36646115;12.19326268;10.48330068;1.036172203
-14.33958237;-16.8409962;-2.75472335;-0.142809202;-6.389519629;0.199796761;-1.105623866;2.662400747;30.42407932;22.70588239;23.88937011;27.95146757;14.46619782;8.259949847;6.072452637;-3.229428669;11.1171605;11.87056665;-0.010154774
-11.15394008;-13.3158169;0.373990061;3.334078526;-6.12862169;0.55862018;2.41608308;3.477755098;33.23839854;22.52470921;24.35234055;9.585969115;15.00218178;9.080319202;7.85519818;-5.795474472;7.224581503;11.96733763;-0.734569752
-7.054240068;-9.170346622;0.278905389;12.62155693;-5.472466436;0.844920593;2.813831162;2.179842227;36.0409206;25.00612313;23.48474573;-27.2702496;13.90170563;4.974698052;6.155261513;-12.47273955;0.887609553;9.681922544;-0.459005358
-2.828901148;-5.464725847;-2.989527518;22.32180202;-3.722684944;0.820494652;-0.238132007;-0.013480307;37.25792601;28.30225325;22.33472511;-66.41334617;10.69578855;-1.619280921;0.979221144;-18.57151593;-6.359491835;5.833600429;0.531080018
1.022659689;-2.205831115;-6.733924673;26.94751407;-0.466280344;0.512647778;-3.946382151;-1.109531169;35.95927358;29.86897096;21.60785699;-87.98981524;6.274818951;-6.283460024;-4.988816985;-19.01840254;-12.6387131;2.543491351;1.298199504
4.205188669;1.122389079;-8.020885781;24.71389041;3.669843299;0.173786285;-5.026343714;-0.180101223;32.36183603;28.67226317;21.14561424;-81.84713088;2.414857683;-6.689881253;-8.619674986;-13.02150627;-16.92742766;1.297121429;1.122489303
6.502502074;4.656129208;-6.213614617;18.55917763;7.115584971;0.051672725;-2.673551455;1.852095693;27.65953625;25.90525789;20.21797718;-54.39569892;0.641052457;-4.634691678;-8.84760379;-5.261167215;-19.65099852;1.546274651;0.140052185
7.942524648;7.919222613;-3.380727418;13.75205482;8.488165193;0.18397956;0.808913848;3.150440523;23.38155846;23.68913183;18.30197159;-23.86904143;1.185359166;-4.081397222;-7.300553374;-2.021993674;-22.09835599;1.284003117;-0.780884492
9.108279446;10.5030159;-2.30197051;14.00403446;7.878028117;0.394444465;2.202171357;2.695052052;20.73245144;23.07138983;15.68945393;-7.632105129;2.798571504;-7.063856268;-6.62258756;-5.373453064;-25.08434879;-0.829379637;-0.775457854
11.08378504;12.86302314;-3.945841356;19.01493157;7.060503277;0.476261747;0.303702289;1.184389659;20.24993595;23.22607303;13.45244954;-11.03348191;3.603598922;-11.4228513;-8.080707208;-10.72449466;-27.98957489;-3.759235925;0.315529475
14.74801919;16.23232771;-6.699940821;25.13823853;8.211348725;0.382078778;-3.065436123;0.303432802;21.80787513;22.58738347;12.80046283;-25.69381957;2.423107336;-12.70999966;-10.5693754;-10.45712763;-29.05845392;-4.527780335;1.836682298
19.81515391;21.51484813;-7.979400844;28.42044107;12.04033935;0.247393416;-4.810521008;1.087640016;24.78829161;20.80270701;14.29949026;-37.57298699;-0.355241283;-8.611312461;-11.76191208;-0.888904322;-26.78818426;-0.612636169;2.831662855
24.49196617;28.11576812;-6.669760863;27.55902267;16.92122127;0.238803562;-3.390713643;2.931952593;28.27734404;19.57269609;17.49068604;-37.83793114;-3.003867508;-1.632646272;-10.22300451;13.61672593;-21.28263952;7.693071476;2.718390701
26.31232067;33.89185727;-4.146430662;24.58413008;19.9020346;0.381792819;-0.14032416;4.162633873;31.28488495;21.42242756;21.14;-28.1643628;-3.625341318;2.850921063;-6.548095337;23.57436099;-14.42374475;17.05531711;1.606988249
23.75296162;36.47177561;-2.961004876;22.95837672;18.92935628;0.534397991;2.044495477;3.619656948;33.03955323;27.35792217;23.9215938;-17.30187823;-1.450299534;1.772095181;-2.629016315;22.42427414;-8.67554851;23.32063622;0.098097755
17.44389672;34.93574636;-4.429301299;24.75154352;14.52660519;0.5285423;1.366650051;1.761440264;33.30685769;35.48484883;25.09138802;-12.86466602;2.636514139;-2.001558242;0.08934697;12.84200384;-5.467537382;24.40403842;-1.184954249
9.934301965;30.44168766;-7.342182612;29.09290003;9.518439267;0.339913857;-1.312995854;0.25921746;32.54967784;41.95814266;24.78562346;-15.52573407;6.687738362;-1.495286401;1.659745818;5.2868985;-4.432361947;21.51306856;-1.944010491
4.055685343;25.260849;-8.979732634;32.9461049;6.957721258;0.121008811;-3.377874296;0.457534908;31.7723181;43.66624145;23.86331578;-19.88829763;8.969919637;7.893232556;3.097530997;9.173792449;-4.02573341;17.83811035;-2.24275627
1.078037337;21.07181354;-7.517207058;33.42158144;7.892002912;0.062655156;-2.903876152;2.129048716;32.0788499;40.52776304;23.47243699;-20.26998572;9.042731295;22.61495841;4.968955451;23.75923727;-2.896728223;15.98652821;-2.326307902
0.080747316;17.99310882;-3.667916172;29.78269964;10.74421717;0.212767196;-0.377823221;3.67789198;34.17154074;35.52627503;24.58;-15.77160967;7.928734745;31.43797801;6.641242304;36.87517485;-0.814969241;16.37292069;-2.434338305
-0.991710399;15.12453036;-0.112511789;23.73100195;12.74892037;0.423992683;1.840540591;3.60745208;38.04076876;32.43937638;27.60220159;-10.32967287;7.299671634;22.92496665;7.007776321;33.61441953;1.541367386;17.73801659;-2.718816168
-3.483316567;11.96512566;0.753659107;17.98724428;12.20536653;0.484134946;1.73740951;1.903550866;42.9475145;33.08471749;32.16873001;-8.33375192;8.257484745;-5.327273784;5.954460429;8.676244641;3.561190188;18.98367028;-3.224843929
-6.910994094;9.279294366;-1.24120994;14.42780234;9.69497974;0.313616501;-0.533722237;0.06270791;47.63511099;36.24406401;37.07683124;-10.28418513;10.52931899;-43.05414614;4.994500901;-27.60762135;5.399855689;20.41602101;-3.86075566
-9.456195715;8.53510819;-4.07849953;13.1765265;7.352604076;0.049291017;-2.868970237;-0.260736709;50.67578214;38.98855989;40.57265951;-12.54155585;12.60018048;-72.79606342;6.225460399;-55.07647565;7.693420704;23.23054159;-4.376809797
-9.57397002;10.42894119;-5.424242516;13.1218516;6.938068996;-0.066109632;-3.197859708;1.248816761;50.92619463;39.16127038;41.05049059;-11.16655158;12.69401072;-80.98492322;10.40158794;-57.57347;10.57551662;27.87129555;-4.445349786
-7.314342872;13.93315994;-4.616456638;13.17448879;8.403919133;0.104977604;-1.364069709;3.291943044;48.06233387;36.92471993;37.98341009;-6.024025627;9.976858846;-66.63237262;15.89989215;-34.39717568;13.00822978;33.01428824;-3.87068977
-4.255867086;16.87230757;-3.031163521;13.12212188;10.12478266;0.468736697;0.808654276;4.141917596;42.99750048;34.20118525;32.55242847;-1.177983752;5.214645546;-41.29010508;19.68876298;-0.580484632;13.2031977;36.30782323;-2.802858002
-2.180707831;17.61920818;-2.622113929;13.44853046;10.46551703;0.770376497;1.264188102;3.203769345;37.81197996;32.66897657;27.37447061;-1.136118102;0.446355263;-20.56183502;19.62321064;24.11584388;9.912154423;36.26210951;-1.756582735
-1.68551215;16.41318912;-4.06148307;14.44912445;9.240078125;0.80100726;-0.382947081;1.521005455;34.92744393;32.15317904;25.17520964;-6.403167004;-2.165702651;-13.72187809;16.11651453;28.86920364;3.514724249;33.5012973;-1.355408695
-1.907149187;15.07770354;-6.181262881;15.56703079;7.800422216;0.563708545;-2.538781631;0.777169251;35.74658204;30.81614362;27.03100774;-12.51339724;-1.626676562;-19.00760773;11.69393659;17.75268082;-4.078740014;30.13195919;-1.949495138
-1.504458873;15.34510455;-7.14526842;15.63429465;7.762837302;0.26064422;-3.153848334;1.718611012;39.55036948;26.94993371;31.34833922;-13.61089403;1.263459828;-27.31278327;8.778438138;4.139908626;-10.70455405;27.76360611;-3.385603857
0.068720912;17.28608374;-6.184592468;13.8732572;9.568719511;0.119732923;-1.631693736;3.451323139;43.56461836;20.79007813;34.51102503;-7.537030984;4.376405952;-30.42816988;7.652371384;-1.008171393;-15.37463938;26.05161565;-5.103601213
2.155226279;19.2849996;-4.268165659;10.80219712;12.14730569;0.213256414;0.641797823;4.26107279;44.4744564;14.74974751;33.08058237;2.053072666;5.574393114;-26.95812507;6.419502722;2.86972013;-18.68017634;23.2085377;-6.474581378
3.650107957;19.60882035;-3.13041676;8.190396893;13.89853648;0.417492246;1.604137566;3.20944168;40.59703137;11.7856808;26.23928708;8.505541105;4.077270738;-21.71250069;3.018579155;7.682253365;-21.86823096;18.07392342;-7.111070035
4.128632011;18.13599988;-3.622507411;7.935512646;14.02984669;0.532912281;0.419443131;1.043437192;33.22830653;13.14088309;16.74768262;7.611735697;0.99787725;-20.111873;-2.520580313;5.648650122;-25.42969272;11.761315;-6.93510846
4.236372455;16.61131801;-4.954289082;10.62407834;13.02864799;0.448908297;-1.778710389;-0.426090184;26.03777913;17.22989994;9.520928293;1.091141885;-1.334099782;-23.01489506;-7.654499587;-2.939064788;-28.44521747;7.144849732;-6.027012723
4.962385118;17.10191381;-5.521622036;14.87874977;11.91798527;0.212824846;-2.961781362;0.066817281;22.70619868;20.56982073;8.556937536;-4.820880162;-0.859452011;-26.35756375;-9.213767693;-10.0154612;-29.2584401;6.395954219;-4.467590756
6.504216772;19.99331093;-4.510520905;18.09192889;11.09475569;-0.038533755;-2.077630195;2.092194224;24.36380691;20.12968691;14.22251755;-4.472794594;2.858604661;-25.37460654;-6.016023237;-7.588240507;-26.88223437;8.703334704;-2.350374383
7.855319677;23.36471855;-2.744270454;18.13580928;9.918674551;-0.203589576;0.008938283;3.874074558;28.69484207;15.44166537;22.81200706;2.687603581;8.292630303;-19.18424443;0.06675072;4.066411999;-21.91420436;10.39318548;0.076647439
7.59379768;24.41883765;-1.957145321;14.86692649;7.476568768;-0.279184335;1.346676084;3.843803168;31.46324255;9.000554881;28.7889457;11.86919027;12.8359055;-11.54410621;5.540194385;15.3343575;-16.1812629;7.691680193;2.350851036
5.21458203;21.81210577;-3.157835735;10.30823264;3.791234035;-0.318788151;0.703811959;2.025121586;29.4388639;4.665646228;28.24302753;17.00614195;14.33203126;-7.313170441;8.006028162;14.57377844;-11.44123695;-0.003393803;3.966526654
1.778045804;16.86841856;-5.606601804;7.29335994;0.258750496;-0.347539494;-1.319979692;0.030498394;22.61734085;5.1008861;21.22610389;15.62451463;12.27593284;-8.057700129;7.851496338;-2.203874491;-8.259589982;-9.132822813;4.683682148
-0.799235687;12.56754551;-7.37453466;7.470232114;-1.245029826;-0.330242679;-2.87594635;-0.320949582;14.11746916;9.886783724;11.439791;10.49552424;7.981478737;-10.83865749;7.522763822;-27.38361809;-5.970760669;-14.30997977;4.696360662
-1.276547651;11.11550858;-6.997360008;10.07122165;0.078174538;-0.224097707;-2.576374312;1.452013606;7.87572163;15.50510796;3.639937465;6.917765398;3.716687076;-11.14289263;9.119564238;-46.87178608;-3.640943047;-12.27403378;4.466337417
-0.125593126;12.15267905;-4.72578227;12.36149194;3.082808417;-0.054144627;-0.750130136;4.117643363;5.902560819;17.27078407;0.682837485;8.148415131;1.435854706;-7.101137467;12.48302898;-50.17894295;-1.07379426;-4.344265168;4.329902166
0.874427464;13.12874926;-2.240797561;11.5015881;5.359593556;0.078183839;0.889734176;5.806244962;7.132947035;12.14156437;2.221325366;12.9;1.877714949;-1.061525261;15.44119614;-37.46524729;1.082463572;4.585412088;4.226414203
0.193172379;11.51967039;-1.107809739;6.545552274;5.027783823;0.076081282;0.828777366;5.554226943;8.6;0.792625471;5.682044092;16.87508942;4.433957904;2.84755631;15.91303098;-18.32517694;2.196268811;9.688543275;3.824661491
-2.058660455;6.993533758;-1.395875338;-0.812686698;2.230249231;-0.054634403;-0.882316102;3.978480587;7.849453636;-12.31784921;8.452740685;16.8068097;7.665174714;2.766648021;13.92120168;-3.919688675;2.627134924;9.576202287;2.965662441
-4.119128323;1.707337632;-1.730390635;-7.245831785;-0.890376846;-0.190712655;-2.711688239;2.568281183;4.644728106;-21.0959598;9.500585409;13.41322768;10.04018362;0.894055057;11.68656127;0.868957655;3.818996544;6.815355041;2.012203713
-4.003588214;-1.454737734;-0.723980425;-9.822375009;-1.750014648;-0.187897473;-3.065926489;2.313768891;0.739284072;-21.10451694;9.379489049;10.72714438;10.52900629;1.301992361;11.72890264;-0.702179597;7.291910078;5.416909211;1.720486574
-1.196367068;-1.148813257;1.546731031;-7.656342094;0.787571475;-0.009931269;-1.721156815;2.921626503;-1.854776578;-12.16173459;9.032558876;12.43378366;8.913290503;5.842173541;14.68503414;-1.874018655;13.30879569;7.526575723;2.650947197
2.811620382;1.557420144;3.411554915;-2.137032431;5.625637589;0.227686508;0.031090059;3.262686386;-2.496790205;1.340332676;8.704796192;18.41535176;5.831727031;12.07029732;18.7802168;1.242019829;20.33074126;11.99125797;4.581098237
5.598203414;4.31749338;3.000743865;4.224214693;10.27851985;0.346672634;0.61347662;2.549929042;-2.090678338;12.72858584;7.949121269;24.53316284;2.569138354;15.29567612;21.38094547;7.053643194;25.75545383;15.70738103;6.461290365
5.620078125;5.506262411;-0.054164938;9.347650502;12.60543739;0.255848638;-0.396018084;1.114313412;-1.831353754;16.7024917;6.54060845;25.96108229;0.566224001;12.97679597;21.19886654;11.16953588;27.4009541;16.3114161;7.049029611
3.297432171;5.29960444;-4.136993877;12.44425315;12.10327501;0.031117613;-1.932063466;0.076208782;-1.831202931;12.19258689;5.214784427;21.3849161;0.738796143;7.335820359;19.17963403;11.10995378;24.63666333;13.84944115;5.783185626
0.554719194;5.007854616;-6.846382403;13.80924437;9.915893119;-0.147095333;-2.485682101;0.264027442;-0.988536222;2.704902083;5.327763586;14.54843096;2.918427811;3.538140796;17.35294372;8.425514059;18.42487271;10.21267056;3.211000853
-0.712118711;5.477141137;-6.865663688;14.07071033;7.784367747;-0.14604375;-1.52208655;1.420102127;1.72888583;-5.993487031;7.60879208;11.63129472;5.82158681;4.876151969;16.78928584;6.570337785;10.45549036;7.180512875;0.602635151
0.058828278;6.182323979;-4.910591786;13.71786902;6.894267121;0.010327233;0.044541815;2.436689149;5.773740463;-9.308706089;11.13641593;16.21714568;7.715194239;9.394617191;16.60430398;7.108223988;2.216877596;5.016399976;-0.96078145
2.024454449;5.904356949;-2.98273085;13.25053779;7.442324706;0.169727199;0.734228825;2.386168847;8.783213293;-6.198827935;13.60915812;25.6239711;7.457891317;11.39439504;14.96191299;8.299964589;-5.290891555;2.833070926;-1.301266956
4.000861697;4.324771652;-2.630345419;13.53477004;8.99541108;0.188538782;-0.104929362;1.372102;8.074057453;0.836576916;12.9052731;31.58556371;5.233837026;6.891561162;11.16183227;7.546148847;-11.22425487;0.181659308;-1.094270829
5.627136;2.93973121;-3.737406928;15.67054648;11.07353518;0.052948103;-1.693126237;0.409532671;2.803218814;7.812120482;8.760878041;25.24640225;2.420284149;-1.802677858;6.852631154;5.10949961;-14.57522579;-1.815351705;-1.127771557
7.605143561;4.263803213;-4.829180739;20.17287553;13.37627458;-0.122595843;-2.551779045;0.457814796;-4.962400419;11.73436477;3.179713293;3.328209432;0.632074647;-6.993177571;5.139621852;4.976935447;-14.41371088;-0.980381282;-1.527784146
10.87564495;9.851347571;-4.517753295;26.08722532;15.5817399;-0.212114468;-1.875937748;1.516833069;-11.26386466;11.87551897;-0.84693577;-28.67471186;0.624489175;-2.064972985;8.215450374;11.28840656;-10.59328529;4.144334749;-1.636322541
15.53139841;18.79749647;-2.746885238;30.99255768;17.12133083;-0.19711697;-0.270820257;2.629334316;-12.7405531;9.350919087;-1.376022538;-58.6205018;1.873868401;11.58950568;15.47849996;23.19745269;-4.243529859;12.84572147;-0.663378163
20.45580404;28.05584415;-0.761838927;32.26488516;17.32345929;-0.175265853;0.816328024;2.782107302;-8.821089385;5.789754707;1.237363063;-74.12383135;3.131611808;23.43770153;23.73843676;33.17070971;2.555491101;22.42977994;1.450029297
24.00135338;34.39934258;0.072283565;28.88437617;15.88661025;-0.251418504;0.426442722;1.863050434;-2.064792484;2.321137846;4.770474659;-69.43253268;3.460392595;20.47839883;29.36820603;31.30650731;7.838838978;29.93709197;3.737831946
25.12152978;36.48041579;-0.534590919;22.41232435;13.25;-0.416469342;-1.052654926;0.78314458;3.506265742;-0.519815522;6.792937711;-48.60578076;2.869587195;-2.735635878;30.67159476;13.06461121;10.8105016;33.98495303;4.812565739
24.0248253;35.40146473;-1.661123282;16.21076928;10.47060433;-0.534248123;-2.277091093;0.64903599;4.815432207;-2.341552151;6.192933104;-23.07891978;2.026035597;-38.49884303;28.6496377;-15.68868939;12.09170375;35.31260907;3.939165239
21.87648022;33.48809653;-2.138388129;13.2856176;8.640128354;-0.458102126;-2.202789435;1.748544108;1.233556789;-2.707810916;3.457339473;-5.14272075;1.343780342;-69.69473707;25.77253821;-40.94774322;13.0148569;35.77254375;1.720100648
19.87635726;32.41385746;-1.647732824;14.27496958;8.272626883;-0.17603365;-1.033969914;3.278555658;-5.615311224;-1.573567235;-0.271215558;-1.327057663;0.339170662;-80.73607397;23.99705062;-49.23053841;14.57841279;36.76637239;-0.202956462
18.48583361;32.20932434;-0.922377658;17.09690878;9.09873371;0.150292514;0.00315312;4.055747738;-13.24251754;0.105854137;-4.334157123;-9.619382193;-2.061814827;-67.85728344;23.70323671;-36.53015122;16.89068439;38.39304831;-0.266871093
17.33890065;31.75707414;-0.918992235;18.53858176;10.34467509;0.298064473;-0.169341835;3.549309162;-19.68680206;0.396644945;-8.844997557;-21.92629993;-6.430167388;-41.20444735;24.18530797;-10.92240615;19.42787456;39.76399975;1.887744462
15.74662014;30.04997149;-1.810048828;16.56517751;11.20997792;0.158505477;-1.465111284;2.293433826;-24.05239309;-2.634738434;-13.98750384;-29.84380308;-11.90225415;-17.33292683;24.8647454;13.10142012;21.69672511;39.91366836;5.1173965
13.27347868;26.97211773;-2.792900803;11.58032839;11.20644948;-0.17327358;-2.711942133;1.326602327;-26.22823796;-9.547722013;-19.16033765;-29.8213653;-16.35248101;-7.9119828;25.8606321;24.28985218;23.60260398;38.43103992;7.521138322
9.954762154;23.02833266;-2.899715412;5.746994718;10.25776547;-0.471599927;-2.741985577;1.20859029;-26.43349758;-18.80045544;-22.94946397;-24.47095625;-17.74910209;-12.99711534;27.37788575;21.18256934;25.22138702;35.48419676;7.68592981
6.14903252;18.56115527;-2.010726912;1.065915181;8.680019531;-0.555915569;-1.478310161;1.543847064;-25.10878119;-27.32210021;-24.10612482;-19.57686185;-15.73260046;-23.28746911;28.6954601;11.18891283;26.34387141;31.59553307;5.558536517
2.321987406;13.44663376;-1.061771926;-2.115509039;7.133036555;-0.422321969;-0.015877757;1.446354739;-23.08382033;-32.08731678;-22.70517793;-19.32404154;-12.13111659;-28.68609279;28.04208589;3.718310362;26.42894304;27.60032173;2.392903409
-1.023009223;7.640900874;-1.202596235;-4.945444262;6.441874481;-0.225877396;0.370561917;0.483620667;-21.55705213;-31.67495796;-20.38883627;-23.30396161;-9.857849966;-25.96019392;23.81824483;3.171246888;25.17682665;24.68490336;-0.09575511
-3.350447166;1.922822673;-2.682386902;-8.531020002;7.149963608;-0.138351193;-0.624941374;-0.821967496;-21.60915956;-26.86772488;-19.33747859;-27.3017534;-10.88806803;-19.76336844;16.22694013;7.027153598;23.20931748;23.97962843;-0.728880986
-4.251533904;-2.176002008;-4.539756176;-12.52459076;8.937324399;-0.209236601;-2.08171424;-1.44448445;-23.51695195;-20.08843184;-20.71650806;-26.9474954;-14.78786779;-17.14758441;7.758184312;9.668853213;22.04886976;25.52065748;0.621636868
-3.769366953;-3.513900595;-5.447883976;-15.22413408;10.38774086;-0.345814505;-2.703748668;-0.86472926;-26.4576459;-14.21369195;-23.84520668;-21.24476136;-18.91322617;-20.91128712;1.801814976;7.965535194;23.0996018;27.28852624;3.203992579
-2.584748944;-2.638568414;-4.971068;-15.19677519;9.574229125;-0.416686847;-1.984970316;0.308670272;-28.94442657;-11.49395912;-26.76589298;-13.28903274;-20.16509764;-27.50327793;0.281404051;3.720760673;26.27605131;25.52051706;5.962993998
-1.719128649;-1.898368575;-4.052418217;-12.97641541;5.371506634;-0.375127929;-0.625556194;0.734590461;-29.72601119;-12.94623968;-27.73745898;-7.817314822;-17.034192;-30.79730775;2.179991745;1.295708571;29.45474207;16.80694714;8.07193901
-1.792547927;-3.887764892;-4.212580142;-11.16285821;-1.332649931;-0.289284286;0.155628694;-0.537867709;-28.48262036;-18.15212651;-26.42872917;-7.688770533;-10.49222447;-27.90710069;4.241949505;3.030783836;29.46785167;0.9313501;9.151129521
-2.365973941;-9.249702216;-6.122640052;-12.53957184;-7.581591297;-0.259039149;-0.248335828;-3.187552191;-25.83145869;-25.31232725;-23.88135671;-12.05858732;-3.19377668;-21.72889203;3.412076884;6.799062889;24.17510618;-17.68711182;9.208413197
-2.00179472;-15.64724083;-8.840497294;-17.58873677;-9.838583559;-0.30574153;-1.306369595;-5.766770248;-22.7435738;-31.62847182;-21.37904098;-17.4574967;2.301432886;-18.10924243;-0.851420342;7.864790982;14.17710332;-31.55020191;8.49420553
0.80703951;-18.97671781;-10.46670894;-23.49917228;-6.227334845;-0.343459516;-1.89266688;-6.773937735;-19.92435905;-34.18394081;-19.26811347;-20.60563375;4.964407333;-20.39752014;-6.173096704;3.280496007;2.823622076;-34.16361117;7.396923212
6.418054659;-16.12857677;-9.725302646;-25.73321282;2.031465351;-0.26095231;-1.367765298;-5.75579177;-17.62622047;-31.19285197;-16.75068404;-20.55262775;5.501372021;-26.34630488;-9.028083037;-5.17206146;-5.649834656;-24.09536955;6.354374911
13.45679016;-7.268782992;-7.116837251;-21.19556882;11.15225622;-0.037807156;-0.181263169;-3.541415831;-15.86953126;-22.99808084;-12.76893695;-18.57126349;5.467222058;-30.06534131;-7.254302469;-12.15425123;-8.63091551;-6.136839523;5.707053642
19.40391861;4.11783333;-4.610544889;-10.66325972;17.06551372;0.215753773;0.556714238;-1.488799165;-14.65771612;-12.07316773;-7.132680807;-16.28520957;6.179002352;-27.17384748;-1.401152355;-13.09003906;-6.545847483;11.40826516;5.514698028
22.01492006;13.4707395;-4.086402787;1.434454157;17.88372228;0.337382396;0.122219803;-0.464805222;-13.87218239;-1.825752116;-0.859246653;-13.95261685;8.237074909;-18.52195327;5.941706203;-7.945354588;-2.234248492;21.51898164;5.474305263
20.58625361;17.96961209;-5.82462815;9.828503703;14.79080394;0.243866626;-1.138732984;-0.430602423;-13.00135383;5.120853487;4.567276803;-10.4630217;11.74203712;-9.248485408;12.06400106;-1.268313522;1.169883796;22.06972368;5.064357032
16.19717859;17.84267161;-8.313175289;11.78347807;10.77410782;0.00105803;-2.122133692;-0.867727473;-11.17919439;8.02915762;8.329156238;-4.882310688;16.6544993;-4.15539673;15.69132531;1.509927518;2.258672647;15.97489024;3.877323893
10.84847866;15.38841182;-9.520936035;8.583781924;8.274741511;-0.227980093;-1.977609408;-1.482619345;-7.787859603;7.833502511;10.76692753;2.075147699;22.75;-3.615097592;17.11562417;-1.614544104;1.864573396;8.22500921;1.929452524
6.235347492;12.77669014;-8.542764123;4.149845871;7.627425617;-0.310872174;-0.880517431;-2.425385004;-3.265453567;5.956894236;12.78903782;8.144252682;29.20090552;-3.65064781;17.16423973;-7.852462967;1.880333941;2.361207892;-0.280252293
3.070643787;10.54166034;-6.236697746;1.981920039;7.436107081;-0.240896784;0.142454393;-3.823924783;0.650784942;3.263480885;14.75280227;11.14247026;34.35877838;-0.033051884;16.17311296;-12.20526487;3.466931689;-1.020716218;-2.01705263
1.310676187;7.885136605;-4.37336366;2.812350079;6.385635132;-0.123951579;0.160358839;-5.196706228;1.735280918;0.025877181;15.875568;10.62801357;36.25932242;7.355277214;13.88925879;-11.70450471;6.082870671;-3.113113816;-2.692457234
0.851999802;4.24640252;-4.098135634;4.652301504;4.802785797;-0.079223086;-0.823520834;-5.497702577;-1.218085483;-3.250445377;14.79228892;8.037917392;33.72501684;13.86061057;10.19749001;-7.736548821;8.001412558;-4.675776567;-2.119159096
1.943476096;0.532596507;-5.051610703;4.968716175;4.551827805;-0.146203737;-1.907442723;-3.940611378;-7.262563944;-5.202313656;10.86128213;5.196664897;27.29556984;13.77130795;5.763806309;-4.616518157;7.77446844;-4.953223284;-0.495247201
4.933048491;-1.181598527;-5.856780713;3.100862427;7.341123993;-0.274751156;-2.147846328;-0.905411562;-13.51337359;-4.117381079;5.114443485;2.637260877;19.1845955;5.211006643;1.833462916;-5.76723389;5.416185638;-2.582122199;1.803883356
9.655479624;0.7684188;-5.458596386;0.968841996;12.94092348;-0.39253204;-1.427975328;2.01359178;-16.74594959;0.602270656;-0.028569766;-0.632414017;12.14397235;-8.01284798;-0.690598254;-10.80444611;2.394609713;2.619176129;4.412825878
15.12318374;6.1899793;-4.082114414;1.586009916;18.93274588;-0.474970953;-0.534590459;3.083600695;-15.34357748;7.304744475;-2.18351294;-5.666078423;7.969022006;-19.17819834;-2.018361967;-15.95926279;0.502145141;8.865439748;6.992249719
19.89613693;12.98574807;-2.970717407;6.629000829;22.31164891;-0.549659071;-0.388112467;1.850668652;-10.24072103;12.56601761;-0.539363654;-11.84272778;6.679901675;-23.65629382;-3.329747311;-17.40072424;0.513391707;13.4742753;9.118543234
22.86647101;18.5243442;-3.187621371;14.97390444;21.658672;-0.638840355;-1.16030942;-0.342090262;-4.232453326;13.30289584;3.623784382;-16.65529328;6.898174958;-21.97753581;-5.799327033;-14.59550354;1.617382068;14.83089888;10.23899376
23.80270527;21.236199;-4.595877696;23.25549049;18.08099752;-0.707967109;-2.109684484;-1.340455961;-0.221878658;9.03759698;7.795324791;-17.47098561;7.02249177;-18.60165019;-9.643465528;-10.8506761;1.960540432;13.41509335;9.845371664
23.21548562;21.13721001;-5.945372015;27.93089563;14.14265808;-0.68232681;-2.286462426;-0.004297828;0.307379757;2.447893498;9.810963352;-13.82903276;6.246977234;-17.77339629;-14.02169719;-10.55835097;-0.17140373;10.92883146;7.816952704
21.71987228;19.02204561;-5.983527211;27.29657411;11.70509083;-0.523382866;-1.444025755;2.617263422;-2.373862413;-2.439216678;9.021444501;-8.182374239;4.70464981;-20.1797255;-17.83421164;-15.3963564;-5.364200828;8.357507353;4.687444339
19.50471702;15.26826741;-4.588484057;22.13247594;10.50632796;-0.290703428;-0.300534753;3.855489532;-7.034692794;-3.142107737;6.333866467;-4.244610772;2.819312697;-23.11677296;-20.64305168;-22.60203711;-12.84350052;4.836870865;1.573611066
16.3781195;9.463974929;-2.911661154;14.79668167;8.649188214;-0.12013094;0.100809671;1.45794339;-12.50106856;-0.452341857;3.285437003;-4.214943126;0.610782257;-23.59628618;-22.86121078;-26.77180098;-20.98156073;-1.506336431;-0.295421185
12.28294693;1.204798258;-2.401955052;7.672839946;4.516280791;-0.123633082;-0.653243109;-4.437205369;-18.01802392;2.406675306;0.948329158;-7.223378635;-2.337845706;-21.28488355;-25.06840961;-23.83797728;-28.09323365;-11.40438586;-0.223739415
7.715833013;-8.767717886;-3.566802001;2.09387766;-1.586677582;-0.292908105;-1.95539047;-10.98494491;-22.87037148;2.527445766;-0.573291481;-10.3441087;-6.215683243;-18.58156756;-27.15036803;-14.18241088;-33.04508486;-22.94643755;1.517773333
3.575221335;-18.29868982;-5.541313579;-1.763249825;-7.492986674;-0.494291927;-2.711730448;-14.3481485;-25.94995529;-0.265873658;-1.860053711;-11.29121501;-10.2856057;-17.96622454;-28.13569978;-2.550618591;-35.46921967;-32.2274041;3.767648613
0.526081569;-24.86985346;-6.817144341;-4.327306099;-10.87588091;-0.56754476;-2.311647655;-12.25311791;-25.99177506;-3.312900714;-3.488402663;-10.41624452;-12.91347784;-19.31010046;-26.95402065;5.105055271;-35.65106806;-35.80794444;5.061161071
-1.52993252;-27.19184608;-6.480867367;-6.063353771;-11.10049507;-0.450561581;-1.150567544;-5.535935346;-22.47901098;-3.391539318;-5.481138825;-10.23579767;-12.48719832;-19.79396888;-23.46216905;5.465889968;-34.26106005;-33.03455972;4.413659359
-3.336530847;-26.0019902;-4.904018693;-7.236030233;-9.630756151;-0.227002319;-0.240811415;2.411144637;-16.43610824;0.533894259;-7.196948964;-12.9232579;-8.600115489;-16.55416468;-18.7963205;-0.370703261;-32.05309185;-26.32894243;1.852941812
-5.55269598;-23.35698084;-3.341409789;-7.900926639;-8.677261146;-0.057877244;-0.283812044;7.82483083;-10.25520423;6.373917816;-7.616677161;-18.04249684;-2.573505493;-9.571031705;-14.68313205;-8.215640048;-29.598167;-19.25568198;-1.606237801
-8.037561767;-20.99033734;-2.846542873;-7.87989596;-9.308148201;-0.055552109;-1.06019933;8.786315718;-6.456804873;10.53788551;-5.826916694;-22.61572413;3.152590139;-2.054295233;-12.26832804;-13.94798873;-27.13017705;-14.03436757;-4.525494977
-9.827613805;-19.11699929;-3.46247342;-6.7202942;-10.68670382;-0.204369789;-1.684242148;5.991622814;-6.221642029;10.73951178;-1.531881192;-23.54234686;6.384074966;2.112787083;-11.45885004;-16.07193273;-24.59034236;-10.55485029;-5.811588743
-9.911925129;-16.69254949;-4.342747578;-3.893405149;-11.07061804;-0.387796264;-1.463156179;1.786381976;-8.802139879;7.662283906;4.545528943;-20.26805497;6.357814308;1.588263738;-11.32508403;-15.97962993;-21.87466671;-7.557847816;-5.250897621
-8.20042384;-12.88489324;-4.611717788;0.631700578;-9.628307254;-0.489393025;-0.549847971;-1.579007941;-12.25317802;4.17875299;10.58397352;-15.34905634;3.971749541;-1.451564321;-11.17196312;-16.13369077;-19.13086887;-4.709063854;-3.527746048
-5.857620689;-8.459937928;-4.150499171;5.759237312;-7.39849072;-0.476634643;0.214901901;-3.152548358;-14.86958369;2.884639776;14.15082854;-12.40651589;1.007052427;-3.420178371;-11.29894638;-17.88528208;-16.85808551;-3.536149997;-1.761846644
-4.655404723;-5.81860399;-3.621644513;9.232377324;-6.48654135;-0.401326617;0.110757373;-3.284676486;-16.18785557;4.061191151;13.28087631;-13.26546689;-1.015269214;-2.548338307;-12.75220246;-20.64766758;-15.6642264;-6.271989068;-0.873740095
-5.790687983;-7.518729194;-3.76640343;8.59705833;-8.177555923;-0.330660641;-0.769010357;-2.795320594;-16.85354253;5.712361758;7.701308025;-16.756293;-1.553645637;-0.28345646;-16.27344366;-22.8220785;-15.80003906;-13.58648748;-1.150290415
-9.053605962;-14.35822548;-4.656747012;2.796555236;-11.64681126;-0.282991123;-1.591980934;-2.187990848;-17.66636076;5.508129898;-0.60937475;-20.12161473;-0.996289252;0.348656058;-21.37110551;-23.41220264;-16.81380109;-23.26568536;-2.212867194
-12.95791237;-24.47549484;-5.593165741;-6.669461976;-14.46798381;-0.228935509;-1.560663355;-1.500401047;-18.7887694;2.888334097;-8.168002384;-21.6255697;-0.110799664;-2.201835046;-26.35183992;-22.84553348;-17.64605512;-31.15355934;-3.32167984
-15.69919552;-34.16494078;-5.732102342;-16.04820367;-14.56283022;-0.148522431;-0.664333897;-0.673349686;-19.84959154;-0.44895095;-11.88580413;-21.94491774;0.458989756;-6.453143604;-29.341664;-22.37765781;-17.18990284;-33.75353022;-3.770048828
-16.21;-39.85093065;-4.867056759;-21.2188461;-11.95798765;-0.078026785;0.293265313;0.117817936;-20.74729178;-2.000015259;-11.04019519;-23.14422033;0.315882145;-9.309758894;-29.50645259;-22.7617125;-14.98308308;-30.46086698;-3.139575681
-14.59534372;-39.89492895;-3.658414851;-20.105929;-8.837535401;-0.090864491;0.420053711;0.55331316;-22.23062785;-0.551335077;-7.933988879;-26.34440712;-0.843133151;-9.103522834;-27.5455395;-23.47994029;-11.56066244;-23.68891903;-1.352055378
-11.78252589;-35.14881275;-3.102556993;-14.03597151;-7.812434455;-0.224596509;-0.453109875;0.541811102;-25.50616482;2.810908236;-6.575405406;-30.42205366;-3.31172523;-7.341343804;-25.15908147;-23.2660549;-8.202134561;-16.89035027;1.388608372
-8.805607429;-28.11758699;-3.697241334;-7.047375231;-9.841375319;-0.424746501;-1.622271899;0.413481453;-31.06781161;5.487378805;-10.07579903;-33.06164188;-7.200078125;-7.419127356;-24.00453214;-21.43516044;-6.215897325;-12.15793264;4.650753787
-6.294157864;-21.47711267;-5.016395508;-3.52139297;-13.53163664;-0.567467386;-2.155462113;0.653470677;-37.80124682;5.16872023;-18.49040014;-33.1650965;-12.16020762;-11.4099089;-24.96455522;-18.76435206;-6.217645012;-9.307676593;7.81796243
-4.414934851;-16.9092897;-6.050204501;-5.650271289;-16.3750437;-0.552203303;-1.734711819;1.38404473;-43.3504976;1.196844301;-28.66735389;-32.20373797;-17.3489977;-17.90335841;-28.14216951;-17.02457284;-7.853020892;-6.98324083;10.21381576
-3.087485677;-14.77142946;-6.02266945;-12.35538517;-16.84437496;-0.387332774;-0.920914625;2.104979971;-45.70814413;-5.3852373;-36.31401067;-32.99214236;-21.78521942;-22.98591585;-33.30843202;-17.46153705;-10.1059561;-4.600068359;11.36644579
-2.159378389;-14.48478202;-5.017276744;-20.24943301;-15.58017332;-0.191206536;-0.606707313;2.011145723;-44.85085712;-12.78498364;-38.87444935;-36.82738461;-24.87654303;-23.57470384;-40.19490621;-19.5248872;-11.95360099;-3.334920691;11.30737012
-1.438388564;-15.18575593;-3.919243144;-25.86041699;-14.7103331;-0.101925308;-1.173543161;0.686225095;-43.0115854;-19.4270084;-37.15880481;-41.68102969;-26.68109745;-20.09638413;-48.31394186;-21.04818467;-12.93657335;-5.307760518;10.66267906
-0.740561299;-16.2452766;-3.73983135;-27.59022912;-15.94427867;-0.169440438;-2.136705755;-1.404343836;-43.15801046;-24.26959843;-34.52938737;-43.41517381;-27.65301178;-16.02311991;-56.57836233;-19.90470271;-13.312307;-11.70439257;10.35520081
-0.106429946;-17.50341759;-4.855603026;-26.23928554;-19.09582221;-0.320707455;-2.60280749;-3.080789324;-46.69923721;-26.6397047;-34.2420724;-39.30473599;-28.06953884;-14.62363971;-63.28928608;-15.86567646;-13.74793059;-21.45735583;11.00665789
-0.061432644;-19.23140498;-6.721303342;-24.02754521;-22.27303587;-0.426130447;-2.108556756;-3.212621872;-52.17522327;-26.19998512;-36.93051299;-30.87219951;-27.65593656;-15.87262019;-66.76886834;-11.09007813;-14.78414748;-31.5647107;12.41602595
-1.57324396;-21.87220657;-8.229056668;-23.0195141;-23.52465133;-0.408355598;-1.058683309;-1.523814061;-56.0371289;-23.30729385;-40.13410061;-23.34440912;-25.8028628;-16.38827452;-66.29692477;-8.704405019;-16.40791431;-38.74567586;13.53480031
-5.500738559;-25.64486194;-8.425181609;-24.04653312;-22.50939324;-0.29978073;-0.357052979;1.165734995;-55.05421733;-19.32395984;-40.23982468;-21.84277598;-22.26877973;-12.54762871;-62.64047985;-10.49373416;-17.98247047;-41.13261544;13.06282484
-11.79141702;-30.19956563;-7.09707442;-26.6180977;-20.781954;-0.202903219;-0.575464925;3.445047343;-48.6106346;-16.22333451;-35.37389715;-27.33365226;-17.78291016;-4.013778478;-57.70057051;-15.5264038;-18.57678607;-38.86272257;10.3309984
-19.0555625;-34.58033758;-4.892418073;-29.51740274;-20.49579619;-0.194026158;-1.432146095;4.19719111;-39.19850729;-15.41946544;-27.035553;-35.7659875;-13.9390011;5.52924108;-53.46077274;-20.85014171;-17.52360822;-33.47096837;5.868833185
-25.01682155;-37.62988058;-2.957729795;-31.42742872;-22.64493465;-0.258447827;-2.061928021;3.247281759;-30.75334201;-16.61847428;-19.19316037;-41.21870273;-12.27747008;11.16589809;-50.95441374;-23.73275559;-14.90633007;-26.89647871;1.217894543
-27.7139839;-38.65879642;-2.340671704;-31.20717574;-26.2924098;-0.312937372;-1.824326913;1.362870699;-26.0747782;-17.74215745;-15.47340237;-40.46209718;-13.13112592;10.63935712;-49.93582675;-23.63623179;-11.68483188;-20.93574661;-1.934654315
-26.68328472;-37.93241682;-3.469125392;-27.9583501;-29.34554028;-0.290402479;-0.897855402;-0.333443599;-25.20411814;-16.23867941;-16.52647498;-35.11086888;-15.11618908;5.948488516;-49.39267188;-22.31684484;-9.331752171;-17.24176103;-2.735163819
-23.25033416;-36.57689338;-5.934393477;-21.25256686;-30.15110054;-0.206271647;-0.109676142;-1.10322323;-25.842177;-10.93603827;-19.54358258;-29.65178692;-15.79234969;1.349515444;-48.43517149;-22.02113276;-9.111839024;-17.29764997;-1.595385573
-19.6579073;-35.90324879;-8.659166067;-11.61870996;-28.5925091;-0.145368949;-0.161233228;-1.001560929;-25.34133136;-3.040272245;-20.31308788;-27.2546104;-13.20081391;-0.314361271;-46.90792592;-23.39524878;-11.37176702;-21.86733701;0.191561103
-17.61650878;-36.6;-10.37968742;-0.911737647;-25.90702596;-0.182395526;-0.971973359;-0.734191284;-22.69774598;4.520629171;-16.3199735;-27.19851649;-7.298402298;0.367669711;-45.37485252;-25.00907825;-15.26111913;-30.14234516;1.337253769
-17.3043157;-38.36556592;-10.23598341;7.990224635;-23.55292214;-0.309689965;-1.75396579;-1.09383671;-19.10259083;8.921817824;-8.623884616;-26.20579636;-0.269024433;0.651745679;-44.61306462;-24.99015656;-19.09817257;-39.40595818;1.301720784
-17.49722275;-40.21160684;-8.185081814;12.32962921;-22.15822108;-0.438157684;-1.751371293;-2.340886247;-16.7940728;9.06857996;-1.156338902;-22.31020481;4.611883245;-1.272164961;-45.02366304;-23.30660897;-21.21400628;-45.85852222;0.414351594
-16.64903787;-41.14703415;-5.002276879;10.93545131;-21.33504587;-0.470001221;-0.959175488;-3.908731661;-17.22155923;5.914241348;2.030212921;-17.42499253;4.913039847;-4.480891615;-46.29270798;-22.44891346;-20.79014662;-46.36774915;-0.601423412
-14.05367931;-40.68554554;-1.843554668;5.071817797;-20.28226734;-0.377748152;-0.149883066;-4.633713463;-19.94343045;1.478493401;-0.444328566;-15.8606129;0.560431378;-6.485389798;-47.3942212;-25.46750066;-18.18195129;-40.08777007;-1.237498373
-10.238735;-38.84222667;0.386176128;-2.015690217;-18.45863929;-0.220960071;-0.173849968;-3.423770246;-23.01292716;-2.454007804;-6.444110617;-19.84374711;-6.061148583;-5.989346276;-46.87328899;-32.66603977;-14.54116784;-28.87715296;-1.454409789
-6.407431581;-35.77345469;1.469184401;-6.725225414;-15.73125011;-0.090642139;-1.171819172;-0.01154111;-24.45941902;-4.969234965;-11.96373467;-26.20308917;-11.50621638;-4.203755656;-43.34486601;-39.77386929;-11.01451248;-16.28307143;-1.455363991
-3.48798032;-31.51871743;1.844074474;-6.96226647;-12.07034117;-0.035924168;-2.425685867;4.672640535;-23.72749179;-5.847673396;-14.01232036;-27.81628318;-13.28894372;-3.149067688;-36.14360547;-39.67212298;-8.074256675;-5.847031616;-1.283905125
-1.569727114;-26.14078954;2.162279797;-3.116325039;-7.352804063;-0.039039536;-2.992439361;8.818122812;-22.07538371;-5.220181727;-12.65496291;-19.34380786;-11.26281631;-2.640639994;-25.92406192;-27.07635278;-5.422221664;0.181801112;-0.670274762
-0.082300739;-20.09567426;2.779867034;2.402695769;-1.653843944;-0.054637075;-2.548622368;10.65724542;-21.7438189;-3.65879728;-10.82085795;-2.634113854;-7.535661373;0.546054948;-14.82627672;-3.009153471;-2.477801752;1.168312194;0.714215827
1.574741979;-14.35643375;3.558783053;6.693424191;4.245923;-0.067308331;-1.676777522;9.485494551;-24.53343038;-2.536380436;-12.12473057;13.23469993;-5.046800357;9.580969885;-5.855274147;24.42542852;0.967697151;-2.272930043;2.834324155
3.554426434;-9.991012126;4.084479576;7.951130088;8.829227105;-0.10619078;-1.331538239;6.12023201;-30.7175321;-3.872553445;-18.3119142;18.2272267;-5.755104996;22.809302;-1.530877204;44.03845212;4.452805877;-8.671004605;5.110825418
5.593115536;-7.422900306;4.06726292;6.185165615;10.65894851;-0.201160585;-1.968994102;2.441019989;-38.87812102;-9.189262509;-28.07813553;9.459853945;-9.556180265;32.06187751;-2.448844631;47.93454772;7.131738882;-15.81282745;6.690213577
7.387643803;-5.997014974;3.568220888;2.801397054;9.578542938;-0.32673976;-3.128212518;0.26140284;-46.62925616;-17.96252829;-37.92781225;-5.4884759;-14.50072794;26.9894666;-6.683969631;36.01103467;8.409230407;-20.8972974;6.976679132
8.863162169;-4.328574119;2.878146556;-0.476974897;7.262585005;-0.396927426;-3.841907544;0.272965624;-51.72539542;-27.04724083;-44.2960161;-13.4257779;-18.03495602;3.221266584;-10.60485313;15.54549272;8.41465646;-21.24584164;6.004293254
10.05374836;-1.298718582;2.204289546;-2.570039063;6.41081641;-0.328035902;-3.501961421;1.780471888;-52.96644046;-32.03101894;-45.41962848;-5.521434252;-18.40279825;-31.99467596;-10.78800419;-3.688956706;7.927018847;-15.58447346;4.356143724
10.76003906;3.01447826;1.48868276;-3.357161045;8.946701534;-0.119078538;-2.398459019;3.379340724;-50.53510032;-29.96741406;-41.84314833;15.06651999;-15.38015765;-62.13163542;-5.917842825;-15.23716316;7.780916368;-5.160786746;2.712106939
10.41076975;7.206583798;0.542714593;-3.354248404;14.51481502;0.125455707;-1.453315549;4.023992733;-45.72079922;-21.5738962;-35.54792716;34.10505293;-10.05481494;-71.30463247;2.527516474;-18.7518986;8.178890129;6.283294474;1.400347883
8.38070578;9.376524545;-0.63212742;-3.14721696;20.51402962;0.26084029;-1.399636569;3.654722987;-40.23014243;-11.05556953;-28.60239415;35.67232212;-3.99669763;-55.03360283;11.24052098;-18.31352492;8.415472176;14.04203265;0.293195502
4.570638508;8.351513354;-1.663117972;-2.994759194;23.79439373;0.208759471;-2.150209118;2.937067811;-35.40738685;-3.393107068;-22.31410188;13.46738897;1.543591398;-23.69804773;17.03893206;-18.21509099;7.235460082;14.77229589;-0.927179851
-0.240185449;4.466414167;-1.980471166;-2.758854032;22.83446741;0.018333018;-2.912773105;2.42076567;-31.70175486;-0.956732524;-17.21211393;-24.15298447;5.949279001;4.332153482;18.52533147;-19.76645804;3.619441884;8.251473794;-2.415531719
-4.617006864;-0.569537491;-1.241060964;-2.063143276;18.78153551;-0.171168299;-2.92663604;1.91885526;-28.62403015;-1.988265976;-13.45443224;-59.10120741;9.048221956;15.04110661;16.46289975;-21.38892751;-2.484298919;-2.487453472;-4.038659998
-7.154062133;-4.503132937;0.345759805;-0.506477433;14.57501897;-0.237331179;-2.141827007;0.708215584;-25.22877636;-2.157710737;-11.0612614;-74.92678359;10.75134918;7.460657405;12.84527567;-21.31410006;-9.914218681;-12.64599117;-5.545002166
-7.133924533;-5.431514373;2.076941083;2.155806934;12.83776076;-0.164655932;-1.234755953;-1.59215425;-20.89178468;1.959895458;-9.791471067;-66.64146003;10.87715128;-7.533117322;9.517740071;-20.07641117;-16.66569913;-17.79649561;-6.807464588
-4.715697467;-2.273159079;3.172067053;5.865249792;14.14114436;-0.04640109;-0.971364014;-4.268286591;-15.9562005;10.13994536;-9.015473534;-42.51262791;9.273228967;-16.79116838;7.352374273;-20.40111082;-20.66691135;-15.48317289;-7.863512817
-0.610271809;5.18055563;3.229589145;10.1668948;16.89935461;-0.001920121;-1.516776977;-5.669209265;-11.8382669;18.56315523;-8.022627376;-17.3695298;6.065727353;-14.92873057;6.360886344;-24.56439268;-20.57401684;-5.710954163;-8.700608543
4.40069383;16.29471353;2.389452704;14.25130271;18.83491624;-0.082248563;-2.317209428;-4.332160738;-10.45246541;22.54296343;-6.725406342;-2.823015334;1.777552323;-7.07216893;6.321483422;-31.65157608;-16.24466514;9.450568044;-9.020078125
9.69728012;29.48785118;1.129070446;17.19633925;18.75959816;-0.241124854;-2.637518318;-0.274961661;-13.20834099;19.7739102;-6.15064633;-1.250955471;-2.80681761;-2.895182414;7.176653892;-37.33574629;-8.736736479;26.5806361;-8.278874232
14.71296752;42.19239722;-0.085689183;18.33466364;17.27751334;-0.38765459;-2.23746878;4.6;-20.11686831;11.69042264;-8.057640222;-6.85735873;-6.93623423;-7.631949808;8.838560694;-36.6797088;0.114002923;41.63170509;-6.0746979
18.74842522;51.29308261;-1.001789855;17.53046107;15.98808081;-0.46648457;-1.561802437;7.443434232;-29.5367058;2.140339075;-13.67172068;-11.7299916;-10.14422934;-17.76088677;10.71603731;-27.84079498;8.341342844;50.77691478;-2.605421136
21.03;54.18349305;-1.531778588;15.16700695;15.99545286;-0.493189773;-1.288316963;6.181683885;-38.77293641;-5.339338244;-22.38103046;-11.73988587;-12.31823493;-24.56697708;11.61343697;-13.67147473;14.47064176;51.53124868;1.197844105
21.05644265;49.99915699;-1.608327309;11.85541168;17.01051829;-0.519212444;-1.676749013;0.850053711;-45.27953921;-9.489861653;-31.53093208;-8.244275678;-13.60223372;-21.92694515;10.33587436;0.162932009;17.89351834;43.87163733;4.051726791
18.94327277;40.22814264;-1.157430029;8.106255351;17.72950404;-0.566759808;-2.333261219;-6.372180911;-47.86476566;-11.29591397;-37.77756752;-5.381670369;-14.25070706;-11.34633153;6.648593104;9.118372492;18.87735126;30.65297561;5.006721791
15.4212992;28.16190404;-0.238554336;4.23312217;17.06285599;-0.599151977;-2.601460732;-12.40299503;-47.25453426;-12.45018727;-39.24787423;-5.997826374;-14.53323516;-0.126172395;1.799742668;12.66104904;18.24807254;16.73736089;3.974330206
11.43514416;17.40236631;0.818783315;0.522678547;15.11717202;-0.555509771;-2.198515437;-14.89395676;-45.67415232;-13.87868058;-36.95973022;-9.594104116;-14.69917364;5.250629256;-1.957826808;13.87245895;16.93279369;6.999584431;1.73334859
7.652960718;10.30858056;1.48825777;-2.587337877;13.11734927;-0.416415192;-1.489650935;-13.23308179;-45.62333769;-15.48487336;-34.31643152;-13.41590448;-14.95238906;4.413563282;-2.667333539;16.21111289;15.6049054;4.207375199;-0.566195283
4.287633999;7.303134349;1.340179829;-4.632004999;12.38677394;-0.237306287;-1.14145593;-8.481154851;-48.4810513;-16.96217277;-34.85246942;-15.13223969;-15.40734908;2.549646316;0.054840836;20.17834442;14.59088308;7.990996828;-2.030379968
1.347955506;7.32445524;0.327526892;-5.557262384;13.26554037;-0.115542594;-1.482926607;-2.590535324;-53.71980937;-18.57961931;-39.76989721;-14.63188208;-16.05721518;4.943450665;4.662081404;22.69307945;14.0176014;15.46224274;-2.358116837
-0.960916866;8.912211529;-1.197971916;-6.075773561;14.83322607;-0.11740536;-2.179793731;2.411054251;-59.21027422;-21.06056304;-47.07039491;-13.66130941;-16.80124132;11.88624757;8.518064056;19.75300515;14.02190879;22.97751865;-1.734257087
-2.112106551;11.07440625;-2.776854968;-7.436755608;15.59614453;-0.227365448;-2.5344323;4.876359383;-62.47634278;-24.70651629;-52.96545015;-13.99936068;-17.52429934;18.59984053;9.395449679;10.25649005;14.82385866;27.87074675;-0.475119898
-1.576392627;13.42752586;-4.191063579;-10.5080621;14.53835406;-0.36190499;-2.136231883;3.75551098;-62.16306832;-28.70850742;-54.54340363;-15.89825517;-18.15262016;20.00888683;6.681603711;-2.149257586;16.59483021;29.19297509;1.232200466
0.670775127;15.77695678;-5.55096744;-14.73027086;11.7344091;-0.433716177;-1.255373838;-1.105831424;-58.79571978;-31.39664787;-51.70348522;-17.98638411;-18.61109537;15.7201557;1.59828425;-10.84983463;19.22812255;27.35269427;3.305426491
3.916925816;17.72230223;-7.030836289;-17.85202313;8.166247812;-0.410780115;-0.607216571;-8.565727613;-54.31530681;-31.25390447;-46.91901654;-18.46022686;-18.69875662;10.50280088;-3.576148918;-10.54316538;22.20286642;23.32257224;5.551611091
7.002897313;18.7143851;-8.498012292;-16.97284274;5.02900382;-0.32425081;-0.698147517;-16.10576187;-50.66726321;-27.79874002;-43.06610574;-16.43486963;-18.00390649;9.854707387;-6.706480417;-0.957590482;24.66164578;18.16904587;7.519813377
8.935206307;18.46729065;-9.408430121;-10.45810134;3.109716548;-0.227478658;-1.354967586;-20.54871433;-48.38546874;-21.61412833;-41.05066948;-12.43018389;-15.99066335;14.84052228;-6.725005016;12.6702338;25.66532206;13.10016743;8.599225083
9.341368027;17.25379811;-9.125671383;0.543374263;2.60778667;-0.149817828;-1.875024801;-19.52737574;-46.1682369;-13.6573079;-39.10548696;-7.818636146;-12.26974979;21.03546786;-3.901817894;22.70030181;24.47854079;9.597788474;8.307679607
8.435470044;15.72624875;-7.43949152;12.21877089;3.322492975;-0.086464548;-1.664678415;-12.94;-41.79313494;-4.651467105;-34.29721808;-3.833994425;-6.902639434;22.54844968;0.481620861;23.62202684;20.75717558;9.095280829;6.548782444
6.600445663;14.37636564;-4.852678855;20.05922899;4.884996772;-0.025473741;-0.784535343;-3.367102024;-33.78093935;4.825040364;-25.03633013;-0.893394763;-0.519727455;17.35537129;4.755862321;15.00821664;14.61476418;12.15890926;3.652316716
4.02306044;13.11638855;-2.368403923;21.53399487;6.827774535;0.023856853;0.095422392;5.042950373;-22.66036586;13.77065799;-12.60467826;1.409244269;5.866090174;8.979993944;7.500161955;1.164852405;6.623218418;17.745517;0.19917246
0.73303271;11.37651573;-0.912613676;17.67745922;8.565869279;0.035226867;0.288453491;8.696499978;-10.93190512;20.54723416;-0.510209628;3.783445066;11.26323925;3.031459825;8.027800955;-11.91588447;-2.221283066;23.24875983;-3.209449319
-3.023889432;8.648525406;-0.820419706;12.42774615;9.490019531;-0.001007419;-0.308283769;6.422222782;-1.728911596;23.57893042;7.808375681;6.606078101;15.08086348;1.991011089;6.614382468;-20.02853493;-10.62057701;25.54417491;-6.081982756
-6.512465195;4.994222278;-1.748668152;10.0911217;9.22402397;-0.052268107;-1.145476944;-0.062141891;2.918821901;22.56627479;11.14569364;9.559800888;17.2593882;3.316189207;4.363887405;-22.45118069;-17.26222593;22.50213166;-8.047208488
-8.719483056;1.06260703;-3.016340169;12.63501451;7.859573613;-0.059693625;-1.534860388;-7.310219285;3.062541176;19.11194636;10.95710655;11.75462724;18.10306927;2.734533494;2.678319824;-21.19031456;-21.24154634;14.06815383;-8.852123067
-8.99545468;-2.397681558;-4.043951565;18.62818558;5.927700524;0.011386379;-1.264695674;-12.11287747;0.474277468;15.95940422;9.863420076;12.2866989;17.96265714;-0.539238033;2.507093859;-18.82947701;-22.41538701;2.302805305;-8.441731129
-7.629049084;-5.086766918;-4.546863559;24.44549073;4.07202284;0.131424942;-0.75685489;-13.02098927;-2.674433161;15.19328804;9.534035747;10.91248958;16.99184466;-2.109397682;3.778633706;-16.75272138;-21.42094464;-9.532584197;-7.08509552
-5.827573609;-7.264978131;-4.42388606;26.74101732;2.661285111;0.219149531;-0.637531287;-10.62265094;-5.105128121;16.74003906;9.624075909;8.350948763;15.11623978;3.408552263;5.423615803;-14.87377005;-19.25400671;-18.22264908;-5.400019531
-5.022864294;-9.331640929;-3.583813215;24.3844319;1.642216429;0.203805061;-1.134942478;-6.684941889;-6.861632588;18.40222633;8.468790786;5.874134335;12.19300968;15.70141321;6.073255866;-12.66531019;-16.61763471;-21.54772653;-4.1596539
-5.979333749;-11.2720504;-1.978951654;18.62620102;0.719420849;0.087101579;-1.867687985;-2.949049123;-8.777617001;17.47094706;4.782030611;4.35453057;8.227666402;26.06700742;5.029409204;-10.31255963;-13.4851394;-18.71695074;-3.930301582
-8.368879079;-12.51371761;0.151502674;11.69505526;-0.339889858;-0.050427689;-2.214172728;-0.378895132;-11.58397177;12.68098301;-1.129883975;3.48604679;3.512349441;22.41244165;2.827575295;-8.880217112;-9.243751842;-10.45443562;-4.753221603
-11.12045157;-12.38162011;2.113707253;5.16482152;-1.56397237;-0.109196956;-1.909139941;0.867199481;-15.39085606;5.007730145;-7.595797884;1.9524197;-1.378026941;-1.044864246;0.922820749;-9.331525193;-3.391276121;1.061456222;-6.096718494
-13.24121561;-10.80134801;2.961441981;-0.614242296;-2.890868183;-0.049818551;-1.304358212;1.040424522;-19.82269877;-3.216691636;-12.93371262;-1.367044549;-5.724068439;-37.16629521;0.63640668;-11.2840081;3.689604399;12.47147689;-7.14053717
-14.45198372;-8.642501073;2.051400128;-5.816468337;-4.360163529;0.07392084;-1.047647481;0.455378763;-24.49459799;-10.02621861;-16.70819576;-6.057462275;-8.891978756;-68.56586463;2.079026798;-12.70463906;10.49989382;19.97422075;-7.230318398
-15.17202533;-7.353070115;-0.426131311;-10.12433346;-6.131548853;0.156934069;-1.479126696;-0.57852119;-29.30640507;-14.96030148;-19.85373896;-9.996337006;-10.59107221;-78.60532602;3.857392289;-11.06882838;15.03343091;20.59;-6.223355684
-15.948927;-8.097861063;-3.387411429;-12.55850405;-8.281682224;0.125772532;-2.30821981;-1.672850151;-34.32019756;-18.84434486;-23.66805223;-10.87046573;-11.05680235;-62.80689379;3.858666839;-5.312603873;15.92141876;13.52453791;-4.522205123
-16.8720944;-11.01352502;-5.39363333;-12.43073108;-10.5956689;-0.005185882;-2.874520743;-2.371579561;-39.44232437;-22.65608435;-28.62941336;-8.3729561;-11.02812799;-31.95999065;0.638932377;2.898431671;13.35849004;0.856876497;-2.799960384
-17.46642313;-15.10644826;-5.458258296;-10.51790821;-12.60954553;-0.148820581;-2.75311812;-2.340646754;-44.2998925;-26.60356376;-34.04323369;-5.099226213;-11.43557728;-4.438798592;-5.51835967;9.783156896;9.124349309;-13.0463812;-1.610671971
-17.10119849;-18.83289392;-3.580265577;-9.17079602;-13.90997831;-0.216202209;-2.144181776;-1.58012297;-48.44344031;-30.13579095;-38.69696614;-4.858844849;-12.87314284;6.416184465;-12.60865635;11.84388582;5.597931835;-23.29834202;-1.12688142
-15.49546548;-20.91746999;-0.667648607;-10.8909075;-14.40046272;-0.183046211;-1.684749764;-0.44472024;-51.61510158;-32.60799694;-41.79085426;-9.261692376;-15.1184579;0.338689474;-17.98936537;8.500437319;4.364532213;-26.59486643;-1.138546898
-12.85585401;-20.85933501;2.034726282;-16.2875015;-14.22431745;-0.098770166;-1.854298378;0.574596052;-53.72230264;-33.74059062;-43.2423914;-15.34550417;-17.03585052;-11.98957274;-19.82900842;2.9310999;5.328868741;-22.54204864;-1.271851841
-9.565486878;-18.88675622;3.578902079;-23.07505785;-13.36411348;-0.036210619;-2.521766978;1.140531657;-54.48248497;-33.38496658;-43.15566228;-16.8222482;-17.03422113;-18.66508563;-18.00087017;0.136928533;6.922295475;-13.53171184;-1.259921998
-5.783276188;-15.55534276;3.623203315;-27.16153327;-11.32143058;-0.029143936;-3.053485745;1.210526176;-53.13958567;-30.99796231;-41.12380403;-8.892918297;-13.91111945;-15.66303468;-13.92110868;3.252960027;7.246517145;-3.334553219;-1.089205013
-1.395200102;-11.38690182;2.355443928;-25.2934407;-7.315039839;-0.050643378;-2.887379238;0.954829795;-48.72478359;-25.6610904;-36.24513491;6.660383092;-7.616056129;-8.356544123;-9.546086748;10.67788389;5.359740233;4.730623289;-0.944381543
3.59767268;-6.793732375;0.255462466;-17.40359031;-1.004426935;-0.046094385;-2.051566276;0.569601227;-40.8815323;-16.94826641;-28.0482304;20.48577948;0.554994524;-5.239626089;-6.234999148;16.38340373;1.839539783;9.082941118;-1.011524912
8.633684236;-2.213583972;-2.064104017;-6.858405499;6.810813013;0.012838044;-1.155941653;0.160454204;-30.65658214;-5.939409841;-17.55273134;20.69221002;8.506960161;-9.968701864;-4.151288794;13.6798083;-1.708017125;10.11112062;-1.290872976
12.59310501;1.806596114;-3.913255838;1.718071411;14.21473227;0.101642357;-0.864741927;-0.238165065;-20.46986613;4.750502656;-7.363013948;1.22837318;14.34607371;-18.57498251;-2.428467554;0.107442012;-3.780838882;9.490328415;-1.563167044
14.393305;4.748765959;-4.631512802;5.544793763;19.13030277;0.164198903;-1.326263442;-0.588480145;-13.00101387;12.33748132;-0.390740052;-32.2842328;17.25084111;-23.66416546;0.158437189;-20.04194269;-3.931337383;9.134803583;-1.548441104
13.77038567;6.400327592;-3.848089683;5.454868795;20.62162104;0.1594833;-2.067509729;-0.832562394;-9.622337873;15.72370471;2.004562563;-64.15033913;17.71519524;-21.29198012;4.471965336;-37.70351818;-2.907481011;10.33528587;-1.154065474
11.59427343;7.017751193;-1.768157543;5.017401492;19.54059411;0.091991914;-2.434394571;-0.947718002;-9.522995999;16.26276973;1.014084003;-77.51610654;17.07057966;-14.2677147;10.57032151;-44.51551559;-1.979830313;13.35502196;-0.62382744
9.37589136;7.19652655;0.789446753;7.645221083;17.91035017;0.002471084;-2.167727084;-0.98381615;-10.29146716;16.59736097;-0.400162817;-64.99495066;16.6372153;-9.238658283;17.62890113;-38.13094999;-2.018568033;17.47689038;-0.44395713
8.269292515;7.506769836;2.751046453;13.83374336;17.41227785;-0.068220438;-1.597276649;-1.005837143;-9.656342288;18.37750875;0.376950703;-33.66248547;17.0388505;-10.54400721;24.16832966;-23.59787405;-2.991405442;21.36754451;-1.026581503
8.315992744;8.149526279;3.369549434;20.59574344;18.12326214;-0.108481737;-1.299124007;-0.985961336;-7.148681446;20.77623576;3.702405442;-0.716695609;18.04179028;-16.46517202;28.52531303;-9.755619933;-4.165164309;23.61991763;-2.371714869
8.531334521;8.874936438;2.629379547;23.53552099;18.54297601;-0.135737186;-1.55264105;-0.779973358;-4.429363985;21.19295444;7.429187779;17.36092979;18.9040529;-21.03434926;29.49361139;-3.212812749;-4.749276618;23.33135287;-3.965138168
7.783968503;9.199144375;1.177338371;20.05113438;16.96229972;-0.17260968;-2.101543887;-0.26437214;-4.003195554;17.68618897;8.528598303;14.69258;18.91763699;-19.47579173;26.94238804;-4.26370049;-4.441810493;20.52249712;-5.032175606
5.783062068;8.73597192;-0.153109369;11.31734184;13.11094272;-0.224519328;-2.424319119;0.460186651;-7.280398894;11.06886735;5.34198465;-1.71362367;17.77969289;-12.27612538;22.06874044;-7.63034107;-3.504106474;16.1815949;-5.01207212
3.383870924;7.396797865;-0.842622654;1.595949918;8.708330982;-0.277498679;-2.241305082;1.006401962;-13.46156648;4.713081889;-1.247537128;-18.32793113;15.61669158;-4.40371166;16.97823767;-7.253999529;-2.413587764;11.83961808;-3.930527944
1.948738433;5.343839158;-0.847420534;-4.627718091;6.345443839;-0.313190935;-1.774820989;0.903317034;-20.08718007;1.989657806;-8.557983819;-24.98337432;12.73759964;-0.703772658;13.63242241;-1.311614898;-1.459754751;8.838008366;-2.38915267
2.247396507;2.789342139;-0.385366453;-5.613490475;7.456478055;-0.323293226;-1.523629815;-0.043978133;-24.8019995;3.371412142;-14.09622786;-21.03877892;9.335352267;-1.816167528;12.68878587;6.424202936;-0.619412845;7.680477276;-1.155931936
3.757427943;-0.152153978;0.357995357;-3.321645522;10.94140709;-0.310855852;-1.775517374;-1.523593021;-26.96320372;5.70972504;-17.2005414;-13.91025709;5.335139293;-4.210381498;13.00010342;9.797912797;0.253217639;7.862689073;-0.64214116
4.933906702;-3.414877497;1.284382359;-1.719352521;13.59888225;-0.282418797;-2.325649337;-2.839589317;-27.89190098;4.519875956;-19.12461848;-12.02481282;0.466370134;-4.006964258;12.24279518;5.350935364;1.166188737;8.2918496;-0.651156589
4.282382982;-6.778995208;2.17873262;-3.7197905;12.19261611;-0.243966611;-2.668393912;-3.338549589;-29.66524097;-2.394658354;-21.66318208;-18.15908324;-5.49016347;-0.847263151;8.41035379;-4.833945722;1.922426181;8.012048579;-0.589086592
1.45750871;-9.717263664;2.546210639;-8.994746188;5.722703277;-0.20598757;-2.479362498;-2.831042434;-33.4661051;-12.87576426;-25.56178797;-28.15216699;-12.40392646;1.775121135;1.237983717;-14.72421744;2.279589805;6.732234157;0.024468601
-2.417749793;-11.49674622;1.796689481;-14.22797373;-3.725678503;-0.188430419;-1.928726222;-1.688104001;-38.75970055;-21.65137936;-30.00538589;-35.26798935;-19.59287931;-0.094216465;-7.438255531;-18.95949245;2.13554747;4.800292835;1.140758479
-5.4511328;-11.56341462;-0.261075645;-15.58365833;-12.17522501;-0.212838222;-1.525319392;-0.551948376;-43.80313712;-24.0020859;-33.4645851;-36.01925877;-25.84584827;-6.995975693;-14.70619105;-16.73243562;1.527321352;2.696055762;2.182353835
-6.209038351;-9.991726971;-3.030175574;-11.5633486;-16.16336298;-0.282422814;-1.63398721;0.091086318;-46.90165363;-19.02168546;-35.00764757;-32.55377583;-29.72333401;-15.27956117;-18.32865188;-11.90927853;0.452040096;0.509394885;2.453978783
-4.624793751;-7.649507451;-5.278303976;-4.169592154;-14.72759845;-0.368000604;-2.119650534;0.138230026;-47.3210492;-9.984636972;-34.86344754;-29.99868839;-30.06392628;-20.07532822;-18.01569214;-9.528047479;-1.256921002;-2.096389275;1.639969822
-1.985106094;-5.843257895;-5.857093795;2.447778634;-9.717884981;-0.418804608;-2.457810455;-0.23468587;-45.2217165;-1.676173388;-33.78645328;-31.47409022;-26.49;-19.2614993;-15.34088865;-11.71621363;-3.780885845;-5.327602959;0.010325952
-0.038867315;-5.545299728;-4.498887255;4.848038208;-4.400913118;-0.397041486;-2.217236022;-0.840007324;-40.93119489;3.070529529;-31.92014185;-35.22564176;-19.65753687;-14.89106433;-12.41780862;-16.35268165;-6.95067033;-8.544743168;-1.796371836
0.149016812;-6.658486009;-2.056158965;2.572807941;-1.435368077;-0.31065024;-1.47068362;-1.614168362;-34.44996351;4.903069008;-28.34989992;-36.24156619;-11.09267145;-10.98961783;-10.36834416;-19.34256541;-10.00855138;-10.08247434;-3.208302617
-1.152674325;-7.873767528;0.053978436;-1.773607816;-1.545481644;-0.214402182;-0.750766253;-2.499593771;-25.78221125;6.560339533;-21.92630483;-30.78879469;-2.67448182;-9.944899318;-8.744095014;-18.33651293;-11.83953653;-8.006146148;-4.020334244
-2.572506284;-7.373653995;0.803185031;-4.588741227;-3.554172484;-0.173050679;-0.585567555;-3.240809113;-15.79317521;10.01611128;-12.74445602;-19.90056496;3.985549;-10.83;-6.295393662;-14.66690331;-11.65903694;-1.503510665;-4.354426878
-2.550985263;-4.061717991;0.174158287;-3.842514698;-5.465058;-0.213125929;-1.03610118;-3.383670698;-6.64663196;14.69139588;-2.93775561;-8.881337523;7.973608435;-11.00702274;-2.413160071;-11.98218418;-9.701341638;8.005739752;-4.379304327
-0.33263955;1.466417979;-1.007106734;-0.197046279;-5.72313007;-0.302536689;-1.6564198;-2.581657332;-1.101111431;18.17904234;4.132413495;-3.318663636;9.163550732;-9.216885668;1.963972056;-12.95719193;-7.320475476;16.9802363;-4.077343399
3.572882609;6.967155478;-1.835018338;4.08133078;-3.91808661;-0.376030069;-1.908367819;-0.983534086;-0.907123923;18.68440416;5.924625991;-4.944074189;8.030385818;-7.037345714;4.759164194;-17.01981918;-6.274049539;21.32525065;-3.268312541
7.7058105;9.761884671;-2.014383544;7.387092603;-0.745071456;-0.386514567;-1.646360493;0.677255824;-5.442776345;16.93630354;2.533255006;-10.64833056;5.375025128;-7.262389231;4.216068397;-20.99108764;-7.583741808;18.65131655;-1.842370175
10.5154586;8.44748464;-1.918238004;10.22828557;2.497398691;-0.340364292;-1.227562236;1.469983824;-11.74901528;15.84241003;-3.177030751;-15.23103792;2.107297403;-10.78629496;0.293661673;-21.91167106;-10.76357534;9.847322721;0.039561558
11.22929241;3.975531603;-2.045024577;14.551433;4.498508301;-0.288798513;-1.152914096;0.899271831;-16.17190573;18.12765361;-7.372112519;-15.44855237;-0.901483929;-15.0781749;-5.094468716;-19.47403556;-14.02099678;-1.121637708;1.978836882
10.22745911;-0.718270311;-2.441798305;21.44292572;4.417760326;-0.285127629;-1.579032544;-0.706612974;-16.59686267;23.90397146;-7.773923765;-12.09522288;-2.971478855;-15.89623306;-9.222923387;-15.97889567;-15.35657764;-9.210331003;3.579828271
8.737329653;-2.411248104;-2.659104395;29.21926153;2.21854642;-0.345572895;-2.158055555;-2.392493395;-13.73451816;30.17697894;-5.11219098;-8.721992255;-3.80340853;-10.86122249;-10.276685;-14.04314051;-13.81824289;-10.93865921;4.679466259
8.068636032;0.440983444;-2.273597635;33.81135478;-1.206509473;-0.445073716;-2.355577087;-3.23832684;-10.5342075;32.73384271;-2.466123091;-8.422655234;-3.616386083;-1.712711148;-8.444534834;-14.27962831;-10.03338741;-6.096135768;5.366799517
8.863290482;6.763079128;-1.450440326;31.56497963;-4.261422067;-0.546024454;-1.951886879;-2.978332162;-10.11908325;29.01102198;-2.996204751;-11.50936456;-3.093702874;6.818755459;-5.672920173;-15.07384189;-5.670665775;2.474038511;5.801182702
10.79251358;13.55147804;-0.951557032;22.45990904;-5.299554017;-0.629006815;-1.26093543;-2.095206909;-13.67527508;19.86472738;-7.711253829;-15.83940791;-3.087888662;10.59308195;-4.348226286;-14.55030893;-2.274645769;10.73274969;6.028370853
12.83386839;17.68038158;-1.50656218;11.05232209;-3.504452161;-0.696918189;-0.861549272;-1.341643535;-19.72593837;9.07036453;-14.82595826;-19.14453444;-4.211789273;9.020242114;-5.879593865;-12.75401613;-0.357774202;15.64014555;5.982271251
13.89785437;17.56057108;-3.089632423;3.926290438;0.478974826;-0.75375338;-1.084520699;-1.117978937;-25.21119443;1.024496433;-21.05445393;-21.08941567;-6.547393949;4.956305285;-10.09797515;-11.87434027;0.613367991;16.30273897;5.658553578
13.38289096;13.58465646;-4.797604964;5.131306235;4.636811831;-0.786289391;-1.722472974;-1.240668763;-27.54423426;-1.756778537;-23.80275466;-23.25295113;-9.636996743;1.868768385;-15.7011191;-14.19069881;1.427619866;13.5665843;5.255438844
11.33816087;7.260961397;-5.526470961;12.9139926;6.495975975;-0.773411026;-2.223024184;-1.274837358;-26.21730418;0.164298859;-22.68588487;-27.22015179;-12.73164723;0.954241625;-21.24163257;-19.61489486;2.245383296;8.701066785;5.093581785
8.222522101;-0.085792966;-4.915764076;20.44099071;4.413436572;-0.716424665;-2.183170142;-1.089655719;-22.95031256;3.763253809;-19.42486671;-32.6659853;-15.11795176;0.715235627;-25.91;-25.20643371;2.36;2.373261528;5.348627349
4.531849642;-7.94786593;-3.730841959;20.39489105;-1.493297835;-0.656066336;-1.692789807;-1.084891321;-20.42437758;5.41691732;-16.40876435;-37.25209767;-16.34575894;-0.925134548;-29.68905755;-27.33176411;0.780885354;-5.305114306;5.845977425
0.614371856;-16.18324273;-3.285739524;10.33270945;-9.340794547;-0.648509819;-1.222935847;-1.828777417;-20.54385685;2.923461761;-15.08555512;-38.4804657;-16.30682581;-4.239710875;-32.98795314;-24.72780161;-2.861789497;-13.87928252;6.153246648
-3.222831715;-24.05612448;-4.331093168;-5.138662352;-16.42064813;-0.711782906;-1.177483957;-3.396957145;-23.3459608;-3.307019772;-15.28280259;-35.88021293;-15.22579365;-7.40702554;-36.16674263;-19.79497325;-7.835374942;-21.78043771;5.945500639
-6.506102081;-29.81741291;-6.33231151;-17.18793214;-20.55127136;-0.790021973;-1.53076784;-5.0251559;-27.12265514;-10.4187078;-15.7293997;-31.58703005;-13.61315502;-8.51315619;-39.2731639;-16.88083683;-12.63134298;-26.56749641;5.338901131
-8.590479902;-31.42391099;-7.784717729;-18.77295501;-21.09147163;-0.778231598;-1.880995093;-5.47933545;-29.5131026;-14.59028624;-15.17012132;-28.75131504;-12.1378429;-7.751155175;-42.04021113;-18.90257815;-15.84555555;-26.21560857;4.862966675
-8.985672959;-27.99458466;-7.363829345;-9.598367789;-19.10143878;-0.601729482;-1.853318071;-3.954955282;-28.81441007;-13.19733886;-13.18438964;-29.0697319;-11.35233962;-7.510353013;-44.02204633;-25.12280198;-16.96327339;-20.57766313;5.030323561
-7.810138429;-20.8841205;-5.002053929;3.567829845;-16.63655062;-0.291586087;-1.46119197;-0.83106284;-24.78403781;-6.555224389;-10.23679205;-31.48785619;-11.33170118;-10.11605624;-44.78333404;-31.92881679;-16.53644362;-11.9129702;5.833488214
-5.973737032;-13.42627214;-2.022795299;11.47529833;-15.61319473;0.011236274;-1.082756037;2.353649043;-18.62024073;1.884643124;-7.151869422;-33.15235597;-11.47150379;-15.33864507;-44.15137807;-35.89829134;-15.73901604;-4.000839322;6.615825559
-4.825669088;-9.346806808;-0.222369178;8.591970269;-16.86184023;0.139990345;-1.080377849;3.773137216;-12.27375903;7.307304651;-4.560485888;-31.83457292;-10.71151797;-20.15054619;-42.50206234;-36.50501995;-15.7048644;-0.340901504;6.491244151
-5.404085101;-10.82900207;-0.630945927;-3.455784386;-19.83411626;0.019628233;-1.433179836;2.458017494;-7.512653755;6.451619859;-2.701447908;-27.8480946;-8.193656259;-21.16482865;-40.88849939;-36.20304827;-17.07754909;-2.537248569;5.028090528
-7.779942563;-17.47509531;-2.906095167;-17.46567655;-23.06887904;-0.270748332;-1.741091361;-1.085199556;-5.18061796;-0.146969035;-1.535578125;-23.90316601;-3.971874024;-17.6305221;-40.75374869;-37.95861024;-19.89758926;-9.764996715;2.655172251
-10.99399446;-26.76910552;-5.753543635;-25.84403202;-25.12863247;-0.542449665;-1.604995831;-5.198070933;-4.940873121;-8.258411347;-0.872343214;-23.00193575;0.790499327;-12.21409444;-43.18422389;-42.50605838;-23.66312949;-19.45075321;0.431949507
-13.69394311;-35.62698893;-7.930078125;-25.51170639;-25.47050214;-0.620282122;-1.025100067;-8.080716474;-5.579228751;-12.60332591;-0.328685172;-26.02312332;4.42974402;-8.738230363;-48.06962476;-47.75606526;-27.39461354;-28.57974193;-0.677337923
-15.06105626;-41.98233059;-8.978448118;-19.17115113;-24.74054966;-0.455168154;-0.43315807;-8.779161133;-5.709631859;-10.36592213;0.74229603;-30.86382807;5.885677044;-8.830517751;-53.78786871;-50.79586315;-29.75639155;-34.85568494;-0.477794507
-15.36772843;-45.50190519;-9.181473064;-12.49676966;-24.29480161;-0.145906419;-0.313675007;-7.528741556;-4.54015983;-3.078172125;3.063312444;-33.78510688;5.507303474;-10.48401586;-57.82038716;-50.59889763;-29.42905012;-37.27934494;0.357340939
-15.73975983;-47.2308828;-8.954834541;-9.777462019;-25.21802197;0.139817716;-0.7592365;-5.348289913;-2.303939166;4.573767835;6.903114104;-31.9516967;4.857164343;-9.845125815;-58.08097495;-48.97159771;-25.75613173;-36.17509777;0.841285507
-17.25893739;-48.63898586;-8.354889686;-11.33095292;-27.46372669;0.280107019;-1.377800299;-3.295942811;-0.109591794;8.194023278;11.52034574;-25.33892323;5.507729965;-4.642033919;-54.1575831;-48.89395407;-19.32159022;-32.89404097;0.452606728
-20.02559647;-50.72943951;-7.173208022;-14.24620976;-29.71893543;0.264123641;-1.650019531;-1.936968135;0.716566438;6.77935218;15.10120844;-16.74744108;7.64264579;3.794499819;-47.61706388;-51.75972372;-11.93322901;-29.31977494;-0.451826602
-22.84990967;-53.5978643;-5.45343264;-15.3109049;-30.15643072;0.169915473;-1.41466675;-1.295055043;-0.586245371;3.103011697;15.47202397;-10.08058222;9.555794908;11.65252362;-41.11803114;-55.98240265;-5.779565287;-27.17688624;-0.878734916
-23.81724461;-56.4487004;-3.816740227;-13.52595214;-27.63051688;0.087808882;-1.031220127;-1.144982374;-3.776323278;1.135161245;11.30964083;-8.183223776;8.579913718;15.77700479;-36.90240834;-58.18132213;-2.160648911;-27.24421737;0.118335101
-21.38329259;-57.91048215;-3.150168465;-10.36988701;-22.52337321;0.058032485;-1.057630042;-1.298440175;-7.771361103;2.635065429;3.118989862;-11.62219718;2.928370577;15.94383665;-35.66156968;-55.86994398;-0.659761854;-28.83761364;2.824575188
-15.31353196;-56.54330148;-3.844609066;-8.057219985;-16.64468126;0.066549645;-1.727381365;-1.655358936;-11.26987069;5.726864706;-6.717215451;-18.90151879;-6.816687517;14.33791014;-36.46599561;-49.3060732;0.543538032;-30.01423213;6.710633957
-6.906825349;-51.47344501;-5.270392231;-7.587706282;-12.22688398;0.086115651;-2.703432883;-2.07406589;-13.40394255;6.638376858;-14.96031653;-27.55806853;-17.67874526;13.01041442;-37.65621825;-41.01718542;3.300861359;-28.61343888;10.74600367
1.58580385;-42.96808947;-6.056507214;-8.21741084;-10.68923915;0.113162413;-3.343792532;-2.283380926;-14.01733306;3.14776694;-19.05654302;-35.18461964;-25.83444714;11.95851023;-37.94479681;-33.63117621;7.982349738;-23.63668087;13.87337827
7.961200266;-32.59941946;-5.065219068;-8.484775176;-11.99120973;0.16479567;-3.251209056;-1.985710252;-13.46940291;-3.176385356;-18.29625564;-39.85455318;-28.73212998;9.716386163;-36.96;-28.05982107;12.95143935;-16.07044177;15.33426322
10.91871088;-22.71750709;-2.312044836;-7.565779436;-14.94329905;0.24578708;-2.618069661;-1.083255039;-12.21214908;-7.903206364;-13.93729226;-40.15517503;-26.38482463;5.718162393;-35.02257415;-23.5478726;15.49771203;-8.489836668;14.7720971
10.38288065;-15.3571472;0.94468646;-5.685838472;-18.14248981;0.326840186;-2.057291513;0.183055973;-10.50786206;-7.193316278;-8.300882204;-35.36482206;-21.0532176;1.78731299;-32.568662;-19.20993712;13.63064608;-3.579709652;12.24655327
7.261232066;-11.18889622;3.072867293;-3.453829036;-20.79570215;0.362757841;-2.069753613;1.3310762;-8.473556083;-1.025623061;-3.468086206;-25.96312498;-15.67298364;0.88446616;-29.80304677;-15.27534552;7.474360151;-2.508427347;8.274513152
2.885100945;-9.248115317;3.235670654;-1.099839443;-22.88451477;0.336221409;-2.622436888;1.919909662;-6.32640856;6.427299102;-0.377833377;-14.03127799;-12.18570046;4.071368965;-26.79898901;-12.68534177;-0.724557712;-4.251733551;3.828907464
-1.545770194;-7.721390717;1.945007876;1.404389441;-24.71331896;0.282917571;-3.207013722;1.809669444;-4.530915227;9.641240468;1.218075938;-2.859630205;-10.84029031;8.777537553;-23.7688971;-11.49401457;-7.953982721;-6.320019531;0.117356293
-5.296699724;-5.306999071;0.58048785;3.443012594;-26.35911419;0.267617497;-3.313838808;1.211756598;-3.653959027;5.632128435;2.075870907;4.424386974;-10.69758788;10.60732165;-21.08575066;-9.907951526;-12.16557113;-6.358767869;-1.90482632
-8.148576509;-2.187967557;0.289957122;3.211296661;-27.51897187;0.327154699;-2.887251842;0.512289724;-4.017175743;-4.036957405;2.618735743;6.510230277;-10.69813844;7.585227378;-18.96003906;-5.322231908;-13.1910258;-3.513483692;-2.050734602
-10.22422536;0.108462007;1.163536031;-1.447555099;-27.80062613;0.431353418;-2.356715434;0.018875265;-5.444903123;-14.51895982;2.518510181;4.653705462;-10.40062524;2.945030472;-17.11782276;3.271761866;-12.3522286;1.297832728;-1.059800808
-11.71436252;-0.127029461;2.306405515;-11.09162769;-27.06923698;0.501636498;-2.231281699;-0.186489459;-7.353933226;-21.07295471;0.942946943;1.795090746;-9.962674893;3.206060568;-14.91255653;13.72723693;-11.26024788;6.215673427;-0.189971313
-12.65291352;-3.469531301;2.674319632;-23.19548108;-25.45575093;0.476551432;-2.638840783;-0.215215858;-9.154767654;-21.97290524;-2.737792649;0.506600726;-9.63480837;12.26392708;-11.91143246;21.79902942;-10.79621881;9.627200912;-0.450774207
-12.87255861;-8.868690882;1.931197063;-32.73772267;-23.03822883;0.368630284;-3.229004273;-0.231203484;-10.6624029;-18.97637997;-8.26965952;1.235043326;-9.367315425;26.24432327;-8.480732956;24.2953457;-10.93808929;10.86135375;-1.995537891
-12.18205572;-14.31529793;0.631501094;-34.97365005;-19.60816464;0.260081177;-3.51371025;-0.331584042;-12.17949499;-15.43967174;-14.31457976;2.232336069;-8.877883009;34.14459617;-5.774757833;21.71394562;-11.3006912;10.08428922;-4.1115789
-10.65937838;-18.11465726;-0.35404729;-28.63683609;-14.90102004;0.23615626;-3.316880333;-0.525678812;-14.15847017;-13.85193794;-18.90523432;1.320501219;-8.011273036;25.01556228;-4.986935502;17.91035094;-11.70395399;7.757769615;-5.806468031
-8.835195588;-19.80186742;-0.613760317;-17.16994937;-9.190313867;0.310866815;-2.914620969;-0.788967629;-16.68772525;-14.62598175;-20.36056449;-1.878671358;-6.95100511;-3.162897717;-6.390078125;16.84340509;-12.21509641;4.257347273;-6.532692458
-7.562616644;-20.09493596;-0.493368164;-6.841820696;-3.665076819;0.410047607;-2.746525853;-1.114506301;-19.21420375;-16.6340965;-18.2016232;-5.149868678;-6.044765978;-39.93451924;-8.969462909;19.15567888;-12.733514;-0.07584248;-6.498477004
-7.56478516;-20.07775331;-0.700039063;-2.878176678;-0.04051714;0.430113997;-2.982182558;-1.509684555;-20.76978699;-18.54047998;-13.56919278;-5.197732579;-5.440811814;-67.69455621;-11.03673274;21.7382973;-12.68358205;-4.679421651;-6.360365919
-8.910479435;-20.36028453;-1.606993534;-6.250495044;0.534406204;0.325928513;-3.358063839;-1.951664557;-20.60637035;-19.64704433;-8.861069681;-0.440188917;-4.950078125;-72.73145161;-11.41185945;20.9038904;-11.27940402;-8.730254157;-6.593565666
-10.79077192;-20.848617;-2.885525359;-13.32372302;-1.499091346;0.154028567;-3.439525595;-2.355223604;-18.82374536;-19.79565347;-6.692215597;7.190596211;-4.32485929;-54.17250471;-10.25179384;16.42238454;-8.228534184;-11.46690529;-7.073946479
-11.82622132;-21.13964072;-3.769675891;-18.49860131;-4.067924367;0.032698694;-3.057602936;-2.592234094;-16.5305075;-18.89021089;-8.65479084;13.15263182;-3.697468;-24.29454453;-8.851040061;12.52781684;-4.225270824;-12.59027117;-7.195333102
-10.7883075;-21.01724689;-3.695361475;-17.89535806;-4.665033947;0.049295295;-2.501355518;-2.555453256;-15.35449072;-16.82774156;-14.51073056;13.51361919;-3.70136498;-0.017137523;-8.564222691;14.39545759;-0.66719348;-12.32486715;-6.384193718
-7.309152058;-20.53394966;-2.749911235;-11.56481098;-2.05056844;0.189763318;-2.272800205;-2.22456158;-16.53939383;-13.96124247;-22.26635532;8.068643722;-5.048428529;8.106100311;-9.719361616;22.70734826;1.314012489;-11.03565855;-4.560432615
-2.119799604;-19.65514034;-1.564650981;-2.973404325;2.792338738;0.347749512;-2.622655319;-1.692896237;-20.15426744;-11.45093116;-29.11977754;0.740170783;-7.856711558;1.505769161;-11.39264798;31.18545033;1.754601896;-8.753634541;-2.179524751
3.352171127;-17.92088116;-0.78005127;3.513822354;7.238053423;0.405788008;-3.297323767;-1.139410419;-24.91126896;-10.83429322;-32.78430914;-3.339094711;-11.32789443;-9.63260322;-12.19695546;30.08338764;1.89215438;-5.103424842;0.12721276
7.775680506;-14.57696487;-0.563547213;5.250490491;8.791804385;0.32297546;-3.740450879;-0.758702472;-28.74574289;-12.91204941;-32.47238217;-1.902220041;-14.14493996;-15.13538002;-11.40767127;13.7669779;3.197474621;0.22681496;1.971382641
10.60019899;-9.148717199;-0.575213896;2.454531668;6.783508217;0.160030518;-3.576051451;-0.678992269;-29.86360465;-16.8399755;-29.02698732;2.587292173;-15.35526432;-12.08704593;-9.508203639;-13.39135691;6.124765358;6.875054717;3.346480315
12.22537237;-1.945758872;-0.362188775;-2.390227089;2.744788845;0.025065183;-2.938406625;-0.903568942;-27.67268086;-20.31544368;-24.19730937;5.093970221;-15.0420739;-5.442903955;-7.765831687;-38.03426442;9.60265841;13.6683095;4.443149075
13.60740383;6.018222598;0.19973895;-6.041796887;-0.771071094;-0.012858314;-2.349450266;-1.306345188;-23.0625536;-20.88692732;-19.55084699;2.693697891;-14.19578605;-2.545151046;-7.265815302;-45.98101269;11.74155934;19.20737292;5.38617743
15.60597042;13.68919958;0.802790713;-5.908571165;-1.990455555;0.027644133;-2.254323581;-1.692134952;-17.86186311;-17.45654352;-15.68160534;-2.127923916;-13.82748289;-6.679378273;-8.228699348;-32.03569259;11.25073103;22.764167;6.156613802
18.48380609;20.64470572;1.000265279;-0.906093048;-0.981783927;0.065196331;-2.634705519;-1.897434343;-13.77719239;-10.86140186;-12.12410042;-2.788491937;-14.00670589;-14.85681364;-10.10038837;-4.145419562;8.44691409;24.72372923;6.719557509
21.79896328;27.12340853;0.607194231;8.169078187;0.737012651;0.029176448;-3.04519551;-1.875720461;-11.42661499;-3.173977653;-7.909759149;5.826706666;-13.61300052;-20.96718242;-12.18158977;21.5563678;5.02148669;26.11392912;7.139028662
24.64832265;33.31041504;-0.145026802;18.68288498;1.597295355;-0.07999294;-3.030603888;-1.711114653;-10.03506082;3.628451385;-2.333109749;21.70046148;-11.05371264;-21.01331488;-14.1230864;31.55278219;2.711692809;27.53586503;7.478651842
26.0481946;38.49596977;-0.806492025;26.85149404;1.199410204;-0.190999509;-2.537994243;-1.54765239;-7.973594047;8.591177394;4.549065439;34.8699524;-5.44394297;-15.92376816;-15.83718579;23.84382896;1.911721168;28.38831148;7.549613441
25.26069402;40.96113595;-1.052167797;29.25940609;0.420614407;-0.218871169;-1.950458138;-1.483035265;-3.822116825;11.7811002;11.91087159;33.15667824;2.623340175;-10.0287471;-17.01685542;8.49806611;1.33658711;27.13375346;6.804265284
22.00363799;38.92185393;-0.865898834;24.76687457;0.453238823;-0.131956685;-1.723098747;-1.506099403;2.682103586;13.6815696;18.54383652;11.01619178;11.27942361;-7.078697312;-16.88045074;-0.422507414;-0.958912403;22.53945692;4.615408372
16.56413544;31.96322007;-0.442710405;15.65027603;1.674177271;0.022579354;-1.966562371;-1.525128507;10.37969879;14.69379287;23.36367289;-24.92398648;18.38956214;-7.408482697;-14.55118614;4.513489599;-5.964563689;14.98566248;0.834620356
9.809259872;21.8650272;0.04212063;6.852424512;3.302568312;0.150979511;-2.364055465;-1.460437326;17.26036609;15.10049598;25.79805128;-58.31627373;22.64057022;-8.359138632;-9.827075375;18.75924863;-12.73635882;6.770798576;-3.807556888
3.02824475;12.0456348;0.546470901;3.320223596;4.074452573;0.175894556;-2.491118022;-1.320669643;21.51332695;15.22297821;25.94990866;-72.63414904;23.99180792;-7.056096745;-3.629344318;29.4619705;-18.81409438;1.038080947;-7.877048064
-2.429919583;5.835078601;1.055739687;6.902305605;3.313173263;0.084668877;-2.230816371;-1.197025214;22.42128532;15.31039813;24.52696521;-61.55043395;23.30599413;-2.8532378;2.384420207;25.18920638;-21.74918516;-0.019204316;-9.990740371
-5.619180952;4.680540768;1.400469145;14.94112166;1.508753813;-0.066916763;-1.890566317;-1.182713412;20.58644159;15.13590074;22.5548236;-32.92200544;21.5670358;2.490846524;6.82801042;4.462857085;-20.65066029;3.549974222;-9.664054092
-6.321770722;7.485713009;1.236975757;21.7788291;-0.003409119;-0.192210216;-1.908903773;-1.291682515;17.41497726;13.82223946;20.92428482;-3.508628299;19.29446734;6.585275363;9.398082679;-22.97052952;-16.68126901;9.54441417;-7.624335235
-5.024924016;11.50115122;0.283459632;22.3927315;0.071905266;-0.224568851;-2.426788325;-1.449791249;14.24378292;10.39273591;19.9254262;11.86893349;16.4896939;8.24899556;10.77888026;-42.72444255;-12.22556604;14.97887729;-5.325239415
-2.551915107;14.10909146;-1.354971439;15.74698304;2.247274766;-0.151121923;-3.128030139;-1.563234165;11.67254413;4.834794862;19.03021283;9.132371485;12.99021833;7.915842417;11.70537569;-45.23863377;-9.37962873;17.75787616;-3.995288473
0.39944566;14.28369433;-3.068670931;5.50324166;6.108309088;-0.01436567;-3.505561054;-1.597121624;9.466913867;-1.262872465;17.14998518;-4.182147935;8.847423845;6.713781239;12.02797579;-31.48120075;-8.801751143;17.56471114;-3.906556898
3.487048719;12.8385164;-3.999522615;-2.456869319;10.66504043;0.11436243;-3.314253356;-1.590174895;6.9854041;-5.357548197;13.33472257;-15.91894162;4.433947443;5.478062476;10.68506807;-11.32875794;-9.598069803;15.53717493;-4.367400019
6.592134199;11.4908094;-3.544320511;-3.97921618;14.77107497;0.173431549;-2.79450462;-1.596424356;3.751589344;-5.727246671;7.526989622;-18.4609319;0.270915143;4.635796461;6.723974117;3.664073085;-10.1478497;13.18387029;-4.376118959
9.504087922;11.56119583;-1.764375809;0.696962355;17.33349789;0.142549562;-2.458531784;-1.618126211;-0.237095683;-3.083142486;0.822763141;-13.24799696;-3.230731007;4.688331089;0.545679177;7.78784853;-9.190675944;11.42840756;-3.38429746
11.76491461;13.23640914;0.597271811;7.34263139;17.41852284;0.052517838;-2.632298488;-1.602351823;-4.613337877;-0.568145125;-5.064503467;-7.904158744;-5.931718077;6.327462732;-5.764956752;4.005960015;-6.468069922;10.3950116;-1.5949688
12.87247326;15.76437367;2.519601883;10.78496381;14.51788954;-0.032654397;-3.170299356;-1.506534024;-8.975658293;-1.828994615;-8.88371154;-9.047647872;-7.984850889;9.774729437;-9.495462751;0.697686547;-2.648062538;9.875416824;0.350216008
12.69806514;18.2280766;3.266837823;8.359006061;8.989703771;-0.05365771;-3.601159591;-1.362170245;-13.12635306;-8.442875442;-10.7413045;-16.86510802;-9.765108509;14.0458566;-9.083076761;5.037449174;1.231975406;9.912193333;1.942607586
11.72996467;20.21125558;2.753287857;1.406433261;2.297376033;0.006680338;-3.566299439;-1.26087502;-17.01273547;-18.66034345;-12.10045234;-25.56528364;-11.74210578;17.19560155;-5.280574571;17.6372863;4.347420268;10.95587399;3.13190134
10.84881537;21.90344994;1.505052611;-6.001802684;-3.393408594;0.110334693;-3.146575095;-1.264959619;-20.45827058;-28.50877157;-14.75812516;-28.76708961;-14.281209;17.67762522;-0.763634199;31.85927058;6.369046658;13.50067679;4.185179279
10.72791957;23.71577645;0.287446405;-9.979165412;-6.259812168;0.186844274;-2.778339503;-1.331113053;-22.97046365;-34.45681303;-19.4427785;-24.95423576;-17.39589373;15.66198432;1.607003471;38.00477263;7.411096368;17.55907797;5.295168936
11.31320849;25.83858447;-0.337381374;-9.264110313;-5.898951039;0.179712367;-2.840880613;-1.338351879;-23.86185823;-35.59186436;-25.03795261;-18.42819891;-20.58132664;12.92448715;0.638663197;29.56791932;7.809233167;22.43891858;6.3455415
11.84181039;28.11802896;-0.257447016;-5.65823915;-3.620609269;0.085593491;-3.299678007;-1.214444877;-22.65744539;-33.68112521;-29.06139262;-15.21788007;-22.90124805;11.20133112;-2.526184648;7.641226936;7.905312998;27.0086595;7.041991745
11.45450384;30.27807372;0.240750709;-2.456619587;-1.617431524;-0.042235091;-3.735830962;-1.045259581;-19.49760228;-31.24069771;-29.14218942;-17.65365029;-23.36971865;10.53689207;-5.323315335;-19.18293861;7.917753884;30.24932;7.24116891
9.952031218;32.20341153;0.733064972;-2.158189152;-1.518637302;-0.12994463;-3.733000719;-1.0423989;-15.19949217;-29.34645882;-24.49280163;-22.27173988;-21.43386548;9.421192554;-5.509180984;-39.34730044;7.894836745;31.70793631;7.118269154
8.067364245;33.98159031;0.937228514;-4.985537576;-3.354741868;-0.133032171;-3.262223825;-1.363817228;-10.86538271;-27.02803152;-16.35239238;-22.74092693;-17.23525393;6.877527754;-2.480140005;-44.63042138;7.734371451;31.59;6.982326164
6.965423705;35.65908044;0.849698411;-8.975443178;-5.688876286;-0.06339238;-2.707843823;-1.931369737;-7.264195039;-22.63530065;-7.123753538;-15.23348199;-11.46173551;4.509205473;2.624459728;-34.51512009;7.264648915;30.51015331;6.907185826
7.302527609;36.95212738;0.690408421;-11.32561029;-6.784259834;0.025344533;-2.510945108;-2.424293429;-4.406500757;-15.8392932;1.12182573;-1.696639316;-4.920623656;6.025967207;7.86749835;-16.06861303;6.363971023;29.12654498;6.549049065
8.582575006;37.22178332;0.720902641;-10.03141485;-5.884943059;0.080436365;-2.761189861;-2.494644614;-1.624304245;-8.419685177;7.672384709;11.63521614;1.806764315;13.81019797;11.66938893;0.524393057;5.056154941;27.88925413;5.369150476
9.377314505;35.81934845;1.059537465;-4.889404953;-3.635511538;0.085805029;-3.115876174;-2.051097026;1.880014648;-3.102074914;13.06163635;19.12376198;8.356031487;25.11177931;13.40894906;7.966199497;3.513551889;26.98875769;3.106510353
8.326848495;32.59852669;1.601783837;2.54200854;-1.390004883;0.064122912;-3.122300939;-1.37032266;6.388248845;-1.427470095;18.06308601;19.89720158;14.29224442;31.66208651;13.3156721;5.634098475;1.95837348;26.44068493;0.094728934
5.201904572;28.21727345;2.08344612;9.853125781;-0.051178117;0.048076242;-2.64614653;-0.916443048;11.37357759;-2.460683851;22.71656699;17.95825239;18.91544544;24.30772898;12.04312617;-1.116780955;0.535471183;26.19010737;-2.873720301
1.207932613;23.95361666;2.240110388;15.01951397;0.596024215;0.049221015;-2.00956998;-0.992113899;15.76242413;-3.403966888;26.20502448;18.369446;21.4715304;0.059139681;10.36062789;-5.385758184;-0.744100986;26.16083999;-5.050087891
-1.745540361;21.07496131;1.962211575;17.32791238;1.574152922;0.052268178;-1.709331292;-1.502113356;18.55805025;-1.587468907;27.62430526;22.87117598;21.68199768;-33.79847638;9.042422698;-3.638477667;-1.952288279;26.24544993;-6.194989587
-2.302317155;20.1181473;1.352057502;17.52508548;3.782590887;0.03731174;-1.971604894;-2.033242199;19.38165668;3.74;26.90906888;28.58;20.1216144;-62.4837585;8.723424572;2.346225156;-3.146294003;26.27303489;-6.631496004
-0.52250044;20.53903761;0.653725599;17.11016644;7.273397129;0.005934779;-2.550165197;-2.194014518;18.56469417;11.06827518;25.05145972;30.6761749;17.99447624;-72.38939034;9.566449359;7.63438544;-4.320506868;25.99519608;-6.861900185
2.277744049;20.99233893;0.108292635;17.17506498;11.29178729;-0.016253038;-2.950911826;-1.933174209;16.77241336;17.69998059;23.3760034;26.63372865;16.33793038;-59.87722947;10.94303305;8.444164968;-5.44188593;25.11599707;-7.089903421
4.559334544;20.11485502;-0.169549341;17.52977415;14.91858869;-0.005084347;-2.87511361;-1.567540489;14.486892;21.18166155;22.4729813;18.39103836;15.23547208;-33.79452522;11.54283344;5.121424137;-6.502121039;23.37366388;-7.05467302
5.657151289;17.35149396;-0.221388691;16.75645767;17.64515257;0.032416958;-2.475904051;-1.496627239;11.75972288;20.08900916;21.71873625;10.75409163;13.73042603;-9.640718852;10.09;1.526247198;-7.488127659;20.66;-6.298627879
6.107572832;13.30979441;-0.180521597;13.2641888;19.35876554;0.054483403;-2.198043236;-1.853425104;8.400358527;14.05279709;19.83420523;7.543733652;10.62704579;0.555801504;6.303421584;1.550827964;-8.254474735;17.13861936;-4.615361418
6.997327235;9.412093045;-0.174701154;6.684375454;19.84885404;0.015521282;-2.355866824;-2.397261283;4.395526587;3.633244807;16.04884884;8.789530371;5.614850004;-4.573146449;1.382029231;5.801635677;-8.407833487;13.30457231;-2.284233334
8.896821742;7.064287881;-0.266824398;-1.406978074;18.45148147;-0.092341872;-2.842893951;-2.740546583;0.162378972;-9.50874852;10.89957544;11.21563534;-0.202665848;-16.39400378;-2.483997922;11.23935742;-7.357967371;9.934597705;0.097841934
11.25181626;6.875099589;-0.460057373;-8.084990744;14.34478787;-0.223800494;-3.239933024;-2.702679764;-3.613618295;-22.46070074;5.974206882;11.38739787;-4.890312058;-23.72223885;-3.380630382;14.00083261;-4.588032538;7.900295221;2.024209413
12.72030398;8.412700476;-0.7397199;-10.72711263;7.372561896;-0.308275428;-3.21602395;-2.468591993;-6.433450329;-31.66866108;2.78663478;8.695473107;-6.999835151;-21.07947658;-0.887821133;12.90200571;-0.017038298;7.859668923;3.374336987
12.17767026;10.5999974;-1.103964262;-8.657174829;-1.312869028;-0.302030799;-2.844146715;-2.405009726;-8.327453937;-34.51458851;1.710053711;5.654479362;-6.598790039;-11.65492205;3.613668182;10.55173449;5.781042982;9.893928687;4.37262224
9.585605441;12.40364165;-1.556754934;-3.653549797;-9.475472596;-0.223087454;-2.533602281;-2.70104462;-9.743674315;-30.98699018;1.861411463;5.41124398;-5.151146935;-3.414380004;7.777450878;11.07763947;11.67252209;13.22321248;5.292075978
6.040998976;13.30045301;-2.071873617;1.048153861;-14.91474289;-0.139325448;-2.638975747;-3.167412475;-11.01932155;-24.04871758;2.034734878;8.752085636;-4.295938947;-2.173680425;9.681185673;16.40278595;16.34714403;16.19113;6.190232649
2.978886553;13.23826495;-2.555944918;2.594983137;-16.74583348;-0.117188996;-3.109716942;-3.391518066;-11.86750527;-18.05293888;1.882717322;13.24360869;-4.491898828;-7.375977262;8.810078125;24.28866421;18.78288076;16.68647677;6.89819337
1.165473514;12.25286712;-2.837687354;0.002002362;-15.89684381;-0.17023856;-3.511993705;-3.119638613;-11.37396066;-16.10265982;2.307328337;15.22822608;-4.654875205;-13.53338453;6.021761579;29.8693332;18.5571004;13.0004304;7.230683727
0.262513943;10.18554681;-2.704673833;-5.575842866;-14.42168098;-0.247261406;-3.413421584;-2.516811791;-8.632909406;-18.25397555;4.663868185;12.93017597;-3.135774801;-15.43239766;2.654715091;29.42320712;15.89561548;4.819407681;7.19058682
-0.724882779;6.821294084;-2.001499411;-11.74810648;-14.10166963;-0.268726473;-2.784651366;-2.049165088;-3.616837027;-21.93032166;9.391788626;8.014395712;0.721067035;-12.37346142;-0.46349228;23.22984413;11.51543373;-6.201551019;6.976277123
-2.501284742;2.338318689;-0.77602466;-16.19832011;-15.32571863;-0.183573781;-2.049929187;-2.070804696;2.398267032;-24.17252503;15.22202702;4.295413886;5.723338978;-8.049904587;-3.371859118;15.16918002;6.389838701;-16.80497951;6.809311577
-4.793015915;-2.393764372;0.597685544;-17.5741104;-17.00463716;-0.004787578;-1.733711432;-2.478961939;7.28524116;-23.85870511;19.70930939;4.700525449;9.445620084;-6.692635976;-6.521292394;9.516589308;1.519089264;-23.50986562;6.770019531
-6.453704763;-6.068767649;1.444248371;-15.67146272;-17.49938524;0.199264991;-2.015581524;-2.764079882;9.206978965;-22.11162714;20.7988811;9.002622139;9.911257851;-9.211463963;-9.971850208;7.729325643;-2.287446255;-24.40134736;6.798750865
-6.275636616;-7.69209373;1.057545571;-11.1980216;-15.83824409;0.347299861;-2.588489044;-2.441490353;7.717615221;-20.73283294;18.28930178;14.12053105;7.062071493;-12.70084004;-12.935163;7.891746254;-4.620458419;-20.28019683;6.833650826
-3.892439341;-7.283918134;-0.834003451;-5.514738172;-12.37273513;0.389588747;-2.94131874;-1.50135711;4.061873283;-20.24151629;14.08162185;16.62534153;2.870249115;-13.43846319;-14.05392171;7.058043973;-5.604907949;-14.32049131;6.909867067
-0.117077419;-5.94093702;-3.662441435;-0.424824412;-8.500642407;0.327438624;-2.806540038;-0.471238597;0.438467505;-19.39290036;10.99661415;15.33892087;-0.00665795;-10.40841854;-12.24716558;4.1892633;-5.841040194;-10.2507824;7.089277049
3.501142924;-5.123775649;-6.021589499;2.24026002;-5.746148029;0.203160914;-2.372189101;-0.006823502;-1.295468281;-16.62859922;10.99758553;11.9818828;-0.005201799;-6.119466428;-7.544309187;0.97826984;-6.097969438;-10.09698017;7.283479951
5.558594315;-5.666256881;-6.254922954;1.379127732;-4.846903713;0.075402016;-2.079191982;-0.342693242;-0.631719286;-12.06016757;14.06060774;9.551670725;2.455987848;-4.115434498;-1.336751853;-0.094380547;-6.875634225;-12.95902746;7.175393303
5.514519755;-7.26366406;-3.422195415;-2.611324982;-5.377210279;-0.00285611;-2.203117346;-1.079597922;1.480562546;-8.015785192;18.40223158;9.957951097;5.568904182;-5.600299707;4.15496474;1.477286036;-8.094372747;-15.7177204;6.380971652
3.824984978;-8.838426138;1.923230804;-7.727323152;-6.029723398;0.002695873;-2.608081306;-1.515389915;3.38897335;-7.451563459;21.75963727;12.87715229;7.637459378;-8.310341717;6.927984472;3.371966258;-9.142608873;-15.28022568;4.765373262
1.514496263;-9.475155023;7.737572023;-11.3106493;-5.317020343;0.100021667;-2.892098046;-1.260951389;3.757280734;-11.51181363;22.72022957;16.55628788;8.263910955;-8.622060974;6.18690007;2.448089008;-9.292665848;-10.85712326;2.649535519
-0.447843741;-9.150457312;11.43643478;-11.669823;-2.325242565;0.265592199;-2.778466809;-0.619328098;2.178525117;-18.39465032;21.21621489;19.56655266;8.3441119;-4.913276108;2.72288563;-2.157348544;-8.22866084;-4.666260465;0.69582537
-1.568272679;-8.661741542;11.31684995;-9.291487106;2.786904241;0.446701037;-2.38411478;-0.383109451;-0.880309745;-24.59641688;18.05833939;21.8016557;9.007982807;0.907471478;-1.555005991;-7.756838054;-6.324668589;-0.521567794;-0.480954949
-1.878021742;-8.843829178;7.576430911;-6.649751277;8.731055114;0.578696776;-2.11573666;-1.185870616;-4.547286646;-27.51157793;14.11835002;23.88728045;10.47167073;5.076223769;-4.71100559;-10.0467006;-4.463573891;-1.259164054;-0.690229794
-1.716725278;-9.770416128;2.235571365;-6.557917842;13.53607969;0.615279809;-2.292357925;-2.927168243;-7.967957233;-27.15526952;9.900775199;25.75911689;11.76295602;5.301482577;-5.893607574;-6.720412265;-3.49912647;-6.788481159;-0.238264815
-1.464268282;-10.64137687;-2.035294371;-10.13332252;15.3884372;0.555878412;-2.845352253;-4.750196478;-10.4395675;-25.57970091;5.738219391;26.0012211;11.50132511;2.711206194;-5.798590362;0.414284353;-3.711673159;-14.10615868;0.350403987
-1.364591456;-10.44870092;-3.442294586;-15.85596293;13.53051378;0.449639372;-3.372882716;-5.613462788;-11.39292235;-24.6618827;2.20210233;22.83365735;9.03978089;0.665315296;-6.159201385;6.808492774;-4.613978975;-19.20639247;0.72618173
-1.457236876;-8.824996784;-1.967769549;-20.49378319;8.735671078;0.368459456;-3.497388497;-5.022384968;-10.5109694;-24.41543357;0.123330806;16.01155967;5.018741531;1.541122203;-8.54238095;8.972176761;-5.22929233;-19.50927513;0.909285701
-1.575809292;-6.319954487;0.887886279;-21.3175535;2.99996708;0.363817885;-3.197234467;-3.363015024;-8.055281437;-23.43602662;0.026714767;7.831659362;0.907618396;4.449690815;-13.22492571;7.403481039;-4.661211682;-15.16480227;1.164276326
-1.402425995;-3.868823029;3.241258972;-18.04906675;-1.484569383;0.435999;-2.811467192;-1.602037236;-5.108569949;-20.99778523;1.418742865;1.993772365;-2.060607227;6.008887762;-18.93290432;6.00063892;-2.608929017;-8.510685349;1.711941014
-0.600012207;-1.953096165;3.987499602;-13.13633069;-3.516338825;0.53710577;-2.720160498;-0.611581696;-3.324190674;-18.6230401;2.647387713;0.894100713;-3.707713538;3.523423656;-23.6663809;8.382266518;0.457652547;-2.306959039;2.552857845
0.993283591;-0.240171746;3.221234388;-10.13175968;-3.484812687;0.605432618;-2.999260543;-0.641375267;-4.08924709;-19.30042226;1.692010971;3.506340733;-4.883758944;-2.306469423;-26.04585117;14.36736614;3.530379259;1.887229727;3.536699384
3.207397501;1.94965388;1.780973819;-11.28821656;-2.96965296;0.606531274;-3.365770855;-1.298938419;-7.538868225;-24.71483288;-2.497824129;5.872401584;-6.693289765;-7.685229441;-26.18914659;19.88292742;5.549356114;4.17154663;4.56045959
5.553414788;4.783595989;0.437258341;-16.01048346;-3.58996155;0.552755441;-3.455395076;-1.972678611;-12.14332715;-32.91162464;-9.02016831;4.261049075;-9.618275123;-8.911003137;-25.4363286;20.6194677;5.886509597;5.60368328;5.661518447
7.451625562;7.512712857;-0.584280357;-21.16896634;-5.88488553;0.490192487;-3.167340344;-2.306303939;-15.31694114;-38.77376088;-15.166634;-1.280627614;-13.17426497;-5.690019531;-25.11267434;16.33377255;4.605727872;7.17675682;6.897264886
8.559729101;9.007943608;-1.452994518;-23.00707105;-8.987811767;0.465534222;-2.754355003;-2.357090541;-14.80521268;-37.4026842;-17.73938832;-6.009967171;-16.25458966;-1.556250237;-25.30162794;11.83914956;2.401733986;9.32377116;8.142687684
8.984122074;8.86134644;-2.24738009;-19.3730799;-11.28398796;0.49754371;-2.578965547;-2.385050391;-10.00484907;-27.88468818;-14.78066739;-3.54517405;-17.80265786;-0.822892428;-24.64488163;13.34814257;0.260252334;12.11854268;9.04726552
9.213721712;8.082467304;-2.68133832;-10.91603664;-11.54021986;0.570867503;-2.769861182;-2.53081307;-2.344456054;-14.33416288;-6.659020775;8.834367997;-17.30412235;-4.578315088;-21.40218563;22.84897437;-1.005265524;15.66219919;9.251228256
9.804154881;8.654587628;-2.327662442;-0.646734489;-9.690078125;0.651788067;-3.10338209;-2.687770637;5.54016606;-3.186221345;4.133870808;26.51513358;-14.85099388;-9.262594565;-14.97826993;35.19661357;-1.128873448;20.07170092;8.6942113
11.01884883;12.13779569;-1.11280348;7.723654041;-6.759440278;0.711092988;-3.221073587;-2.651353754;11.29570349;1.229778541;14.30685995;38.75535437;-10.90599301;-9.325820822;-6.690755639;40.74658888;-0.49517418;25.02145424;7.71791827
12.66256966;18.35119391;0.423712415;11.6424606;-4.064798106;0.738114903;-2.976983826;-2.36207573;14.04876059;-0.618646896;21.3844862;34.78184175;-6.058586625;-1.990397668;0.896283434;32.01193667;0.09211976;29.36599149;6.817581624
14.20150422;25.19520944;1.408593828;10.80091735;-2.308941412;0.739965217;-2.585078467;-1.99091836;14.61332735;-4.507757315;24.69061474;11.12038233;-0.933290425;9.852921612;5.61908363;9.47517648;-0.13793012;31.4086632;6.217260818
15.06640115;29.82076464;1.260879785;7.013474083;-1.192030098;0.731193054;-2.423529067;-1.787883353;14.71729374;-6.131671643;25.24898957;-24.86839295;3.820486833;19.30424315;7.086433046;-17.90297545;-1.498914747;29.82053076;5.639994086
14.93253341;30.30313481;0.140890128;3.095436824;0.275525484;0.723363531;-2.675291307;-1.848618734;15.86903664;-4.242424946;24.82530857;-58.11547527;7.612048432;20.70418907;6.720480755;-38.02784552;-3.689826956;24.57021884;4.514768826
13.82532697;26.60280922;-1.1664727;1.372271925;3.056806218;0.720655893;-3.142107946;-2.028267372;18.5864219;-0.789227363;24.78069474;-74.10908859;10.09649913;14.40975608;6.467372314;-43.07824704;-5.98;17.10940203;2.494414484
12.04583768;20.2005762;-1.839946357;2.557255137;7.456232225;0.721585371;-3.412860731;-2.085385538;22.31791632;1.642205961;25.39739489;-67.17844559;11.32104994;7.082778497;7.240564704;-33.78655707;-7.591507888;9.611254825;-0.133959854
10.0184451;12.86044474;-1.589874094;5.527668543;12.89571159;0.723309798;-3.239318403;-1.918131092;25.88157922;2.457951444;25.9607087;-43.47466119;11.66472022;6.808174343;8.350186635;-17.90953407;-8.018755482;3.815919787;-2.51226419
8.161312031;5.603352368;-0.753081471;8.093001923;18.12151478;0.724800771;-2.77559322;-1.668371872;28.02471087;3.278904731;25.41717596;-16.78093865;11.57320834;16.45880387;8.332097549;-4.518160641;-7.103990749;0.338868045;-3.740382549
6.803962219;-1.338597855;0.107343851;8.333645851;21.67050223;0.726750331;-2.455822506;-1.593732902;27.84455562;5.707087455;23.14720669;-0.032314719;11.28397937;30.37842984;6.419318253;1.52288585;-4.897601709;-1.119322156;-3.47447289
6.120407077;-7.75857537;0.692099832;5.740566094;22.40477724;0.728093726;-2.612274036;-1.82320941;25.06202191;8.985894273;19.40304361;1.846463203;10.75786657;37.26589055;3.373349542;1.247392999;-1.501465837;-0.992177811;-2.1289781
6.065505401;-12.79574817;1.099741089;1.453394899;19.96780894;0.721439173;-3.174509954;-2.219420579;20.21331757;10.04407182;15.20731455;-6.654611719;9.849733724;27.64716396;0.949003854;-0.914890371;2.922124911;0.726667638;-0.532317109
6.360549327;-15.10817886;1.528025623;-2.572937449;15.01352563;0.691988102;-3.72111279;-2.474829277;14.67667314;6.141956567;11.82110731;-16.28081205;8.531875023;0.839907933;0.431557182;-1.170280571;7.980414684;4.328913048;0.676207114
6.587830929;-13.82772597;1.890724578;-4.926039425;9.048529266;0.624305137;-3.840582767;-2.361375611;10.32123193;-2.242508425;10.10880618;-19.92538527;6.942060531;-33.54842649;1.479043525;1.280068359;12.91593917;9.701660874;1.42807405
6.384654952;-9.446413485;1.777781016;-5.666189931;3.83568006;0.516311491;-3.482337701;-1.920652733;8.708602181;-11.10352639;10.15232074;-16.86426997;5.211528824;-60.84821306;2.262887551;4.793989828;16.72294071;15.82077089;2.11244882
5.629510273;-3.7745645;0.844761456;-6.137523052;0.569439406;0.39195411;-2.990259682;-1.437619192;10.16887449;-15.79019116;11.30102593;-11.79560982;3.265997885;-69.92531747;0.833471282;7.488860848;18.5381961;21.00806161;3.114188855
4.487127476;1.106140651;-0.724899487;-7.781236663;-0.720633783;0.299855936;-2.796432021;-1.226953867;13.37174556;-14.77558777;12.58245538;-10.15699083;0.849323874;-59.53120571;-3.365676257;8.858369646;18.08082979;23.85106865;4.420068359
3.270461162;4.087265012;-2.160826308;-10.85999869;-1.109853036;0.29137914;-3.051996041;-1.410584801;15.85899797;-11.02818874;13.19299472;-13.71003906;-2.181523312;-38.40435195;-9.029566759;9.637154198;15.8235922;24.06345713;5.615222002
2.221386384;5.471495291;-2.590544394;-14.13681941;-2.021056782;0.386814588;-3.518023217;-1.855322265;15.38501039;-9.657797042;12.76348606;-19.68284954;-5.531168625;-19.37542882;-13.92269084;10.55408463;12.73882781;22.55963869;6.235202015
1.38177088;6.275833664;-1.709673391;-15.85973904;-4.241168806;0.552034169;-3.798020451;-2.295409868;11.25663575;-13.7451841;11.27141054;-23.65125078;-8.454996659;-11.60285005;-16.46973972;11.46734843;9.763577827;20.64622161;6.144336614
0.650135179;7.03802799;-0.071241909;-15.36518987;-7.407397715;0.706781111;-3.68978863;-2.521586507;4.731228321;-21.91169491;8.734606246;-23.41310059;-10.19283295;-15.96134897;-16.80010378;11.68097604;7.335396862;18.96268102;5.623557779
-0.046375136;7.178546571;1.282109156;-14.03117498;-10.35568373;0.766398657;-3.341433715;-2.492403135;-1.872765999;-29.71920626;4.986510411;-20.62145533;-10.59016016;-26.1195055;-16.52663311;10.89833366;5.298028542;17.01508399;5.133223146
-0.642970614;5.47373886;1.57043778;-14.69044099;-12.07432589;0.693298539;-3.088490857;-2.314285751;-6.757656937;-33.64467291;-0.227867293;-19.07116699;-10.41224731;-33.89771777;-17.52713311;9.655009132;3.203814591;13.66520533;4.993771176
-1.013464525;1.223062459;0.811037679;-19.73176036;-12.51200478;0.52298976;-3.140630379;-2.144643349;-9.761699067;-34.0924286;-6.851317579;-21.35533706;-11.00033536;-34.86512818;-20.68126307;8.72200384;0.759435712;8.170872292;5.25426165
-1.17226937;-4.91093686;-0.285494654;-29.15771256;-12.57449995;0.343872615;-3.409470553;-2.103956661;-12.15077238;-34.74448992;-14.09410942;-26.78245456;-13.37979607;-30.46507729;-25.41392178;8.132698203;-1.91561478;0.952566543;5.798322554
-1.396733001;-11.13128012;-0.941390428;-40.02836979;-13.27927707;0.242145866;-3.620658216;-2.235064115;-15.22673844;-38.81024626;-20.35693649;-32.13855141;-17.37633646;-25.74825145;-30.19823359;6.946285634;-4.378776916;-6.492994494;6.502737946
-2.101443579;-15.63685831;-0.918082632;-47.83463246;-14.73079119;0.249302862;-3.583339374;-2.493057047;-18.83779188;-45.55194552;-23.67268721;-34.36684497;-21.37825733;-24.90264272;-33.49962786;4.139432408;-6.194650253;-12.43535003;7.247449699
-3.508839276;-17.74107392;-0.6100354;-49.02233809;-15.76531332;0.328747198;-3.353574784;-2.747740594;-21.0152125;-50.30949676;-22.50731729;-32.7226611;-23.00632721;-28.0358086;-34.4905508;-0.168477777;-7.23953492;-15.86751836;7.782121588
-5.374985475;-18.11055921;-0.598870458;-43.06908892;-14.62072279;0.409463766;-3.145789487;-2.817007988;-19.1410326;-48.20553663;-16.50532301;-28.66546792;-20.36111687;-31.39174674;-33.22071542;-4.407203658;-7.768584024;-16.92989446;7.660202827
-7.04413809;-18.02179858;-1.102515349;-32.78049312;-10.19197485;0.440018311;-3.096351038;-2.557410973;-11.87262659;-38.42646508;-6.765633514;-23.9146963;-13.1180016;-30.50150463;-30.3784394;-6.634359011;-8.230130031;-16.62089335;6.426999541
-7.871309703;-18.33546854;-1.810498425;-22.63020963;-2.963686286;0.422323722;-3.12332174;-1.984551162;-0.418688825;-25.35054669;4.512421871;-18.72283152;-2.810068359;-23.69051947;-26.94293063;-6.145846149;-8.983381784;-16.1301694;3.991681086
-7.735748232;-19.04269576;-2.218675981;-16.21622155;5.065540565;0.401994879;-3.024803198;-1.329679355;11.81916191;-15.42597614;14.83421686;-12.06512381;7.867730927;-13.31797987;-23.88167038;-4.152442122;-10.10446741;-16.29464169;0.867905937
-7.234283313;-19.65502746;-2.121688971;-14.41464123;11.42134219;0.426206862;-2.717276707;-0.946601154;21.05484698;-12.33140961;22.27115006;-3.493528084;16.31331195;-3.975560572;-21.86664841;-2.798094508;-11.36501458;-17.43948696;-2.002528772
-7.335678401;-19.94613054;-1.79909858;-15.29079117;14.44192125;0.503509356;-2.37042858;-1.091128599;25.15223515;-14.43076224;25.99906219;5.305212145;21.10785203;0.848359777;-21.00421667;-3.275666645;-12.34503408;-19.50765206;-3.802656373
-8.681412629;-20.29076868;-1.734969216;-15.67642563;13.99139214;0.595562354;-2.288731103;-1.722695736;24.5299539;-16.57859355;26.33763713;11.04576154;22.37186551;1.102575559;-20.73888822;-4.679577904;-12.59266065;-22.22295902;-4.37634391
-11.0296312;-21.28690885;-2.145852302;-13.31441727;11.24461924;0.644062231;-2.63535562;-2.498391483;21.43465558;-14.64144345;24.36461213;11.3252946;21.29608974;-0.147191355;-20.1349999;-4.676425889;-11.77371033;-25.15095575;-4.304489169
-13.29360574;-23.05265671;-2.757610688;-8.222913358;7.834726683;0.610074463;-3.255943779;-2.996310838;18.24902886;-8.863775483;21.34391472;6.925494791;19.23936919;0.695363324;-18.50486748;-1.512227189;-9.798986939;-27.72917852;-4.419234988
-14.22039107;-24.90321061;-3.028609303;-2.527236184;4.988131685;0.497433018;-3.779129027;-3.013382852;16.10209566;-3.319531419;18.23384384;1.685406558;16.97808107;4.936505037;-16.00306517;4.329420616;-6.918929528;-29.4001283;-5.121050573
-13.27171616;-25.75673278;-2.605382489;0.989931678;3.121057364;0.347858853;-3.917220952;-2.701340086;14.67459174;-2.12259167;15.45373111;-0.312928365;14.50940938;10.6374542;-13.70064233;10.26783173;-3.740616695;-29.84804723;-6.054197369
-11.07454411;-24.93467991;-1.600528907;0.608287256;1.955971675;0.216820456;-3.700247156;-2.422673024;13.0975211;-5.809156403;12.94472728;1.935242001;11.4099435;14.14716943;-12.97831655;13.50867073;-1.108185587;-29.17682604;-6.42144018
-9.074165783;-22.64726125;-0.469490655;-3.425493679;0.901688693;0.148385003;-3.430914934;-2.441088799;11.03381797;-11.01057671;10.4241612;5.399742425;7.405586346;12.8788446;-14.62022139;13.13276384;0.16399199;-27.85961569;-5.687467571
-8.579473242;-19.73194727;0.361099135;-9.283498858;-0.585333836;0.160761762;-3.40125147;-2.708707;9.017665393;-13.55649209;7.656819853;5.458699618;2.727956405;7.219184399;-18.28358314;10.67912135;-0.374470373;-26.46130392;-4.078299923
-9.841165748;-16.88611526;0.756333455;-14.84164327;-2.778185625;0.242594209;-3.630450806;-2.935587717;7.848247975;-12.15755922;4.587698181;-0.120434801;-1.963252211;0.18716783;-22.76626624;8.794470684;-2.555228134;-25.32146139;-2.435589561
-11.81329894;-14.08952836;0.818210615;-18.92165944;-5.584545041;0.355740603;-3.863506788;-2.880842477;7.661069214;-9.418991734;1.295626067;-8.998018237;-5.987005687;-4.817921882;-26.86498753;9.144508487;-5.553144389;-24.4125394;-1.521408815
-12.7942827;-10.73793136;0.640268725;-21.66392013;-8.571961551;0.444652805;-3.828003216;-2.601654152;7.55412006;-9.392524423;-2.130591734;-15.86611691;-9.052623536;-6.428598737;-30.13672224;11.34201739;-8.117397135;-23.43982272;-1.346447695
-11.53935521;-6.367710662;0.181352621;-23.88970226;-11.14860338;0.45589449;-3.50610308;-2.423881162;6.150615976;-13.93905027;-5.628566326;-16.66976569;-11.37724793;-6.065548621;-32.9666387;13.68362352;-9.011761659;-22.0740902;-1.103411622
-8.108323529;-1.323134955;-0.584349315;-26.0669264;-12.87751029;0.365292769;-3.164508227;-2.643260997;2.673110623;-21.13391254;-9.030815826;-11.96071668;-13.44147214;-6.514774452;-35.94058305;14.87604361;-7.514839783;-20.15983885;0.195160392
-3.889453657;3.229274746;-1.412887888;-27.75933503;-13.75159749;0.198341087;-3.111597016;-3.217612001;-2.34070826;-27.02278769;-11.87126034;-6.482901386;-15.57662174;-9.463945104;-39.10565296;15.10577524;-3.791281043;-17.82938041;2.858256029
-0.793399551;5.96135557;-1.765049022;-28.00576182;-14.18388035;0.025440165;-3.407765657;-3.738635454;-7.275255135;-29.01987979;-13.36763919;-5.20700328;-17.68161389;-13.92633785;-41.77;15.48627053;1.036865868;-15.54598226;6.121622566
-0.150888893;6.17033509;-1.149085972;-26.27292173;-14.62397979;-0.073177942;-3.80172859;-3.738366713;-10.46295268;-27.84340193;-12.74449584;-9.098561152;-19.25215142;-16.81427477;-42.99402032;16.48021649;5.205509581;-14.08473695;8.550768587
-2.008951881;4.07782956;0.411479117;-23.10288543;-15.03089825;-0.054409525;-3.956329081;-3.086756214;-11.21082383;-26.31045145;-9.784983833;-14.25943362;-19.67027613;-15.29108908;-42.31178926;16.9199341;6.947630806;-14.37585857;8.955955283
-5.216828429;0.495080062;2.223275464;-19.80084724;-14.63957253;0.061227647;-3.755879947;-2.138436424;-10.04864711;-26.2231633;-5.22024404;-15.29605814;-18.52942851;-9.135079022;-40.04588084;14.77322261;5.21941448;-17.13219907;7.143827015
-8.162765873;-3.741021043;3.304041275;-17.34625018;-12.31638771;0.204854576;-3.40750566;-1.486062925;-8.043981111;-26.32641919;-0.548235392;-10.11376705;-15.78144811;-1.23919906;-36.97312304;9.190792632;0.17477352;-22.34596353;3.973596221
-9.640763294;-8.03029816;3.056502547;-15.47393414;-7.356193271;0.306923569;-3.238889764;-1.510630524;-5.766606551;-23.3362023;2.779372278;-1.948491279;-11.65984072;4.31895719;-33.69270153;2.035921292;-6.880362449;-28.95734718;0.728119461
-9.328852746;-11.8266577;1.698552703;-12.85683645;-0.173767262;0.342141729;-3.379990786;-2.097659341;-2.754882833;-15.21903281;4.354241675;3.348308439;-6.510365641;5.369475017;-30.28261777;-2.714978966;-14.06890531;-35.03470173;-1.69239222
-7.6941552;-14.36833767;0.081909303;-8.430284802;7.656260026;0.338117765;-3.630207506;-2.752505324;2.064150231;-3.77893709;5.269925004;2.671020181;-0.702313492;3.607286158;-26.50902091;-1.623803191;-19.76424225;-38.53432253;-3.174792645
-5.529696945;-14.79059782;-0.959717595;-2.813236091;14.11076047;0.34373635;-3.644447942;-3.011541675;9.301373099;5.912156246;7.569196982;-0.967353307;5.320228056;3.715171733;-22.30007813;5.426004003;-23.20109964;-38.27809669;-4.186824355
-3.500208894;-12.68883016;-1.18909824;1.532096129;17.72703753;0.386146142;-3.272876466;-2.799159958;18.20313126;9.020207911;12.8888218;-0.370952432;10.94668368;9.889782975;-17.95380968;14.64443833;-24.55379036;-34.54528384;-5.230558958
-1.9543087;-8.668935974;-0.998513379;1.883973952;18.24222778;0.452944667;-2.736595524;-2.436962273;26.64694669;4.616549265;21.15517177;9.589609026;15.42635142;22.0021269;-13.85372377;20.75868852;-24.51148856;-28.86980797;-6.428617994
-0.999073107;-4.297597062;-0.916431171;-2.414545323;16.49379549;0.511724616;-2.461903877;-2.319046429;32.12683259;-3.481047553;30.27495004;26.27695443;18.07792807;34.23376646;-10.01542903;20.88721166;-23.70884212;-23.16960977;-7.52301235
-0.65672124;-1.323077659;-1.075134303;-8.768162216;13.76404748;0.544567008;-2.706762664;-2.554068379;33.11957628;-9.386337922;37.15418264;39.1298571;18.58393309;37.65551858;-6.024058042;16.94984804;-22.42901958;-18.80609724;-8.189296233
-0.945171684;-0.69783444;-1.141707337;-12.55135661;11.09998212;0.562104797;-3.311504372;-2.890097656;29.958939;-9.205893098;39.45531931;36.04858495;17.17955503;25.6056955;-1.573794379;14.53775909;-20.73778495;-16.19350678;-8.339632349
-1.870487448;-2.185249717;-0.759733326;-10.21594227;9.0269595;0.582925269;-3.806103689;-2.974461352;24.67933313;-3.35701191;36.94089741;12.16567504;14.6004841;-1.412835458;2.814781944;18.71748248;-18.83742829;-15.11990316;-8.168722368
-3.420786188;-4.890904127;-0.046570886;-2.122392094;7.659503832;0.59999987;-3.792834;-2.697888095;19.9585198;4.405173829;31.50104844;-25.41870451;11.80606271;-34.70270529;5.630730589;29.65530359;-17.25108748;-15.37547762;-7.964247713
-5.610955907;-8.261125811;0.381053645;7.157389882;6.902136827;0.572059897;-3.276506696;-2.302054266;17.81792218;10.10259887;25.87201454;-60.79902087;9.618443179;-61.37195301;5.116607554;41.36838102;-16.6109699;-17.0784254;-7.895721303
-8.508371258;-12.63402002;-0.061803853;11.60524215;6.49283749;0.456689295;-2.657666317;-2.15176324;18.79918139;12.12390241;21.95992533;-78.58460565;8.431664026;-71.2840428;0.485907281;44.89403311;-17.19217279;-20.40855804;-7.957770917
-12.1257414;-18.75879388;-1.308915624;7.817068318;5.952444692;0.260548074;-2.399309765;-2.383486872;21.9513941;11.4248469;19.90990955;-73.15667578;8.070463969;-62.76384915;-7.327535847;34.06808495;-18.59167676;-25.01985231;-8.053516838
-16.18202234;-26.59567917;-2.541210685;-2.530603067;4.696864844;0.058955459;-2.660223164;-2.758028651;25.45332779;9.702876843;18.4458189;-51.63012755;7.808500283;-43.42259898;-16.05799189;10.1160126;-19.87024751;-29.71761345;-8.070631579
