Channel 1 - P4;Channel 2 - O2;Channel 3 - P8;Channel 4 - T8;Channel 5 - C4;Channel 6 - Cz;Channel 7 - Fz;Channel 8 - F4;Channel 9 - Fp2;Channel 10 - F8;Channel 11 - Fp1;Channel 12 - F7;Channel 13 - F3;Channel 14 - C3;Channel 15 - T7;Channel 16 - P7;Channel 17 - P3;Channel 18 - O1;Channel 19 - Pz
-22.01209087;-33.7505672;-54.28186112;2.565615032;-14.27039518;3.279559812;-76.31337662;-80.47543431;-8.472976029;7.20174336;-12.0965267;-35.80350204;23.64810696;-55.69616132;-18.23409695;-47.47427242;-10.93313176;-33.25687209;9.450832172
-28.99731741;-42.59681346;-65.75977192;-3.156513526;-23.31447446;-0.720646228;-76.06175505;-71.34454635;-33.66740775;-0.351933068;-41.74697266;-60.03871488;15.36209557;-70.29468822;-27.82136468;-63.50469868;-15.32813031;-43.44873114;4.104013805
-28.61817706;-41.0424538;-52.64499486;-12.64614352;-24.67595218;-3.627719192;-44.04502337;-34.79108225;-53.93930909;-15.7726695;-62.59651596;-63.37890549;2.593600396;-57.29714388;-25.3716623;-50.01654898;-14.30201123;-40.47282775;-4.754690779
-21.4873926;-30.51670705;-24.99259107;-19.86101383;-19.01281619;-3.865539032;-3.39275179;6.277075298;-58.84861719;-28.79404981;-62.74210182;-46.52398975;-7.988589627;-26.56762598;-13.04343476;-18.36226833;-9.077139774;-27.89262006;-11.09084922
-12.45863695;-17.715539;-0.947552258;-21.48054023;-11.46337658;-1.760739229;20.49320789;28.35070803;-46.66715943;-31.27022874;-42.74263113;-21.74484736;-11.50944951;1.238548053;-0.05837009;10.06831292;-4.297894212;-15.14902552;-11.28192435
-7.004000754;-9.699583597;6.284243683;-18.69926455;-7.298845932;0.84524676;17.33945288;23.17843749;-25.281479;-22.30874646;-15.16422574;-3.807337547;-7.901542918;9.524817756;4.206052476;19.43377504;-4.732768905;-10.68838634;-6.639142806
-7.377524151;-9.120526128;-3.198461887;-15.55319486;-7.964780837;2.059604277;-3.072250338;1.560569612;-6.80556195;-8.108331131;4.244062343;-0.198094922;-1.420433821;-3.191753344;-2.979145849;9.23886278;-11.82051424;-16.1352564;-2.010720637
-11.41814678;-13.04916784;-18.00054495;-15.40258747;-10.56948352;1.304374829;-20.94489488;-16.82618377;0.244294599;2.92857956;7.165753369;-7.677707504;2.76449917;-24.0050202;-16.09276054;-8.172286958;-22.62999727;-25.81079281;-1.718601143
-14.68152951;-15.94852977;-25.30452771;-18.42805331;-10.90216575;-0.440692791;-22.48038196;-18.79572256;-4.176849783;5.913973025;-2.573535467;-16.83559665;2.195192197;-36.7058939;-25.88337571;-18.85;-31.93248542;-31.62844223;-6.15919733
-14.01117348;-14.17267271;-20.41713037;-21.90862885;-7.200812584;-1.600706811;-9.164746642;-6.204191349;-12.75679358;1.967552654;-13.17083082;-20.16574552;-1.672039787;-33.98737027;-26.23557421;-17.40053076;-35.74606259;-29.28632845;-11.73362039
-9.713125552;-8.456145728;-8.878213517;-22.69925496;-1.4880889;-1.308742099;5.932617218;8.00282041;-16.60980333;-3.740009766;-14.14174366;-17.08783952;-5.242755057;-21.41537378;-18.09692135;-8.540994386;-33.72702854;-20.9714389;-13.98438725
-4.831131976;-2.750936163;-0.489293091;-19.69654266;2.446463541;0.006783765;10.34625952;11.70273741;-11.31549639;-6.250599712;-3.543571128;-12.5823355;-5.79347981;-11.0523207;-7.847321236;-0.528210038;-28.83334154;-12.87883891;-11.2445143
-2.418237425;-0.761395602;-0.934596758;-14.39732638;2.451966042;1.139033932;2.209338335;3.181836814;0.903429245;-3.951724404;11.86970399;-11.59576717;-3.276976337;-10.92927975;-1.96;2.541313394;-24.82654377;-10.03720926;-5.835241817
-3.176368948;-3.160702432;-7.867658518;-9.431704574;-0.206944138;1.187686794;-9.678005579;-8.925184404;13.79877145;1.375375386;22.80655027;-14.4734301;0.207191878;-19.1898117;-2.424541025;2.824615145;-23.68349594;-12.78487401;-1.996847585
-5.281556766;-7.568459443;-13.96934964;-6.559968226;-2.139016404;0.266406164;-14.55880859;-14.1180342;21.95891613;6.846801833;24.56638258;-17.12678581;2.386720872;-27.01891474;-6.273594314;4.516321678;-24.76600613;-17.43796805;-2.429283644
-6.252761873;-10.90133313;-13.60683194;-5.76183151;-0.893160647;-0.710829568;-9.007883212;-9.009414456;24.14191154;10.75311711;19.74566363;-15.21044783;2.357088238;-26.89404818;-8.92914257;8.494750861;-26.0051951;-20.00405813;-6.323113485
-5.079613549;-11.84024557;-7.230237041;-5.820836531;2.957701642;-0.89221336;1.005214653;0.679396269;22.98062471;13.05665914;15.15810488;-8.25617179;0.556804428;-18.72116652;-8.113995739;11.44;-25.79819717;-19.42779188;-10.34942321
-2.819703465;-11.36392672;-0.201402348;-5.486087889;6.483171557;-0.209470832;6.245974437;6.006466024;21.94718032;14.26528796;16.12811035;-0.169452169;-2.337083493;-8.99383301;-5.089426747;10.06717109;-24.00891424;-17.67942975;-11.55773165
-1.360545869;-11.19661757;2.276141765;-4.066155617;7.090978467;0.641021811;2.509869891;2.791478919;22.37208233;14.24304543;22.79355357;4.032622706;-6.175364181;-4.476698655;-2.643984567;5.753701814;-21.48661699;-17.04524914;-9.653080883
-1.631283219;-11.83749686;-0.572851938;-1.21116892;4.778661373;0.874453457;-6.206735625;-5.291180215;22.84212786;12.25882304;30.78292934;2.140173548;-10.91173349;-6.372895904;-2.077978685;4.271889331;-18.852315;-17.44437061;-6.842313952
-2.886464334;-12.03157154;-5.098229887;3.382724899;1.96081469;0.312523069;-11.90650905;-10.67110583;21.10748713;8.120446028;34.95372211;-4.004933269;-15.55944643;-9.907314668;-2.01785885;10.12561877;-15.80180417;-16.35866176;-5.607800037
-3.588579594;-10.08124939;-6.968758821;9.605895743;1.11792664;-0.505874208;-9.885248563;-8.828143176;16.60867929;3.084537613;32.89358513;-10.60391201;-17.94080622;-9.135593306;0.025796747;20.61031808;-11.5227591;-11.39261006;-6.473692229
-2.95414147;-5.691427215;-5.010799175;16.12556578;2.454975641;-0.84898328;-2.541915122;-1.959405131;11.43091323;-0.554841031;25.83435631;-15.05647933;-16.00139184;-2.32856278;4.988757102;25.74137823;-5.72307434;-2.99501698;-7.675823067
-1.705698398;-0.608498513;-1.820073242;20.22572586;3.703501563;-0.447319283;3.312805902;3.523403557;8.948394487;-0.997922362;17.15534976;-17.30184539;-9.868305369;6.755737931;11.00938948;15.34932581;0.766028584;5.284565652;-6.889550586
-1.383664862;2.541815451;-0.966601876;19.11148511;2.241917562;0.30171575;2.77561059;2.961960298;11.31578874;1.711845939;10.34797417;-18.52431672;-2.780602896;12.40119708;14.74244834;-11.94338864;6.395081889;9.379159896;-3.402816628
-2.91273117;2.192673476;-3.592773469;12.12105898;-2.381511764;0.726546176;-3.01316039;-2.615565567;17.79106262;5.698318822;7.949562846;-18.98768303;0.381584433;11.7557717;14.03307919;-45.53473106;9.939940781;7.91568649;1.160673958
-5.76203983;-1.115538754;-7.465212169;2.061426318;-7.803863375;0.485862669;-8.371872368;-7.878778545;25.11683513;8.598486835;11.37884766;-17.42569881;-3.669444724;6.701703718;9.600122338;-68.87981203;11.25462182;3.253682557;4.122466494
-8.444651953;-5.39344549;-9.111677334;-5.877382482;-10.69869423;-0.159257622;-8.466547447;-8.259356847;29.5919779;9.084386609;20.65639167;-12.6447595;-13.92521332;1.553703779;4.339540859;-70.68235438;11.11320614;-0.538717697;3.86901771
-9.858644043;-8.874606344;-6.916840862;-7.371087456;-9.537911253;-0.620085449;-3.537793632;-3.941986474;29.30978748;7.357925455;33.60861816;-5.604367455;-25.11151893;-0.872128932;0.973487334;-52.71795089;10.36377715;-0.985485783;1.021702765
-10.22325476;-11.20140023;-2.400624433;-2.144406889;-5.877364683;-0.520554671;1.700478537;0.673966693;25.09930427;4.433193214;45.50503296;0.405544906;-30.74108906;-1.165705486;0.130537065;-28.21841237;9.203800312;1.066532751;-2.216619096
-10.76570699;-13.18489891;1.263200398;5.499330711;-3.063233997;-0.007487217;2.624284704;1.236592804;19.75451595;1.095166104;50.4855579;2.104567115;-27.18599953;-1.815475323;0.41411899;-12.15775264;7.206291122;2.676132285;-3.851319261
-12.47036356;-15.54127016;1.946983397;9.571810176;-3.479534629;0.426468409;-1.113478593;-2.634996751;16.2771293;-2.442259553;44.82687941;-0.835455709;-15.92959816;-4.165050864;0.178484031;-11.04962926;3.991714582;1.754380845;-3.48797852
-15.05160502;-17.8883998;0.055840822;6.784960106;-6.678295824;0.413401066;-5.508823295;-7.257134088;16.30716687;-6.014415755;30.09630395;-5.021049028;-2.464461351;-6.92861939;-0.732571187;-19.90800066;-0.147630577;-0.965549592;-2.29577718
-17.0990637;-18.94653924;-2.295659726;-0.886059486;-9.923072177;0.031387307;-6.083764825;-8.460643255;19.54063137;-8.902611916;13.50698343;-5.778974764;7.262946571;-7.587440547;-0.866539578;-27.99929072;-4.278263134;-2.656732431;-1.800014648
-17.28072287;-17.70550281;-3.354539146;-7.564833266;-10.58520227;-0.303070164;-2.018985677;-5.400263937;24.19612365;-10.00814508;4.372238117;-0.980566449;10.28947264;-5.11149694;1.302184819;-28.05606718;-7.474869647;-1.076651152;-2.665455272
-15.53998571;-14.4192107;-3.018560907;-7.873164586;-8.293712477;-0.245881303;3.193537975;-1.14594804;28.05650725;-8.793397805;8.48215924;6.992970734;7.704746694;-1.235375827;5.643102046;-21.39729591;-9.47234688;3.284243534;-4.439200335
-13.2274497;-10.48081955;-2.301536411;-1.055235238;-5.050580287;0.154645821;5.011014989;0.301989976;29.50948618;-6.052527724;24.15907069;12.98161598;3.033079416;0.990480661;10.04663313;-15.40189104;-10.72450171;7.532405058;-6.244190823
-12.04425966;-7.299125935;-1.789788917;8.358823174;-3.341895557;0.519364381;1.92414318;-2.311518181;28.19621018;-3.57112921;42.94619499;13.21091375;-0.460493918;-0.005103804;11.83750656;-16.30793346;-11.85124221;8.86319248;-7.607205148
-12.70120408;-5.224090347;-0.821566567;13.88519579;-3.977842734;0.508625731;-3.311753705;-6.488992562;25.09875019;-2.751118812;54.73836349;8.490284475;-1.464043189;-2.821465923;9.748940534;-23.82523209;-13.03090165;6.961853083;-8.654904632
-14.42042022;-3.499387298;1.717376718;11.85575446;-5.525567775;0.14729186;-6.255694847;-8.421726884;22.06040227;-3.37374776;53.99160944;3.751284713;-0.410753244;-4.290598656;4.844964937;-31.89673585;-13.92231531;4.178878373;-9.651632279
-15.65797284;-1.237265943;5.796992208;3.987798711;-5.723231632;-0.196223589;-4.695533462;-6.505301116;20.90228185;-3.736672266;42.86601573;4.225866926;1.868738873;-2.255850663;-0.284878274;-34.37038951;-14.16429852;3.375328336;-10.50384343
-15.38609208;1.555434688;9.553612343;-4.103895499;-3.533400234;-0.150969147;-0.375623298;-2.696626448;22.50757125;-2.232691666;29.35291993;11.33190893;5.128154697;2.600048828;-3.307501551;-30.28586557;-13.9169066;5.423207859;-10.80487456
-13.84598227;3.916932003;10.42268423;-7.132374275;-0.016706579;0.313779403;2.843480483;-0.582706809;26.36038166;0.966106907;21.93258419;21.55769193;9.478127306;7.448020155;-3.464969283;-24.23936017;-13.84465127;8.618256815;-10.3557464
-12.19917678;4.931601217;7.267707882;-3.752872345;2.669091679;0.855816806;2.528611965;-2.057882793;30.86092048;3.756505579;24.51297794;29.16629204;14.42012066;9.772181909;-1.537119761;-21.85786361;-14.47519617;10.49611202;-9.555371187
-11.47132951;4.853088155;1.632401816;3.097952918;3.171957475;1.060004883;-0.335870906;-5.67981214;34.28546348;3.889853936;34.83107396;30.47134053;18.34262825;9.337055968;1.24832924;-24.63;-15.50719027;10.34784602;-9.163807095
-11.74376124;5.228331122;-3.106983256;9.069503036;2.043900417;0.793597011;-2.568480117;-8.117887723;35.79829215;1.307256391;46.81709015;26.2942401;19.21424425;8.031051103;4.275935054;-28.63343077;-15.77519496;10.0877862;-9.593874758
-12.25160325;7.768603021;-4.120609175;11.90215733;1.118911063;0.300262846;-1.893070214;-7.245732425;35.83439952;-1.111637013;54.75691436;20.84007813;16.03901636;7.990372076;7.719812617;-28.07958559;-14.04320068;12.61123142;-10.42015714
-12.2081669;12.86571062;-1.129880502;12.72003906;1.802197106;-0.036730376;1.014264885;-4.004967183;35.59633377;0.59445125;56.30204973;18.16071169;9.858672861;9.881909053;11.8870036;-20.41503529;-10.04370078;19.05962341;-10.65447105
-11.55749785;19.04637349;3.564791593;14.29592509;3.818631143;-0.033154842;3.332378247;-1.407622491;36.06420498;8.180524555;52.72660592;19.16755811;3.388156992;12.8296207;16.48822453;-8.563825402;-4.885185191;27.44428566;-9.621981066
-10.98335726;23.91158822;6.975409592;18.02764059;5.486655568;0.163249108;2.850120128;-1.710434911;37.28698458;19.09322269;46.99897471;21.45985308;-0.532562451;15.73728315;20.53781399;1.438494755;-0.413667001;33.93543237;-7.655780723
-11.21404405;25.84710626;7.622714278;22.31882652;5.197639358;0.24991797;0.030250986;-4.407516365;38.4816119;27.52099934;41.53919417;21.80172722;-0.559978898;18.44571377;22.92103508;5.203411911;2.032054117;35.8;-5.921850968
-12.29787153;25.10957044;6.292666302;23.714161;2.747472282;0.073333809;-2.491667922;-6.82904951;38.78819992;28.17499561;37.22627671;19.00896844;2.56205781;21.50327628;23.07139536;3.090504447;2.509985654;33.50933563;-5.448684345
-13.52739792;23.39375626;4.935084307;19.74021531;-0.629632558;-0.230058594;-2.405191932;-6.686241958;37.97671432;20.11464756;33.87976727;14.90302226;6.683653104;24.88668396;21.18929953;-0.71644538;2.314748299;30.21771341;-6.185280263
-14.08860722;22.25482442;4.847769145;10.99980825;-3.478604165;-0.380562241;0.158188757;-4.157495412;36.45807895;7.671988563;31.28627219;12.73760073;9.514788314;27.17069133;17.92585195;-2.012831258;2.916277467;29.04691525;-6.945952239
-13.85783846;21.72016118;5.742642896;0.784903267;-5.452536447;-0.23998795;2.818961365;-1.627693532;34.59667115;-2.39791166;29.69563094;14.52623068;9.551974075;26.23810061;13.92737961;0.141965835;4.862395689;30.46910474;-6.352412521
-13.63546138;20.26631151;6.346744919;-7.38678067;-7.570361494;0.041522519;3.187516672;-1.411074229;32.00473835;-5.560929936;29.45451593;19.39325902;6.27601292;21.05568188;9.657086606;3.27698591;7.504475664;31.97811665;-4.000979071
-14.58692999;16.19596884;5.792159494;-12.19848483;-11.20737423;0.158081964;1.020564987;-3.619366073;27.6005935;-2.558715704;30.30137187;24.07971897;-0.064346515;12.88116406;5.532331361;4.237491789;9.695834038;30.29188058;-0.855506257
-17.32629541;9.28528502;4.451711289;-14.94885807;-16.72849038;-0.06325595;-1.663834792;-6.124305456;20.58167067;1.349022069;31.1087065;25.05406642;-8.56195439;4.681471681;2.066741667;2.156545703;10.80729338;24.2164095;1.486377021
-21.36346829;1.342566451;3.52530865;-17.76785216;-22.94089649;-0.48805855;-2.520800645;-6.57709947;11.59488536;0.34326277;30.41582474;20.66073609;-17.53953114;-0.837513792;-0.263334024;-0.883490938;11.17777009;15.79769343;2.0420619
-25.33281412;-4.806093178;3.880663353;-21.31636978;-27.79817262;-0.779564215;-0.99808223;-4.566102574;3.038690264;-7.733083902;27.40078442;11.98723171;-24.61750427;-2.912169216;-1.35995267;-1.837895581;11.64067721;8.858605283;1.157087803
-27.81053992;-7.143800828;5.279596233;-24.01913026;-29.73643268;-0.691256795;1.303558005;-1.933546475;-2.014816699;-19.90346418;22.56703853;2.181856562;-27.38960477;-2.72241938;-1.698802375;0.600363389;12.5762076;6.169890893;0.099132793
-28.11359582;-5.728015596;6.665472059;-23.48384136;-28.57151056;-0.283590411;2.263074861;-1.023909046;-1.696419942;-30.20210047;17.61890829;-5.113770436;-24.58187841;-1.88806709;-2.106138082;4.936134277;13.3451381;7.540019531;-0.090110534
-26.54839567;-2.488327744;7.157675445;-18.83286391;-25.35;0.128832918;1.250185613;-2.535712679;3.33170903;-33.65532278;14.57820229;-7.299588903;-16.95437616;-0.976004826;-3.219496807;8.191721458;12.63047484;10.24746382;0.509826966
-24.02531458;0.218880298;6.783217964;-11.86535378;-21.43783239;0.24968171;-0.375201981;-4.953061867;10.19745458;-29.17333153;14.71865576;-3.71114816;-7.162519295;0.612532372;-5.03820075;8.303648308;9.442448939;11.30132687;0.804542423
-21.39453554;1.186332076;6.303438118;-5.951118535;-17.65800582;0.048732891;-0.674602017;-6.019028333;15.72572553;-19.51108154;18.00827801;4.310368269;1.53003418;3.447507898;-6.913209468;5.548317659;3.982390073;9.639590209;-0.33167711
-18.98086365;0.946904018;6.386825153;-3.488804149;-14.07956823;-0.230550577;0.952322321;-4.827937125;18.62900294;-8.771113849;23.38690547;14.0842978;6.923514487;6.93983491;-7.968595983;1.985702335;-2.331289171;6.607496175;-3.052344883
-16.57726058;1.065771091;6.965213629;-4.013794062;-10.4108837;-0.300160355;3.179601825;-2.596722296;20.34956962;0.377359205;29.61501889;22.7301984;8.845645394;9.53321242;-7.622526374;-0.356441982;-7.704155587;4.559409696;-6.350663365
-13.81629632;2.760048828;7.366280382;-4.566594355;-6.49514027;-0.082000779;4.024005873;-1.45498543;23.8291705;7.706547481;36.01672431;28.32371266;8.824896601;10.08958895;-5.85963142;-0.935770507;-11.03430435;4.873739647;-8.804396287
-10.61826654;5.869091909;7.029350491;-2.113716362;-2.486463637;0.235702046;2.733143579;-2.436639685;31.00725087;14.25615163;42.5184493;30.50130301;8.832190154;9.079335422;-3.164520809;-0.726416387;-12.43076242;6.938311497;-9.60340852
-7.412854628;8.849788097;6.063841932;3.869336564;1.293613897;0.377584339;0.493229614;-4.552558022;40.85849746;20.32345582;48.94819856;30.16527747;10.05395547;8.323360914;-0.280696531;-1.105081418;-12.8724747;8.709450663;-9.03547914
-4.992993359;9.723363813;5.108167563;10.72743969;4.530880235;0.224669588;-0.699949163;-5.768998026;49.48340458;24.46971202;54.22641314;28.51091094;12.47246656;9.447098102;2.012909993;-2.738145132;-13.36201057;8.198959222;-8.118464954
-4.073432722;7.303803191;4.661440096;14.47528203;6.931402426;-0.094157009;0.077105062;-4.933321;52.33323207;24.38970682;56.31054129;26.13059228;15.28544654;12.49388285;3.070124585;-5.359554833;-14.25370798;4.705523342;-7.772858691
-4.800281029;1.940408988;4.57708231;12.81337088;8.172634468;-0.330267413;1.820009766;-2.838801213;47.11174699;18.89582069;53.26360592;22.92600835;17.57636613;16.0108757;2.560336479;-8.35984235;-15.20549273;-0.956581572;-8.223689686
-6.522595357;-4.629674499;4.231219995;7.030653574;8.005024546;-0.332720884;2.562097165;-1.460491846;35.37698654;9.366720166;44.87151897;18.86718523;18.65230945;18.47491745;0.655607037;-11.39679908;-15.65991914;-7.123087674;-9.017631993
-8.037175648;-10.19080719;3.199837604;1.326112235;6.507406418;-0.157854591;1.239758275;-2.105627383;21.75034899;-0.5572288;33.56187555;14.81103815;17.98855958;19.60429406;-1.943240982;-14.38880631;-15.36846347;-12.2071248;-9.485073234
-8.252861872;-13.19777332;1.769560407;-0.006387166;4.219297524;0.01182485;-1.296586639;-4.207268904;11.28411588;-6.906869624;23.63107717;12.41345132;15.18106423;20.24843598;-4.298045058;-17.00406997;-14.52536346;-15.34437547;-9.179391055
-6.91108307;-13.54883833;0.763173832;4.474014819;1.886099529;0.044042371;-3.063669196;-5.860964189;6.755921314;-7.628904435;18.94989367;12.92667372;10.23660238;21.04440479;-5.749984248;-18.32965527;-13.47373383;-16.60750255;-7.991225899
-4.866091342;-12.57873967;0.82710332;12.3448588;-0.080092773;-0.041991515;-2.775179586;-5.579138603;7.600823601;-3.642452214;20.57615943;15.7863052;4.014852134;21.3642776;-6.29802298;-17.25013338;-12.31872335;-16.88823743;-6.018294431
-3.638986596;-12.27573649;1.856178283;18.89594894;-1.95337802;-0.131221126;-1.009280196;-3.633064997;10.95769658;1.913524957;26.00818265;18.33393877;-1.759264576;19.83393016;-6.497604475;-13.35635089;-10.82264798;-17.51772118;-3.463781211
-4.445471783;-14.15036068;3.108906153;20.1190564;-4.448102471;-0.150276188;0.360083008;-1.76718596;13.83804924;5.624077822;30.75837085;17.25148414;-5.285015424;16.0323342;-6.921076613;-7.617193709;-8.666790234;-19.63996663;-0.681308117
-7.32979005;-18.40333665;3.908791797;15.04007813;-7.984587367;-0.140337638;-0.083946143;-1.585958226;14.78389168;5.599858532;31.20980371;10.83388065;-5.927835662;11.55409079;-7.650727375;-2.130940244;-5.823657693;-23.51075353;1.793866114
-11.04949039;-23.89504709;4.263359527;5.919933927;-12.10676177;-0.195587014;-2.005137833;-3.114228279;13.96804719;2.046197613;26.68905719;0.343135521;-4.970517195;9.010522595;-8.313585816;1.023402287;-2.691309834;-28.15430329;3.443735215
-13.86118164;-28.93847448;4.804372305;-3.58175938;-15.67573816;-0.339780546;-3.6649014;-4.830908321;11.98565671;-3.54635731;19.26168757;-10.75219434;-5.082908419;9.575404471;-8.693721128;1.070783571;0.136573903;-31.79671276;4.154619508
-14.68455899;-32.39387799;6.098023594;-10.82147667;-17.81152391;-0.477750317;-3.561685595;-5.097516812;8.579031149;-9.795223835;11.56997481;-19.1810881;-8.624092146;11.41303342;-9.355156355;-0.97932663;2.262404301;-33.0103236;4.448049103
-13.79774281;-34.31461464;7.983953989;-15.47961668;-18.8043614;-0.481637612;-1.811988435;-3.640545389;2.499189527;-16.30783308;4.632463636;-24.04279968;-15.86466371;10.87219693;-11.56237167;-3.05386559;3.68971178;-31.8489574;5.224124087
-12.53895309;-35.68747427;9.59619329;-19.03645653;-20.08930822;-0.330803896;0.005114738;-1.745531317;-7.286542507;-23.45320711;-2.465796329;-26.982554;-24.43449648;5.810554458;-16.3303045;-3.471519783;4.653996569;-30.04344842;7.080549534
-12.24356168;-37.46236142;10.09242018;-23.05104843;-23.09877806;-0.160895375;0.364625588;-1.038554309;-19.98903694;-31.31959245;-10.73611071;-30.22928671;-30.50722813;-1.901495862;-23.26555872;-2.108516754;5.220916145;-29.90476825;9.711311079
-13.24098172;-39.60911087;9.447665818;-27.64166453;-27.82516708;-0.158172332;-0.768725991;-2.015163755;-32.37150943;-38.79770443;-19.0262266;-34.1664788;-30.99417082;-7.361419475;-30.22547866;-0.411314774;5.011474186;-32.60384614;11.93520924
-14.68117316;-40.9460598;8.577924483;-31.25941649;-32.33530918;-0.385813785;-1.931340862;-3.656098445;-39.85123654;-43.65559915;-23.61061304;-36.54851455;-25.28952519;-6.745235432;-34.29897337;-0.188060547;3.334405203;-37.12615955;12.44124541
-15.28718361;-39.91778828;8.639824499;-31.79980816;-33.82794662;-0.704177251;-1.572295119;-4.424120416;-38.84337948;-43.72371987;-20.42680304;-34.1179854;-15.44952926;-1.026924421;-33.55;-2.018790811;-0.315238099;-40.8151175;10.72686592
-14.38745207;-35.7722704;10.08218154;-28.13208177;-30.57542028;-0.869846695;0.45063527;-3.669659715;-28.91422469;-38.41771701;-8.408342702;-25.34194604;-4.82021288;4.417967512;-28.24961384;-4.504744829;-5.743170152;-41.22058399;7.487889652
-12.38377048;-29.25981025;12.24906586;-20.91973322;-23.28048022;-0.735809057;2.696316967;-2.149825148;-13.32792146;-29.45494178;8.838346057;-11.99981332;3.831604568;4.6253751;-20.62210203;-5.084669049;-11.93234204;-37.89332683;4.125739713
-10.31387924;-22.3093538;13.85955171;-12.21894338;-14.74262739;-0.377835489;3.450587415;-1.239592;2.452179094;-20.09112177;24.67686792;1.723790479;9.443426922;0.288324836;-13.27744683;-2.011172724;-17.45323336;-32.72699471;1.752683022
-8.933113897;-16.88167876;13.94918251;-4.242968726;-8.027320304;-0.033193812;2.300950829;-1.631443003;13.46900011;-13.23583977;33.45893872;11.93694095;12.51248004;-1.697286108;-7.549479331;3.942464726;-21.16744052;-28.54138869;0.491925662
-8.112835637;-13.78810551;12.50399142;1.804801181;-4.513473211;0.095852738;0.516736249;-2.747148915;17.61061916;-9.672100146;33.97926047;17.38503738;14.12315595;6.056767851;-3.01935089;9.551053633;-22.75803634;-26.9727834;-0.381021497
-7.032301836;-12.26592261;10.33213558;6.108320481;-3.274662455;0.001156756;-0.108368663;-3.364854604;16.27358472;-7.641048131;29.76363725;19.67107537;15.04580939;23.57381077;1.512028529;11.33823972;-22.72590968;-27.27873998;-1.62025854
-4.932550975;-10.54901141;8.382663298;9.748565129;-2.158544126;-0.14636195;1.125006547;-2.812938284;13.09675043;-4.163379195;26.04991753;21.39704347;15.49704358;40.43266088;6.563159122;8.542578511;-21.86121285;-26.93687244;-3.241294719
-1.740305069;-7.004965916;7.135078341;13.83616737;0.415461001;-0.164473016;3.224732475;-1.585370398;11.65778879;2.750585746;25.90664037;23.94055087;15.46766095;41.36318021;11.35563008;4.485056467;-20.57163413;-23.52134924;-4.461053471
1.95137458;-1.106433119;6.516835493;18.86508484;4.399507052;-0.023546138;4.448830284;-0.825825488;13.54952958;12.51719391;28.50280893;26.69578481;15.09487264;17.44596493;14.56642639;4.726868616;-18.55579983;-16.40970284;-4.374448986
5.436419928;6.285181053;6.272104842;24.56154938;8.515629632;0.139537012;3.883095727;-1.212998859;17.88274733;22.13580188;30.64634888;28.16527616;14.68466981;-25.4456137;15.70052863;12.71020669;-15.06843733;-7.117705926;-2.759489
8.398971147;13.36135828;6.32408261;30.10204347;11.54738793;0.160955676;2.197105539;-2.323297355;22.29806383;27.99126188;29.98305921;27.64101259;14.44489474;-68.18422519;15.74349874;25.8658289;-9.600193331;1.797548414;-0.310165722
10.8914823;18.19060931;6.772432065;34.42929546;13.27884372;0.006073796;0.923786655;-3.058707099;24.65710774;28.06460793;27.00460563;25.82688433;14.28380325;-89.88871183;16.39307159;35.52629229;-2.488595477;8.272050772;1.888475433
12.88267921;19.50420146;7.597268315;36.5369061;14.2993518;-0.203754199;0.990965413;-2.701327858;24.28024901;23.06456626;24.25038939;23.90152402;13.90441775;-81.5306115;18.48486391;31.67836625;4.992397914;11.57307424;3.17259342
13.9363996;17.1663844;8.453176081;35.77386792;15.0246411;-0.312756869;1.898410334;-1.576120398;22.03425338;15.79996746;23.64235932;22.07435055;13.06770871;-51.7239162;21.033579;9.965303595;11.16644446;12.07336636;3.706066051
13.47342945;12.21861218;8.831236897;32.19636154;15.0210456;-0.279393405;2.280715637;-0.704469978;19.39945059;9.353482562;24.49134426;19.18321448;11.71150916;-20.39848669;21.84705975;-23.90250781;14.78991922;10.50220889;4.174365461
11.46423005;6.483750028;8.470726007;26.78677199;13.38707624;-0.208912181;1.269867866;-0.80700846;17.29274641;5.371103787;23.98772541;13.86377155;9.795139041;-5.102259432;19.30417498;-56.01603749;15.66353574;7.476290986;5.089724757
8.877002525;1.811110148;7.623180968;21.23910886;9.870116012;-0.241263092;-0.666012816;-1.625124081;15.48235338;3.54283493;19.66404309;6.24945183;7.085847324;-10.04168675;13.8172237;-71.94447581;14.65253103;3.604833899;6.344058005
7.303641191;-0.783810799;6.890157388;17.21202288;5.597639424;-0.405647055;-2.196216907;-2.204431242;12.91533315;2.385682814;11.53045569;-1.478224816;3.220124551;-25.488579;7.698544108;-65.44546924;13.14230594;-0.22727493;7.382648899
7.88580025;-1.656095646;6.755104335;15.39688582;2.560517345;-0.584424757;-2.425502789;-1.849229669;8.592430007;0.533540688;1.942978927;-6.436293772;-1.903368501;-36.99770771;3.486348236;-42.28805653;12.306581;-2.968202744;7.794612134
10.36074337;-2.347394322;7.219558843;15.0565162;2.110144009;-0.622954035;-1.739473573;-0.815879053;2.264594141;-2.454141278;-6.603714482;-7.328437161;-7.75431709;-36.61124952;2.10759433;-16.42228558;12.63539266;-3.982733214;7.753019411
13.08072338;-4.642008591;7.856437669;14.50300604;3.71288155;-0.480425641;-1.370378655;-0.073307095;-5.567382053;-6.195207167;-13.65748633;-5.774050091;-13.28229682;-27.49827545;2.402975251;-1.062194504;13.94022726;-3.571675036;7.900673635
14.1252996;-9.344627172;8.208383884;12.33404414;5.120947434;-0.275752034;-2.109900176;-0.3620374;-14.27816028;-10.1616918;-20.94896888;-5.466926999;-17.57981123;-19.41726453;2.367398015;-0.829009099;15.71682846;-2.797557301;8.795636448
12.71110413;-15.55542292;8.157931973;8.608791865;3.976539302;-0.181911929;-3.44372958;-1.460168017;-23.78796944;-14.23694692;-30.4644018;-9.708935891;-20.60137846;-19.79013208;0.986432191;-10.20140048;17.54948499;-2.577522224;10.42381496
9.799826626;-20.98483056;7.956226075;5.069202053;-0.369910756;-0.267513554;-3.998378387;-2.3688758;-34.66781859;-18.71368201;-42.42476192;-19.18241035;-23.25231468;-28.02738303;-0.935609498;-18.80936893;19.29607989;-2.744792762;12.20846085
7.410078125;-23.17782213;7.939345269;4.146818288;-6.290737244;-0.436576283;-2.922734442;-2.250336232;-47.54143787;-23.84022522;-55.22408692;-31.59371132;-26.61665387;-37.18397794;-1.636128337;-19.19833295;21.01163849;-1.947162504;13.4896844
7.170813506;-20.8773933;8.24147949;7.39712787;-11.03264772;-0.525307176;-0.881793672;-1.227664227;-62.24369244;-29.36699926;-67.40239835;-43.28535483;-30.87163497;-40.57180354;-0.114149922;-11.30197511;22.75596019;1.383345951;14.03662511
9.249244223;-14.64893238;8.767915937;14.46486997;-12.65999411;-0.464331659;0.358064507;-0.279681661;-77.4362959;-34.45602477;-79.55733281;-51.42069577;-34.84269837;-37.18991318;2.873356702;-0.883390449;24.4577898;7.679240936;14.15283203
12.44571143;-6.417965591;9.389648194;23.31112122;-11.24185122;-0.349672046;-0.53015282;-0.318196593;-91.05601778;-37.96839862;-93.90491904;-55.12310995;-36.73706676;-31.59767857;5.454084669;5.965423365;25.9;15.59305737;14.31940897
15.26827082;1.658443644;10.08914543;31.49947653;-8.415047383;-0.349978197;-3.145902702;-1.31284837;-101.3217053;-38.88811683;-111.3842656;-55.05426452;-35.60778529;-29.09261065;6.349013667;7.438318802;26.77852197;22.63610603;14.72543004
17.02500844;8.158181522;10.86525448;37.58059628;-5.832167294;-0.533835496;-5.546368344;-2.291970727;-107.5709677;-36.65365154;-128.8623706;-52.25320388;-32.35938355;-30.96424419;6.09901587;6.276007439;26.77189944;26.6604281;15.10110316
18.04833048;12.62067781;11.50684877;41.62525132;-3.88699054;-0.781760596;-5.818943491;-2.229501265;-110.3144183;-31.33376241;-139.5480192;-47.44436013;-29.31643011;-33.96163333;6.675918511;6.214358353;25.62;27.07811339;14.96485667
18.99109194;15.11895248;11.54126882;44.68960919;-1.761732181;-0.873693778;-3.682610178;-0.996882403;-110.5095349;-23.67266723;-137.2947777;-41.24835496;-28.48251796;-33.93515127;9.784001833;8.284514567;23.24619904;24.95588218;14.02444683
19.95746976;15.76201576;10.52350334;47.81492563;1.391027679;-0.680152944;-0.70047104;0.504523612;-108.6802289;-14.9724165;-121.9071774;-34.67608766;-29.76748151;-29.89270198;15.33893005;10.30896929;19.90311466;22.05093711;12.37338717
20.32597906;14.64083056;8.470176223;51.39468879;5.323898152;-0.2848419;1.084724361;1.152651557;-104.6282323;-6.728940559;-101.0023171;-29.02457245;-30.6687689;-24.70141631;21.47478919;9.714674345;16.2315185;19.66229881;10.35903837
19.42844921;12.1956161;6.022851284;55.25783757;8.715396256;0.075934812;0.872159935;0.60510126;-97.9829878;-0.061870147;-86.12511474;-25.04365839;-27.87905671;-22.06396501;26.08779917;6.687763156;13.10614043;18.18772028;8.314804183
17.41525389;9.498367611;4.102822879;59.12049423;10.32854119;0.206702717;-0.341784691;-0.428493888;-89.11330672;4.775440832;-85.2643307;-22.1905825;-19.78307387;-22.87227678;28.5638833;4.494889573;11.2728009;17.54168704;6.438155949
15.4295604;7.96972289;3.269246923;62.80472415;10.21730355;0.107738774;-0.822561524;-0.875571014;-79.57444752;8.418273754;-97.11322382;-18.907365;-7.999832239;-24.42573465;30.16543417;6.567446763;10.96722913;17.80149228;4.892767172
14.82635347;8.572948891;3.302307058;66.00794979;9.806535703;-0.044738293;0.246673511;-0.29287439;-71.59810565;11.80970576;-111.5693684;-13.9403604;3.275893817;-23.1387812;32.72813843;13.07216587;11.78366624;19.31888269;3.944447145
16.0558831;11.07827734;3.388968636;67.99823813;10.67385851;-0.06994768;2.043163913;0.761671892;-66.90226323;15.36103942;-116.4738458;-7.628560659;9.775858323;-18.06689488;36.80810228;20.27569825;12.92618154;22.15391696;3.892685207
18.18645623;14.05444914;2.786884757;67.77498356;13.06145133;0.054277634;2.949960628;1.302494684;-65.6836849;18.49187662;-105.8790676;-1.928289477;9.761123655;-11.90901907;40.91278534;23.49742013;13.70456333;25.45163453;4.789072121
19.53466453;15.72448533;1.421645758;64.76636883;15.45964342;0.184390042;2.137026072;0.871152132;-66.56937026;19.96244712;-83.93524092;1.013768115;4.896792097;-8.599613627;42.51558397;21.12099175;13.94127338;27.55013271;6.208705311
18.93348978;15.13417674;-0.081179462;59.4853171;15.72103345;0.160039673;0.374537547;-0.035738999;-67.59410048;18.77624783;-61.77461699;0.579360763;-1.139966464;-9.790913527;40.01481386;16.05445951;14.00699687;26.98357413;7.367230327
16.6153362;12.79867142;-0.944690095;53.42480351;12.83074927;-0.036151577;-0.687709443;-0.459481293;-67.49738755;14.91821057;-49.95649686;-1.846691716;-5.19556434;-13.47956535;33.9950171;13.23273606;14.47376856;23.66587815;7.593064159
13.99922594;10.35866845;-0.891327004;48.08227572;7.839229367;-0.26003418;-0.090632904;0.088565092;-66.40935362;9.299439206;-52.06558324;-4.14189654;-6.444089034;-15.95765841;26.76360938;15.30235271;15.65351563;19.21872469;6.817990381
12.57882378;9.503357326;-0.346842622;43.85469587;3.124164279;-0.344246208;1.503181718;1.146525466;-65.49;2.975316001;-63.71214098;-5.362731533;-6.282616258;-15.18609062;20.60722214;20.31467975;17.35306181;15.99560888;5.671482768
12.8328164;10.92924216;-0.051997253;39.80905882;0.551165202;-0.258988549;2.411982788;1.728242066;-65.88855688;-3.611298352;-76.794219;-6.545345225;-6.67737758;-12.46750999;16.25157334;23.50992226;18.98308771;15.41429952;5.056882341
14.01646039;14.02291395;-0.439855912;34.64847911;0.05654042;-0.139436026;1.522908863;1.251668676;-67.85381709;-10.6003602;-85.09623908;-9.552097752;-8.452662832;-10.986622;12.74303644;21.61466475;19.88350638;16.86066522;5.513443953
14.92451777;17.38931798;-1.297196497;28.09456524;-0.148835834;-0.151881592;-0.622932885;0.095548147;-70.61145365;-17.89052726;-87.00333701;-14.90917314;-10.87981155;-12.71996149;8.688907819;15.78174984;19.60501647;18.08300385;6.855329747
14.91638339;19.76578851;-1.937162922;21.41023797;-1.908734858;-0.326675783;-2.287944156;-0.732924555;-72.95709571;-24.37701931;-84.14196961;-20.62171464;-12.71621308;-16.64484683;3.65531336;10.4799729;17.99937949;16.87850799;8.356336293
14.33364246;20.69181251;-1.669240416;16.45999223;-5.390764734;-0.520846488;-2.14350769;-0.501191531;-73.98131463;-28.22579596;-78.25539301;-23.23646693;-13.61207078;-19.83937323;-1.494353615;9.293610664;15.18256352;12.84915809;9.306266508
14.01495681;20.59675563;-0.166939329;14.05094671;-8.792265948;-0.551462321;-0.539802825;0.615967315;-73.36720289;-28.27800983;-69.61898071;-20.47919252;-14.56061311;-20.30558774;-5.487155686;11.45322528;11.52534321;7.891190882;9.482317101
14.39558217;20.41459467;2.474467734;13.10183167;-9.806141626;-0.376024535;0.763467637;1.74149096;-71.19527425;-25.49274977;-58.23102664;-13.30393515;-16.96864844;-18.78180783;-7.802494477;12.36409585;7.708240172;4.991630828;9.189494989
15.00041336;21.07421152;5.877167303;11.59310896;-7.687818659;-0.145693385;0.198404537;2.110710517;-67.65555159;-22.96107697;-46.02938042;-5.519804088;-21.16684249;-17.85818623;-8.981034865;7.832744156;4.688163443;6.15292829;8.909892145
14.7626264;23.1327651;9.494060801;8.637062806;-4.199776273;-0.072861579;-2.131172274;1.711478065;-63.0644598;-23.99662784;-37.2960629;-1.121026204;-25.70031487;-19.31300542;-9.836043023;-1.736309353;3.393541976;10.91237285;8.909873237
12.88606663;26.59492962;12.64897901;5.785912414;-2.551063782;-0.231073108;-4.466803727;1.167591806;-58.14083156;-29.47949817;-36.17277866;-1.398582629;-28.10570722;-22.26136081;-10.40374059;-11.06928827;4.183445854;16.49571999;9.12574735
9.53014007;30.84196618;14.66513791;6.109674121;-5.043608474;-0.475989416;-4.932940125;1.031008612;-54.07669135;-36.58366773;-43.13220794;-4.162793873;-26.6310054;-23.89717366;-9.727592211;-14.20029677;6.406655363;19.48335106;9.342666392
5.765549497;34.65934445;15.19362755;11.48620329;-11.21528986;-0.569714493;-3.219879912;1.212492926;-52.0098114;-40.25431814;-53.59199792;-5.691660501;-21.53804371;-22.1207581;-6.766277015;-9.609051394;8.48084452;17.83505345;9.408028087
2.8396253;36.46154105;14.55944841;20.37205575;-17.96123978;-0.401544405;-0.87803594;1.120366872;-52.07357342;-36.70769252;-60.30895544;-3.767909332;-14.92727513;-17.54682794;-1.603401231;-1.766566575;8.626182661;11.94194702;9.237949062
1.302564956;34.78579089;13.73990286;28.31838549;-21.63769901;-0.10182417;0.067774401;0.358728728;-52.76554662;-26.42467985;-58.03768372;0.71255275;-9.198768664;-12.97035091;4.228578333;2.500801274;5.897353575;4.121941714;8.646852767
0.608431474;28.93754114;13.78934202;31.35551002;-20.63771667;0.063709489;-1.049322386;-0.732722997;-51.36153072;-14.18623399;-46.9219596;4.839660139;-5.355836545;-10.76724715;8.743464456;-0.10522335;0.847870344;-2.940661913;7.266292721
-0.560413663;19.48;15.03673047;29.71827856;-16.53510299;-0.067978537;-2.912760381;-1.27353653;-45.3923839;-5.81956507;-31.99043002;6.476587135;-2.483216923;-10.6627427;11.03592735;-6.296824367;-4.678649022;-7.669273961;4.762817458
-3.467113318;8.25762157;16.73143971;28.56523442;-12.92403022;-0.400203853;-3.383514334;-0.626851741;-34.3105233;-3.937716205;-19.22356374;6.31040433;1.208191804;-9.981311123;12.01156896;-8.805961924;-8.570433588;-10.04563444;1.248788513
-8.475436267;-2.137290427;17.5733821;34.39671016;-12.76624204;-0.647787545;-1.424016718;0.971575648;-20.1520464;-5.94681154;-11.35382867;7.397441727;6.627148216;-6.198157098;13.5995876;-2.665383085;-9.654616212;-10.92885794;-2.491321016
-14.63446203;-9.249992856;16.82976538;49.42760747;-16.1511214;-0.580261882;1.926259405;2.567484965;-6.59831452;-6.019583013;-6.633706966;12.56186466;12.75933641;0.525830469;17.03946706;10.13430757;-8.318551546;-10.94851726;-5.271818416
-19.91847539;-11.62419289;15.13208587;68.33619904;-20.08598203;-0.223589797;4.390545125;3.313920856;3.03281818;0.306495523;-1.273331323;21.79070454;17.19525695;7.154604306;21.66786308;21.76935689;-6.170804446;-9.899657746;-6.193421949
-22.06972438;-9.289419702;14.17946878;80.53168297;-20.49171168;0.159548895;4.36467275;3.201179087;7.537451103;12.38186562;6.715765713;31.74340162;17.8510922;10.14939619;25.24797367;24.86493628;-5.008132875;-7.083381182;-5.271523985
-19.72049427;-3.69386792;15.44982349;77.00011349;-15.02888315;0.294300681;2.218006922;2.993218038;8.157616367;24.49356014;15.49905105;37.75612859;14.56395272;8.329034516;25.59748141;18.84544839;-5.774124155;-2.242769343;-3.495042534
-13.26159175;2.9015857;18.93037801;56.98155722;-4.81349156;0.123591785;-0.127870772;3.422369531;7.36203082;29.78512773;20.75056205;36.77714693;9.324288693;3.747093091;22.19227716;10.9228662;-8.119924385;3.7552385;-2.204838365
-4.90965375;8.3753688;22.98568358;29.35908404;6.133431112;-0.159343031;-0.920743111;4.415090391;7.044788978;25.13184578;19.06747509;29.09596898;4.939861713;-0.0822605;16.47805348;10.50556315;-10.72043774;9.168927958;-2.20799129
2.25137085;11.6926704;25.5910235;7.305879567;13.30479947;-0.299493428;-0.055884512;5.113086646;7.450826011;13.30893065;10.64153103;17.85478063;3.111624673;-0.962158817;10.74048319;21.2119074;-12.03237933;12.51235369;-3.267626624
5.869622821;13.4023937;25.97621313;-0.206283542;14.36396894;-0.214295648;0.960457074;4.702025784;7.489639494;0.891577726;-0.803249646;7.06414789;3.344436947;0.598161712;6.572134995;36.85297272;-11.01755298;13.7709934;-4.334955427
5.639931063;15.32572283;25.28772089;6.075675985;10.31727434;-0.059929975;0.453577527;3.269457532;6.0126812;-6.392447298;-10.47571245;-0.276484762;3.49236452;2.376080442;4.200009766;44.87050513;-7.52229715;14.71435456;-4.334409307
3.406430873;19.43852482;25.63632107;17.12696559;4.543500582;-0.07226655;-1.905590072;1.848943517;2.96214254;-7.274353678;-15.27742109;-2.887961044;1.525902606;2.643161432;3.048399942;35.01176807;-2.279995674;17.87876755;-2.915620776
1.837364671;26.4692018;28.26045328;22.79495946;0.464101652;-0.332037338;-4.843139169;1.556737552;-0.476745572;-4.92791539;-14.88150889;-0.911972843;-2.792658681;1.493137409;2.75480103;6.965517014;3.344929302;24.75673528;-0.64962156
2.484286581;35.07344411;32.33355093;19.12465884;-0.530103569;-0.672502094;-6.633606299;2.597065588;-2.729332361;-3.702234038;-10.82818613;4.528890318;-7.575188498;0.242168652;3.504684408;-28.60498883;7.767908542;34.40865648;1.406582309
4.609567348;42.26373596;35.4510528;10.36083881;0.41575198;-0.816524154;-6.566333772;4.07025386;-2.936739545;-5.487489157;-4.940569963;11.40672841;-10.09248616;-0.243754119;5.32415255;-56.3587544;9.691490278;43.56873411;2.396561277
5.729986836;45.04068188;35.43616415;4.449406344;0.833130531;-0.619888083;-5.427766977;4.788962965;-1.468234448;-8.649005158;1.442288386;16.86481379;-8.782579577;-0.516002496;7.133804069;-65.43058567;8.599714562;48.37043436;2.103727672
3.581457861;42.32177738;31.99596227;6.011748143;-1.155785352;-0.2011204;-4.659287447;4.360165115;0.437808482;-10.13054497;7.089415765;17.9971498;-4.549346521;-1.881775981;6.790171026;-55.24412746;5.023314399;46.68510614;0.91083984
-1.929445609;35.91915186;26.90035813;12.62799297;-5.602470258;0.158030296;-5.045909722;3.522000896;1.496782271;-8.630078125;10.31331358;13.38677157;-0.389696198;-4.88598392;2.532878458;-34.5387549;0.362469346;39.55620916;-0.565082323
-8.316831273;29.82391591;22.61556801;17.38003906;-10.92210423;0.249733283;-6.136623861;3.410460799;1.008382056;-5.949653426;9.33011632;4.436551173;0.465953002;-8.547851558;-5.137666707;-15.02990643;-3.734164889;30.73280407;-1.819403966
-12.05839252;28.13732112;20.5912974;15.35968602;-15.15692161;0.10197482;-6.837528742;4.442822456;-1.052024653;-5.329601062;3.602731066;-4.781574718;-3.311801657;-11.15537184;-12.84153128;-4.446275135;-6.127818267;24.54571412;-2.567592924
-10.98406956;32.89903741;20.57928876;8.533864811;-17.23262308;-0.073885128;-6.518911455;5.885636444;-4.319343241;-8.287061905;-4.983813157;-9.529597448;-10.15984578;-11.81736082;-15.91063055;-3.351444839;-6.633570412;23.47922147;-2.663176895
-5.706735053;43.12949577;21.3474805;4.692033631;-17.28493348;-0.091519738;-5.566255145;6.543080437;-8.299881394;-12.84983034;-12.43663236;-7.157460338;-16.44373346;-11.19392367;-11.40776731;-6.932409454;-5.881378305;26.98720368;-2.03058719
0.984361639;55.56872933;21.91641563;11.0948025;-15.98872136;0.042747288;-4.914871438;5.932002952;-12.39031863;-14.92510813;-14.68274718;1.267438596;-18.57032164;-10.65082098;-0.450508765;-9.51392761;-4.731578415;32.24326192;-0.738098863
6.244296981;66.47925841;22.11611712;27.91633183;-13.65345053;0.154213639;-5.10284367;4.814697448;-15.79495093;-11.8255568;-10.0883408;11.65099864;-15.03923711;-10.68624517;12.04044801;-8.306419069;-3.693551211;36.21091856;0.869472101
9.096921033;73.30157693;22.09019672;46.95716347;-9.979779035;0.084115738;-5.796570168;4.534881584;-17.63120607;-4.994887093;-0.695285987;19.41421711;-7.156717936;-10.24985498;20.26177768;-4.225720264;-2.753388414;37.59012368;2.174270568
10.66271356;75.27499908;21.50373062;57.03500323;-4.714323077;-0.145871724;-6.220772398;5.735640775;-17.31424673;0.552104153;8.773444833;22.09657453;1.952191962;-7.715669593;21.19421803;-0.069113478;-1.655648783;37.39230546;2.528982129
12.63098941;73.01223831;19.51;52.15693508;1.436549517;-0.345563683;-6.009679147;7.666095138;-14.97797601;-0.055202075;13.53887293;20.31003906;9.282101376;-2.603773265;16.42992099;2.017432712;-0.317207028;37.91733641;1.625997505
15.38766293;67.70037679;15.68910186;36.25397065;6.60379598;-0.331926002;-5.594199279;8.783597067;-11.56375529;-7.457650495;11.34955842;16.68899567;13.5250513;3.674588898;10.84535203;1.900238806;1.008901516;40.98236701;-0.268914255
17.46990607;60.59774272;11.0231546;20.76621328;8.697348395;-0.101190961;-5.730775958;8.157783102;-8.424981408;-16.90413442;3.505342456;13.9489998;15.32956409;8.88748734;9.090039063;1.043946183;1.922544401;46.64058117;-2.418029238
16.84632328;52.949335;7.715165278;16.74836762;6.93061116;0.165149526;-6.65882915;6.392159322;-6.663671259;-21.18379115;-6.064125826;13.57137359;16.26591475;11.92873766;12.437689;1.048120363;2.179718;53.1436897;-4.017819626
12.91315128;45.95195505;7.659311492;27.25421655;2.737866459;0.265479156;-7.764164024;5.164895277;-6.609706967;-15.68795629;-12.86644475;15.77558788;17.4160261;13.76770108;18.22104587;2.370658549;1.792951499;57.99529589;-4.656775012
7.432627963;40.43949333;10.75625543;45.46761392;-0.794177419;0.158577974;-8.131359471;5.739669182;-7.724411914;-1.927487022;-13.82103339;20.22590644;18.67436901;16.41367065;22.113398;4.079961145;0.86167138;59.29339646;-4.523423449
3.502746181;36.4403426;14.6693874;59.71857728;-0.782433333;-0.008929832;-7.469782523;7.773064352;-8.905358527;13.11854736;-8.303717815;26.44832435;19.19743724;20.81842343;21.42998752;4.664085206;-0.619156972;56.5549674;-4.222897716
3.317918401;33.13210262;16.5026687;61.53725932;3.534287063;-0.050647102;-6.485892426;9.526418341;-8.966249629;21.4329287;1.863946699;33.53684386;18.49173475;25.73799756;16.97497453;3.253928141;-2.679937713;50.71494817;-4.316369372
6.538438061;29.51860123;15.14130161;50.96729339;10.19386438;0.079345597;-6.278487494;9.340589184;-7.09369166;19.07603645;13.1634646;39.70156886;17.12196668;28.7301897;12.1803895;0.406718265;-5.036636931;43.5349195;-4.880839507
10.62297701;25.48203967;12.22920334;35.70737925;15.71786617;0.246075987;-7.28905392;7.078195002;-3.21681723;8.482550435;21.52950438;42.53955004;16.34937832;28.41027785;10.37242644;-2.112562719;-6.860354098;36.87158513;-5.383240657
12.87034631;22.33749564;10.79272964;25.25673546;17.33102113;0.270083618;-8.819210017;4.245577697;1.746212817;-3.475357039;23.69089065;40.24093403;16.92026925;25.78657809;12.33933491;-2.480209668;-7.053473188;32.1182838;-4.97510163
12.51116996;22.21486448;12.56591487;24.58924252;14.6723968;0.107581893;-9.634693265;2.69014876;5.91984195;-10.10851565;18.44907867;32.9194498;17.9964881;23.27801002;15.99259262;-0.168816174;-5.016185229;29.89261274;-3.050868604
11.16074059;26.47926595;16.32387232;31.6903494;9.854068595;-0.101523204;-9.143825207;3.05577162;7.003297247;-8.981376291;7.430955779;22.89789129;17.22127292;22.2366769;18.19839713;3.471207377;-1.361200757;29.93572144;0.271131301
11.30369709;34.28367086;18.77778283;40.07918473;5.906398472;-0.167411761;-8.044756515;4.386370007;3.317100485;-2.867333258;-5.21712176;13.50895555;12.10148568;21.36645372;17.1987637;5.961886309;2.100541405;31.23080752;4.070778004
14.08502904;42.44197767;17.37671115;43.85302054;4.753938842;-0.039467084;-7.776525293;5.198076265;-5.065556987;2.649264044;-14.38332207;7.192464909;1.858485375;17.75587976;13.7125814;5.39726689;3.308995926;32.38132469;7.047812603
18.20804292;46.93498658;12.6163264;41.42702103;6.104785028;0.133473069;-9.211985163;4.977820109;-15.8491733;2.959245577;-16.2994559;4.293093344;-11.5552681;9.820284938;9.984041864;1.889368334;1.287104004;32.19021005;8.217407281
20.79404175;45.14827429;7.779841526;35.65447149;7.900151391;0.137307063;-11.77532869;4.678114863;-25.25700847;-2.961652016;-10.51636595;3.404564388;-24.08469379;-0.506716554;7.724274046;-2.42632323;-3.10924911;30.20887785;7.445967569
19.47030235;37.34828051;6.240801906;30.90034851;7.862331288;-0.098780706;-13.83238303;5.734415204;-29.80230033;-12.5133688;-0.409093498;2.834907259;-31.55523009;-8.560465546;6.721382464;-4.998304157;-7.651566481;26.9585294;5.465483219
14.03824765;26.42246381;8.634342171;29.64620565;5.007655059;-0.416625223;-14.05971119;8.546779565;-28.12267587;-21.53224841;8.28;1.893026165;-31.80601909;-10.35535773;5.251820566;-4.925984041;-10.15472721;23.67347423;3.345490017
6.52264191;16.1449967;12.38843048;31.06279298;0.163508108;-0.555472221;-12.58755692;11.90878649;-21.70638309;-26.78982396;10.31439791;0.975084621;-25.69024712;-5.810862697;1.88218266;-3.795031851;-9.854179549;21.689795;1.790795465
-0.253024266;9.216695095;14.06099482;32.17756758;-4.69341088;-0.383389639;-10.8845412;13.99853309;-13.97899292;-27.39350509;3.846511338;0.582312696;-16.43684185;1.043425909;-2.920608596;-4.434843167;-7.765291486;21.79700469;0.775274627
-4.340108226;6.327590677;12.42596049;30.36076992;-7.69550637;-0.024305723;-10.47442299;14.05449837;-8.307007817;-24.60827426;-8.266863912;0.374702418;-7.904237805;5.18120401;-6.803647091;-8.439083178;-5.825131591;23.8525312;-0.223356023
-5.383557783;6.582982877;9.539663019;25.19490181;-8.102744925;0.23907878;-11.63075992;13.14410879;-6.213940783;-20.67302097;-19.60529372;-0.718604468;-2.824062182;4.41747314;-7.25954562;-14.45494884;-5.536158035;26.78287865;-1.596994399
-4.146060068;8.614438898;8.795844346;18.57700025;-6.551744908;0.204147009;-13.21424019;13.20943485;-6.923858375;-17.55218071;-23.40095062;-3.360087891;-1.920140047;0.743719357;-3.724809298;-18.80827692;-7.147100514;28.92678585;-3.130513432
-1.578154803;11.38055897;11.70156507;13.29088816;-4.54649338;-0.08266516;-13.77557589;15.17480591;-8.377303704;-16.23041039;-16.2360299;-6.707518138;-4.086754801;-1.839556915;1.679220732;-18.19471795;-9.882407507;28.61404244;-4.113447956
1.658575487;14.20416288;16.32670733;11.22048197;-3.591363645;-0.37524908;-12.89690005;17.85319437;-8.847978284;-16.60956871;-0.175034029;-8.504165143;-7.206702586;-0.905099149;5.472414255;-12.38499415;-12.83720634;24.86340432;-3.986896358
4.977562414;16.40841848;18.93601773;12.36048735;-4.441782597;-0.446015953;-11.54214025;18.76360564;-7.985664035;-17.77003906;18.01817064;-6.507283865;-9.065102265;2.63860875;5.300986876;-4.707013105;-15.65778833;18.01095365;-2.982822607
7.50052283;17.239419;17.43392811;15.06736722;-6.789563744;-0.272906977;-11.11491563;16.27112251;-6.69073432;-18.39724269;30.33174043;-0.215551192;-8.0769894;6.022143075;1.724524428;0.237615585;-18.43160868;9.951204901;-2.155367274
8.19979956;16.33922015;13.51666073;17.19327866;-9.471369602;-0.030212796;-12.12036886;11.20294032;-6.157502054;-17.30418889;31.75551677;8.485477118;-3.804462458;7.681021482;-2.078731641;-0.087896328;-21.01113165;3.660058594;-2.673568777
6.601216961;14.31789013;11.45930881;17.33026348;-11.0826163;0.096067441;-13.68624334;6.450165149;-6.949748547;-13.96636146;22.85716773;16.3264545;2.7763267;8.829851215;-2.528458007;-4.400897363;-22.55683656;1.947642951;-4.882117176
3.393120524;12.69416998;14.43293024;15.4664946;-10.71492806;0.085734944;-14.38924712;4.778742768;-8.743534345;-8.844576619;9.149750951;20.5920253;9.472802808;11.99636656;1.811174861;-8.829516597;-21.8936039;5.903204068;-7.898380346
0.218382939;12.95132628;21.53059822;12.757166;-8.449417443;0.085240958;-13.61093621;6.650978382;-10.7013929;-3.238396507;-2.298363988;20.59735711;13.7349396;18.00274768;9.179864814;-10.10123914;-18.49779741;13.90015245;-10.13620154
-1.385044005;15.29284793;28.19496842;10.60499183;-5.31426378;0.236208123;-12.15102582;9.895453911;-11.96820373;1.360315237;-6.817280999;17.74018832;13.9795976;24.49373714;15.76758011;-8.068585173;-13.27016191;21.92991148;-10.4031301
-1.101381419;18.1154129;29.82704894;9.622611002;-2.691080719;0.504581824;-11.51708613;11.50273134;-11.87797654;4.073772095;-4.188814769;14.27897242;10.66805363;27.68951826;18.16109482;-5.543610024;-8.317483888;25.3451311;-8.722092024
-0.043695925;18.79175668;25.54827237;9.139918968;-1.50970093;0.685314603;-12.54378062;10.02549226;-9.93118798;5.068947552;2.239402948;11.83873217;6.302552265;25.87429706;15.32127095;-5.698987052;-5.7446588;21.197047;-6.22272925
0.212193258;15.3572504;18.88621447;7.628488839;-1.753240025;0.588976712;-14.62172866;6.59164456;-5.903747202;5.278543263;8.334575578;10.62192446;4.07637426;21.257853;8.787959745;-9.325785431;-6.299788641;9.871677429;-4.201887402
-0.983729836;7.924927014;14.7871657;3.835819438;-2.616786854;0.23685114;-16.25109141;3.78226582;-0.248030395;5.575487386;11.63432127;9.593532986;5.880351691;18.18543782;1.185661136;-14.28469085;-8.896846077;-4.943867203;-3.144160037
-2.724583134;-1.23218848;15.53734982;-2.115227626;-3.200849866;-0.127156319;-16.40455885;3.458881504;5.548810624;5.984464022;11.85634697;7.230778164;10.99469046;19.11;-5.693606925;-17.53132654;-11.39172389;-17.97084119;-2.524142329
-3.280769234;-9.045262015;19.09835602;-8.493342636;-3.211266134;-0.23363606;-15.43543507;5.435288934;9.223378534;5.51616956;9.655786558;2.301655094;16.47570725;22.0598839;-11.7986039;-17.85313055;-12.0340495;-24.76473794;-1.534185416
-1.672602654;-13.51636328;21.21110278;-12.89519508;-3.122585657;-0.022130212;-14.69631228;8.0178846;8.820496202;2.774880559;5.29408539;-5.544819398;19.08581446;22.19861279;-18.19822704;-16.87780863;-10.53240113;-23.56154802;-0.064244686
1.200155134;-14.78882277;19.30396073;-13.8076371;-3.686198008;0.301653681;-15.23922783;9.733906911;4.073929455;-3.056056946;-1.253427757;-15.34693076;17.44282006;16.3368061;-25.60781123;-17.48527627;-8.02406395;-15.70729526;0.983172971
2.876635834;-14.72911587;14.70174983;-11.70621094;-5.200538984;0.44378804;-16.82214777;10.58028817;-2.910654487;-11.49554436;-8.831498217;-24.66365874;12.8264604;6.323931443;-33.30176627;-21.07185687;-6.106270872;-4.703864226;0.394334336
0.990491032;-15.41474347;11.228698;-8.836134486;-7.162810088;0.278692846;-18.15163113;11.69745487;-8.363141511;-20.7480285;-13.9696859;-30.04968322;8.049280111;-2.008564387;-39.23925317;-26.12685103;-5.746175023;5.415580209;-2.193864622
-4.918637385;-17.6670621;11.57661232;-7.747872544;-8.6064644;-0.04583845;-18.12582713;13.90334681;-8.71;-28.35138493;-11.82684299;-28.4252024;5.281757147;-3.717772671;-41.26381358;-29.40107035;-6.846922154;11.53832909;-5.689402073
-12.79451803;-20.64842276;14.80944348;-9.607296076;-8.850465636;-0.247930236;-16.89957057;16.57116112;-2.491482722;-32.08501308;0.758215597;-18.91133105;4.552656662;0.848538648;-38.49154094;-28.63254193;-8.623818874;12.24412225;-8.106483898
-19.15394593;-22.70605121;17.29586037;-13.51524003;-8.034228294;-0.165242532;-15.75958855;17.95818794;8.867458437;-30.70278887;22.18969705;-3.977237613;4.119629646;6.26069881;-31.96841098;-24.4079648;-10.31211637;7.837912331;-7.938789824
-21.15173082;-22.74570953;16.19100068;-17.33241485;-6.991219686;0.109168999;-15.91842969;16.69450181;21.88374062;-24.28786441;45.67842253;11.21930981;2.389938166;6.925328472;-24.2509634;-19.51476682;-11.59304721;-0.143471366;-5.283624313
-18.22588901;-21.0998589;12.2203465;-19.35483565;-6.57420643;0.327843242;-17.35903341;13.04985194;32.85486399;-14.25769126;62.43537294;21.33862009;-0.233807355;2.408975665;-18.23926982;-16.38806643;-12.50964766;-9.670278024;-1.814730557
-12.27223007;-19.29234454;9.13098465;-19.52934045;-7.004132623;0.324084802;-18.82392552;8.817127459;39.56177743;-3.089856031;66.71469475;23.81123233;-1.218539024;-1.795958353;-15.92271617;-14.97367441;-13.12898075;-18.93371282;0.390838566
-6.344837378;-18.92650356;10.2394788;-19.28022059;-7.777526523;0.156374842;-18.97393046;5.937986597;41.94161544;6.250519776;59.28519003;20.22523828;2.241130128;0.908874417;-17.607905;-12.9701405;-13.35402242;-26.78171569;0.261415177
-2.839677703;-20.53659964;15.23610621;-20.14750738;-8.172703143;0.028885798;-17.64127264;5.124822523;41.60300256;11.20467393;46.8347421;15.05453356;10.75549443;11.93838023;-21.89660978;-8.276505202;-13.03099851;-32.71731886;-1.690671384
-2.343492611;-23.24032782;20.27397092;-22.40318234;-7.88081939;0.072861041;-16.00551478;5.66438422;40.71592454;10.64812839;37.69721275;12.53718984;21.67219592;25.52268423;-26.38744013;-1.444855486;-12.15428569;-36.53671667;-3.98263759
-3.753902648;-25.44926533;21.42380453;-24.81606037;-7.203595575;0.208946418;-15.52387632;6.434490294;40.95867413;5.576862021;36.913262;13.94333617;30.43795836;33.15273414;-28.83505227;4.164481871;-10.89656379;-37.95464456;-5.375975618
-5.385944641;-26.14554126;18.44083991;-25.76335929;-6.669213581;0.231691971;-16.6122126;7.051190224;42.93019155;-1.081025984;43.95633197;17.21713156;33.55082805;30.81320705;-28.28361036;4.864915582;-9.430554378;-36.61503637;-5.691762485
-6.20097225;-25.81660484;15.34128121;-24.73595249;-6.447474585;0.037257893;-18.30479304;8.038128661;46.10379368;-5.690640524;54.29067616;19.14523367;30.96521354;22.55485429;-25.57699987;-0.238586375;-7.774528539;-32.57076047;-5.658967847
-6.351990354;-26.33396992;17.02874897;-22.92079654;-6.120451979;-0.234379034;-19.19882453;9.952087765;49.24642023;-5.688181733;63.08099661;18.22742726;26.130201;16.95563532;-22.83809137;-8.167742795;-5.883564644;-26.82883035;-6.079027196
-6.800917423;-29.7575638;24.76889193;-22.29548973;-5.034785654;-0.300524082;-18.77933502;12.46137788;51.1786233;-0.946966858;68.09988127;15.91805749;23.57057352;19.37962385;-22.08210238;-14.07047355;-3.922044263;-21.3389055;-7.111041608
-8.400417645;-36.80736078;34.50153606;-23.93388254;-2.929001397;-0.005048836;-17.86441239;14.4085684;51.6104869;6.137230786;70.02125787;15.3021994;25.74635177;26.99862096;-23.80115451;-14.77735863;-2.39820193;-18.1543305;-8.263724486
-11.1386319;-46.05569379;39.66060482;-26.94509128;-0.272974255;0.495179682;-17.75144255;14.86557223;51.57703992;12.00919678;70.65313674;18.41345729;31.45607016;31.4048118;-26.57588;-11.05913221;-1.918121605;-18.22345941;-8.983115942
-14.06925823;-54.49531633;36.3015275;-29.01660959;1.997462835;0.821391842;-18.89145236;14.12625395;53.00544506;14.04494493;71.15551897;24.49507975;36.89158645;26.87464106;-28.17396038;-6.774691211;-2.692161794;-20.75554964;-9.206231409
-15.94589001;-59.23;26.28498821;-28.23315729;3.143567798;0.686519987;-20.38569176;13.55733088;57.41465427;12.15990651;71.76206075;30.63935398;38.50799554;16.85708108;-27.45927692;-5.647606833;-4.239800159;-23.82017826;-9.355861757
-16.08542926;-59.20851529;15.85124447;-24.74467546;3.139155588;0.159774077;-20.82674704;14.31633702;64.4818428;8.969259455;72.71238432;34.17498349;35.60697449;12.19635936;-25.61704286;-8.324319348;-5.643086227;-25.8788239;-9.830788162
-14.82093175;-55.78997144;10.78996402;-20.88235432;2.629085489;-0.365142294;-19.71061502;16.1120546;71.59778803;8.364465556;74.84731796;34.70143962;30.8409746;21.61624246;-25.49784824;-12.0645117;-6.224177174;-27.06913508;-10.52762638
-13.18710217;-51.68064918;12.22580316;-19.50243563;2.395011671;-0.489175768;-18.05698743;17.26379836;75.06;13.27015721;78.8232001;34.062378;28.40793573;42.22260827;-29.27980126;-13.18554961;-6.08893264;-29.08964066;-10.87149519
-12.04119314;-48.9401162;16.39751542;-21.75999473;2.782414364;-0.143571889;-17.57877206;16.15485045;72.37429161;23.79723541;83.61212431;34.43547647;31.3045545;58.74355306;-36.14357837;-10.12045458;-6.021028969;-33.59610596;-10.31994608
-11.27760343;-47.49941617;18.33226654;-26.03702419;3.526599139;0.354430189;-19.10779218;12.824402;64.12036649;36.80227349;86.10403491;36.39551303;39.50576794;53.55119105;-41.96976256;-4.531469762;-6.751711094;-40.32748229;-8.848957366
-9.791604727;-45.33486173;16.0689446;-28.92026587;4.045901574;0.579271021;-21.73206453;9.199446067;53.9193433;47.16228319;82.9208688;38.75798721;50.11741875;20.43607556;-41.72552884;0.353298253;-8.213246445;-46.60028907;-6.965738281
-6.327533196;-40.24084774;11.84644232;-27.56416728;3.90023455;0.364057516;-23.49825072;7.636332864;46.33694315;50.24171943;73.46360965;40.26437729;59.15626569;-28.73409178;-33.08681294;2.640136032;-9.464941293;-48.85356195;-5.267688854
-0.646426204;-31.89993642;9.524668663;-21.69715485;3.055278451;-0.068852888;-23.10223221;8.992121109;44.14984504;44.41877268;61.64332438;41.3320575;63.68387865;-70.38849828;-18.613644;3.350834022;-9.433866534;-45.25586868;-4.004254185
5.897264174;-22.63273565;10.82966253;-13.78436228;1.843209217;-0.326834971;-21.04890554;11.93804845;46.96865967;32.38857486;54.3254654;43.92394779;63.08116249;-84.5418363;-4.595823326;5.303026968;-7.885018125;-37.36319756;-3.06892825
10.93915237;-16.13714231;13.87576974;-7.254278148;0.786098901;-0.211977404;-19.20532936;14.15637377;52.18485894;20.38069041;57.03478976;49.38196341;59.02120131;-67.81329889;2.913317467;10.26457805;-5.776118168;-29.37963281;-2.387759531
12.57057585;-15.04242443;15.16676519;-4.144748601;0.481615808;0.103674203;-19.123847;14.36781368;57.34797235;15.35848115;69.90805477;56.24988518;54.48134676;-34.64997503;2.146831725;16.90482912;-4.628658321;-25.38449211;-2.243814945
10.67596487;-19.04741067;13.05247549;-3.905897618;1.553252274;0.252853423;-20.64867235;13.37047401;61.92948988;21.39061319;87.0885877;60.57559964;52.43888696;-6.288032326;-3.206706436;21.48461444;-5.378666622;-26.53013367;-3.123210978
7.119945077;-25.02377051;9.354924147;-4.144232853;4.497839723;0.033646142;-22.08131744;13.16116728;67.01695543;37.11760222;100.3385179;59.19937309;54.75023705;3.841150136;-6.636648465;20.94977398;-7.639102904;-30.32266276;-5.162421274
4.5556677;-29.0169622;7.660097656;-2.585653775;9.346261764;-0.383131808;-21.76382667;14.96295839;73.35908842;55.98296913;104.4214928;53.59975785;61.47608777;-2.524264355;-3.35709379;15.95895929;-9.985063471;-32.52590477;-7.737949566
4.658926289;-28.68600058;9.897904395;1.32926435;15.33077512;-0.600028076;-19.63495483;17.99024585;79.72618601;69.51106055;100.3687586;50.60803199;70.82210528;-12.82398332;6.526611555;11.1596037;-11.02258667;-30.21458767;-9.690109289
7.058514892;-24.46579312;14.41862507;6.378322516;20.92298142;-0.364580694;-17.32736845;20.10384049;83.33784765;72.02067261;94.29237944;58.22660337;79.8199393;-14.99580433;18.42613093;12.01671267;-10.35452466;-23.66742337;-10.11220832
9.733115287;-18.78035975;17.38523053;10.86845031;24.42716744;0.177016583;-16.70492373;19.75705251;82.22493338;63.97311113;92.75280331;78.77538621;85.64131689;-6.334284099;26.72594954;20.24605966;-8.676074114;-15.79230082;-9.071501464
10.54308741;-14.11285529;16.23486451;14.08082449;24.87007813;0.587658579;-18.17238164;17.42850556;77.45789454;51.67893889;98.19163021;104.509863;87.01137887;6.419664967;28.56695325;31.29633673;-7.008072919;-9.758133312;-7.609016271
8.724890485;-11.47081215;12.03721528;16.61660364;22.59770497;0.522575679;-20.30602073;15.20549194;72.99205028;43.28607827;107.6881358;120.0006289;84.90497879;14.36484842;25.24675598;36.18819279;-5.816664426;-6.830374805;-6.955929875
5.261993696;-10.25739472;8.555301305;19.46085629;19.10718883;0.044054773;-21.14766077;14.89990266;72.80257437;43.51885657;115.6125843;111.0150522;81.9618919;14.07834974;20.59106095;27.02303719;-4.816473826;-6.032141014;-7.593400824
1.972958502;-9.313988013;8.809130358;22.7393092;16.173042;-0.422785001;-19.98186025;16.45011096;77.46149639;50.70541589;117.8444776;74.53364125;80.84452846;9.343906511;17.99371815;2.704488478;-3.579555495;-5.599543273;-8.939402991
0.153950134;-8.026487561;12.23604573;25.39699917;14.85722834;-0.46149787;-17.97635436;18.09734004;83.13978466;58.23975957;114.34;22.83899903;82.56249016;6.496136697;18.56003906;-29.10068945;-2.298760371;-4.736447905;-9.907381147
-0.130141352;-6.570361969;15.04964833;26.1627623;15.07919797;-0.032484689;-17.11188336;18.15638413;84.26738601;59.54925435;108.4566887;-21.96217711;85.92913782;8.335489455;21.48661753;-55.48208258;-1.897962337;-4.120557444;-9.822150712
0.337825634;-5.322425016;13.55186227;24.94441346;15.97961924;0.493832256;-18.39272169;16.68535898;78.04131156;53.03873562;104.0565197;-40.18812306;88.56770783;12.11881098;25.76298353;-65.40446734;-3.295842418;-4.901157665;-8.886311159
0.890797153;-4.249472472;7.497918113;23.32045637;16.70526901;0.669151015;-20.97182972;15.4340902;67.18575964;43.36654596;102.8897045;-25.91298355;88.74487881;12.88789895;31.30511819;-56.02914622;-6.455962449;-7.322717556;-7.830920791
1.580553403;-2.983995008;0.524909569;23.52328226;16.97197884;0.364405062;-22.96171952;16.0751586;58.50069788;38.03162429;104.1059684;9.998640852;86.66187435;8.541012947;38.46786121;-34.19251852;-10.12432677;-10.35;-7.145795528
2.915456113;-1.476668897;-2.787508454;26.65250472;17.0301268;-0.126264727;-23.14524704;18.38713565;58.04268784;41.75805027;105.7803436;47.05837485;84.2298121;1.869779446;46.62930164;-12.07897536;-12.59097759;-12.60885947;-6.655330203
5.086502304;-0.427541013;-0.714557592;31.63992124;17.19943569;-0.364095222;-21.99575814;20.18242598;66.60139377;52.89170852;106.8041151;67.6135414;83.52422197;-2.050701557;53.51633099;0.093218621;-12.89992199;-13.6459213;-5.838904771
7.513061451;-0.857744074;4.211539607;35.96500526;17.47388405;-0.167015749;-21.0975907;19.18591993;79.06682592;64.56220142;107.5350825;66.36541241;85.13642382;-0.422018275;56.25388186;-0.353688033;-11.49480267;-14.20771352;-4.543646558
9.205810892;-3.068186716;7.372511365;37.6613949;17.55456949;0.235372365;-21.56984932;15.21794765;88.25533627;69.74558992;108.9260922;51.14757707;87.69520198;4.990218222;53.43954934;-8.159977807;-9.743457408;-15.22655869;-3.329125467
9.62789348;-5.975701256;5.933954696;36.98361243;17.2203208;0.431468555;-23.01410246;10.65167634;90.19433266;66.36206855;111.1710304;35.43948567;88.88066895;9.692990699;46.45793953;-14.75705978;-8.752135985;-16.52869667;-3.029706468
9.21580381;-7.632550895;1.154365114;36.27056139;16.62631173;0.223220102;-23.97579554;8.610174886;86.69835539;58.52288803;113.1505497;28.5887481;87.07683653;10.45653656;38.78756948;-14.40686127;-8.504493047;-16.65016674;-3.907727895
9.004124722;-6.694959927;-2.719241346;37.99467282;16.21641798;-0.183987191;-23.44556847;10.41085683;83.29685272;53.05428105;113.1136237;30.60477208;82.3661278;7.758601267;33.75;-7.564133971;-8.073624356;-14.14515953;-5.237819852
9.637724173;-3.638905025;-1.925579556;42.54475891;16.32921114;-0.375302239;-21.92612486;14.48603998;84.36824831;54.10978403;109.9717166;34.38634211;76.18827399;4.714317114;32.47686551;0.536472221;-6.696019334;-9.289813907;-5.820389121
10.67116348;-0.578719246;3.887069002;47.61499112;16.87908533;-0.122599119;-21.00754363;17.72478858;89.55030523;60.11502299;104.1893172;32.64430612;70.10794138;3.862113952;33.63838838;4.489362426;-4.712444209;-4.525414988;-5.045951313
10.85060456;0.312398601;11.56111598;49.81339058;17.41705074;0.389811132;-21.83508439;18.04281616;94.31234988;65.34320131;97.68805722;23.78061214;64.80297556;4.96271198;34.92919257;2.770087891;-3.480301162;-2.963005655;-3.540376493
9.198725987;-1.486296379;16.9782749;47.26;17.50693484;0.725340492;-23.94305897;15.93221236;94.0295761;64.6882961;92.91563083;12.51882643;60.06598175;5.710316362;34.85972496;-1.735113798;-4.274809013;-5.994922189;-2.718061804
5.960945901;-4.492967082;18.00542406;41.06721069;17.05663461;0.595783733;-25.61202323;13.71593123;88.00273509;57.71151279;91.66319379;5.538087984;55.63880776;4.361794987;33.34953099;-4.703275128;-7.122470873;-11.99190785;-3.546803772
2.533089222;-6.617445251;15.5551165;34.46846963;16.30458376;0.129386581;-25.46262268;13.31647565;80.03517549;48.77035213;94.18653717;6.090551129;51.95511592;1.568851434;30.91866552;-4.097237739;-10.62103459;-17.30152527;-5.606864685
0.358713086;-7.144803715;12.28217755;30.30158114;15.50904764;-0.246470472;-23.79298629;14.62212617;75.19548051;43.32491423;98.95023522;11.84105386;49.99941373;-0.33126477;27.63422271;-1.549518297;-12.97494051;-18.88138528;-7.350918456
-0.294789296;-7.54791363;10.35679274;28.92969136;14.67360664;-0.201663801;-22.3633609;15.85774258;75.62949784;43.60211707;103.1181269;17.1511893;50.35501802;0.255850033;23.07513543;-0.516179618;-13.41920404;-16.4986618;-7.431070574
-0.622688721;-10.3006338;10.19018886;28.30921205;13.58491396;0.190759898;-22.77939517;15.43246468;78.98573969;47.16027668;103.7261884;17.44978671;52.31448819;2.493304069;17.3587891;-3.079754996;-12.83744502;-12.73613894;-5.961456844
-2.34827156;-16.5910302;10.82151058;26.07340212;12.10250139;0.52734528;-24.97083636;13.39489852;80.66195009;49.32807984;99.14894085;12.05802636;53.93792376;3.821584496;11.97604776;-8.266182949;-13.0315173;-10.83240777;-4.557884491
-6.317183965;-24.86753478;11.171887;21.7602602;10.37044789;0.459958491;-27.21621555;11.12809991;77.78070358;47.23384633;90.10518016;3.606512017;53.15155194;2.356542737;9.175442213;-13.19012655;-15.22162661;-12.13863288;-5.026614531
-11.76679477;-31.54746058;10.88458101;17.19109;8.698499129;0.03207731;-27.73298146;9.727729501;71.42426524;41.94703329;79.43990323;-4.797729546;49.08031129;-1.340719636;10.0517189;-15.7272559;-18.99491765;-15.21711435;-7.782397659
-16.84023939;-33.43833422;10.21569785;14.64433014;7.215571855;-0.355228761;-26.36393931;8.8304613;65.32604424;37.053874;70.55706512;-11.85456542;42.58977537;-4.788046987;13.0095222;-16.10575737;-22.54419317;-17.17135121;-11.37421463
-19.88277443;-29.97113692;9.474156134;14.4658882;5.669323051;-0.322090635;-24.76081714;7.177979689;62.37435951;35.13955089;65.37985381;-17.96286264;35.65438991;-5.852753544;14.32349475;-15.96927791;-23.98086781;-15.95246317;-13.57683326
-20.46530564;-23.47199335;8.783560528;14.34775646;3.635788807;0.121296122;-24.85309448;4.373178128;62.12567259;35.39723779;63.27632377;-23.33858082;30.09972923;-4.599299103;10.82;-15.98108937;-22.66303187;-11.70467581;-13.14856859
-19.40200501;-17.30823486;8.326710946;11.10823796;0.992339101;0.569846236;-27.01408542;1.932814196;61.47755614;34.46014322;61.85312133;-26.62315449;26.68685692;-3.029266867;2.671737014;-14.53197997;-19.53134695;-6.198890069;-10.7606771
-17.92208635;-13.46522149;8.544075729;3.578273002;-1.804638683;0.599170541;-29.65861932;2.287763027;57.73663264;29.61753869;59.10433963;-25.63806714;25.0982415;-3.079701516;-6.166792062;-9.110892571;-16.29542015;-1.102810443;-8.317093638
-16.80391256;-11.4875375;9.800852685;-5.915879218;-3.971896778;0.174873777;-30.68835789;6.411436367;51.18516652;21.45263072;55.20438359;-19.72986426;24.56919024;-4.858592951;-10.60761005;0.747964926;-14.21172996;3.266519494;-7.287696519
-16.1493649;-9.475506998;11.75390624;-12.93693494;-5.030385554;-0.29542048;-29.45434617;12.32221505;44.7936685;13.49337214;52.36578291;-11.43030205;24.43875305;-6.759660702;-8.28047262;11.83095192;-13.41093184;7.683934284;-7.529284222
-15.77817091;-6.085605046;13.19430147;-14.25493188;-5.264600105;-0.331982482;-27.38251265;16.16800115;41.39950998;9.171664856;52.72213485;-5.558049077;24.15785012;-7.21704186;-1.503768942;18.92501774;-13.16709232;12.69759542;-7.607031685
-15.66406135;-1.749989191;12.81223046;-10.44883575;-5.552258107;0.159819043;-26.63656592;15.27732341;41.01346999;8.813489782;55.94760362;-6.10901359;22.97389236;-6.299883306;4.328734685;18.82642569;-12.71085117;17.63246934;-6.27179135
-15.92753118;1.825552861;10.36911138;-5.616379541;-6.651087651;0.776029725;-28.04951928;10.56315355;40.79236205;9.365714227;58.74769451;-13.35182018;19.90854057;-5.595043284;4.736436295;13.27144023;-11.84937775;20.88746643;-3.718784861
-16.48115571;3.241119674;7.160862667;-4.350971058;-8.541906049;0.967183922;-30.28649989;5.974166117;37.74659482;7.124116701;56.93435856;-23.57574865;14.34608991;-6.572142026;-0.680197573;7.910815464;-10.97493251;21.21037136;-1.477286513
-16.85113374;2.535054345;5.14861931;-8.390019531;-10.41572635;0.545112209;-31.07781839;5.222717742;31.69751162;1.045162643;48.61652098;-31.81621675;6.832464117;-9.114054675;-8.403003937;7.756680233;-10.63658234;18.72107361;-1.04619122
-16.51189141;0.905475169;5.368329702;-15.58949408;-11.33332111;-0.126231939;-29.4012395;8.558187545;25.70848488;-6.299644448;35.9513541;-35.4019542;-0.733356754;-11.67448495;-14.18656747;12.81756398;-11.15431102;14.75071564;-2.537500754
-15.46141529;-0.547323817;7.02865814;-21.91729368;-10.97558511;-0.446617158;-26.54401017;12.50480554;23.48280874;-10.96218855;23.93643396;-35.47948934;-5.973695014;-12.85573383;-16.4460997;17.85399859;-12.55933879;10.72909967;-4.571058192
-14.39215561;-1.739912776;8.198968694;-24.6634612;-9.814798004;-0.125332233;-24.97857224;12.93859067;26.00923758;-11.03198781;17.09817781;-35.39472813;-7.531658594;-12.77368767;-16.9724907;16.83569507;-14.7356459;7.230885075;-5.503601889
-14.12811072;-3.303141266;7.542528732;-24.16618096;-8.574337355;0.543446817;-26.04700215;8.841728351;30.49858858;-8.169022801;16.65298359;-37.47331352;-6.098882288;-12.81954134;-18.56876864;8.49640173;-17.46571557;4.045165097;-4.848213733
-14.75403566;-5.462130716;5.510863592;-22.78478407;-7.518643201;0.939121918;-28.63231167;3.335871142;32.65549774;-5.910497495;20.28890125;-41.04105367;-4.094101342;-14.08452753;-21.96963297;-1.9066003;-20.29908026;1.042594267;-3.581426493
-15.30375093;-7.361955937;3.842691548;-22.31;-6.284198308;0.680745018;-30.1345437;0.956955238;30.3337491;-6.339216799;24.48693745;-43.34504631;-4.105446032;-16.10438911;-24.99468565;-6.514015633;-22.48435941;-1.212248221;-3.0884416
-14.47699667;-7.673221365;3.796314096;-22.30508622;-4.441300665;-0.017424803;-28.91151184;3.55079091;25.33212501;-8.206686593;27.20882823;-42.42571443;-7.18119771;-17.27689867;-24.7630923;-1.427281311;-23.23631149;-1.875272975;-3.776815943
-11.89281452;-5.992923519;4.810789011;-20.88632416;-2.240577476;-0.535223633;-25.90283348;8.523981466;21.70059052;-8.298103572;28.65308688;-39.25567726;-12.19885887;-16.58018426;-20.88530203;9.689602228;-22.26752979;-0.912537589;-4.693846688
-8.751570496;-3.639810964;4.968149328;-17.10678897;-0.758333019;-0.415050186;-23.84030712;11.13962418;22.03481541;-4.852516555;29.7035018;-37.13767032;-16.73035702;-14.80867136;-16.51935431;18.3169622;-20.14184622;0.319850083;-4.518869908
-7.150972451;-2.88152986;2.922701366;-12.55478513;-1.180896007;0.213076203;-24.69187989;8.863241923;25.05988245;0.115168655;29.89338516;-38.8414173;-18.71266648;-13.92988412;-16.03851913;18.07523671;-18.03108626;-0.163375845;-2.970553948
-8.459607763;-5.088557147;-0.539042158;-10.46267261;-3.799550408;0.74887657;-27.71083078;3.794789193;26.68285803;1.88655492;27.14644764;-44.04078142;-17.71159717;-15.05553555;-21.18195852;10.10406263;-16.93872091;-3.331272458;-1.236307933
-12.08143154;-9.428363416;-2.938963195;-12.94625052;-7.63396238;0.680695562;-29.99468952;0.859293205;23.6034373;-3.182104484;19.79391231;-49.41017329;-14.99371272;-17.05430255;-29.11597593;2.059771;-16.97697719;-8.06126715;-0.934226026
-15.74118011;-13.37241992;-2.332437701;-18.84115692;-11.08907102;0.068468024;-29.14735816;3.286197846;16.27207566;-14.34862998;9.018778421;-51.39674946;-12.56761329;-17.38994201;-34.32487654;1.393713467;-17.32768083;-11.75756303;-2.532503245
-17.16246058;-14.70320091;0.698601839;-24.23158615;-13.11170855;-0.506357154;-25.60500952;9.48475545;8.551597839;-26.55957613;-0.829173985;-49.26974917;-12.02017108;-14.62832308;-32.92394157;8.682341756;-16.97124128;-12.31465191;-4.73689957
-15.7713389;-13.30017374;3.277006153;-25.42723674;-13.82486678;-0.488210781;-22.38429762;14.27803924;4.383425619;-34.00036948;-4.878080035;-45.73293158;-13.89075829;-10.25335034;-25.78028007;16.99850579;-15.58615889;-9.784566322;-5.515966358
-12.97703117;-11.09524956;2.696053214;-21.90607486;-14.07934952;0.115981655;-22.35708489;13.51843474;4.446838696;-34.25361767;-1.458352147;-44.50229909;-17.72237919;-7.829436624;-17.75739955;18.18565347;-13.8325895;-6.249727941;-3.905252836
-10.79995606;-10.20286385;-1.042906021;-16.65641523;-14.38673283;0.723766368;-25.51784808;7.931450984;5.80380725;-29.69697021;6.21397539;-46.9546602;-22.42911554;-9.962138377;-13.71751217;10.70714003;-12.75221334;-3.956107643;-0.939650244
-10.08453976;-10.91430641;-5.048347982;-13.58039608;-14.32139874;0.718215992;-28.84153492;2.60046599;4.822394617;-25.15509895;12.04071817;-50.83046658;-26.62943994;-15.72971367;-14.71726948;1.955052641;-12.80649639;-3.354458223;1.206127079
-9.913441897;-11.42711765;-6.082446945;-14.21779348;-13.05942427;0.045215466;-28.99802329;2.420505423;0.694530163;-23.98219173;11.34652994;-52.19829564;-28.94706444;-21.08319492;-17.62523611;2.369717431;-13.41929422;-2.837661615;1.15548597
-8.739636293;-9.618814549;-3.618601654;-16.67205616;-10.58780837;-0.704925724;-25.48981781;7.595603011;-3.690987157;-25.92554594;4.124264545;-48.99266598;-28.47299284;-22.10852322;-18.33881897;15.85923613;-13.44976598;-0.442355966;-0.405330065
-6.141487556;-5.254810194;-0.535231361;-17.65293831;-8.333252349;-0.834683591;-21.25678379;13.34641097;-4.364018986;-28.33989062;-5.300890119;-42.99371548;-25.34334128;-18.33850174;-15.59798824;34.68696938;-12.17708392;4.05062007;-1.331043221
-3.476122246;-0.530661778;-0.608147156;-15.71915261;-8.351925215;-0.210174902;-20.04803066;14.22254151;-0.024461302;-29.25941896;-11.74509221;-38.44937402;-20.9875778;-13.08476151;-11.93302721;43.79345908;-9.90318055;8.618673771;0.008094961
-2.700404751;1.680649697;-4.96053933;-12.67810088;-11.54853;0.572511565;-22.8936979;9.153155497;6.513417033;-29.27454421;-12.80961182;-38.50535225;-17.57917878;-10.39691557;-10.95968516;31.83239718;-7.629993805;10.66502354;3.168093052
-4.387105559;0.361734427;-10.78886976;-11.7642525;-16.46880974;0.714963264;-26.98217125;2.565428062;10.58057409;-30.47538785;-9.815261014;-42.57272409;-16.78409841;-11.39857535;-13.62385675;0.392046888;-6.13666324;9.368950648;5.943989298
-6.849875509;-2.681258375;-13.7592314;-14.22885432;-19.95007813;-0.025693586;-28.13602245;0.416877902;9.647091086;-33.63911657;-5.688733085;-46.94525372;-18.62179559;-13.4293519;-17.00097388;-36.06902742;-5.357710967;6.49620755;6.311030673
-7.391934227;-4.422888632;-12.06682191;-17.58772803;-19.38761969;-1.059503012;-24.72713711;4.692444178;5.448262077;-36.60812048;-2.118785204;-48.07590503;-21.40058701;-12.86384342;-16.91435373;-59.81375081;-4.679171367;4.787883505;4.232587155
-4.732696545;-3.433981822;-8.402767742;-17.41921937;-14.85901535;-1.462295022;-19.38957401;11.46178032;2.272489661;-35.74183723;1.311708309;-45.53371893;-22.95520826;-8.968458263;-12.04903311;-61.67754736;-3.861632439;5.313638922;1.658224342
-0.429526356;-1.321811233;-7.76687272;-11.37950121;-9.254006274;-0.825755845;-16.77832519;14.42419073;2.915327537;-29.37071366;5.452952998;-41.97231437;-22.31496961;-5.01780565;-5.699124882;-46.27715821;-3.624118514;6.267758548;0.69198214
2.164843897;-1.347523859;-12.85289268;-1.890483658;-6.121231636;0.324518545;-19.27366132;10.78455346;5.984037822;-20.08130421;9.393282867;-40.2137609;-20.43950634;-5.353726759;-3.295941082;-27.16059562;-5.170120155;4.487665963;1.628621746
0.70206757;-5.349798073;-21.18107574;5.136764335;-6.905988307;0.964864395;-24.58494242;3.998189369;7.093749298;-13.45100598;10.30145826;-40.27662307;-19.33036471;-10.96833358;-7.695280928;-16.41510246;-8.947770739;-1.531201216;2.716706355
-4.008814471;-11.78267856;-26.84288492;4.791291518;-9.883722154;0.503862509;-27.63584067;0.668556259;2.98757858;-13.94151919;5.819077453;-39.30629417;-20.20021915;-17.85129555;-16.39174227;-17.08640655;-13.78750774;-9.876972046;1.909160337
-8.505593154;-16.81917328;-25.60862361;-2.820189472;-11.73591053;-0.640053711;-25.20020563;4.302270973;-5.117668544;-21.30314057;-3.173068543;-34.66826143;-22.28185753;-20.01042416;-23.29453076;-23.63034279;-17.39138456;-16.5051458;-1.038158691
-9.565214064;-17.71513557;-18.89528505;-12.51239135;-10.45619233;-1.378673546;-19.06809857;11.72964259;-12.09329223;-30.59324179;-12.28321014;-27.3456437;-23.41088725;-14.72452422;-23.69555241;-28.59941994;-17.99423472;-18.62157863;-4.158860483
-7.016761742;-15.42710741;-12.81849862;-18.09544528;-7.076854887;-0.945925986;-14.66165077;15.75097859;-13.05696397;-35.88556238;-16.57309526;-22.18018271;-21.99350374;-5.253518359;-18.14025537;-29.01367086;-15.86428334;-17.16991774;-5.048329464
-3.920679225;-13.93641159;-12.86478053;-17.17265244;-4.684688877;0.353811597;-16.13340829;11.83266256;-7.542319076;-34.58339317;-14.42476761;-24.17767453;-18.66375294;1.717863349;-11.7656185;-27.17935498;-13.25438549;-16.02844113;-3.200864151
-3.806595153;-16.61686706;-18.83723654;-12.57149872;-5.568078398;1.361533556;-22.36076751;2.695726636;0.033157486;-28.77470177;-8.861157489;-33.80780164;-16.05953568;1.852137444;-9.647876954;-26.39325476;-12.63939945;-18.40674558;-0.639366675
-7.334411078;-22.78681264;-24.78780525;-9.245935947;-9.033400732;1.100970742;-27.67186429;-3.726527479;4.097968109;-22.72409324;-4.943005803;-45.57323934;-16.7197754;-3.040973498;-12.29748307;-26.58867286;-14.5953506;-23.58320995;-0.079749441
-11.41976319;-27.69613857;-24.31441483;-9.503692194;-11.89789347;-0.287091925;-26.9117812;-1.462879852;2.615825172;-19.00059883;-5.390212927;-51.6331409;-20.82084865;-6.787980565;-15.38105395;-24.43460977;-17.13876795;-27.06153092;-2.237261554
-11.80027206;-26.30759187;-16.61427446;-10.93245574;-11.30294365;-1.600391904;-20.34230444;7.665166939;-1.394924927;-16.81039444;-8.330819886;-47.88431371;-25.77973371;-4.75043349;-13.98476514;-17.54844611;-17.23328831;-24.31019808;-4.866753677
-6.929049375;-17.77352697;-7.655676345;-8.976844807;-7.365231551;-1.634371987;-13.74172131;15.19595579;-2.830837316;-13.8747913;-9.302708376;-37.45625539;-28.25418507;1.599789088;-7.572134543;-8.170472663;-13.3412463;-14.9634176;-4.66985731
0.276197603;-6.611436962;-5.002896344;-1.833613721;-3.233429565;-0.315790363;-13.29850818;13.57403403;0.749031451;-9.742540318;-5.770856883;-28.42791089;-26.9708849;5.88869281;-1.010793152;-2.083526733;-6.911896647;-3.692623034;-0.505948349
4.582415143;0.750689554;-10.68620382;6.959196799;-2.38831357;1.151975184;-19.77399736;3.402861474;6.919903712;-7.003781546;0.029615969;-27.38624105;-23.95213361;2.990507018;-0.478677035;-3.338348139;-1.476187024;3.307793628;5.094945564
2.824878166;1.324751027;-18.71148051;10.96415231;-5.537208416;1.339989879;-27.39890007;-6.49361373;10.73947239;-8.897694091;2.771908086;-34.13807626;-22.95182355;-5.559252317;-7.736809927;-9.819056966;0.015019671;3.402694018;7.799240577
-3.256895778;-1.808739003;-20.01447368;6.486855716;-9.9236195;-0.060936439;-28.88129701;-6.81391228;9.462622131;-15.45863044;-1.028824108;-42.11891932;-26.28904607;-12.27598644;-17.95848151;-14.361599;-2.5374028;-0.230308309;5.324539417
-8.340435974;-2.079612509;-10.93139699;-3.575707042;-11.77701087;-1.84779315;-22.23607889;3.38928188;5.193686545;-22.14855737;-9.292948794;-44.24857678;-32.73870138;-10.43395361;-23.35243388;-11.0299186;-6.377453512;-1.30020246;-0.172069157
-8.02225936;4.779797016;2.411414912;-11.44842248;-9.768044801;-2.314774056;-13.10955601;15.06740574;2.886460599;-22.95235207;-15.54906344;-39.19900625;-38.34375846;-0.787772452;-19.68217568;-0.958289415;-8.16465625;4.111924477;-3.614279236
-2.631540176;16.68546446;8.343955248;-10.73623849;-6.302979362;-0.832587299;-10.0381699;16.89701186;5.447073371;-15.72606947;-14.37227843;-32.50713475;-39.53877116;8.268463812;-10.01476966;8.015783759;-6.619580117;14.01259324;-1.444260663
3.067905104;26.56898133;-0.423633725;-1.992965461;-5.334586308;1.440534516;-16.54321272;5.889058688;10.57377953;-5.006609342;-6.392761035;-31.36821634;-35.93622357;7.98527504;-2.235089332;8.260393063;-3.345981503;22.09128549;4.873472776
4.159604015;28.22334141;-19.63672691;7.419356123;-8.545753641;2.46779929;-27.27393363;-8.885419849;12.59364609;0.831171173;1.82355437;-37.60734754;-30.36180146;-2.237986817;-2.27382355;-0.175030791;-1.214270081;23.18713104;9.677631822
0.104858996;21.67643561;-35.818468;9.451803477;-13.41651508;1.167436708;-32.22373382;-13.6491355;7.970542417;-3.653996439;3.347622137;-45.24818898;-26.12164136;-13.20923199;-8.902776024;-8.679380891;-1.797024841;17.85419543;7.980142456
-4.618410274;13.32104769;-36.88594396;2.428355486;-15.18328224;-1.454653473;-25.80940367;-2.540465028;-0.528960524;-15.83726033;-2.789293001;-45.33376087;-23.98152683;-13.56489676;-14.78996288;-7.410510889;-4.140157121;11.8781552;0.288178972
-4.569864329;10.45019137;-22.38973456;-7.159562125;-11.20802267;-3.007686124;-12.7287834;15.82892335;-5.269620057;-26.30966616;-10.30875423;-34.21975064;-21.67333366;-0.478165783;-13.10538184;5.207566764;-5.925496008;10.9823904;-7.132603764
1.372236282;14.79670514;-4.39402407;-10.04331406;-3.873103228;-1.802468587;-4.735439295;24.7234725;-0.177672848;-26.16647855;-11.05495237;-18.04315491;-16.49337435;16.40017848;-3.968627774;19.6190861;-5.901271398;15.34301899;-7.358861565
8.349759292;20.79620498;2.357850542;-2.414766167;0.893314309;1.456716365;-10.35832869;14.09926488;13.23187624;-14.55046331;-2.635420401;-8.826246839;-8.632582118;22.41048882;5.095943678;22.48412828;-5.264613066;18.97041013;0.776971724
9.382697075;20.3984183;-6.977538087;10.1340812;-1.397256698;3.986367493;-26.37800655;-8.905705146;25.91210395;0.065735873;8.546960999;-14.72949154;-1.943777946;11.22353001;5.458372095;8.692959596;-6.580689685;14.90700039;10.70796373
1.739793046;10.52729815;-22.87611947;16.78975775;-9.480266249;3.207804491;-39.20915352;-24.09826765;28.19735804;6.497729245;12.17471143;-32.41264542;-0.949876077;-7.709501228;-4.802559109;-12.50444924;-11.07843924;1.968063432;13.0046454
-9.768431238;-3.314188276;-29.45956323;10.73475842;-16.7181764;-0.820056152;-36.13613342;-15.12521355;18.22546394;0.307240947;3.214700815;-48.40131048;-6.375246296;-15.43178754;-18.47231223;-23.69452115;-16.78540772;-12.98373302;3.629216863
-15.9358555;-10.82912171;-18.64980399;-4.319895062;-16.38830859;-4.982406308;-17.34069477;14.49929347;4.583388019;-11.80593473;-12.43794228;-49.22286039;-13.26849979;0.275365061;-24.72231698;-13.86178511;-19.44071298;-19.73740678;-11.34856446
-10.68820256;-5.391722308;1.662073561;-16.22286648;-7.729610189;-5.335093851;2.105439738;40.7479518;0.216102911;-16.85431625;-21.36900731;-32.58;-14.04225063;32.006782;-18.32014988;10.60973804;-15.78362096;-12.95625847;-19.22423469
3.131553324;9.780269557;13.09114025;-13.99215378;2.499348213;-0.376067361;3.378632691;36.49244666;11.92937263;-6.291211418;-13.16383587;-10.34040089;-4.643137558;55.2690535;-4.790019531;28.65607539;-6.619355425;2.862027451;-10.41301379
14.90393063;23.21913388;2.131185451;2.669618168;4.802147706;7.295262358;-19.9822043;-5.712094269;33.95365637;15.93282078;10.26318549;-0.260754765;11.02332411;46.41628574;3.19954264;20.3232246;3.037649746;16.14972868;12.99336249
14.01357268;23.78811992;-27.16630103;21.97881677;-5.369011225;12.4797346;-54.3560393;-64.0807006;51.24998455;34.88147687;34.51022995;-12.41225232;22.51942944;2.618677969;-4.241185629;-16.26242539;7.217325379;16.95680971;37.09890494
-1.619624882;9.57354112;-54.33643501;28.48925723;-23.21889467;11.10605493;-74.25116903;-100.6013594;50.50092656;35.16807271;42.56872976;-40.86952493;19.87735192;-52.65568769;-25.85533298;-60.71875707;3.326058793;4.728872014;45.43965854
-23.15206495;-10.15060879;-57.57520124;14.99404795;-37.42292176;3.37965233;-61.25442012;-88.14450616;30.32674713;12.65029848;27.39332801;-67.42543759;1.265651909;-84.60163376;-49.32115843;-83.56179268;-5.79713321;-11.16155753;31.01329501
-36.81691715;-21.71614413;-31.1795931;-11.51977143;-38.37157103;-6.136082077;-19.20813259;-31.28354016;2.605288964;-21.79954073;-2.654941715;-74.74825019;-24.63144606;-72.11618588;-60.00088301;-67.4696148;-13.79860598;-18.70229261;1.919038302
-33.90479505;-17.40466809;8.748008632;-34.76932525;-25.5440945;-11.6703061;26.79943835;35.61892525;-16.23682559;-49.53392857;-29.81157234;-58.9502763;-43.79495046;-23.77402051;-51.62574564;-20.50354488;-15.32625634;-12.57835471;-23.9576474
-17.06049831;-1.227560521;35.42688133;-41.24231928;-8.14438604;-10.28341246;47.70840814;72.27072046;-17.10694534;-56.97452279;-39.63186654;-31.98654485;-46.17422978;28.01229022;-30.64806967;29.09470438;-9.739754637;1.887511948;-31.42157782
1.923810556;14.34731059;31.05191173;-30.03817568;1.673804762;-3.764497687;31.23656381;60.48798478;-4.023073333;-44.42262167;-30.52887545;-12.29090877;-32.39655908;50.52472165;-11.0756282;52.79902142;-1.260609136;13.25049785;-18.30390199
10.96797839;18.01236739;-0.226072548;-12.88744452;-2.172395506;2.959174738;-9.66086311;15.47041109;10.38621103;-24.50881043;-13.10247767;-11.16137692;-12.98657128;33.95882268;-4.09694883;41.39189733;4.402244056;13.14413937;3.924517027
6.256321762;7.95350231;-35.9441539;-4.56699442;-15.37202002;5.553652607;-46.92361388;-27.48244154;15.47230265;-12.03812541;-0.645062916;-25.38780274;-0.777329477;-3.304856028;-10.62922104;9.761077115;4.235829982;2.724918182;19.29830115
-5.960446753;-7.453849593;-52.43026916;-11.41797493;-26.82590222;3.243850337;-58.03549407;-39.71824091;10.39844104;-13.35962672;0.92741899;-41.28780391;-2.209772376;-30.67227102;-22.1601763;-15.89649313;-0.261854212;-8.657290122;18.94573849
-15.18983733;-16.68010791;-41.85011225;-26.87931694;-27.21160403;-1.132293877;-41.29249499;-18.69694014;3.146646861;-23.1629651;-4.26229984;-46.20360916;-13.80662917;-29.20320088;-28.44225554;-17.8449276;-4.788945873;-11.19200905;6.386714309
-15.04705918;-13.86397988;-16.29883158;-37.11966074;-15.81406299;-3.746985852;-14.59334443;13.73416992;2.304917908;-30.32704245;-7.96290082;-38.00212819;-25.93634514;-4.493315791;-25.4147807;1.645367396;-5.835876471;-2.327112371;-6.817452847
-7.443533093;-2.485931469;3.246721275;-31.89143674;-0.550604518;-2.813366158;0.101995603;30.96166456;9.190113922;-27.40745243;-6.166164383;-25.40049605;-30.44643449;20.60955685;-17.2159656;24.79230661;-3.227090098;11.61377744;-10.80825214
0.228847575;8.467369801;3.453677293;-12.03077436;8.397919965;0.350700207;-6.370698209;22.3653225;17.11043684;-16.10253768;-2.317337297;-19.73970676;-26.17231918;26.08427161;-11.4779487;33.78895869;0.239384943;20.81260046;-4.572384316
1.921347137;12.08544298;-12.51549008;11.76242175;6.091621467;2.826480929;-25.23317325;-0.877949153;17.9913342;-4.949237928;-2.985306324;-25.55733143;-18.51522933;10.53418617;-12.55899889;24.32752597;1.451138701;19.63278656;4.704028337
-2.201281154;8.477495965;-29.84342234;27.12810575;-4.231506386;2.672889803;-39.11707901;-17.76266496;10.05660279;-1.947722408;-10.6633032;-37.62648971;-14.18958609;-9.667294589;-18.49143355;7.055083346;-0.413707139;10.42019045;8.614838966
-6.666234229;3.43919683;-35.28162107;28.40610382;-14.49020534;0.382929812;-37.04215825;-15.67056111;-0.507470777;-8.467318904;-20.83854484;-46.23035541;-15.8175581;-15.75042227;-23.67832961;-2.705304698;-3.404991464;0.834111096;4.527618403
-6.07102361;2.668633213;-27.34297169;19.05628325;-18.12224896;-1.837933065;-22.50803104;0.495048062;-5.391180543;-19.02895593;-26.23213792;-45.58482496;-20.5977213;-2.504586996;-24.3187081;2.457171176;-4.607496066;-2.536242419;-3.052781874
0.017996919;6.830245905;-15.67748535;7.39215257;-14.31558201;-2.131546079;-8.914113084;14.64755706;-2.087051894;-26.36339227;-24.15914969;-38.19365176;-23.52635037;18.57575666;-21.54756268;17.25671862;-2.559168943;1.135627398;-7.207008469
6.825056997;11.5318147;-11.44286534;0.04612301;-7.280039063;-0.521040427;-7.356342678;14.40920881;3.529393575;-27.05216374;-19.76516097;-31.91492863;-21.92906778;30.60796947;-19.76751779;29.47694588;1.703170519;7.357288773;-4.803505113
8.70880287;11.74953819;-17.67023058;-1.551257135;-1.989865805;1.320837831;-17.61194857;1.265210588;2.634230592;-23.23830105;-21.53894622;-32.85413553;-17.38626426;26.34825464;-22.10556256;30.38924536;5.640267219;10.81414165;1.196821423
4.105958258;6.483955744;-27.6821254;0.090482129;-0.365181157;1.698178824;-29.47989998;-12.06906532;-7.80284081;-19.68813511;-32.79951199;-40.41103667;-13.76575668;13.67978554;-27.33157112;21.06200998;7.22352025;9.714543904;4.915570991
-3.187409449;-0.425593101;-32.04193166;2.052309198;-0.825263054;0.385512404;-32.37144042;-13.61748284;-21.05793406;-19.34857227;-47.12254451;-48.43964015;-13.5080861;7.355870334;-30.97508975;10.27077395;6.276624217;6.491223542;2.997016016
-7.295904432;-3.774876795;-27.22863684;3.05057653;-0.849435719;-1.294966839;-24.32420234;-2.417414755;-25.70454447;-21.28894134;-52.71774944;-50.96020683;-15.58344156;15.03189278;-29.44879478;6.929188545;4.233214996;4.887241929;-2.568612757
-5.089227459;-1.459549143;-18.36515611;2.684888069;0.310680967;-1.767493482;-12.87444809;11.52189144;-15.92730154;-22.33165445;-42.83404047;-47.12387503;-16.76295395;30.3009379;-23.34316914;13.69468711;2.787567562;6.490146988;-6.489100036
1.56779858;3.997058252;-14.09096294;-0.11386946;1.271422612;-0.632703146;-7.768329008;16.65319902;1.819360096;-20.3695022;-23.28942402;-41.2430659;-14.80051094;38.77503384;-16.96548413;26.20060706;2.69553662;9.792987632;-4.971338461
7.795709895;7.965720667;-18.61515833;-6.675155408;0.467140027;1.034879108;-12.43806886;9.825914386;12.29886094;-16.2364021;-9.802760525;-38.35126376;-10.54078034;31.44844995;-14.66261215;37.07735489;3.605349003;12.19400397;1.059512756
9.886049314;7.806832465;-28.07213176;-15.96488449;-1.843286121;1.71482021;-21.64752369;-1.858739084;3.257561331;-12.7192799;-16.12499962;-39.64820088;-7.125723826;13.16886557;-17.28649633;40.52548181;4.767438456;12.64988837;6.997459699
7.999036324;4.874977342;-34.0993877;-22.63825021;-3.635541376;0.8111023;-26.80904319;-8.170039063;-23.77400009;-11.99861958;-42.16484178;-41.9491427;-7.165672294;-1.434085877;-21.86418051;34.17062072;5.777112977;12.38959045;8.671802727
5.302360115;2.86048072;-31.13906268;-19.01828248;-3.182121612;-0.862226479;-23.7394239;-4.892878735;-52.85378014;-13.98685798;-72.19696366;-41.34318094;-10.50127581;-0.92982897;-24.53883289;18.41824479;6.691376476;13.22326408;5.795998219
4.735703902;4.226638664;-21.00749394;-0.94938852;-1.000030518;-1.860679391;-15.9250017;3.153671943;-64.56276944;-16.84952078;-85.57446223;-37.36736595;-14.50763307;12.64776067;-23.95101435;-4.311911576;7.611707574;15.36195159;1.847597611
6.51637786;8.061846942;-11.05987718;26.72260283;0.383574544;-1.402197174;-10.80691472;7.354434504;-50.46553658;-18.82223738;-72.16387072;-33.64205001;-16.51723543;25.53248451;-22.0106199;-29.18103602;8.347458508;17.03750536;0.766833029
8.518599078;11.18242722;-7.971394437;50.34;-1.183050378;-0.011503212;-12.87910457;3.478670114;-19.7962105;-19.39921942;-40.42775484;-34.3107967;-16.06956203;24.64072004;-21.54255725;-48.7087658;8.592853591;16.33188283;3.574819124
8.853869631;11.28562754;-12.6548199;54.86973164;-5.121636935;1.013050532;-19.9065121;-4.733477665;7.145428312;-18.90565625;-11.49895613;-39.61234644;-14.97788716;9.805929542;-23.17771886;-54.96862816;8.420078125;13.38483837;7.834636634
7.99524393;9.155193529;-20.33928458;34.25788539;-8.130286029;0.776672716;-25.37647125;-9.494758086;14.04425182;-17.26484134;-3.562270017;-44.83502364;-15.28360064;-5.156872429;-24.4808281;-44.19302172;8.49430402;10.72334354;10.17003906
8.374073101;7.913292306;-25.08847039;-2.842414115;-6.81682964;-0.459222219;-24.57976833;-6.392984748;0.560872798;-13.5708894;-18.56350021;-43.91853722;-17.09306706;-4.056265717;-22.16676872;-20.53632807;9.668098543;11.24223773;9.36397313
11.86786474;10.07760434;-24.42816914;-36.96125719;-0.791214545;-1.583352872;-18.67938542;1.623615477;-17.86420027;-7.113628582;-41.44962919;-34.74880698;-18.3263976;16.90054731;-15.36985905;4.914071901;12.25966223;15.6454245;7.243494294
17.62246287;15.16156012;-20.26690014;-49.48959073;6.532011735;-1.666089157;-13.27870506;7.163145655;-22.01978742;1.193544987;-52.26627595;-21.51825986;-16.58626226;43.75956301;-6.931405811;20.49;15.6990261;21.74638476;6.732866097
22.35243491;19.99723387;-16.02426812;-34.36683037;10.30911841;-0.762851212;-13.11726243;5.260185708;-3.328278451;8.686298725;-41.45812982;-11.92060222;-11.39317072;53.99509007;-1.435824341;21.54;18.93393613;26.34059611;9.029520498
22.96288161;21.45531003;-13.19038814;-1.646998357;7.994348448;0.206481176;-17.87750656;-2.198739889;30.28035417;12.68844719;-16.5616842;-11.35099634;-4.725620469;33.43744834;-1.63174913;13.34652321;21.27398681;27.96443048;12.51780652
19.17949207;19.09964746;-10.53601709;29.48796491;1.387608515;0.33880689;-22.7951233;-8.413262941;60.97968429;12.79107518;4.367861978;-18.87098881;0.606712372;-12.23846698;-6.311374252;6.676719442;22.9026745;27.99570722;14.31402131
13.83425731;15.4470621;-6.258384967;43.20035289;-4.671830546;-0.440661909;-23.24450948;-7.978424868;74.41941193;11.55394402;6.783358458;-28.2408591;3.23346058;-60.44867037;-11.43906794;9.208983531;24.55967737;29.06328179;12.91563795
10.54618361;13.70678164;-0.498157621;36.23054943;-5.889877776;-1.359073582;-18.94308725;-1.701124828;69.4003911;12.71216212;-10.06876437;-33.0885482;4.051070009;-86.8004221;-13.50235238;19.6591442;26.66856788;32.2423453;9.516087497
10.84421386;15.10289749;4.437710404;17.96752228;-1.504750189;-1.544378671;-13.9940386;4.366442928;56.99051164;18.18215325;-34.12034668;-31.89594385;4.890323613;-80.95554726;-12.20542137;29.3792809;28.74277081;35.69372588;6.87578459
13.22711083;18.14464008;6.296802304;2.320458693;5.57422825;-0.829458929;-12.93802369;4.582748455;50.81;26.37478197;-50.93234674;-28.7704021;6.33371755;-51.87766378;-10.31264493;30.02815246;29.69726123;36.13101197;6.891591097
14.87782107;20.34906021;5.176274389;-1.999661315;11.30861889;0.116639089;-16.58614244;-1.222732129;56.75614149;33.34949173;-54.65304967;-29.58379413;6.803810056;-19.70620811;-10.97795111;20.82052631;28.87134831;31.89560929;9.10514653
14.38495039;20.69498714;3.472076269;4.148114365;13.48623766;0.420975411;-21.42804992;-7.832320966;69.99608883;35.9470218;-50.96517828;-36.87086437;3.883449744;-1.456037191;-14.99583769;9.253856826;26.86210622;24.86039603;11.4095179
12.99576595;20.51557244;3.454464268;13.48789263;12.76051544;-0.19788559;-22.99707349;-9.593827357;80.58458477;34.30698903;-50.64806576;-47.71241846;-3.25378621;-1.316474147;-20.2946875;4.798162317;25.34292545;19.32555185;12.15234635
13.33040018;22.0727206;4.867867402;19.38917774;11.3005181;-1.193726221;-19.96710199;-5.569855172;82.19374881;31.66172311;-59.9623057;-56.14610617;-12.5288024;-11.47877247;-23.89748201;11.01895172;25.87935212;18.71383066;11.61699004
16.80708694;26.22916581;5.00809394;20.85565296;10.61149956;-1.706373881;-15.22723405;-0.187354774;76.65480741;31.60961084;-75.95702474;-57.86500852;-20.08114904;-20.85364861;-24.44281668;22.83265232;28.64597583;22.85916582;11.55382904
22.1614904;31.43902711;1.340221979;21.9315671;10.54425057;-1.33536792;-13.07929782;1.07057324;71.22552125;35.20370866;-89.97022707;-53.27286479;-23.02443647;-23.77096725;-23.045216;31.06466129;32.1086113;28.21840288;13.30803107
26.40585402;35.01306398;-5.802089794;26.88160343;10.15440834;-0.47135725;-15.26120915;-3.138783531;71.73614574;40.29356023;-95.55737979;-46.61361865;-21.55652268;-22.3222395;-21.92022677;30.19367673;33.99817865;30.81237514;16.37590807
27.35084088;35.48557129;-13.08905618;35.71069729;9.275117002;0.09073181;-19.46028052;-8.713695776;77.77905803;43.567597;-93.78996786;-42.26874921;-18.65264549;-22.11487087;-22.21493381;22.59136462;32.87215981;29.35165735;18.76062934
25.42448631;33.88767319;-16.91647489;43.80840538;9.089988219;-0.122241041;-21.57259427;-9.836366459;83.75315253;43.42544144;-91.69830222;-41.49115314;-17.61150115;-26.33183538;-23.05926388;15.84058114;29.09369229;25.89962811;18.77842849
23.18935183;32.74277257;-16.53684658;45.7575573;11.08186899;-0.861187503;-19.50424218;-4.28778442;84.3031326;41.18052941;-95.72786922;-42.12710213;-19.51584016;-33.2621152;-22.58331165;15.82717355;24.53131428;23.63787022;16.61614845
23.03352448;33.69800978;-14.69187423;39.90164403;15.38103844;-1.421094601;-14.98584253;4.466416549;79.13568548;39.64854162;-106.1064111;-41.13434713;-22.66443124;-38.54739558;-19.804579;21.83106624;21.27947991;23.83933839;14.19487377
25.10920124;35.96225074;-15.10948778;29.83917561;20.17282932;-1.300029297;-11.81403889;10.2411777;73.15184454;40.49133123;-116.7989971;-37.41986066;-24.28406933;-39.23789416;-15.57983688;27.78296242;20.39555521;24.77180472;13.47556101
27.30991387;36.9932259;-19.14010368;21.69841283;22.86937886;-0.637098567;-12.25888176;9.421784361;72.11599054;42.71568034;-120.7032309;-32.56275272;-22.90959273;-35.84041751;-11.80703312;28.2049255;21.51682635;23.44052421;14.7639419
27.22588496;34.83535029;-24.62715092;19.47902343;22.11266303;-0.045503413;-15.00220266;3.865597846;77.82619898;43.61915124;-115.4034168;-29.07978905;-19.39351412;-31.04233276;-9.735388473;23.24019537;23.45121725;18.49999642;16.53607532
24.29018243;30.0119897;-28.04120687;22.17749388;18.87824363;-0.02366733;-16.46615545;-1.028114204;86.86776667;41.27931027;-104.7151563;-28.04184076;-15.86536693;-26.94795203;-9.011826478;18.22123222;25.11604868;11.64074061;16.88713946
20.2458371;25.27042814;-27.86463923;24.86900003;15.71794773;-0.502753038;-14.2235266;-1.169842519;93.72078622;36.35966996;-95.12784569;-28.21381184;-13.80813437;-23.60902291;-8.295162519;18.34680072;26.09265335;6.181057564;15.24051761
17.62587127;23.39487659;-26.03929751;22.7910325;14.80250314;-0.94003418;-9.297333683;2.842501546;95.30684936;31.67650064;-90.52355357;-27.33735862;-13.08324768;-19.90929848;-6.733228124;23.52202323;26.54849831;4.151485599;12.77807615
17.68534271;25.00951419;-26.10172964;15.24102618;16.43203011;-0.850508442;-5.246242902;6.694880278;93.11502961;29.96510354;-89.6268369;-24.23989276;-12.68282783;-15.46279164;-4.806069293;28.20765351;26.83767453;4.534454999;11.2792279
19.60147333;28.26963359;-29.75369815;6.364125771;19.19543284;-0.269638006;-4.922308485;6.55127309;91.40186633;31.80555543;-87.92327415;-19.8503557;-12.27010871;-11.41541519;-3.716502409;26.47832345;27.23205311;4.281710271;11.51253245
21.50683146;30.63639747;-35.12478005;2.296879886;21.46785272;0.280653291;-7.898959282;2.541240035;93.35746995;35.42020302;-81.90992848;-16.32374703;-12.82131452;-9.396052178;-3.96643277;17.67539596;27.92605121;1.222841587;12.66760379
22.25372509;31.09854232;-38.43355616;6.773463084;22.80848923;0.280871356;-10.89475714;-1.544762577;98.63087447;38.35448606;-71.86718726;-15.17910581;-15.60375304;-9.8026433;-4.574597109;7.443953944;29.09461552;-3.743598022;13.27608372
22.24945599;30.87377926;-37.55629565;18.3109331;24.04411679;-0.302465617;-10.74509814;-1.872938744;104.124009;39.46434499;-61.04625377;-16.10910591;-20.43593542;-11.21510981;-3.782639578;3.097211867;30.76103096;-7.17859081;12.6636951
22.6943956;32.04728019;-34.15384753;30.89547315;26.12097166;-0.983903255;-7.179005876;1.940969312;107.0183923;39.52584789;-52.45091351;-17.37876715;-25.0348379;-11.5371631;-0.648610529;7.379705474;32.54491084;-5.959908512;11.5236061
24.10281995;35.46551077;-32.27378657;37.67035831;28.94198113;-1.199623724;-2.915751968;6.617745689;107.2142818;40.13481062;-46.2936595;-17.30526072;-26.38643348;-9.766206091;3.967722035;16.16057095;33.63303781;-0.020132733;11.09703582
25.62612894;39.82639273;-34.62134037;35.17403181;31.34271499;-0.811289599;-1.099293023;8.314076994;107.1426028;42.07411429;-40.24655813;-15.50269226;-23.20429732;-6.738829737;7.995404168;22.07160169;33.19919556;7.39612063;11.80919589
25.86271126;42.76889212;-39.94812589;25.41885218;32.20757169;-0.21503672;-2.494419496;6.064427107;109.3545904;44.65237764;-31.92394554;-12.9806245;-17.36947547;-4.24367944;9.819206231;20.80168132;31.05457275;12.18358695;12.73376831
24.35769833;42.93569587;-44.08757788;14.5728421;31.60539762;0.031976779;-4.99028114;2.425036564;114.1653163;46.47744415;-21.14603389;-11.26073227;-12.91341555;-3.436216256;9.502954627;14.4537293;27.97424388;12.46593511;12.45277342
22.28995586;41.12429263;-43.82799395;9.167611363;30.79493436;-0.284688441;-5.754603341;0.877332259;119.3784576;46.78020679;-10.01112516;-11.38329404;-13.13032159;-4.044289395;8.454728689;9.111368674;25.30578444;9.775362341;10.51339488
21.58733589;39.50372764;-40.09971485;12.23320072;31.03527532;-0.861529179;-3.939663231;2.533011632;122.1580318;46.0008803;-0.977955125;-13.48668632;-18.0583527;-4.975413802;7.887847463;9.027008231;24.05469955;7.471146001;8.063656719
23.20809474;39.64068199;-37.42131096;21.69685534;32.30494751;-1.175729695;-1.404386914;5.214621877;121.2783409;45.17903207;5.088884977;-16.94563242;-24.3854973;-5.567829083;7.582435592;12.84094661;24.14907937;7.884224413;6.980255793
26.16633785;41.13768436;-39.88963244;31.89740363;33.17430977;-0.967860487;-0.832220735;5.669954764;117.8393101;44.8727993;9.171009694;-20.63576192;-27.91244772;-6.202725029;6.179503976;15.26565604;24.51726873;10.63022585;8.216591127
28.25591294;42.09791148;-47.23114458;37.12806415;32.035502;-0.462475853;-3.068524748;2.746282501;114.0426504;44.72;12.70175939;-23.10307838;-26.63974036;-7.745421974;2.767149906;12.55158241;23.96517729;13.36617747;10.87402044
27.89184552;40.95758469;-54.57383464;34.93547631;28.62244199;-0.136521124;-6.205307845;-1.47674113;111.3197528;44.0218355;16.14182341;-22.86246772;-22.0680543;-10.48579958;-1.778668796;6.495760551;22.15133261;14.10268482;12.89
25.44740417;37.9963346;-56.3973945;27.18237863;24.4306472;-0.266619204;-7.285052984;-3.619212036;109.4926903;42.65474562;18.99343981;-19.08779787;-17.78673671;-13.69882525;-5.104073723;3.060162361;19.84493138;12.94447138;12.77907147
22.88565961;35.14839037;-51.3595667;18.40273558;21.59480554;-0.681381322;-5.045471362;-2.144611525;107.522539;41.28638256;21.1001243;-12.44623705;-16.6030408;-16.24891309;-5.239473154;6.696356378;18.24837342;11.81952636;10.8883881
22.00298028;34.2863254;-43.7538107;12.72460073;21.16108331;-0.941447599;-1.156687677;1.23216108;104.9;40.61300841;23.6434488;-5.32852685;-18.52741192;-17.57355383;-2.402777616;15.63701853;17.97190673;12.63244257;9.044796642
22.84899065;35.52441812;-40.16047968;11.45808551;22.25738517;-0.766659278;1.208558762;3.15880711;102.2420942;40.40392697;28.46258839;-0.913837216;-21.07833824;-18.01552433;0.955204719;22.80834088;18.55535225;15.61388962;8.909317992
23.73312727;37.06296191;-44.01308561;12.83287533;22.89733715;-0.304172039;0.182144879;1.746977059;100.5422561;39.43962959;36.03891342;-1.412285015;-21.43049331;-18.18293992;2.060152651;22.00609719;18.95369788;19.30139135;10.51752524
22.80754035;36.7160906;-52.67039582;13.80230012;21.72679097;0.011966256;-3.158319269;-1.72569945;99.87855911;36.60741738;44.06089095;-6.680976229;-18.5638092;-18.06080137;0.095703425;13.98195154;18.54724217;22.00274244;12.30980426
19.80644214;33.78457843;-59.49610401;12.43811197;19.19857987;-0.126696956;-5.784347594;-4.061966506;98.92968156;32.22535913;48.30691007;-14.33086421;-13.82115667;-16.89463881;-3.152263627;6.693412749;17.75904858;23.27281006;12.60252473
16.38539499;29.66129751;-59.19566313;9.184127;17.1646992;-0.607993685;-5.42215409;-3.144632512;95.90117966;28.27492463;45.63133473;-21.3363432;-9.746750361;-14.08255869;-4.914150789;8.802557524;17.69836223;24.05133304;11.14738892
14.753594;26.69494552;-51.9296688;6.220365892;17.25088387;-0.998356765;-2.519969306;0.102302565;90.13405209;27.09716132;36.78648128;-25.92150339;-8.389875923;-10.20906774;-3.93185076;21.52800314;19.11587049;25.46036128;9.354005526
15.80163044;26.34081984;-42.85265571;5.611470392;19.41489112;-0.943730025;0.260482456;2.583055734;82.97642499;29.51205613;26.57454796;-28.25112964;-10.3628233;-7.056024563;-1.606489896;35.89149698;21.59177431;27.52410989;8.972072066
18.35418605;28.16956806;-37.67457101;7.707898852;21.89896383;-0.498858805;0.50686549;1.891107795;77.06798102;33.96225163;20.80659314;-29.49500965;-14.97811612;-6.309258758;-0.713994859;38.34475501;23.70771651;29.07853516;10.43377688
20.16504849;30.46431763;-38.14802114;10.91910386;22.57443155;-0.078731341;-1.782808567;-1.492298489;74.5110847;37.50578723;22.19070798;-30.27357645;-20.82732917;-7.967231954;-2.764880597;20.91712078;24.10973299;28.93392971;12.37204528
19.74845398;31.72954443;-41.23054853;12.86627095;20.52418703;-0.076141852;-4.259672963;-4.664673353;75.3355185;37.91711765;28.33033281;-30.01788295;-26.10513875;-9.923645643;-6.359336027;-11.93359442;22.5818833;27.12259113;12.77400573
17.46216461;31.73188678;-42.32433807;11.95708268;16.59556983;-0.49754439;-4.375034433;-4.961498767;77.43146856;35.18424132;33.48727088;-27.86386093;-28.71380698;-9.319650611;-8.103278514;-45.29218177;20.21197828;24.97979266;10.75780765
14.98957805;31.26345864;-39.48461174;8.289690611;12.60877813;-0.952168702;-1.631138179;-2.341241559;77.96349645;31.20179245;32.81615122;-24.16059186;-26.7630715;-4.7526607;-5.436731202;-63.34794417;18.48770284;23.93762549;7.397987819
13.80532667;31.05674204;-34.866588;3.444910114;10.02790285;-1.004934024;2.069702486;0.668055452;75.16988084;28.02286929;25.80676126;-20.95978297;-19.75048646;2.389010885;0.998675823;-59.53158929;18.06762536;24.17285113;4.867403514
14.04602156;31.01369214;-32.35072256;-0.467202832;9.215816046;-0.571535778;4.194073794;1.349780138;69.25942658;26.2566568;16.30980887;-20.72072807;-9.720302206;8.577273491;7.52790312;-39.96145098;18.25;24.43476274;4.64777472
14.7293029;30.49552346;-33.73985458;-1.801260676;9.710498746;0.002524153;3.778779538;-0.725932635;61.89498144;24.98691821;9.257005288;-24.19489127;-1.126477442;10.34168047;10.11258715;-18.2198707;17.57767029;23.29272419;6.361553384
14.96706571;29.3068415;-37.06648461;0.05369392;10.99186148;0.248240636;2.080549111;-3.396097913;54.79417217;23.1368478;6.778637359;-29.43988438;1.204372405;6.395042106;7.367918376;-5.919543865;15.07244389;20.68785551;8.201832262
14.92150277;28.28865163;-38.46850318;4.561644108;12.86566215;-0.013875326;1.197734178;-3.989021258;48.48194163;20.84910461;6.771245233;-33.12027943;-4.962451266;-1.78568763;1.464686272;-6.085183251;11.08858049;18.31892768;8.525730825
15.56508163;28.80007813;-35.78556567;10.22896124;15.13638875;-0.523726343;2.053616247;-1.823261067;41.94221675;19.44546352;4.852309398;-33.24900483;-17.48414369;-11.13095836;-3.770380825;-13.45235359;7.114567493;18.39773322;7.194490351
17.49933315;31.46786236;-30.5198293;15.05087993;17.07763723;-0.821175733;3.637475761;1.186914041;33.22135194;19.9075069;-2.132551521;-31.07206702;-30.84490544;-18.83921531;-5.912570976;-20.18768191;4.722369713;21.78222537;5.535164359
20.02401848;35.36280568;-26.3970955;17.26737577;17.48142365;-0.651412832;4.138634476;2.334016461;20.51052528;21.32212996;-14.01103079;-30.31027267;-39.57682709;-23.59111348;-5.615096323;-21.86974143;4.51694089;27.10267352;5.054443333
21.44403044;38.46199133;-25.92040901;16.28696987;15.48936398;-0.17255826;2.811974612;0.616463116;3.14468394;20.94402802;-28.16987569;-34.16336131;-41.76321065;-25.5630919;-5.628693115;-19.38470299;5.860264049;31.67441355;6.107374994
20.44172186;39.11764279;-28.11792189;13.270998;11.53493541;0.207866476;0.765514091;-2.379846847;-17.85209373;16.16070968;-42.35995273;-42.51137649;-40.03037908;-25.69212448;-8.179676607;-16.36988943;7.461611271;33.46025772;7.679450675
17.30456836;37.31472471;-29.53408377;10.77495783;7.430305471;0.203032374;-0.070304036;-3.992588208;-39.84974947;6.864024881;-56.74075709;-51.77610742;-39.2445647;-25.00133952;-13.04424555;-15.33840346;8.258700575;32.45782989;8.381193542
13.85532827;34.62990618;-27.50825058;11.32300029;5.270019531;-0.116970552;1.210374306;-2.94262172;-59.37600303;-3.857307561;-73.2569169;-57.75872129;-42.65509322;-24.36578319;-17.91586906;-15.93119977;7.905756686;30.41185948;7.678201089
12.05695317;32.91205803;-22.69938157;15.61875559;5.875917221;-0.424601392;3.595688361;-0.456322368;-73.42246763;-11.56236558;-92.89976606;-59.199436;-49.43859541;-24.4840706;-20.58024333;-16.18870889;6.643088349;29.20041523;6.246189477
12.45115525;32.8076401;-18.53633454;21.60507928;8.025593164;-0.457349117;5.07526254;0.952240681;-80.82110767;-13.60926488;-113.4065637;-59.03805058;-55.48964919;-25.68773993;-20.8542329;-14.95949216;4.870310495;29.32985451;5.211563402
13.76581594;33.37223804;-18.10589573;25.23319811;9.177718294;-0.2537752;4.514168227;-0.140081482;-82.94837018;-11.18714603;-129.7249639;-62.15182999;-56.74617582;-27.62138959;-20.55876914;-12.97065817;2.889789949;29.77054381;5.065886533
14.02496085;33.0449436;-21.33100767;22.70092126;7.22996268;-0.089862646;2.720569152;-2.75548632;-83.16272618;-8.559113948;-137.2517858;-71.27588198;-52.39159485;-29.21797577;-21.64035757;-11.80717409;0.967937079;29.11752192;5.283413375
12.2017348;31.08150869;-25.01560097;12.83884624;2.004804588;-0.191488222;1.696755921;-4.471649174;-85.06174215;-9.993261598;-135.3802342;-84.41;-45.48078313;-29.25559824;-24.24359627;-12.15761174;-0.536440897;26.91926103;4.94871645
9.009683314;28.18720474;-25.71429908;-1.898879904;-4.636922;-0.506055189;2.76019259;-3.719101487;-90.47994552;-16.67015588;-128.3865731;-95.89488021;-40.65543491;-27.19952062;-26.55525537;-13.18927533;-1.282610102;23.9821316;3.734320517
6.206968233;25.84638262;-22.81918006;-16.52855526;-10.07927311;-0.751246964;5.27964449;-1.260971382;-98.48301792;-25.87336378;-122.6777608;-100.3901708;-40.8703545;-23.62449832;-26.59343005;-13.56461813;-1.273569897;21.48810572;2.267815394
5.083025487;25.00628846;-19.06561247;-26.07298405;-12.60770808;-0.689746813;7.209150714;0.517831502;-106.0644237;-33.00204435;-122.3438169;-96.65934307;-45.64375645;-19.77980922;-24.30177247;-12.91333766;-1.030367996;19.86282123;1.547630372
5.46337777;25.29816003;-18.0008823;-28.03064868;-12.23401036;-0.363088602;6.944742133;-0.164653892;-110.1137523;-34.82318457;-126.4210687;-88.2653421;-51.9240805;-16.62686739;-21.972188;-12.20411785;-1.294176843;18.49221495;1.98957578
6.047773302;25.43511192;-20.7041148;-23.42127539;-10.24884928;-0.058250288;4.809804741;-2.825620972;-109.3268138;-31.55854628;-130.0191963;-80.80662499;-56.54242368;-14.21373618;-22.48021272;-12.66352598;-2.381835487;16.50806537;3.029426008
5.692524711;24.35142438;-24.72059608;-16.00369953;-8.069898043;-0.036358917;2.813942143;-5.15793454;-104.7784619;-26.42485978;-128.4386051;-78.01918635;-58.16830977;-11.97781331;-26.78811507;-14.37740975;-3.747844661;13.81216477;3.657432638
4.444627476;22.0297904;-26.18471984;-10.28621532;-6.371638294;-0.280849959;2.905011556;-5.155337086;-98.8744305;-23.19762449;-121.0187931;-79.74153401;-57.43740265;-9.681813704;-32.89719889;-16.00646843;-4.252763455;11.28656648;3.358272303
3.420536543;19.33066063;-23.25034403;-9.424085739;-5.054003203;-0.506979025;5.293633441;-2.951878654;-93.57943177;-23.70276049;-111.6548979;-82.97061131;-55.63117926;-8.024088637;-37.24380035;-15.91999396;-3.066959863;9.943393747;2.54202751
3.694586417;17.09937184;-17.7788065;-13.92531557;-3.811198334;-0.429604346;8.338612437;-0.684859972;-89.27233588;-26.9420569;-105.5808027;-84.67332189;-53.39695821;-8.210154884;-37.44399901;-13.66070198;-0.522130455;9.82611634;2.048003899
5.237350547;15.46502412;-13.77916924;-21.59136463;-2.62588755;-0.041299129;10.04779961;-0.525162264;-84.98019212;-30.17831506;-105.0295943;-83.85281366;-50.62724979;-10.7664182;-34.11039699;-10.3592967;1.857884488;9.769115795;2.207856809
6.857718147;13.98229264;-13.96152658;-28.64203565;-1.752375081;0.361720657;9.800868376;-2.700595939;-79.61227463;-30.92482541;-107.3184486;-81.42949815;-47.29090005;-14.6985277;-30.22238618;-7.757641885;2.311849065;8.352535539;2.400039063
7.176136058;12.39149194;-17.41311957;-31.59328651;-1.340019531;0.437129747;8.751726353;-5.321199755;-73.07654775;-28.38840416;-106.9802317;-78.62157077;-44.06253711;-17.91350026;-28.58751304;-6.812314058;0.122476467;5.255256053;1.57758702
5.749843812;11.14481762;-20.40903782;-29.1171351;-1.186725443;0.105566527;8.618299981;-6.137746139;-66.37353162;-23.58542217;-100.2899628;-75.70319515;-41.90842185;-18.71698996;-29.53;-7.160171207;-3.772922103;1.768310692;-0.682173435
3.38209844;11.07835715;-19.63672535;-22.91813088;-0.911232881;-0.371366054;10.03874543;-4.591001827;-60.68399329;-18.37627429;-88.53206733;-72.29385462;-40.98294992;-17.15052026;-30.72864251;-7.792551534;-7.362258521;-0.079558153;-3.594049723
1.407400804;12.47995681;-15.04855488;-16.92045881;-0.351413278;-0.616954477;12.01835921;-2.270884208;-56.29702058;-14.25516542;-77.26333693;-68.55485727;-40.04688568;-14.95514014;-29.2996106;-8.090977017;-8.915873766;0.889241454;-5.653008232
0.632211904;14.46872455;-9.922330477;-14.93768148;0.253391276;-0.464614723;12.93032469;-1.397319612;-52.29798479;-11.63007813;-71.97731798;-65.66321005;-37.24603151;-14.10305047;-24.34393702;-8.123663148;-8.088184394;4.028874959;-5.828099123
0.838081614;15.39562177;-8.123784033;-18.11261873;0.50721853;-0.08880765;12.08233436;-2.759030458;-47.25611978;-9.841410565;-73.49568351;-64.71676931;-31.78847689;-15.12672875;-17.82596818;-8.001956462;-5.947628925;7.337522028;-4.426900758
1.174906713;14.04835636;-10.90733157;-23.91392379;0.281749335;0.171729415;10.36688306;-5.019146052;-40.33488152;-7.744108055;-76.77184032;-65.02518495;-25.05580301;-16.70950963;-13.07860222;-7.180391698;-3.994373631;8.956433834;-2.854418587
0.969529404;10.64824978;-15.89062332;-27.69570313;-0.132520666;0.129122297;9.405747422;-6.003542435;-31.96142805;-4.501693625;-74.25371474;-63.72112188;-19.98707984;-16.91275002;-12.2001378;-4.694027525;-3.024437903;8.427444571;-2.459996249
0.185962466;6.727846748;-18.94486022;-26.03445296;-0.329054227;-0.093396478;10.0180177;-4.747486858;-23.60116307;-0.217340812;-61.45253442;-57.65385731;-19.01120704;-14.94646513;-14.46860765;-0.301754563;-2.757250242;6.694875473;-3.472668807
-0.792254296;3.9323589;-17.35367473;-19.50953982;-0.241918118;-0.201179095;11.45850231;-2.3932853;-16.87875817;3.943618102;-40.60510569;-46.33879068;-22.12937158;-11.87622458;-16.9886054;4.619378775;-2.435940735;4.971446026;-4.938234669
-1.703053978;2.754167812;-11.70539584;-12.65352764;-0.261246486;-0.030998347;12.13225808;-1.119706843;-12.69274323;6.334571435;-19.66087002;-33.36131742;-26.75331108;-9.60186881;-16.93721517;7.588961047;-1.764121625;3.57247409;-5.669485951
-2.651861191;2.301377333;-5.197104926;-10.73479019;-0.829801745;0.273126395;11.10433701;-2.114835101;-10.84076394;5.93126357;-7.245396741;-24.54433536;-29.51168094;-9.020428341;-13.55481613;6.843426072;-1.290053711;1.785936988;-5.322433976
-3.822822955;1.3030826;-1.162343109;-15.55269303;-1.885416569;0.383163634;8.990078125;-4.477998586;-10.23305057;3.310667096;-7.153054464;-23.84470556;-28.611643;-9.064646894;-8.387622973;2.977751797;-1.888514061;-1.154385659;-4.626312836
-5.020541935;-0.551325763;-0.874132224;-23.51492754;-2.739836115;0.100455722;7.401466238;-6.058533398;-9.434842477;0.698871973;-16.15755968;-30.11241831;-24.88498592;-7.551200531;-3.817132576;-1.177304913;-3.827570791;-4.966359245;-4.589973232
-5.613642278;-2.161987429;-3.147990976;-27.82304561;-2.624310085;-0.432977254;7.472417068;-5.440502176;-7.246881062;0.753989239;-26.42687848;-37.51088001;-20.76058152;-3.133997898;-1.257439626;-2.592067816;-6.296544128;-8.19444336;-5.449642348
-5.043250209;-1.909587758;-5.656306813;-23.49044838;-1.480723543;-0.831003503;8.832072819;-3.23349858;-3.173183004;4.682826366;-30.56497551;-39.60449831;-18.13376539;3.379779213;-0.473922675;-0.390106905;-7.872626568;-9.274626093;-6.354268763
-3.443723459;0.855036026;-6.629772671;-11.51683235;-0.249263224;-0.793231979;9.965056675;-1.48913565;2.307440074;10.99708506;-25.70745442;-34.09017588;-16.96783817;9.562794452;-0.3433377;3.507681204;-7.574557205;-7.889787577;-6.10119667
-1.72968945;5.025498769;-5.674900145;1.13048398;-0.262815045;-0.375093907;9.609120309;-1.802676466;7.807872612;16.00746513;-14.18899826;-24.4579931;-15.74486511;13.31185722;-0.117905744;6.069188304;-5.62488972;-5.39446611;-4.266536163
-0.962532172;8.380788138;-3.457899654;6.055422376;-2.143583758;0.04940442;7.89550059;-3.862928311;11.57387683;15.99672881;-1.008050675;-17.22078147;-13.23873056;14.48043963;0.030230063;5.744802218;-3.279284521;-3.860363557;-1.703991114
-1.506896955;9.153727596;-0.926931178;-0.668026585;-5.118072544;0.10762356;6.199210174;-5.778118449;12.39231868;9.7002326;9.540708695;-16.89775023;-9.952398074;14.7372571;-0.436127868;3.705443023;-1.871900887;-4.489899271;0.05467067
-2.746213818;7.234587091;1.181639527;-15.59743101;-7.413432348;-0.248286747;5.869388537;-5.852170579;10.38687644;-0.680545462;15.63353759;-22.75172132;-7.904133637;15.78556163;-1.502944099;2.640577046;-1.880754412;-6.71688833;-0.012920483
-3.657387632;4.040886626;2.402730016;-30.24314256;-7.526840215;-0.700383267;7.027009941;-4.153127663;7.091206587;-10.75735676;17.41835036;-29.82746615;-8.926830053;17.57638921;-2.400979826;4.211959066;-2.773599437;-8.757630162;-1.667797661
-3.75145871;1.230855531;2.518925695;-36.92266482;-5.393553664;-0.843432537;8.51879784;-2.427793305;4.57071253;-16.69003906;15.52144833;-33.29671739;-12.95236042;18.18027395;-2.444778293;7.470019531;-3.704509095;-9.166688351;-3.715055429
-3.511134065;-0.601518209;1.711851585;-33.81533005;-2.494824194;-0.537812026;9.022597148;-2.459659122;4.082398632;-17.44106205;10.34582756;-32.41641535;-17.76849;15.49286884;-2.134551859;9.659520967;-4.402153022;-8.117911247;-5.050397616
-3.884537316;-2.163346251;0.691435884;-25.5667073;-0.772355637;-0.027643428;8.245559286;-4.402752502;5.244219584;-14.97434568;2.788567234;-30.79045512;-20.48496707;9.272130912;-3.324709436;8.655641917;-5.450430374;-7.364454022;-5.505998924
-5.270526082;-4.528892289;0.419246529;-19.24793264;-1.18263508;0.275592973;7.112848991;-6.630334354;6.429847028;-12.39250387;-4.632277794;-32.76212431;-19.53357656;1.661524641;-7.987661444;4.789353285;-7.715419832;-8.911033849;-5.785479177
-6.951960043;-7.954451968;1.418999333;-18.96694903;-3.025319003;0.149384814;6.820698164;-7.225406481;6.186377856;-11.54567777;-7.847137906;-39.03549991;-15.64498338;-4.323007241;-16.38076187;0.419310713;-11.42519021;-13.44554562;-6.626941151
-7.583715419;-11.52464046;3.222446426;-23.24376448;-4.558283811;-0.256107253;7.687184939;-5.727278372;4.585775111;-11.94446518;-3.127078502;-45.31247311;-11.14831272;-7.050039063;-26.13293456;-2.259482286;-15.71;-19.71550179;-8.014805511
-6.391880818;-13.90910016;4.570682746;-26.8770546;-4.382186603;-0.560824003;8.888492248;-3.529246596;3.348381412;-11.66149915;10.26856702;-45.27569705;-8.286606638;-7.308388696;-33.21940403;-3.018735049;-19.01616381;-25.2507554;-9.170039063
-4.035088735;-14.49428628;4.373633041;-25.46659347;-2.48713938;-0.489048869;9.298940652;-2.582378056;4.494391416;-9.286830629;28.6871642;-35.67519067;-7.88850378;-7.2408454;-34.35483218;-3.265417572;-20.07475416;-27.82355662;-9.298652007
-2.287601776;-13.84824716;2.661494012;-18.87192776;-0.170025024;-0.098732781;8.602034902;-3.620544416;8.516196025;-5.235625859;45.25657426;-19.49988669;-9.237124173;-8.171661845;-29.15114843;-3.958692049;-18.66686353;-26.60375689;-8.376169354
