Channel 1 - P4;Channel 2 - O2;Channel 3 - P8;Channel 4 - T8;Channel 5 - C4;Channel 6 - Cz;Channel 7 - Fz;Channel 8 - F4;Channel 9 - Fp2;Channel 10 - F8;Channel 11 - Fp1;Channel 12 - F7;Channel 13 - F3;Channel 14 - C3;Channel 15 - T7;Channel 16 - P7;Channel 17 - P3;Channel 18 - O1;Channel 19 - Pz
13.2741266;13.81785791;-58.47820348;13.50917764;5.039407772;10.58007813;-72.84331555;-65.29887024;29.80637017;35.61789948;29.64512704;6.864535463;21.43757001;-12.85762395;-5.401668365;-26.72619815;14.67875699;-4.127533477;35.27379917
18.81161219;22.46072463;-39.77456171;9.861335759;16.43150594;10.15506286;-44.04695065;-55.88450813;41.80429553;38.08478871;41.61268109;37.61513404;22.55679427;18.7928818;14.67787282;-8.608711744;13.76685997;7.802903988;30.39704091
15.25797964;17.28020499;-18.33411065;7.490506592;19.98703586;6.718968887;-7.429012431;-32.73132712;43.56864821;29.47185912;46.64157656;66.56904787;20.44845472;48.96180418;30.98117853;8.718625633;7.22231728;9.392462344;18.10294393
5.371452459;3.163563783;-9.036759466;8.829323347;15.44534639;1.980501291;19.25860452;-8.423162837;38.8433906;18.36321352;44.52528608;76.18;17.63884865;55.2281497;37.34874193;15.09131783;-1.582425103;1.93447551;4.769026696
-4.098102288;-9.976630589;-15.82014412;12.34820993;7.987894912;-1.79260092;27.05948604;6.299921649;34.49783905;13.61901153;38.51305767;56.95222275;16.41126741;29.12344217;34.14467613;9.413560149;-8.149236967;-7.825816223;-3.668085525
-7.33033294;-14.20558271;-30.4789059;13.64492265;3.968527601;-3.146673173;19.81857645;8.299264832;35.46699429;18.25232695;33.39307345;13.95975942;17.40055519;-17.7440188;26.93445563;-0.869347169;-9.728371855;-12.72163798;-5.07223828
-3.526741964;-8.894144792;-40.44363783;9.307915496;6.083252122;-2.205009852;9.122766619;2.217932603;41.67910968;28.10957791;32.66226124;-35.18625275;19.39597646;-61.03718054;21.79114688;-6.37590609;-6.926867316;-10.23051321;-1.752482351
2.909774036;-0.438589048;-38.77990572;0.346818687;11.70204752;-0.34920013;4.916793433;-4.215778238;48.97676228;35.85377612;36.66610358;-69.85703037;20.43324341;-79.2981524;21.12327584;-2.928599084;-2.930460939;-3.751519119;1.785167848
6.108783793;3.199762549;-28.56859449;-7.898026281;15.44645289;0.869902854;9.098973919;-5.84733981;52.87425166;36.75375128;42.88440616;-77.51457298;19.35425677;-66.93490311;23.0822611;6.130391908;-1.000384794;0.701869977;2.18311681
3.33722884;-1.26576627;-18.96470374;-9.65112225;13.70950409;0.76556844;16.22759051;-2.74923767;51.97831046;31.77034683;47.98487867;-59.65731308;16.70605816;-36.00833647;24.40226541;13.5536917;-2.162659541;-0.421396067;-0.710190864
-3.137467425;-10.26452027;-17.03783511;-3.431634148;7.420775004;-0.213960177;19.56056208;1.33985539;48.51988015;25.94782285;50.05480191;-29.40124769;14.35632156;-6.527175297;23.76815514;14.24373159;-4.76687436;-5.467216875;-4.326885105
-8.226151307;-16.69513436;-22.40129854;6.301674269;0.990222736;-1.060175825;16.86531673;2.802473326;45.99496617;23.9177105;49.45083718;-2.880635528;14.14330906;7.093943125;22.75736436;8.909835314;-6.07694566;-9.238385208;-5.744664591
-8.271729543;-15.80530268;-28.63151271;12.19947289;-1.444183154;-1.082557897;11.47798663;0.937899759;46.19101896;26.33626591;47.88405631;9.76745356;16.56110972;3.867869942;23.87119374;2.985635319;-4.49693026;-7.493529864;-3.988840691
-3.851646336;-8.797234488;-29.5182903;9.567771708;0.746945567;-0.392489785;8.556858524;-2.10633628;48.07467619;29.90703253;46.70611288;8.466557294;20.41675075;-6.136007791;27.82196333;2.310767735;-0.659076076;-0.471444926;-0.576691392
1.045481403;-1.413048201;-24.40603146;0.030409542;4.530087891;0.316274918;10.37451874;-3.628399603;49.17800501;30.52581922;45.83874971;0.677469162;23.65787832;-11.16423265;32.72926509;9.112315411;3.354947053;7.422459093;1.920944567
2.58597948;1.045555467;-18.2116144;-9.727029379;6.019729012;0.417933097;14.73820391;-2.666891317;47.963527;26.6846947;44.10646949;-5.043327367;24.7246144;-6.463935276;35.90643504;20.8533829;5.841403245;11.36140447;2.01334895
0.314615307;-2.011690024;-16.59549246;-13.25873133;3.738158834;-0.139735727;17.46133153;-0.476699741;45.00967698;20.4083576;40.53453311;-4.70650535;23.44769854;3.76941894;36.41173834;31.96014606;6.760607037;10.04423575;0.407246871
-2.626431256;-6.373844602;-20.83179288;-9.503415223;-0.36350198;-0.863443888;16.26312827;0.876090355;42.13250247;15.27961044;35.44890537;-0.34977234;20.90828304;11.40654243;35.83295467;36.65011932;7.475456922;6.561608223;-0.697710421
-2.348756733;-6.977085833;-26.82193628;-3.593955722;-2.77479516;-1.187715855;12.56502933;0.349839065;40.47058976;13.47217177;30.47792994;2.826338239;18.45892441;11.42709742;36.49115751;31.18937898;9.307787787;5.576164057;0.520845586
2.339556091;-2.413355152;-28.84138134;-2.611177181;-1.430452158;-0.950932238;9.858885773;-1.365053551;39.38401916;14.24857663;27.49013625;0.892020223;16.68309662;5.333626084;38.76443692;15.10105826;12.2483876;9.303713602;3.997480923
8.777525538;3.795947336;-24.54415587;-9.692369828;2.675721377;-0.477831206;10.42934494;-2.664262564;37.11620318;14.89020046;27.30379676;-6.148834347;15.04270265;-1.063682994;40.18163341;-8.414121308;14.93593137;15.6959623;7.799440524
12.47648178;6.124588653;-16.91888153;-21.32016089;6.43353731;-0.242613504;13.46037925;-2.471768907;32.47921305;12.96963183;29.08137703;-15.01743737;12.40690819;-2.851191387;37.38687937;-32.89231338;15.86287128;20.26771583;9.609538719
10.5946047;1.62229992;-11.74072768;-30.08835419;7.10500017;-0.443101075;16.0498696;-1.037860385;25.93420371;7.995202391;30.73930373;-22.08142386;8.022243957;0.344851743;29.39315028;-50.40865848;14.70692959;19.91662397;8.475051732
4.039570278;-7.64816249;-12.90842614;-30.76651248;4.2282839;-0.860216478;15.96590773;0.455435995;19.11706222;1.302631673;30.01844389;-25.99049416;2.226006401;4.898874058;19.17490199;-54.85804113;12.62526142;15.48081227;5.4722288
-3.367955356;-16.20189784;-19.59574843;-24.70813219;-0.444785205;-1.097358658;13.55795603;0.975360954;13.39320771;-5.315633569;25.58093921;-28.05017265;-3.553103948;6.817907031;11.91742633;-45.37087385;11.28868563;10.95501194;2.827113649
-7.805929436;-19.28673348;-27.30748415;-18.88896759;-4.58097512;-0.955982696;11.21379567;0.422063476;8.930815248;-10.83544743;17.67673451;-30.35240361;-7.46551772;5.060807117;11.11715084;-27.50040075;11.52054182;10.14628744;2.233191997
-8.021263062;-16.18388511;-31.56672664;-20.18916095;-6.879233334;-0.60302441;11.06110307;-0.468962672;5.203356809;-15.12130382;8.229990439;-33.47079023;-8.158749082;1.890817274;15.7071265;-10.65269822;12.69745612;13.63263519;3.676808021
-5.65857845;-10.18291925;-31.01869357;-29.46804524;-7.404202976;-0.394031523;13.10432652;-0.876993964;2.339366653;-18.18827801;0.337953996;-35.75325105;-5.458725317;0.405174177;20.6818671;-2.787663519;13.3557288;18.48691697;5.616646614
-3.429147107;-5.622669486;-27.65694751;-40.30387958;-6.731719062;-0.53148081;15.41352579;-0.577259367;1.787039435;-19.61540694;-2.803466559;-34.81625056;-0.529668942;1.690774243;20.84322004;-5.765989981;12.39617618;20.80499985;6.279333073
-2.890118575;-4.671659834;-24.53690164;-43.64415224;-5.03956419;-0.876835644;16.01971977;-0.011991496;5.326794386;-18.79308439;0.631039765;-29.95844176;4.514756555;4.046879379;14.69296889;-14.69311505;9.82207881;18.77012418;5.002941748
-3.643432888;-6.39771799;-23.29027812;-34.88736493;-2.099362502;-1.083094208;14.67665018;0.196044122;13.09237483;-15.70485166;9.802672537;-23.3939902;7.39760354;4.690169574;5.370574731;-21.85605878;6.446796105;13.72368885;2.61121211
-4.307805555;-8.474600676;-23.46348241;-17.86654753;1.960879088;-0.919323715;12.91828939;-0.211939334;22.43917941;-11.32965405;20.96123842;-19.11881955;6.60632086;2.232943411;-2.018167569;-22.37691244;2.974210102;8.586597907;0.635524652
-4.067692125;-9.636606483;-23.76474515;-2.500137094;6.109633245;-0.488261207;12.49918827;-0.982237317;29.03230785;-7.109798189;28.84024316;-20.14345544;2.124821748;-2.225317486;-4.394785177;-17.34887339;-0.601632185;5.255803998;0.110992036
-3.30076619;-10.61611021;-23.65185119;2.251828987;8.849992319;-0.14038137;13.75934468;-1.637057283;29.67815778;-3.89227197;29.33331601;-26.21113753;-4.39271963;-6.150942861;-2.768740831;-12.20225429;-4.689066134;3.313941912;0.93297013
-2.8541322;-12.92538316;-23.7287799;-5.155280868;9.370630691;-0.163965127;15.4108146;-1.872473051;24.76285043;-1.352592592;22.01270615;-33.83077842;-10.22215346;-7.659812469;-0.86003418;-11.83445433;-9.203659149;1.0277701;2.209989615
-2.879189064;-16.87224784;-24.83957808;-17.84308825;8.326997717;-0.530266896;15.84384878;-1.717778225;18.21514209;1.4730398;10.75936437;-38.68180995;-12.79217074;-6.79435195;-1.684704733;-16.54474581;-13.01784296;-2.506504416;3.191464159
-2.493701993;-20.8038006;-27.02748327;-25.68048332;7.42146523;-0.920012207;14.65478647;-1.387198827;14.78361674;4.969616066;1.756525972;-38.58752062;-10.95303781;-5.056816857;-5.08807644;-21.99687577;-14.42883601;-6.178380789;3.908106215
-0.650303729;-22.31685787;-29.47536824;-22.72078261;8.05713401;-1.004476123;12.97452453;-1.035729054;16.61493375;8.194435382;-0.139417341;-34.8014102;-5.553361879;-3.845919832;-8.213073204;-23.02344365;-12.40297307;-7.760611664;4.980974818
2.64325456;-20.30438964;-31.38095666;-11.38288118;10.24824012;-0.729630486;12.3598022;-0.66598663;21.78515202;9.43733608;5.648753807;-30.68926761;1.086997678;-3.295448407;-8.288136229;-17.96524803;-7.596103567;-6.038754455;6.823234388
5.996372433;-15.94765805;-32.72655545;-0.405191681;12.78535749;-0.35382259;13.34307538;-0.235669995;25.94395167;7.77656236;15.17262207;-28.9515043;6.531631898;-2.485053864;-5.195590173;-9.971178128;-2.236745014;-2.169477614;9.001448297
7.624397513;-11.75346113;-34.08029046;1.730615578;14.50396321;-0.211411174;14.99276942;0.193528867;25.76137614;4.32594756;22.64745886;-29.64871239;9.545981804;-0.676252782;-1.624653119;-4.366452029;1.155415258;1.048928729;10.37830992
6.823958472;-9.512778008;-35.66661443;-7.02374776;15.44954781;-0.416502259;15.83797749;0.446619381;21.43999197;1.957013856;24.22763689;-30.56289656;10.50198554;1.670029297;-0.799194061;-4.457720367;1.30117502;1.430249875;9.963483377
4.597100459;-8.992511433;-36.78155884;-20.91958321;16.78371296;-0.768570896;15.23983734;0.384270669;16.34310869;3.455540774;20.23115349;-29.4602465;10.63329269;3.071760335;-3.830680509;-9.244694336;-1.175841669;-0.76437312;7.761922324
2.813499893;-8.457602536;-36.30750658;-30.59413697;19.43922234;-0.937944341;13.92638084;0.057703289;14.13174598;9.395860331;14.33454218;-26.25541215;10.76165219;2.262032234;-8.936934867;-14.67613859;-4.381801156;-3.011543803;4.882620606
2.611277249;-6.458018161;-33.90981449;-29.55994569;22.76351178;-0.761084991;13.2398946;-0.295416881;15.77099619;17.3790218;10.51851329;-23.21377009;10.52481456;-0.602216165;-13.04600637;-17.06269671;-6.506977898;-2.592254521;2.780672076
3.440598719;-3.225786544;-30.67808244;-18.37106619;24.53095778;-0.383261599;13.85407032;-0.428750169;18.78095371;23.34048547;10.17398467;-23.03842697;8.74414007;-3.821540632;-14.26639412;-15.66264078;-6.848411482;1.200827407;2.23173128
3.603843728;-0.458565932;-28.40083945;-3.810939545;22.55220822;-0.126936473;15.17344379;-0.288136279;19.23095674;24.10495795;11.5201706;-26.5134088;4.648270438;-5.262987991;-13.10902145;-12.50057718;-5.837352112;6.538696746;2.862112143
1.826069497;0.233410684;-27.99363885;5.915634526;16.64332039;-0.208207667;15.94378941;-0.057950264;14.80359271;19.43771094;11.57299599;-31.75477309;-1.060068359;-3.826054022;-11.59197271;-10.02706297;-4.276080736;10.57300442;3.590949131
-1.523547983;-1.240689716;-28.54926338;6.414274106;9.25165746;-0.553502474;15.45830869;-0.007132122;6.538128902;12.21224707;8.881579839;-35.7292035;-6.239149862;-0.135766329;-11.2331834;-8.953162002;-2.576747899;11.64705313;3.581902091
-4.633513718;-3.418217103;-28.04860926;-0.684046757;4.043893973;-0.873314863;14.21509979;-0.259229101;-1.933357001;6.659822334;4.739378527;-36.72979603;-8.543703066;4.013189736;-11.77617292;-8.096869909;-0.644696646;10.36205806;2.894001839
-5.701385719;-4.606205594;-25.26222584;-9.542788408;3.431121266;-0.919534975;13.43129655;-0.673361011;-6.839676781;5.945258795;1.946269288;-35.65536774;-6.990910543;6.95489543;-11.66313087;-6.032943978;1.629744753;8.735150611;2.303388208
-4.37677392;-4.304874579;-21.16585187;-14.23506877;6.923409505;-0.694605247;13.89966171;-0.931833988;-6.459936486;10.61555223;2.279333464;-34.96984209;-2.676833262;8.173938039;-9.638111426;-2.727262806;3.868255218;8.323975817;2.489875336
-1.964746376;-3.452646474;-18.4752814;-12.22245728;11.58029928;-0.431703144;15.26665827;-0.767492944;-1.621193713;18.69380783;4.88758981;-36.25173869;1.920476167;8.345696323;-5.9323174;0.426336295;5.245384706;8.972046034;3.324602814
-0.251951577;-3.352734821;-19.5220194;-5.172416204;14.17065569;-0.373805259;16.38618546;-0.161028885;5.388336444;27.03811534;6.997366741;-38.52193141;4.547776646;8.509041791;-2.015078004;2.056000943;5.071144945;9.153486997;3.898896883
-0.001719898;-4.354626552;-24.22209303;2.870963909;13.34873936;-0.556205988;16.38800814;0.632510865;12.24858005;32.91841767;6.321748074;-38.92402019;4.514876781;9.125973268;0.712447553;2.193488075;3.384586301;7.454724542;3.28989675
-0.409279844;-5.53887333;-29.92209997;8.313573086;10.2452177;-0.786110618;15.45235093;1.24139083;17.28099812;34.94108548;3.101026305;-35.30827826;2.830873063;9.772596671;1.977240295;2.189207196;1.010462638;3.81662878;1.419861387
0.066203216;-5.667338654;-33.34176317;9.918487768;7.217326224;-0.829830366;14.58804376;1.406190289;19.32844957;33.13566028;1.50073E-05;-28.55300421;1.156234074;9.624611282;2.494673513;3.278118945;-0.983296209;-0.490364206;-0.725170569
2.270779919;-4.460741651;-33.02341993;8.849538368;5.932778093;-0.631300264;14.65662901;1.127614163;17.63310141;28.57296678;-0.100858997;-22.54045818;0.473505967;8.257786374;2.891285346;5.260965134;-1.965339754;-3.990253112;-1.724905749
5.573914742;-2.969084842;-30.25258838;7.237031563;6.318184131;-0.362388282;15.57436433;0.643960965;12.29820814;22.9328719;3.410846344;-21.57540784;0.505431271;6.081381131;2.847344668;6.636895477;-2.00739077;-6.131290348;-0.715487706
8.359062421;-2.665149693;-27.73975211;6.452780954;7.004115293;-0.262535277;16.42826659;0.264385215;4.967135273;18.12310227;8.215674645;-27.16050513;0.223549377;4.071672528;1.361179931;6.0756814;-1.587727002;-7.455147358;2.028215749
9.289928548;-4.095035875;-27.28179727;6.213765657;6.620203203;-0.417372843;16.36986119;0.174462562;-1.282929317;15.79882618;10.81653318;-36.65325453;-1.102837776;3.05228354;-2.089989544;3.782683035;-1.078686904;-8.803407092;5.339660421
8.237811449;-6.340372652;-28.44668279;4.944669882;4.736687391;-0.679350686;15.42967934;0.341482096;-3.3758003;16.72660345;9.304999474;-44.90108081;-3.232987631;3.1112891;-6.628839822;1.394297225;-0.501830056;-10.42069629;7.990346818
6.142190748;-7.800429186;-29.3366632;1.032317913;1.783894319;-0.80221584;14.49070795;0.574639138;-0.291576951;20.25815886;4.893712575;-47.64266354;-5.157652914;3.606509242;-10.26289179;0.46720852;0.28531345;-11.80455128;9.429956066
4.060878207;-7.586355768;-28.59937894;-5.87229307;-1.700845894;-0.66636085;14.45990181;0.687386322;5.848072629;24.35733059;0.986509373;-44.14036941;-5.898523342;3.730204205;-11.24820501;1.009748005;1.248251065;-12.35767909;9.910306429
2.340166833;-6.257764353;-26.77608219;-14.32492762;-5.609256035;-0.390068359;15.42288609;0.637808573;10.81335972;26.40177122;0.572236292;-37.19619652;-5.165331679;3.171946653;-9.398185177;1.497087403;2.089070983;-12.11753217;10.0181811
0.624507787;-5.236665975;-25.75255186;-21.68657421;-10.05732936;-0.22531745;16.56800053;0.540599797;10.98845055;24.46977565;4.059808472;-30.77647474;-3.357465037;2.362274663;-6.208889393;0.397993834;2.530108995;-11.80284905;10.10831894
-1.419005487;-5.444358593;-26.86197024;-25.53503384;-14.74681695;-0.331290645;16.93847428;0.544155912;5.898872432;18.41355975;9.236826718;-27.22575229;-1.04734917;2.124518702;-3.682806924;-2.234469716;2.669192762;-12.11948739;10.1272868
-3.455475365;-6.413571627;-29.44027101;-25.05238524;-18.66219912;-0.628740341;16.30538006;0.677337689;-1.384317713;10.05734394;13.23901508;-26.13966707;1.461070449;3.025860929;-2.839539976;-4.665195111;2.994773028;-13.0081451;9.897804977
-4.598157551;-6.691994149;-31.21947211;-21.50075082;-20.53877447;-0.865979749;15.3574839;0.802892849;-6.365499059;2.354179665;14.79257108;-25.46202526;4.05312189;4.93897364;-3.130832943;-5.035230308;3.965109793;-13.58695998;9.497465915
-4.209590664;-5.181335901;-30.25658832;-17.42236114;-19.76166289;-0.838455953;15.05010534;0.731876026;-6.238224477;-2.039034459;14.88201028;-23.60414485;6.344817457;7.139959535;-3.161504016;-3.147334302;5.504327339;-12.88937838;9.306078035
-2.63392586;-2.216144436;-26.68080048;-15.02972815;-16.89844044;-0.567655924;15.73031305;0.413190565;-1.676560488;-1.970852272;15.43621529;-20.76961603;7.435924887;8.835621019;-2.010637684;-0.783213763;6.907113141;-10.74947437;9.644562624
-1.138499246;0.571603141;-22.68414188;-14.84378983;-13.36407397;-0.28183564;16.84385175;0.031201181;3.987548379;1.852073784;17.33918117;-18.55514975;6.325282816;9.684394564;-0.014144;-0.201207292;7.310220265;-8.043545826;10.34818728
-1.047232035;1.472488584;-20.74391657;-15.52633713;-10.47742213;-0.216294892;17.47318493;-0.096933467;7.470254938;7.484275631;19.58643054;-18.39872107;2.803617057;9.912003197;1.572210619;-2.173766276;6.369375607;-6.078543036;10.71584882
-2.774043797;-0.061318987;-21.63030853;-15.03735261;-8.679750546;-0.408421398;17.18751413;0.232551645;7.98450574;12.89547087;20.31487224;-20.28705452;-1.918779047;9.98351225;1.624985653;-5.381516108;4.556900837;-5.672760518;9.960338192
-5.555795271;-3.185408947;-23.91772469;-12.27688306;-7.491652848;-0.664685856;16.41633567;0.914490585;7.586553329;16.96521854;18.72118756;-22.73710858;-5.531352752;10.16580998;-0.014364324;-7.726910125;2.797205601;-6.711643379;7.832966569
-8.075424552;-6.53328695;-25.3597166;-7.981634569;-6.103001529;-0.724781998;16.02017263;1.566994574;9.280237765;19.7802604;16.06536227;-23.92636542;-5.876664455;10.37743933;-2.54018057;-8.326611543;1.733500981;-8.493079525;4.9111679
-9.419181449;-9.327162576;-24.84884631;-4.187795822;-3.978222149;-0.478417701;16.47883551;1.793400491;14.45366004;22.14237697;14.75487233;-22.98097426;-2.346061967;10.42581566;-4.848400997;-8.293633316;1.253825384;-10.46603893;2.287308182
-9.587127523;-11.7526325;-23.23048746;-2.676684568;-0.974065023;-0.050590269;17.45453122;1.480220848;21.61737438;24.6635262;16.22703635;-20.46976896;3.580689142;10.3493651;-6.203639059;-9.564466108;0.685011304;-12.67057438;0.872684455
-9.234315622;-14.3915627;-22.33839178;-3.637787136;2.95764924;0.308977689;18.118428;0.890620269;27.2839986;27.05707681;19.48081262;-17.89223551;9.08324665;10.47630626;-6.422008328;-12.90102798;-0.526375019;-15.53966905;0.834913991
-9.005036101;-17.40087615;-23.23309435;-5.638823156;7.977734335;0.427580322;17.9169085;0.468105128;28.18124907;28.10345065;21.63623803;-16.67453153;11.55854747;11.09877297;-5.65099993;-17.01818361;-2.261686276;-19.34399256;1.574243986
-9.107975329;-20.29886948;-25.28456369;-6.953785696;14.11962009;0.327969735;17.0633363;0.501432912;23.13768589;26.34621735;20.18631065;-17.36675512;9.966642085;12.08049455;-4.171853016;-19.73779235;-3.807170916;-23.84920287;2.220358683
-9.448991838;-22.54624444;-26.88752646;-7.174281235;20.80591892;0.173261373;16.31942605;0.919794031;13.46985462;21.10072657;15.10815304;-19.41208554;5.160587906;12.84962047;-2.46268618;-20.10963895;-4.494236088;-28.47280088;2.247466823
-10.05594597;-24.27197661;-27.06128148;-7.739564621;26.70801835;0.104061065;16.29672217;1.381020971;1.957027268;13.12174822;9.024222924;-21.45813763;-0.841738385;12.89492106;-1.317817178;-19.4379896;-4.326185074;-32.70205666;1.757102186
-11.26977288;-26.32475217;-26.39387493;-10.84870504;30.30385154;0.120766615;16.93585488;1.570621282;-8.58216363;4.448644758;5.180475815;-22.01055941;-6.003021255;12.35402518;-1.655691609;-20.12275888;-4.021960926;-36.31;1.271246741
-13.46709699;-29.50299218;-26.45106209;-17.53933317;30.82241069;0.110386538;17.62591232;1.454901602;-16.1554283;-2.551970427;4.840432084;-20.22616359;-9.077066175;12.07424651;-3.978750995;-23.31403156;-4.42931408;-39.19197893;1.252971424
-16.60390736;-33.67662426;-28.23753958;-26.4697748;28.80387459;-0.020566713;17.81454203;1.278532733;-19.72629165;-6.402600943;6.238316637;-16.58124964;-9.772890038;12.92335428;-7.926733622;-27.61220708;-5.826284832;-41.11030669;1.736734926
-20.08783038;-37.70328243;-31.19089913;-34.4794109;25.74156982;-0.239315531;17.51453825;1.323729176;-19.09160601;-7.251938068;6.002209669;-13.01283799;-8.496949259;14.85138622;-12.4357695;-30.17537877;-7.728003745;-41.76226057;2.315128097
-23.17114309;-40.3291565;-33.67758588;-38.64195831;23.04662964;-0.406515082;17.24046686;1.654355064;-14.95355017;-6.677909434;1.942195264;-12.1863876;-6.077229448;16.59075451;-16.51114602;-29.33862462;-9.355688748;-41.20309315;2.442324191
-25.51724912;-41.29545119;-34.528767;-38.32436431;21.19092236;-0.400971234;17.46667412;2.072152414;-9.062167756;-6.688191037;-5.041524764;-16.01404299;-3.632970593;16.46844211;-19.98694657;-26.30512016;-10.32433485;-40.15734991;1.809179076
-27.37561491;-41.58159075;-34.14583612;-35.68500522;19.74552618;-0.231431552;18.14682203;2.313895583;-3.895731424;-8.544978442;-11.48994999;-24.2202626;-2.425882844;13.82751643;-23.53764571;-24.1782864;-10.91346416;-39.7;0.543716128
-29.14916274;-42.44506577;-34.0767689;-34.18330981;18.22791173;-0.03295599;18.7567715;2.29925153;-1.609547857;-12.1124787;-13.95448332;-34.02810841;-3.481965711;9.85244074;-27.82932259;-25.04204634;-11.68028072;-40.34749726;-0.858274275
-30.74251752;-44.04853215;-35.39527847;-36.16068042;16.92289824;0.046248482;18.80824517;2.198134229;-2.732576943;-16.04443165;-11.56358179;-41.47144432;-7.053459662;6.900697668;-32.53383054;-27.74470236;-12.79749528;-41.28751795;-1.803252423
-31.35242465;-44.95440847;-37.39057846;-41.23867704;16.8546561;-0.03687261;18.32996312;2.258280788;-5.59950022;-18.58515762;-6.558946659;-43.66991912;-12.29077928;6.668429855;-36.17356459;-28.59789432;-13.77309583;-40.5912004;-1.918342064
-30.00229139;-43.10205768;-37.88758503;-46.64170282;18.88;-0.200580544;17.85226971;2.558256987;-7.18847919;-18.43389752;-2.413896112;-40.52821261;-17.46961643;8.672046503;-37.0952739;-24.60748463;-13.86899228;-36.53608876;-1.266970621
-26.42679632;-37.58663752;-35.08438644;-49.10287566;22.73301965;-0.326604532;17.91281695;2.920180941;-5.024902281;-15.20541413;-1.074125281;-34.56891124;-20.73633835;10.50644072;-34.82202499;-16.4085865;-12.874303;-29.15917961;-0.35602877
-21.52292878;-29.76702738;-29.37749296;-46.88801357;26.9670206;-0.36796749;18.55819319;3.066581794;1.097470637;-9.380863926;-1.525723515;-28.95090342;-20.92188661;9.946298863;-30.56709029;-8.107399143;-11.50967903;-20.75500426;0.096909447
-16.89709688;-22.68555055;-23.52942905;-40.52138012;29.96282161;-0.377009873;19.314521;2.876781743;8.839998912;-1.971997344;-0.794201537;-25.15802113;-17.91260991;7.24473519;-26.32479319;-3.90052745;-11.01078304;-14.70968906;-0.442386221
-13.81377447;-19.14884379;-20.87122505;-31.91601017;31.18060984;-0.435484769;19.64747332;2.503681149;14.76661952;5.808182723;3.46714907;-22.15998139;-12.42713136;5.491238769;-23.20890735;-4.34681449;-12.15292411;-13.36460563;-1.966926332
-12.40273326;-19.94424367;-22.89521803;-22.85873598;31.54272865;-0.561953893;19.46591327;2.240625467;16.53476952;12.74279113;10.86734757;-17.69554291;-5.513029902;8.294337809;-20.48301365;-5.723568999;-14.5146809;-16.46945527;-3.844306978
-11.79204326;-23.5752853;-28.15136815;-14.17356069;32.55383502;-0.68897019;19.18804939;2.260627324;14.28952828;17.74736507;18.28517834;-10.59487385;1.772457653;16.39836124;-16.25394132;-3.302018432;-16.64534498;-21.43323749;-5.123283901
-11.04033235;-27.65460634;-33.3269116;-6.135761258;34.88594053;-0.730333178;19.31394195;2.469407337;10.3098272;20.05557156;21.95643962;-2.186265968;8.323575309;26.14766736;-9.390180406;4.202473422;-17.07832636;-25.22084935;-5.095940118
-10.03732142;-30.74647719;-35.63649761;0.483704419;37.67367702;-0.669027845;19.9235331;2.607348565;7.249023929;19.44541407;20.03980283;4.413186148;12.85488191;31.60493576;-1.070341073;13.06914085;-15.41781103;-26.45024699;-3.763422147
-9.56308049;-33.14082797;-34.64378711;3.963708657;39.1824166;-0.576423068;20.58971661;2.502253537;6.322319107;16.37225711;13.79752575;6.552737097;14.09359356;29.18694541;5.483010515;17.62275545;-12.62898507;-26.08491645;-1.864588339
-10.44460801;-36.00651112;-32.17923053;2.473480335;38.31010394;-0.541806581;20.79466586;2.233237209;6.763483767;11.88400947;6.664299126;3.991620467;11.39955211;21.21152958;7.102751279;15.47898449;-10.28155921;-26.23985885;-0.408475183
-12.56986489;-39.76492858;-30.59916273;-4.290803225;35.61963673;-0.58145665;20.44920667;2.050073242;6.854532567;7.325283937;2.033257443;-1.029979388;5.418034306;15.01381317;3.077617852;10.27686701;-9.330078125;-28.12033778;-0.018468174
-14.67932812;-43.15758757;-30.90482848;-14.04003906;32.96879202;-0.619831405;20.00811531;2.124386831;5.622719647;3.95722905;1.363243032;-5.54325134;-1.833651497;17.50688504;-4.03781683;9.006110494;-9.381761215;-30.77618529;-0.558614264
-15.19458981;-43.84770399;-32.19621984;-22.51765247;32.01094651;-0.567306362;20.05490468;2.371263082;3.817280558;2.623075515;3.740953079;-7.865534659;-7.711703288;28.92886756;-9.914589598;15.67358029;-9.011193281;-31.6627535;-1.315623321
-13.43171918;-40.08036623;-32.71698067;-25.70153464;32.83443732;-0.422910277;20.73892715;2.517600778;3.368192365;3.511045714;6.857725583;-8.216944653;-10.15959169;40.8505803;-11.17542799;26.5939996;-6.863262072;-28.54481095;-1.586394432
-10.18453873;-32.05831215;-31.44846328;-22.19361065;33.91295562;-0.299500377;21.6004819;2.362070699;5.725858814;6.030398161;8.472147446;-7.635499129;-8.630480193;40.84447623;-7.361940831;31.7886112;-2.699404626;-21.24723284;-1.204997751
-7.174132003;-21.96388221;-28.89752384;-14.12034118;33.42473825;-0.336340182;21.96502065;1.986735421;10.37922931;8.878367891;7.413918775;-6.442275136;-4.149593292;21.21703343;-0.806699751;22.16716322;2.366349504;-11.93768996;-0.599325971
-5.80590717;-12.66953595;-26.54551002;-5.845586101;30.82901646;-0.57042599;21.55415112;1.717211337;14.7791423;10.4325693;3.823411787;-3.837710153;1.423428314;-14.33702602;5.27092475;-2.80299572;6.549120142;-3.801711109;-0.358525717
-6.237823068;-6.156570861;-25.58283986;-1.329767855;27.37641264;-0.883796769;20.75018991;1.856047811;15.89440025;9.491363389;-1.083154634;0.973267419;6.332764581;-51.40743126;8.852507298;-33.14688992;8.441290137;0.847022145;-0.696065022
-7.467846477;-2.734594474;-26.05215702;-1.906140546;25.14892251;-1.082875924;20.26475927;2.422820524;12.4107892;6.086308513;-5.369032518;7.305742121;9.455745409;-73.0929078;9.895018622;-54.19745972;7.700701912;1.690904279;-1.270234275
-8.272179439;-1.384758554;-27.03124983;-5.888451832;25.46576154;-1.049293467;20.51133785;3.13039595;6.020610354;1.832196019;-6.83668055;12.80876571;10.29451007;-70.44287451;9.55146717;-56.1884375;5.022619396;0.153764587;-1.508371657
-8.14011699;-0.688106787;-27.53989213;-10.06946431;27.98308285;-0.834543197;21.25521725;3.613612499;0.769240537;-0.626338072;-3.785071584;15.06101843;8.797605204;-47.91785603;8.858614931;-40.5784915;1.586138927;-1.80475248;-1.143262406
-7.436181735;0.439811649;-27.30479098;-11.86163757;31.16407183;-0.61597981;21.85634856;3.70244842;0.709435885;1.019601994;4.001990289;13.69904572;5.42169601;-20.06660389;8.125216029;-18.49421643;-1.551624608;-2.878376613;-0.486552347
-6.760985423;2.543572658;-26.77371242;-10.54056437;33.60799203;-0.551093976;21.87108642;3.503414601;7.306980946;7.311775247;14.60388479;11.12481838;1.410115845;-1.847597069;7.364678249;-2.684005889;-3.769969708;-2.877905218;-0.192306383
-6.19464009;5.713269836;-26.50516811;-6.926183778;35.04884845;-0.654916939;21.44967947;3.241643639;18.31383495;16.5121415;24.36554671;10.92046474;-1.189517543;0.545331184;7.042897787;0.835592887;-4.893019117;-2.439141064;-0.705394151
-5.16111154;9.59;-26.57912076;-2.116341006;36.22232325;-0.803372029;21.16315612;3.038843236;28.94026022;25.49740358;29.5193565;15.08963775;-0.212596429;-7.860019531;8.160520352;-4.588504251;-5.081113673;-2.428360357;-1.862069212
-3.031746066;13.27041407;-26.55955357;3.462497013;37.85222799;-0.853432346;21.43038969;2.846818677;34.66;31.57085544;28.24355384;22.37958334;5.37427028;-16.16;11.43837041;-10.60149104;-4.741750412;-3.487867575;-2.980944762
0.119204666;15.44196845;-25.9767823;9.877838019;39.76205298;-0.769543585;22.09085604;2.584757443;33.86792194;33.96067607;21.81669103;29.13680944;14.46333562;-16.17257036;16.35850869;-11.06229389;-4.430862727;-5.851070466;-3.368227014
3.338439536;14.97454936;-24.83588859;16.69382784;40.92618953;-0.644985759;22.53107444;2.313798774;28.66113114;33.91502799;13.9514036;32.0365145;23.92121361;-7.809229971;21.06714734;-6.278073747;-4.662364787;-9.327560346;-2.821190078
5.393391774;11.68542452;-23.68605891;22.26268068;40.36771775;-0.605210781;22.25237663;2.240766254;23.25099475;33.32706373;8.613346956;30.42944925;30.03491384;2.251649635;23.41281912;-1.409385629;-5.66600111;-13.38245924;-1.73429146
5.63442479;6.625714426;-23.21424857;24.2095209;38.04284807;-0.68703898;21.35144004;2.521077342;21.11191763;32.98684802;7.755134956;26.39303107;30.50590689;6.73968206;22.3526314;-1.15893003;-7.27297468;-17.34719219;-0.759694718
4.373482873;1.480073242;-23.73191434;20.96879736;34.91076758;-0.806219752;20.46217313;3.054406466;22.82865481;31.91564689;10.5065192;22.58384506;25.70401583;3.53303185;18.58308713;-5.596353635;-9.069629774;-20.76070591;-0.336047121
2.48212908;-2.586344986;-24.96506483;13.22392499;32.17143819;-0.841295146;20.20638397;3.505318733;26.0848051;28.41647152;14.30439436;19.90106368;18.32670105;-3.38162798;13.8995344;-10.47228722;-10.73268665;-23.64784234;-0.468144965
0.618781489;-5.719994533;-26.26082824;4.006242669;30.40467008;-0.753199008;20.65621337;3.576871682;27.69218788;22.05007813;17.00453926;17.07977024;11.70216113;-7.879129868;9.876440712;-11.2611263;-12.25651151;-26.44845765;-0.880471362
-1.193049927;-9.083571423;-26.99579159;-2.841372707;29.37057645;-0.62752056;21.29950511;3.302706339;26.10161995;14.85678756;18.31974826;12.52781684;7.906462358;-6.856226945;7.00375552;-7.09776545;-13.83297042;-29.52820355;-1.333589427
-3.27684826;-13.63841421;-26.88367977;-4.865957901;28.54827825;-0.598875349;21.53206529;3.063825512;22.53471747;10.58876654;19.53560475;6.611725774;6.929047214;-2.303695893;4.931163038;-1.221535728;-15.45121927;-32.60929104;-1.785698042
-5.63848767;-19.01899759;-26.03859836;-2.331706504;27.77832064;-0.726610231;21.21390399;3.264837865;19.95912845;12.25160324;21.88201178;2.102976634;7.291835786;1.049801577;3.421741798;2.170172024;-16.58774215;-34.66116418;-2.278198013
-7.628211171;-23.53026893;-24.85135957;2.262937781;27.32234594;-0.936626172;20.77272913;3.929574522;20.77458871;19.7068972;25.03240889;2.114208347;7.470165389;0.118138164;2.971986634;1.655393854;-16.35507372;-34.50174311;-2.716960291
-8.3293818;-25.38537087;-23.80385864;6.08875579;27.29836969;-1.083634874;20.76529382;4.591884719;25.02483919;29.25702945;27.07272139;7.182850689;6.986758369;-3.982916255;4.407496978;-0.374835931;-14.11902599;-31.74488494;-2.824290471
-7.37116283;-24.20375549;-23.28950792;7.895683145;27.14619437;-1.077598869;21.31572881;4.628973113;30.47750823;35.77240465;26.03258139;14.10976643;6.459132619;-7.195853393;7.783336107;-0.093257989;-10.15709356;-27.32483499;-2.355344816
-5.411429981;-21.47629185;-23.45862049;8.575005099;25.81807989;-0.959224607;21.96533961;3.791427468;34.41118335;36.00638419;21.7261971;17.81573016;6.772323271;-6.248752832;11.65915695;4.250479194;-5.801599602;-23.06350863;-1.387657676
-3.771999181;-19.5054572;-24.13874794;10.09145427;22.69387603;-0.856187932;22.0834185;2.476792886;35.62075782;30.75416146;16.3230175;14.93994462;8.182750408;-1.529008749;13.58345495;10.78301632;-2.843897605;-20.50330698;-0.384739887
-3.443926459;-19.60632253;-24.9182767;13.7305827;18.4336157;-0.861159692;21.46231642;1.479314637;35.05473849;24.26888056;13.05027833;6.357507763;10.07759476;3.274582808;11.59335473;15.63537971;-2.535028698;-19.87973154;0.08173095
-4.266190179;-21.02054604;-25.41233545;19.04382385;14.88315218;-0.944335273;20.54243958;1.388960886;34.68197304;21.32882946;13.94190542;-3.401705485;11.47865268;4.281710387;5.617845138;16.16751626;-4.857476382;-20.05434729;-0.245255446
-4.983153342;-21.45472732;-25.56338711;24.22910762;13.90732109;-0.981565426;20.04972777;2.129140344;35.65271965;24.06085127;18.36585523;-9.355333369;11.77370609;0.544393825;-2.325446642;12.98078137;-8.575658167;-19.46162459;-1.087588936
-4.169466093;-18.83617834;-25.72754039;27.5249482;16.00044;-0.873366572;20.36801548;3.026290266;37.34936867;30.76098013;23.50441186;-9.347336044;11.06376691;-5.378331352;-9.322352536;9.15691637;-12.0180513;-17.28308786;-1.805706642
-1.288387895;-12.88768546;-26.41414671;28.45633483;19.82425909;-0.646609117;21.21281597;3.362531813;38.09;37.42140558;26.45;-4.946393253;9.928179763;-9.674511212;-13.26345456;7.610748307;-14.03184749;-13.8916414;-1.830256721
2.9554547;-5.292166035;-27.83386527;27.99641715;23.12130659;-0.445279396;21.89761248;2.95111866;36.78277819;40.66781504;26.30635087;0.402964403;8.908851663;-10.3049059;-13.85577824;8.907717436;-14.47153832;-10.27632921;-1.007690047
7.20782108;1.604887954;-29.62208271;27.64273821;24.31283003;-0.415716625;21.94457136;2.253439817;33.99569125;39.86944347;24.66321667;4.111788257;8.169843369;-8.294574358;-12.37804398;11.24117933;-13.9723711;-7.075216931;0.390673997
10.45721509;6.426763002;-31.01337476;28.24913962;23.49938718;-0.585435731;21.48478408;1.949456872;31.43480123;36.9774533;24.07944573;5.728303095;7.53111211;-6.439434065;-10.59767642;12.27972526;-13.2887264;-4.17729478;1.945007084
12.58895699;9.404972157;-31.38039264;29.53987228;22.07183891;-0.839426045;21.09602198;2.341069544;30.25366803;34.47937436;25.76662401;6.016269241;6.708444701;-6.777137684;-9.773005348;11.11808914;-12.73589141;-1.284356837;3.366772101
14.09049877;11.61508352;-30.71770215;30.56381635;21.30719088;-1.011333366;21.24476304;3.103340133;29.71188392;33.25553973;28.31245318;5.168545582;5.468304937;-9.037392262;-10.35497309;8.772961984;-12.10145714;1.137189793;4.543758751
15.25595279;13.60474711;-29.65905512;30.54551983;21.16726419;-1.008384787;21.85378971;3.586512823;27.47317508;32.02863224;28.50133944;2.174654316;3.59819769;-11.22233834;-12.27914332;7.127634506;-10.98111465;1.53810165;5.373306437
15.66072053;14.67480153;-28.98999834;29.33821749;20.31551225;-0.86560348;22.38630829;3.389971049;21.44399435;28.68399666;23.68590161;-3.938301819;0.854808502;-11.55501108;-15.30056738;7.491585029;-9.192984619;-1.890068359;5.625789866
14.40997069;13.43620462;-29.04595171;27.14888855;17.30510158;-0.693495992;22.35305879;2.701243708;11.67766049;22.21661048;13.95981169;-12.27226647;-2.910229047;-9.971875759;-19.00808914;9.952999533;-6.943857312;-9.797181154;5.043812423
10.96055504;9.121851679;-29.48960429;23.92746353;11.89685322;-0.577763383;21.76345903;2.113221631;0.710806803;13.65557747;2.488278628;-19.68395773;-7.476480997;-7.940162987;-22.6672281;13.71137302;-4.681629006;-20.84701473;3.625460568
5.797175339;2.487157365;-29.6396756;19.13247501;5.389034912;-0.523892607;21.10718761;2.097399333;-8.058303735;5.280217044;-6.322202858;-22.67090971;-12.11052323;-6.966069559;-25.30283849;17.71162687;-2.815829301;-32.26013493;1.814384529
0.353600695;-4.482924244;-29.05534927;12.22347043;-0.282576323;-0.487205136;20.89694972;2.605525284;-12.7172647;-1.102072102;-9.581399247;-20.1493032;-15.80877505;-7.259785745;-26.17202923;20.96266285;-1.531426843;-41.37093649;0.355506612
-3.800789548;-9.807218836;-27.87928702;3.516782428;-3.875778129;-0.44438525;21.20676621;3.142047403;-14.05040833;-5.325636692;-7.71772265;-14.68248791;-17.86532825;-7.728002231;-25.28646555;22.62863926;-0.780061035;-46.97429321;-0.140564692
-5.886395729;-12.65818184;-26.6772919;-5.383349775;-5.501866694;-0.426974128;21.63121702;3.22307115;-14.66485851;-8.562363352;-4.129316325;-10.8357677;-18.36226742;-7.164509095;-23.46433809;22.3710548;-0.377702143;-49.43210596;0.398350172
-6.253245683;-13.53943872;-25.95942377;-12.10969754;-6.165855248;-0.481983637;21.68893967;2.801342415;-16.78758849;-11.93226498;-2.968418305;-11.76637442;-18.15452076;-5.4445608;-21.75908684;20.96288815;-0.105598752;-49.61994695;1.468324679
-5.926625788;-13.47191184;-25.8184562;-14.79776668;-6.725261085;-0.602956254;21.2817026;2.285693871;-20.55373376;-15.32750422;-6.55271716;-16.78878007;-18.28340938;-3.626868954;-20.69711574;20.41975263;0.213955516;-47.82527174;2.36908076
-5.770925607;-12.98597087;-25.96644838;-13.24857734;-7.242051744;-0.708403828;20.78134697;2.159371001;-24.1418989;-17.50183209;-14.03697796;-21.9846891;-19.22103508;-2.946499994;-19.9828958;22.85269229;0.636002826;-43.70652992;2.710599246
-5.929540115;-11.79078823;-26.06226603;-9.148374372;-7.239817375;-0.699753048;20.67677255;2.556657903;-25.52853476;-17.32636955;-22.05177272;-23.43523382;-20.51950921;-3.695445042;-18.94052513;28.34090464;1.009794919;-37.35572077;2.652106434
-5.908680889;-9.318274041;-25.98062553;-5.144007013;-6.490635335;-0.550701443;21.12511185;3.174824745;-24.28668789;-15.07045331;-26.74346745;-20.43656324;-21.14749097;-5.021985416;-17.2923751;33.47482118;0.977741224;-30.33870439;2.701693986
-5.135139105;-5.554334422;-25.79182986;-3.355142471;-5.477829748;-0.342869729;21.82846606;3.577451195;-21.88313722;-12.52746736;-25.88986449;-16.03272871;-20.26634244;-5.769305846;-15.55433648;32.36950996;0.141869255;-25.43193567;3.260104536
-3.485843675;-1.358046757;-25.55234915;-4.254832812;-5.035975596;-0.207358035;22.33675614;3.59;-20.28007813;-11.79165517;-19.91879766;-14.42422534;-17.86158649;-5.509825777;-14.67198741;20.29862713;-1.640981936;-24.87170691;4.279088686
-1.39116721;2.032698733;-25.19798885;-6.554613554;-5.497886536;-0.21861048;22.47130622;3.422607827;-20.13582659;-13.65297534;-11.46849826;-17.42140181;-14.77466872;-4.803956349;-15.22448514;-2.255870161;-4.027975342;-28.37286189;5.28089895
0.495773915;3.885704939;-24.68802777;-8.060138411;-6.188207852;-0.334266239;22.45940428;3.425913103;-20.23278758;-16.92770529;-3.976748045;-22.9047333;-12.15878593;-4.495743875;-16.92561249;-28.3463417;-6.238674721;-32.65617693;5.681280197
1.748260266;4.51030636;-24.23063129;-6.911402462;-5.812036204;-0.435926756;22.66040723;3.730822349;-18.66371534;-19.29367871;-0.164448771;-26.56652497;-10.81105183;-4.783230737;-18.86978061;-47.7292845;-7.426267453;-33.20583986;5.143590416
2.397619812;5.029383792;-24.27938299;-2.512599078;-3.464464751;-0.43474068;23.1643357;4.120463235;-14.74230986;-18.98536926;-1.100773245;-25.47471574;-10.87145612;-4.996170678;-20.26897261;-52.84166112;-7.163143431;-27.21095538;3.728107591
2.841672919;6.601960995;-25.20448007;4.246581174;0.601376475;-0.346296285;23.66741871;4.250161309;-9.940715632;-16.03244751;-6.077768032;-20.51292362;-12.02662793;-4.312201197;-20.97618023;-43.5442377;-5.711052127;-15.58148605;1.810887509
3.565666967;9.695908597;-26.91048855;11.45549915;5.115050309;-0.267486788;23.75716451;3.995895527;-6.971056011;-12.12882424;-13.13031683;-15.72091196;-13.93443058;-2.719556039;-21.3292506;-27.13046036;-3.874042974;-2.500561362;-0.087020447
4.878866286;13.87824596;-28.80370902;17.02433852;8.701967943;-0.2786929;23.33488812;3.59125617;-7.719092753;-9.330646293;-19.87701461;-15.12318693;-16.44895855;-1.263620941;-21.5469191;-13.43435748;-2.523153765;7.220421842;-1.434707702
6.776551389;18.13938937;-30.22347887;19.51673941;10.75771913;-0.363921001;22.75829199;3.417551802;-11.73402669;-8.670517549;-24.3725833;-19.63582645;-19.46454562;-1.257797987;-21.37442156;-8.506872104;-2.109048102;11.10218348;-1.797436794
8.928022213;21.42213779;-30.98775014;18.6498272;11.54464624;-0.424564919;22.54607571;3.644252152;-16.52794083;-9.737488657;-25.72477464;-26.47236438;-22.57920022;-3.109473596;-20.42227317;-11.3833211;-2.467610218;10.23154208;-0.987050541
10.76760188;23.02903503;-31.52834766;15.27540438;11.51950659;-0.374403264;22.9074815;4.061837523;-19.43563392;-11.40044125;-24.29108589;-31.37106684;-24.96388887;-5.816149373;-18.8842904;-16.04736334;-2.996507871;8.095888193;0.760482941
11.6911293;22.8139284;-32.43077986;10.86069333;10.62607408;-0.226290087;23.53934314;4.269728802;-19.51585337;-12.91775203;-21.38108458;-31.74146769;-25.66025409;-7.640764083;-17.81015378;-16.71133068;-3.029973855;8.1020273;2.742127853
11.33444408;21.22998436;-33.77082958;6.735440855;8.306909083;-0.087442597;23.89304442;4.047577673;-17.99990982;-14.45248292;-18.58264667;-28.27087774;-24.16228774;-7.451536977;-18.41783556;-12.15026122;-2.154145502;11.63544924;4.042912757
9.812435733;19.26348083;-34.89880362;3.53947721;4.272632588;-0.065308185;23.67378451;3.563519203;-17.05023371;-16.63119607;-17.02990632;-23.95661026;-20.87430321;-5.614359427;-20.86479632;-5.888153762;-0.316822847;17.82181655;4.039901715
7.733424981;18.16653846;-34.9576871;1.22001709;-0.724647815;-0.170673424;23.10965626;3.222558243;-17.97589991;-19.66054071;-16.98660806;-21.6238345;-17.08721569;-3.684224731;-23.59697674;-2.552609226;2.238663267;24.71725313;2.840237685
5.895779161;18.94272371;-33.71914189;-0.44284416;-4.978124955;-0.309066757;22.7362605;3.292838804;-20.39532594;-22.8802538;-17.94403028;-22.01606887;-14.43227907;-3.147380375;-24.11320899;-3.739104184;5.100857065;30.70295318;1.287222106
4.805032439;21.77428871;-31.94131249;-1.236319585;-6.913887011;-0.369968966;22.89463704;3.655134383;-22.90664071;-25.19515098;-19.11369016;-23.80269507;-14.11510535;-4.251649303;-20.82281801;-6.832975771;7.806697791;35.05689127;0.443667196
4.338947713;25.77850585;-30.81540168;-0.423297933;-6.375224828;-0.331086914;23.41276064;3.908355783;-24.49298981;-26.0082418;-19.95156762;-25.14239765;-16.36592244;-5.866775346;-14.59477814;-7.513805483;9.951673071;37.64049149;0.877348976
3.840447467;29.37473663;-30.90979397;2.625938781;-4.987773898;-0.278787823;23.77343168;3.736201139;-25.32915642;-25.80742212;-20.36668866;-25.27187459;-20.39777718;-6.445285426;-8.610124852;-3.54227634;11.30440649;38.40438571;2.276150007
2.622503647;31.13096888;-31.57240386;7.508522733;-5.144402737;-0.322782167;23.61537764;3.201071817;-26.31487516;-25.84799517;-20.53301927;-24.83524198;-24.86257176;-5.263273748;-6.37117203;3.462321177;11.87408541;37.34904328;3.701347908
0.541366894;30.55954507;-31.43590229;12.39581402;-8.265749856;-0.483081429;23.09575544;2.700285809;-27.89238423;-27.16079442;-20.53312497;-24.93311397;-28.52946127;-2.946807361;-9.240195378;9.59653839;11.84947313;34.89203209;4.292827328
-1.789706823;28.3163612;-29.68522071;14.73016818;-13.64175631;-0.656651687;22.76387954;2.628978365;-29.37585306;-29.71053477;-20.17427667;-25.95752087;-30.81916178;-0.930659558;-15.39256265;11.98941136;11.4090471;32.06355405;3.873792794
-3.323692032;25.68586476;-26.96393446;12.74324135;-18.77650165;-0.700333323;23.05071038;3.056012993;-29.52631379;-32.41574736;-19.15302587;-27.29820857;-31.93435512;-0.366818932;-21.06288314;10.89109936;10.54033611;30.11097406;2.984312478
-3.220198935;23.76620651;-24.99579467;6.766505511;-21.02812648;-0.558846849;23.84436588;3.695363943;-27.90727263;-34.01929125;-17.4459484;-28.08558292;-32.55826493;-1.371847137;-23.19033792;8.873590786;9.052798406;29.74232701;2.347996059
-1.355416471;22.95431557;-25.10922462;-0.718293477;-19.3576717;-0.321492533;24.55386075;4.176575149;-25.75169277;-34.08538161;-15.61471742;-28.18957574;-33.33151388;-3.123731745;-21.46399873;8.157845356;6.830078125;30.68414288;2.245741237
1.628286996;23.01893784;-26.92726391;-6.492897858;-14.94319063;-0.152277374;24.61801463;4.349455028;-25.41095819;-33.29789914;-14.77322541;-28.54259682;-34.44041182;-4.585243461;-18.24982325;8.674878977;4.132291717;31.99316594;2.331724129
4.711642946;23.53567798;-28.49931416;-8.562030506;-10.29350465;-0.151993357;24.00362606;4.347518668;-28.67130641;-32.82249197;-16.20494244;-30.53056308;-35.57998437;-5.187591749;-16.56569473;8.603406823;1.646139732;32.86198627;2.027373929
7.015268662;24.21194108;-27.96194791;-7.242590972;-7.589855165;-0.273821118;23.24038409;4.38048358;-35.25699911;-33.26964874;-20.83827416;-35.01194128;-36.30937709;-4.979156137;-17.78149453;6.690374144;0.140651124;33.18903035;1.119659969
8.120957803;24.85567497;-25.3910673;-4.560848304;-7.452904515;-0.367735269;22.95977011;4.485822018;-42.77602432;-34.11168083;-28.83240426;-41.76133148;-36.53209905;-4.290437169;-20.83627033;3.948909849;-0.071707491;33.42166422;0.018434334
8.100491088;25.18463156;-23.14062725;-2.421454828;-8.887321498;-0.314111425;23.35551775;4.494482159;-48.22977723;-34.01706516;-39.4118555;-49.670763;-36.70882893;-3.357902099;-23.43691135;2.938529654;0.566402893;33.90516872;-0.558193958
7.381716439;24.86528992;-24.11477411;-0.989323044;-10.23502825;-0.127357882;24.04917468;4.239158807;-49.95121806;-31.8159359;-50.95724854;-57.38466566;-37.57312096;-2.264257488;-24.07732485;5.204970798;1.115409501;34.46254949;-0.186038224
6.610990218;23.89628316;-29.21529249;1.41059012;-10.31704544;0.061572203;24.467162;3.782234191;-48.50879542;-27.32863891;-61.32369794;-63.79583672;-39.49727516;-1.142968252;-23.14401;9.374019072;0.840363987;34.68221654;0.913586612
6.526160638;22.97709728;-36.10135083;6.753793429;-8.995924458;0.124944518;24.36702527;3.414608577;-45.97427132;-21.45320489;-68.38368023;-68.13687562;-41.98112434;-0.299398142;-22.2717659;11.99424731;-0.162190607;34.62376725;2.077965505
7.737762577;23.33971371;-40.50908284;15.32748418;-6.972354002;0.04990199;24.02458078;3.404799377;-44.26089558;-15.54259804;-70.74796258;-69.88138917;-43.73155514;-0.009687451;-22.65194769;10.73323782;-0.943572701;35.13161753;2.763678949
10.39029812;25.91913026;-39.31946277;24.87928164;-5.193468175;-0.058263518;23.92300165;3.736965888;-43.9037509;-10.65298256;-68.44572424;-68.82551346;-43.40806317;-0.144595445;-23.84589526;7.142606461;-0.376947449;37.24259215;2.950214559
13.88347829;30.39899772;-33.01911322;31.64672249;-4.37632995;-0.080115058;24.25684216;4.106817627;-44.16376644;-7.257527033;-63.1672309;-65.42215159;-40.58552618;-0.024533709;-24.13443787;6.17176718;1.956089729;41.07302082;3.033646444
16.942469;34.9706914;-25.52590001;32.59021069;-4.860220706;0.006301284;24.73435997;4.203707969;-44.16402985;-5.524642546;-57.72247938;-61.01856394;-36.23594161;1.2390079;-22.0541064;12.20291206;5.370039063;45.22386366;3.342299019
18.16058512;37.21657448;-21.38415599;27.26492428;-6.653774138;0.110624334;24.87123944;4.020794917;-43.9306709;-5.720276496;-54.76106273;-57.55409527;-32.29511724;4.104984344;-17.75126191;24.52823217;8.527340002;47.45107426;3.762979724
16.77699545;35.64;-22.45379736;18.07440482;-9.457575355;0.123947904;24.4934513;3.885048956;-44.39271147;-8.198491378;-55.34813143;-56.64954266;-30.5109506;8.181079822;-12.98091691;36.16219371;10.42397787;46.26805805;3.857881329
13.19353264;30.74988979;-26.67040806;8.85198444;-12.62573487;0.029974179;23.957938;4.150361983;-46.38155155;-12.87831551;-58.28433725;-58.56646844;-31.31309969;12.41136202;-9.765800795;37.6216744;11.14235142;42.2169314;3.372425506
8.836763908;24.83722527;-29.83;2.844525813;-15.22552761;-0.074395429;23.85936047;4.824093925;-49.57521931;-18.67737556;-60.76097811;-61.7669384;-33.4795598;15.77240715;-8.857356137;23.43560994;11.7548814;37.6618101;2.63050722
5.403739886;20.54016626;-28.95742262;1.397657083;-16.33105538;-0.071206594;24.47942819;5.487052864;-52.38034726;-23.55432109;-60.12518842;-63.52146144;-34.85374219;17.93310276;-9.25580329;-3.270824683;13.42236226;35.12431132;2.378571583
3.969736026;19.22017273;-24.59623325;3.922584204;-15.46350249;0.059750886;25.4923969;5.616352031;-52.92440311;-25.39299766;-55.70829638;-61.36520479;-33.65781662;19.33910019;-9.110898786;-31.70019088;16.37909757;35.43556798;3.141364808
4.530821139;20.30834976;-20.28357966;8.759302574;-12.8966517;0.210169295;26.21743776;5.046735875;-50.36948812;-23.24835911;-49.47047064;-54.62152558;-29.56396772;20.65602107;-7.186642051;-49.51952238;19.60735927;37.20763261;4.643250716
6.223286434;22.00475895;-19.74131008;14.11988436;-9.584197191;0.235310835;26.20545374;4.155143392;-45.47716983;-18.05526228;-44.8894111;-45.07522074;-23.88050619;22.05292049;-3.692978101;-50.13666481;21.47733251;38.07047671;5.863490582
7.973404058;22.67265442;-24.05929432;18.60428188;-6.715710894;0.088303704;25.63114744;3.579955478;-39.97108734;-12.16790733;-44.68999612;-36.28121512;-18.80557948;22.95805937;0.081957873;-36.21950289;20.88060023;36.64855505;5.77687957
9.073643352;21.81773205;-30.99526207;21.3688605;-5.159435258;-0.127333714;25.1302565;3.699393542;-35.22343272;-7.909400336;-48.8749474;-31.73147599;-16.25293977;22.53049397;2.880476446;-17.27664002;18.00767106;33.63;4.212668202
9.335978762;20.01371103;-36.71363467;22.27426673;-5.103700639;-0.239508628;25.22691071;4.320371791;-31.31942968;-6.076964344;-54.42028282;-32.79653849;-16.91206436;20.479255;4.338274179;-3.285125596;14.2029882;31.06264898;2.096158961
8.868362458;18.07030402;-38.40301286;22.06716916;-6.050851434;-0.15385373;25.87235864;4.855064583;-27.2213231;-5.469767756;-56.94388497;-37.6290918;-19.95692501;17.5401197;4.968837235;1.115014844;11.03574982;30.52648925;0.802345317
7.800446416;16.30999176;-35.76432531;22.25978454;-7.102819729;0.066157796;26.51423308;4.83402658;-21.86319348;-3.840817879;-53.33891192;-41.84421886;-23.42889853;15.16776857;5.467680389;-1.84480991;9.291966947;31.77;1.084363029
6.227980459;14.56724645;-30.55135262;24.39726653;-7.364535267;0.257590129;26.62668735;4.304589785;-15.28703629;0.333804585;-43.70018016;-40.85359587;-25.05943729;14.62672967;6.073684461;-6.185395242;8.598980513;32.95429924;2.425059484
4.350870005;12.74724824;-24.99413653;28.94063464;-6.306777017;0.301676271;26.20692308;3.764837439;-8.925575849;6.503689;-31.32955624;-32.67192139;-23.22759616;16.15928108;6.540114282;-7.125895496;7.876077472;32.23367474;3.35624462
2.554888638;11.23651182;-20.60472224;34.55302684;-3.987601585;0.221812107;25.77625323;3.698999992;-4.805122762;12.11841204;-20.86409784;-19.49377455;-17.74853328;18.86487715;6.61274277;-4.171675313;6.199858672;29.27409943;2.530272317
1.250414621;10.65036966;-18.12283618;38.53515655;-1.060765666;0.147603808;25.88458831;4.136105716;-4.238261308;14.17520773;-15.75292824;-6.846820178;-10.17348755;21.37342902;6.435767342;-0.517638785;3.439619833;25.43628104;-0.269167896
0.560566943;11.12431216;-18.07835669;38.38082276;1.471639957;0.181242433;26.579765;4.628559997;-6.916593569;11.24873741;-16.62538347;-0.547535933;-3.330649373;22.77892601;6.434944164;0.170197362;0.278781651;22.5798835;-3.940158272
0.158060755;11.89206977;-20.91119557;33.48360116;2.707830582;0.294072172;27.33846006;4.664557258;-11.00446722;4.623084814;-21.39528988;-3.196068864;-0.104060543;23.11848179;6.795789707;-3.18332384;-2.275224994;21.63749041;-6.815109246
-0.537179273;11.69847615;-26.27272663;25.74036211;2.290332619;0.353779377;27.52975875;4.136024517;-14.15495701;-2.299214627;-26.79143262;-12.4696021;-1.919685912;23.07853684;7.095305229;-8.404037115;-3.474715046;22.20646896;-7.757049844
-1.907295307;9.818928577;-32.28234678;18.50515376;0.566589809;0.259699918;26.98918679;3.437846745;-14.80364754;-5.996041985;-30.20422836;-22.46790985;-7.785000763;23.25351189;6.533812569;-11.97906145;-3.140565851;23.37579794;-6.792553815
-3.797275192;6.819698146;-35.89411039;14.55469416;-1.677613595;0.058658373;26.17661229;3.113375463;-12.9764891;-4.962209964;-30.76295102;-27.36395596;-14.61782773;23.63532304;4.652807667;-11.7910152;-1.61536881;24.84130598;-4.894370883
-5.592545173;4.321056595;-34.63547635;14.47884712;-3.753049452;-0.074053502;25.77253366;3.373540574;-10.17986088;-0.599028379;-29.24654006;-24.98339017;-18.89175388;23.77557189;1.934998174;-8.546318988;0.476011514;27.15717032;-3.196158909
-6.674443531;3.855633249;-28.56867081;16.58764645;-5.473324049;0.018062351;26.08150822;3.926024437;-8.475300653;3.714695014;-27.2003802;-17.91517206;-18.7079949;23.43349399;-0.283119702;-4.9781809;2.46812935;30.89243104;-2.291328715
-6.884093564;5.72511333;-20.75601301;18.28415682;-7.100843698;0.325503503;26.78434489;4.261045878;-9.274177651;4.749271378;-25.96238147;-11.454456;-14.95813091;23.04764944;-0.614850786;-3.627703703;3.836680596;35.60489166;-2.084150137
-6.607019659;8.80985604;-15.48254399;17.80955743;-8.872141072;0.66188492;27.25499792;4.121490712;-12.51775315;1.363162976;-26.10218319;-9.901157724;-10.71368401;23.48919516;1.417143664;-4.94935769;4.354670069;39.79043566;-2.146118496
-6.410078125;11.49999264;-15.31821093;15.1338076;-10.52978553;0.808223906;27.13814388;3.722729216;-16.69308136;-4.956509912;-27.35652672;-13.83601756;-9.149176193;25.21163223;4.972381464;-7.083633139;4.217856714;42.04255638;-2.150340675
-6.542377255;12.96688886;-19.23704277;11.57083886;-11.33326689;0.691837272;26.65090545;3.526934376;-19.68161958;-11.19073794;-28.87758651;-20.15559055;-11.36841831;27.5533904;8.338588339;-7.333614758;4.034273407;42.4217406;-2.005162199
-6.720519307;13.71436537;-23.37501453;8.701148753;-10.62910092;0.444375079;26.33887411;3.7919764;-19.96596487;-14.67983297;-29.62032019;-24.55171645;-15.64487976;28.96583573;9.918484383;-4.176992118;4.57115182;42.6854178;-1.676037982
-6.365709762;14.98626073;-23.99085709;7.549736156;-8.532485192;0.287330563;26.52959076;4.320275802;-17.49131071;-14.52127997;-28.80802239;-24.41541216;-18.63518059;28.20593559;9.088911264;1.645846657;6.309167636;44.97121235;-0.99713896
-5.0747413;17.59443834;-20.39945972;8.483917529;-6.082439372;0.344913801;27.00628248;4.640782216;-13.65845497;-11.65188592;-26.40628484;-20.10782776;-17.73564037;25.59781036;6.402346213;7.68876019;9.049158469;49.94844319;0.251863236
-2.928815597;21.1963337;-15.57668724;11.51784183;-4.606677343;0.547845115;27.21203414;4.450166553;-10.44927515;-7.783913285;-23.38453692;-14.05722644;-12.93865686;23.16743899;3.077120495;11.53163972;11.85805124;56.04029724;2.03934575
-0.416164653;24.59840126;-13.91042644;16.40315808;-4.709565732;0.709627032;26.79163712;3.898102363;-9.240215305;-4.138170466;-21.46384779;-8.851122622;-6.908210183;23.20935617;0.17164109;12.40513096;13.45232626;60.46875183;3.860362237
1.907534771;26.72516098;-17.80267213;22.30349915;-5.70401511;0.702397553;25.95748099;3.449883351;-10.06245466;-0.923985342;-22.2548327;-5.985179757;-3.256274081;26.19569944;-2.018958243;11.53680957;12.8256775;61.2939124;4.888205289
3.696137525;27.33377153;-25.73132281;27.5177452;-6.045387475;0.571493542;25.32781246;3.456804805;-11.75213591;2.190588551;-26.13705649;-5.945660731;-4.231448991;29.78760957;-3.996708119;10.99458524;9.759981912;58.72639753;4.47103345
4.819946285;26.86888753;-33.24335716;29.89940709;-4.541411609;0.485607317;25.37894532;3.838137461;-12.81161742;5.201629948;-31.59016055;-8.896979623;-9.357628354;30.16828971;-6.536858568;11.92778475;4.944432673;54.62623371;2.62457129
5.196536268;25.72139179;-36.09285381;28.04834256;-1.428559348;0.570393706;26.01600562;4.172258214;-12.33364858;7.356252673;-35.59500986;-14.78384392;-15.82;25.14206705;-9.937594983;13.59613085;-0.312972405;50.72668375;0.132875684
4.719710522;23.73910455;-33.14310012;22.51366881;1.583693557;0.780460876;26.65972414;4.108555642;-10.3776662;7.617828198;-35.12029918;-22.53988235;-20.1994964;16.71724229;-13.51622635;14.02392351;-4.574845186;47.26691895;-1.849619412
3.437343377;20.56693953;-26.92760183;15.95886155;2.442877861;0.93030423;26.76916901;3.708533599;-7.678001936;5.624515725;-28.95120384;-29.38904214;-20.36828007;10.73561359;-15.7268894;11.85723376;-6.723379704;43.30944625;-2.434274595
1.819550838;16.51168327;-21.60965779;11.88098596;0.270697509;0.859682827;26.31779949;3.389869471;-5.08046127;2.288970076;-18.74395188;-31.54696836;-16.44376326;13.02233281;-14.95160494;7.955776657;-6.250312183;38.39107702;-1.452856797
0.775312387;12.98332319;-20.00093952;12.59214492;-3.873316862;0.584797361;25.78789277;3.521801621;-3.208834744;-0.553638547;-8.528082167;-26.48050283;-10.43769411;24.33982425;-10.58752529;5.287123813;-3.391761785;33.80049972;0.533734006
1.229370937;11.83013247;-21.84517783;17.83182675;-7.59164925;0.296661389;25.70020592;4.053497953;-2.499230349;-1.266388038;-2.769144087;-15.21543582;-5.026610413;37.97676017;-3.757471582;6.922996093;0.881201461;32.00147676;2.61612582
3.461465522;13.89466347;-24.45111971;24.98671338;-8.70612241;0.204204959;26.12794715;4.53395738;-3.290959509;0.533366857;-3.996551701;-2.602895997;-2.213601493;42.55555106;2.937473014;13.51271104;5.073008013;34.42566515;4.019489939
6.697354169;17.97438648;-24.96044359;30.72939549;-6.657678775;0.359370931;26.65219413;4.519039663;-5.600810483;3.797573409;-11.32237972;5.254455814;-2.499194491;29.07891862;6.667264825;22.26184973;7.631358955;39.54070497;4.40692925
9.345093518;21.23476176;-22.45680131;32.88592395;-2.777270382;0.618451744;26.79354613;3.994405397;-8.63347082;6.882509193;-20.71860011;4.931115878;-4.809501235;-2.207777843;5.966352662;28.49345462;7.582449258;43.16227392;3.903378484
9.826657119;21.00079616;-18.46220475;31.29778166;0.682782913;0.772483581;26.5003034;3.41682077;-10.5842292;8.732546098;-26.95925017;-1.894168049;-7.119313749;-40.1647383;1.650733015;28.88468319;5.046846394;41.20136757;2.925413248
7.502109464;16.6558973;-15.69107528;27.33273259;1.980262173;0.728958368;26.21642872;3.321217281;-9.30141654;9.489932411;-26.23220143;-9.514757845;-7.514289517;-68.23356806;-3.629005481;23.98;1.299983591;32.86749696;1.965183034
3.082829149;10.15704273;-16.14778768;22.72579963;0.760600688;0.582938749;26.44998697;3.841949511;-3.724455942;10.08962203;-18.07556655;-12.19533181;-5.279170819;-74.04522634;-6.992381804;17.90243028;-1.749749205;21.70049488;1.425044553
-1.733444888;4.697300514;-19.91870566;18.74655922;-2.104342141;0.517144004;27.24317844;4.582505181;4.82474663;11.2225769;-5.653889432;-8.213948228;-1.483229191;-56.95796377;-7.04652062;15.2721805;-2.434165783;13.37484925;1.525060649
-5.156831699;2.510792013;-25.31108024;16.1267292;-5.382842566;0.625477881;28.05456001;4.955439266;12.66305647;12.5470529;5.760133367;-0.944137643;1.375481062;-28.3627341;-4.548516389;17.6444623;-0.074972684;11.80260733;2.275121679
-6.165233269;3.507171484;-30.00182112;15.36356758;-8.277754817;0.822700894;28.19217718;4.688130478;15.50113773;12.80583671;11.33321982;3.798765373;0.6734406;-4.403346307;-1.593636351;22.3689145;4.793863219;16.50660584;3.507100075
-4.85372128;5.747619705;-32.31207061;16.73707083;-10.59463759;0.923252686;27.42340508;4.041168713;11.05302272;10.77011067;8.973083067;2.086885439;-4.707074272;4.004882349;0.00503019;24.96608068;10.79276031;23.28435794;4.955552057
-2.171649565;7.2802085;-31.87092446;19.8671274;-12.34725149;0.817261293;26.21040866;3.551212024;0.773904594;6.284798773;0.233991791;-5.37597025;-13.41972835;-2.868805846;-0.097482765;23.19798678;16.35951196;27.57188571;6.348639246
0.692260901;7.779473805;-29.48399498;23.34790598;-13.32042611;0.582057167;25.34897491;3.544222928;-10.6134717;0.636737853;-10.61169386;-14.01199631;-22.10638263;-15.41093184;-0.872016365;19.36689439;20.30789699;27.7938532;7.461902307
2.895342184;8.666849443;-26.50379725;25.15515625;-13.05228318;0.424363999;25.32482243;3.868164396;-17.67437671;-3.998550725;-18.81481139;-18.8048655;-27.13183485;-22.47291782;-1.080277367;18.56254342;22.06223076;26.10085263;8.125307947
4.238007676;11.70494142;-24.14129791;23.8813202;-11.24429276;0.500723857;25.95345427;4.081354814;-17.27600203;-5.621062613;-21.47697179;-17.66417392;-26.57083401;-19.22349474;-0.454456299;23.88633329;21.62388226;26.11534352;8.228078913
5.117870894;17.33129787;-23.0189063;19.96768218;-8.195404867;0.774606262;26.60683278;3.904446083;-10.07940301;-3.304693862;-18.7027597;-12.30560254;-21.17529117;-9.509154267;0.110519824;32.50148113;19.45284582;29.74413367;7.769468306
6.224858377;24.15891828;-23.0576269;15.83825666;-4.836478893;1.038477398;26.79697447;3.500104979;0.371502922;2.495981629;-13.01702503;-6.377474224;-13.71864985;-1.615182026;-0.536133491;36.21047199;16.35557801;35.73803376;6.93392151
8.113996727;30.01980944;-23.65653134;14.56080106;-2.291897939;1.084733924;26.57470095;3.311875032;10.11635956;10.19542682;-7.538468869;-2.659939181;-7.235876182;-1.282286713;-2.635513393;26.92287541;13.31154863;41.04031065;6.092207726
10.82220657;33.59610809;-24.05900767;17.84065773;-1.283960079;0.879180469;26.39395292;3.614996688;16.93154404;17.59356942;-4.141997279;-1.565366439;-3.406844174;-7.542324037;-5.134024474;3.302151946;11.15359093;43.54152412;5.646852351
13.72187849;35.21818778;-23.75355072;24.79462518;-1.796979633;0.589199741;26.60137879;4.211413275;20.75688512;22.45619269;-2.768070826;-1.769365474;-2.113164096;-14.26958157;-6.412395144;-26.60875992;10.18610547;43.74218235;5.773078196
15.75743315;36.18683743;-22.72873634;32.45469644;-3.186924716;0.445341997;27.05809112;4.573514601;22.48778299;23.15318443;-2.177417759;-1.970729564;-2.233029959;-15.63914968;-5.490243059;-49.39689827;10.00483534;43.91816534;6.24765345
16.02452025;37.29422121;-21.44773816;37.66537498;-4.592680752;0.556756324;27.26279872;4.320849754;22.51228603;19.3379525;-1.404057488;-2.072803224;-2.820617314;-10.76436842;-2.685957648;-54.60869784;9.744763377;45.65752493;6.552460696
14.39077125;37.9190221;-20.5477632;38.9928763;-5.349932288;0.834589648;26.85763326;3.592024914;20.39384124;12.39506108;-0.695818164;-2.915977282;-3.673313509;-3.85544721;0.766075356;-41.5857424;8.688529964;48.07302071;6.242293884
11.72580745;36.54884956;-20.43308297;37.30095204;-5.204152705;1.078484386;26.02387551;2.955464509;15.89877908;5.194310892;-1.205352882;-5.124131141;-4.974933992;-0.183510416;3.711150754;-19.79229721;6.839529444;48.35913811;5.320138435
9.482950951;32.29857105;-21.00202063;34.7111716;-4.317740885;1.141465054;25.37085371;2.920871947;10.23054271;0.921675762;-3.745251223;-8.320844595;-6.570494755;-1.559830982;5.766831837;-2.302078091;5.008520152;44.25610354;4.297083368
8.807878607;26.06753281;-21.67220365;32.86985463;-3.173333981;1.030696209;25.40015953;3.486016374;6.053886691;1.397094154;-7.717267037;-11.41611921;-7.711123038;-5.161440862;7.171174268;2.837956549;4.286110801;36.27535179;3.832192526
9.742617469;20.22468659;-21.69690932;31.84112033;-2.436485942;0.8701707;26.03815233;4.133775724;5.940427784;5.862765267;-11.21344747;-13.54135667;-7.589914145;-6.441605917;8.094459499;-2.862010633;5.251745303;27.71613596;4.201846608
11.11219826;16.93900633;-20.60921652;30.30923931;-2.763450131;0.777125069;26.68109816;4.292096205;10.3434816;11.16597606;-12.33113995;-14.64200054;-6.179688829;-3.330325914;8.222688523;-10.92134601;7.51221494;22.3849798;5.034992352
11.24666705;16.45489517;-18.56874179;26.72598159;-4.549707825;0.771820763;26.72711453;3.847494608;16.81188696;13.43958113;-10.70861362;-15.20486066;-4.542550622;2.022114321;7.092000347;-13.17666131;9.943210944;21.87350094;5.574637505
9.09;16.74999665;-16.42508635;20.45061527;-7.712175599;0.794798459;26.1134013;3.2472483;21.29547427;10.32424251;-8.032952216;-15.54239474;-4.229043263;5.375001885;4.820335975;-7.960478801;11.4754708;24.59810975;5.297045953
4.936549622;14.96929001;-15.42118444;12.16632254;-11.65978372;0.797386397;25.3643966;3.092235286;20.73821893;2.298981671;-7.038970271;-15.49331255;-6.212114736;4.34542353;2.381312257;-0.582188219;11.84259778;27.30818575;4.392094422
0.276003285;9.634481249;-16.6116724;3.541450263;-15.52767484;0.804750478;25.10473317;3.582691486;15.06780455;-7.763218469;-9.705567812;-14.90062841;-10.24433207;0.569076088;0.941668232;1.762676589;11.73631888;27.74875348;3.682575141
-3.140087891;1.989420522;-20.23564032;-3.432563931;-18.56696855;0.88583091;25.48674438;4.316487492;7.100987415;-16.4674156;-15.99501209;-14.32763022;-15.16787937;-1.851917655;0.738295452;-3.817943398;12.27556125;26.32083534;4.007503407
-4.350802447;-4.546328851;-25.38554922;-7.062078168;-20.45244207;1.062585692;26.06342544;4.62759694;0.487539791;-21.85663183;-24.03858589;-15.11280772;-19.86210719;-0.174595053;0.589761831;-13.6450993;14.21418489;25.53891196;5.551768532
-3.64451406;-6.472020036;-30.24735482;-6.484769976;-21.32080079;1.255106742;26.22490197;4.170009766;-2.687394482;-24.13375065;-31.51226429;-18.45516792;-23.95289663;4.370048828;-1.263168262;-20.65317795;17.47445876;27.92038353;7.67415308
-2.177029065;-2.420189546;-32.90663895;-2.153834498;-21.5492471;1.327157106;25.79080402;3.231582118;-2.845941093;-24.82178996;-37.03657163;-24.21747857;-27.65425066;7.572020508;-5.474308138;-20.06284762;21.28983855;34.07812293;9.38693282
-1.108923155;5.961693376;-32.34210253;3.957521182;-21.46102842;1.199259805;25.20198197;2.499505358;-1.869826357;-25.22447146;-40.53167791;-30.55609876;-30.95267129;6.00393803;-10.48324494;-12.79425943;24.74744221;42.37436908;10.09803487
-0.907872107;14.94219153;-29.02064724;8.881749575;-21.15760482;0.927143328;25.124553;2.481452902;-1.156041706;-25.47726813;-42.4538414;-34.86773809;-33.00823182;0.196542021;-13.15181899;-4.094198317;27.25259897;50.06982286;10.00402662
-1.247828497;20.73263291;-24.67866495;10.06;-20.53762022;0.669370701;25.82675936;3.084871997;-0.511097066;-24.84730787;-42.8432161;-35.40863816;-32.49797169;-5.654954571;-10.9505216;1.010580459;28.59262304;54.79541176;9.817583826
-1.445515907;21.31356025;-21.37369112;6.992345943;-19.41668317;0.566800578;26.90583745;3.713006932;1.23005127;-22.82467019;-41.22525311;-32.32875051;-28.75889134;-7.274568362;-4.104323244;1.352441212;28.67988626;55.26886716;10.07870832
-1.013896028;17.09579391;-20.38599738;1.930197313;-17.63774504;0.636897229;27.6240134;3.784483134;4.553542762;-19.90483594;-37.51846193;-27.35096541;-22.76389063;-4.047511345;4.082160618;-0.541484256;27.33100137;51.17446945;10.64875077
0.069851488;10.31129912;-21.65751857;-1.243265274;-15.14578096;0.773217105;27.55206806;3.224781627;8.216468429;-17.31571663;-33.01594387;-22.477416;-16.95452415;0.417465233;9.196781937;-1.721649097;24.35362293;42.93420505;10.81896089
1.476659698;3.752454926;-24.06684042;0.46772033;-12.06487495;0.846181635;26.93455444;2.51848922;9.91237005;-15.94638144;-30.25642161;-18.87025497;-13.83787628;1.471753934;8.653649263;-1.789498218;19.86881405;31.93887669;9.929818098
2.817714351;-0.360189959;-26.24408453;6.928980822;-8.770722495;0.812150814;26.4467545;2.298691328;8.22992764;-15.48659069;-31.50567958;-16.75017485;-14.3149976;-2.409116727;3.415472268;-2.71674189;14.52998817;20.93818538;7.962334511
3.861709563;-0.940898131;-27.2985143;14.69605535;-5.856073204;0.734937737;26.57303832;2.835860625;4.244238767;-14.6196069;-36.90101987;-16.10775321;-17.03298451;-8.17935526;-2.794979633;-5.859364512;9.363338653;13.71338999;5.602295347
4.583712669;1.949723616;-27.0159755;19.30478146;-3.892021232;0.707946281;27.18106904;3.846373734;1.234401283;-12.17328533;-43.86846279;-17.25200745;-19.32221345;-10.8432666;-6.172668066;-9.351764685;5.292549783;13.59748518;3.744814818
5.120275729;7.387910802;-25.59023156;18.51224847;-3.059570984;0.756751798;27.67783165;4.746026002;2.501086129;-8.25581182;-48.58552325;-20.47044241;-19.05984473;-7.881243311;-5.348760398;-8.845878663;2.71044972;21.5508818;2.87891187
5.718580087;13.94896958;-23.31399107;14.04333336;-2.930669809;0.816357239;27.58918929;5.103581761;8.867938556;-4.366010151;-48.6078442;-25.09513309;-16.07830296;-1.543744678;-1.911550457;-1.387205566;1.441742472;35.24405326;2.858314483
6.662808688;20.08015629;-20.55714395;10.37078915;-2.680426642;0.802948352;27.01242661;4.918916962;17.84271829;-2.323065295;-44.67544308;-29.04596469;-12.09897783;3.116800797;1.26634418;11.02825764;1.111265358;50.09863043;3.189235055
8.108982247;24.48065867;-17.93595425;11.30566705;-1.714710283;0.708146889;26.51595909;4.539664171;25.20506773;-2.874512916;-40.18785913;-29.6450984;-9.317570114;2.827478741;2.386010421;21.8874381;1.581361191;61.76711779;3.50841813
9.859629184;26.43234259;-16.28536915;16.95505757;-0.293243094;0.621365801;26.58383984;4.340873442;27.89944139;-5.13557456;-38.6365242;-25.35383965;-8.774259265;-0.788332189;1.864154363;24.95168304;3.063519288;68.31872075;3.802129668
11.26565665;25.96019061;-16.21917699;23.43540635;0.414038225;0.65388083;27.13389633;4.4509498;26.04709921;-7.326041448;-40.98997821;-17.11737234;-9.729182973;-2.486089155;1.517182306;19.69441389;5.800476109;70.55548591;4.218902921
11.45263045;23.73234276;-17.55671468;25.652591;-0.937516879;0.832533701;27.57225149;4.711341566;22.52887845;-8.187289254;-45.18493714;-8.148660352;-10.4168394;1.856078953;2.708468585;12.50979154;9.604123676;70.36738441;4.745384081
9.845525904;20.73458362;-19.19902733;21.07673508;-4.748056562;1.062693747;27.34378868;4.83760328;20.46778199;-7.906384495;-48.22915947;-2.177849068;-9.490313801;11.1698109;5.139754568;11.94459868;13.68229289;68.62247965;5.13654136
6.665478247;17.87448415;-19.76663066;11.64850812;-9.807741815;1.198745266;26.46824266;4.61526369;20.60037295;-7.813573774;-49.22590138;-1.408153058;-7.017778706;19.61963265;7.258577698;21.27599152;16.96178617;64.4142216;5.203357399
2.979876523;15.69279026;-18.62750979;2.399127048;-13.72849622;1.162260081;25.55671583;4.002645338;20.65638847;-9.164810478;-50.6970837;-5.592311476;-4.338877512;21.53471326;7.781209181;34.5007495;18.70400684;56.25586454;5.1528832
0.152232008;14.27756375;-16.47167369;-2.100840854;-14.35175879;1.00378519;25.2825751;3.134283645;17.33121711;-12.07126087;-56.79878382;-12.65700242;-2.993564889;16.767809;6.901810005;39.61771279;18.95700366;44.08312911;5.565209887
-1.000786066;13.36216751;-14.84683057;-0.739479335;-11.22557669;0.854594358;25.78885279;2.279872875;9.394572315;-15.46125366;-69.54518836;-20.07966653;-3.573587088;11.61234683;6.131486524;27.40521947;18.50065157;30.20640563;6.917731126
-0.751652092;12.5189167;-14.93430888;3.864193558;-6.077398036;0.813260661;26.5765054;1.776045446;-0.500258003;-18.03387087;-85.99902583;-25.85435063;-5.294261304;13.86651357;6.976002641;-0.787216474;18.32238094;18.27089548;9.037550931
-0.269055541;11.35862197;-16.57524899;7.78952534;-1.857956789;0.868253678;26.97352765;1.901618711;-6.879297984;-19.30669561;-98.97693125;-28.60648559;-6.49538273;25.64040934;9.662794706;-32.46147137;19.00031465;11.02706963;11.01788096
-0.77740161;9.681374482;-18.43689086;8.878257946;-0.949278367;0.921619042;26.74651522;2.706095972;-4.858088054;-19.81602521;-101.3034879;-27.41281504;-5.662926015;39.86421437;13.01161389;-51.57727546;20.41048655;8.747354492;11.78281511
-2.648311786;7.555804058;-19.24173796;8.061464147;-3.746953795;0.885471313;26.28611003;3.899792037;6.414542444;-20.31999813;-90.86680634;-22.10088715;-2.327157461;43.97740393;15.48133023;-49.05282247;21.9097113;9.543565865;10.90891056
-5.073693217;5.318880363;-18.98235976;8.122806187;-8.560472287;0.759400789;26.19856239;4.941886402;22.74207372;-20.77668086;-72.83474556;-14.01489361;2.623030025;28.70826936;16.40729803;-28.54409958;22.80440835;11.17447485;9.030805119
-6.553804146;3.496360108;-18.95485742;11.11201107;-12.82423463;0.620170491;26.69390498;5.336631643;37.13067571;-20.10341003;-57.17787357;-6.295320966;7.307085408;-4.417499068;16.35780635;-3.382129042;22.75666729;12.67669658;7.455189445
-5.851451422;2.656679007;-20.45344824;16.52748087;-14.70416899;0.54050748;27.35428642;4.951426842;43.88815973;-17.05351238;-52.89107883;-2.737626134;9.699411516;-42.66037991;16.39509038;12.84562823;21.88683833;14.42358731;7.253502492
-2.757422774;3.228792997;-23.24550614;21.57526026;-13.99701535;0.519534143;27.51059735;4.098820943;41.87791395;-11.5411582;-62.66192909;-5.486976678;8.590658135;-69.46771035;17.00242283;15.00486975;20.58039031;16.75358644;8.542267712
1.808823922;5.332194358;-25.31019089;23.11198546;-11.84352777;0.492244601;26.88153935;3.288694974;34.82367821;-5.270475754;-81.48106406;-13.17609663;4.239528817;-74.64140838;17.66;8.267335223;19.19239317;18.69563478;10.50147175
6.350388742;8.680944352;-24.32;19.71196036;-9.674287514;0.405976108;25.87420898;2.842038571;28.58072208;-1.005531832;-100.0134845;-21.24355872;-1.648314355;-60.2039318;17.38018311;2.456342811;17.85522052;18.25816512;12.0599098
9.573220209;12.62389716;-19.75272763;12.4647776;-8.27184868;0.2855015;25.25211323;2.70035739;27.30982318;-0.879265629;-110.3756399;-24.6741895;-6.719183579;-38.12354954;15.62267297;3.864215565;16.47628609;14.24872717;12.63768256
10.91694979;16.35113949;-13.7614367;4.239275137;-7.566613135;0.219218439;25.463889;2.601194634;31.12099912;-4.926169231;-110.5125958;-21.3844672;-9.214916242;-21.97037103;12.73169104;10.94622207;14.88243068;7.998242171;12.34887479
10.62132337;19.21961364;-9.810514268;-1.811122535;-7.098206252;0.276480421;26.24712288;2.441781155;36.61449715;-10.90651289;-104.5506069;-13.69266947;-8.950822052;-18.64865818;9.575732585;16.70492004;13.0068224;3.177148427;11.60019734
9.432676022;21.05498791;-9.989332075;-3.527176665;-6.578801053;0.435432107;26.87376792;2.445514908;39.70053486;-15.56881638;-99.33315853;-6.618179153;-7.347543498;-25.69100174;6.860134479;15.13810108;11.01948928;3.404815716;10.57259691
8.195233159;22.2437094;-13.21856809;-0.354072648;-6.062157046;0.593914755;26.81288567;2.90979259;38.58298456;-16.49312666;-99.7829402;-4.221708337;-6.399203224;-35.06894236;4.84251979;6.230955985;9.332331295;9.331282457;9.133515329
7.51098245;23.50813083;-16.02016479;6.616510689;-5.69957481;0.657721543;26.20063376;3.736011431;34.85038086;-13.3159773;-106.1702749;-6.805357079;-7.237968194;-39.7860527;3.679772342;-4.316144477;8.448927703;17.57399235;7.25257385
7.538271669;25.44892339;-15.42759404;14.98239197;-5.462805083;0.624613246;25.68682005;4.231588971;32.09651528;-7.652696028;-114.7353255;-11.13349606;-9.342963362;-38.16441084;3.898486002;-9.879929405;8.695968285;22.60071031;5.445558663
7.960730027;28.12386033;-11.68576352;21.77631144;-5.176129508;0.582692687;25.80717503;3.510104705;33.26557639;-1.948731037;-120.7477497;-13.38998611;-11.0371163;-33.31239457;6.278214718;-7.968865006;9.962937612;20.33866396;4.689746876
8.169279469;30.95366649;-8.353746892;24.66332494;-4.811422098;0.620719353;26.47165645;1.280190483;38.71;1.881956417;-121.6615067;-12.37416208;-10.93353789;-29.29388014;11.02158393;-1.521284578;11.62847438;10.85533627;5.741973793
7.643564657;33.04481312;-9.475725146;23.20835719;-4.678848911;0.732987394;27.04942628;-1.632070438;46.26233571;3.217856215;-118.3438645;-10.31497494;-9.18692619;-27.70755514;16.92029657;4.135250101;12.78787071;-1.878980719;8.404971401
6.361008681;33.71731964;-16.00233665;19.37418111;-5.226791428;0.81138556;26.97114;-3.589711876;53.04907183;2.629996328;-113.9435902;-10.74111817;-7.481718062;-27.29724807;21.46893325;5.707152335;12.71286438;-12.87695909;11.43599
4.937094524;32.85778311;-24.4752474;16.56771704;-6.57631043;0.739447952;26.28113238;-3.206401237;57.52919914;1.234900933;-111.5595649;-15.31960561;-7.675508025;-26.20927315;22.18839375;4.031967442;11.28576729;-19.37623831;13.29156683
4.295586851;30.84343313;-29.29664729;17.49050411;-8.248586936;0.507301887;25.61421221;-0.411063204;60.21360819;0.020923554;-112.4237589;-22.36586527;-10.15725129;-24.32211549;18.33209625;2.499802264;9.114918673;-21.99701972;13.17234741
5.000628086;28.12874496;-26.97797685;22.11942418;-9.442893228;0.241541592;25.60898585;3.349857747;62.66815449;-0.515618026;-115.6449345;-28.21;-13.31209758;-23.41174979;11.63629386;3.643870184;7.222900276;-23.17654073;11.53033163
6.716931886;24.87518685;-19.01366163;27.36484326;-9.735785892;0.116024404;26.30235472;6.021117996;65.77414232;-0.399528248;-119.3360077;-30.14271532;-14.65713829;-25.17561412;5.382275023;7.028467539;6.490854079;-24.46414325;9.625295307
8.278278337;20.97682105;-10.98631679;28.92;-9.628906107;0.215409959;27.07765749;6.324954876;68.75256404;-0.019385706;-122.0771391;-28.39248203;-12.84069169;-29.14871133;2.339497407;10.06184592;7.219885912;-25.06617498;8.515265967
8.436818476;16.482958;-8.48499813;24.19177272;-10.40203012;0.467469211;27.22900414;4.578529701;69.77097141;0.088339464;-123.6538399;-25.5486378;-8.906822147;-32.56660848;3.083735312;10.64303589;9.082050194;-22.8108716;8.33581191
6.80751811;12.02792575;-12.9998305;14.26754585;-13.25865015;0.701916856;26.62693814;2.326257322;67.62677877;-0.530271399;-124.7043863;-24.10469382;-5.72092559;-32.39819671;5.927185592;9.071045379;11.43663045;-16.55850973;8.442735093
4.278026796;8.79984684;-21.00684747;3.463551892;-18.3596592;0.78431566;25.86480481;1.111172674;63.10226752;-2.031106846;-125.7331283;-24.35549409;-5.89182192;-27.81846834;8.432787207;7.563746825;13.71800162;-7.850418072;8.210968631
2.488657956;7.9260421;-26.90639108;-3.274982757;-24.50325662;0.710849405;25.73647887;1.381645567;58.8196598;-4.154194229;-126.3381116;-24.42220253;-9.763664939;-21.02773584;9.247010401;8.027334801;15.58164311;-0.284631714;7.70373393
2.694708133;9.665389097;-27.40740125;-3.309638981;-29.75717701;0.588300601;26.51335089;2.371846964;57.59297989;-6.301809254;-125.2705654;-22.22161132;-15.06312358;-15.76716962;8.798645946;10.2442745;16.74170007;2.918531953;7.57565221
4.849424775;13.0436027;-23.86525128;2.382806833;-32.62672172;0.526542681;27.68044754;2.95125501;60.45323637;-7.819680577;-121.3136041;-17.53184042;-18.52929482;-14.78597383;8.41832308;12.11273772;16.73475562;1.153342039;8.314362002
7.632391243;16.30116811;-20.83252221;10.19659141;-32.92645358;0.544544811;28.37672079;2.640419123;65.80128292;-8.344798729;-114.3757945;-12.36461372;-18.3162148;-18.24737559;8.773952596;11.60310874;14.9340222;-3.350766276;9.573319876
9.438057534;17.92048642;-22.176781;16.19521046;-31.74747607;0.5708114;28.14228906;1.916484926;70.32397082;-8.013094537;-106.0125767;-9.455761363;-15.36217774;-24.11261725;9.061307811;8.560058594;10.92475506;-7.423357563;10.29379216
9.579502196;17.53371358;-27.99775384;18.03653704;-30.5925113;0.52789973;27.29720625;1.617698959;71.04266462;-7.393775795;-98.91809402;-10.30003906;-12.72427518;-29.87095635;7.694582016;4.729065944;5.005028744;-9.30574467;9.586190442
8.772622554;16.0732577;-34.75640524;15.49502563;-30.34785211;0.414649117;26.61828982;2.069683392;67.10498408;-7.181903013;-95.5699641;-14.36056725;-13.41833437;-34.05791389;3.916657016;2.091605391;-1.608748726;-9.506173987;7.598541914
8.520306649;15.08105442;-38.2991677;9.815147877;-30.82424701;0.308052877;26.62545351;2.769778954;60.1972588;-7.816548035;-96.77431192;-19.83979218;-18.36685103;-36.49752005;-1.079916459;1.129135995;-7.140477729;-9.571383905;5.539972269
9.881873088;15.70375254;-37.14616035;2.848844369;-31.11890292;0.287638974;27.14;2.907352057;53.46322276;-9.220491227;-100.995567;-24.99789832;-25.86355447;-37.49742038;-4.57064481;0.611695134;-10.05370677;-10.01663524;4.742304569
12.59435906;18.08626412;-33.38251088;-3.394592208;-30.43673602;0.359634077;27.51239415;2.198874508;49.76636115;-10.79232573;-104.9540086;-28.76284097;-32.76377231;-37.08040427;-4.065001641;-0.978755591;-9.829633596;-9.366240199;5.515278174
15.22245941;21.50891216;-30.63228164;-6.979544028;-28.73190824;0.455481232;27.28493345;1.220002441;50.37606682;-11.67978395;-105.2474729;-30.39694885;-36.40414415;-35.0516713;0.866854408;-3.806588816;-7.236778855;-5.257482486;6.792527556
16.1952918;25.02113544;-31.0041927;-6.596352448;-26.75163594;0.504065871;26.652093;0.895383237;54.65943519;-11.25284141;-100.1316305;-29.10605807;-35.93186376;-31.68772865;8.07175943;-6.399131284;-3.917510254;3.268628573;6.929169108
14.90788839;28.00049574;-33.57419126;-2.452873431;-25.54660435;0.503529723;26.27607561;1.612004538;60.63921453;-9.576512721;-90.46375816;-24.48602691;-32.37392419;-28.13506207;13.99206548;-6.987350918;-1.542166587;14.25144855;5.030446961
12.06077479;30.24562347;-35.48465224;3.274071464;-25.85911512;0.518848487;26.63313295;2.797708102;65.89957838;-7.593477457;-79.27253802;-17.56963446;-27.73396995;-25.88867877;15.7195401;-5.201252407;-1.027542163;23.45;1.718780244
9.053233736;31.68751122;-34.49663735;7.290794458;-27.78609873;0.605669113;27.51739626;3.390805847;68.43103393;-6.770960372;-70.19044641;-11.18457836;-23.89803037;-25.66995866;12.55401725;-2.514851854;-2.236134247;26.77037106;-1.295358581
6.984577967;32.12924537;-30.75827459;7.234819652;-30.83114914;0.73694493;28.18993336;2.794726201;67.29551735;-8.230750791;-65.60996741;-8.614278239;-21.93208814;-26.69587401;6.15859716;-0.993094631;-4.251782233;22.67133064;-2.475544676
6.056773248;31.32346298;-26.43902785;3.554079661;-34.18409306;0.81104443;28.05408442;1.437697887;63.08;-11.78593449;-65.54047583;-11.13088533;-21.8578753;-27.06807452;-0.583946773;-1.463915809;-5.994995685;12.79586326;-1.515147905
5.761079242;29.30181103;-23.79806769;-0.439051433;-37.00096055;0.742889221;27.23135469;0.399217627;57.94125913;-15.56948371;-67.71704971;-16.4063332;-22.7318243;-25.04923242;-5.139161868;-2.779356454;-6.795542908;0.535096084;0.633477174
5.562360499;26.58169871;-23.4862147;-0.784038491;-38.58240243;0.555528373;26.48616556;0.426499707;54.93770591;-16.75302719;-68.83254395;-19.56339655;-22.96512459;-20.22605397;-6.389619396;-2.85273887;-6.629586824;-11.14929432;2.676589949
5.437522468;23.97707907;-24.45089335;4.079969918;-38.49144388;0.380768116;26.54450471;1.251757383;56.62998315;-13.18919829;-66.22217752;-16.60193793;-20.98508575;-13.67987187;-4.810693427;-0.55987673;-5.958625045;-20.88976012;3.983786576
5.839287793;22.13198294;-25.26661615;11.82003906;-36.67192339;0.357274472;27.42096141;1.871133875;63.51803526;-5.056739948;-59.17672338;-7.748809288;-16.18296839;-7.158158007;-1.948521631;3.182258163;-5.329979701;-28.36393276;4.829933076
7.20063726;21.19069582;-25.50766049;17.67101614;-33.5405221;0.511427331;28.37716202;1.55919124;73.30043046;4.660198257;-49.29920133;2.064030644;-9.671448471;-2.044412689;0.364337012;6.11119809;-5.004248545;-32.90739654;5.774235486
9.472361604;20.91405261;-25.93223623;17.95024526;-29.95183294;0.728750693;28.56414323;0.674919273;81.67725949;11.4350581;-39.77607392;6.342055773;-4.157898762;1.05711707;0.730916356;6.473989018;-4.830416829;-32.8865214;6.862860863
12.09348149;21.12725091;-27.47834921;12.94109396;-26.97193466;0.846815397;27.77283407;0.449667864;84.48871424;11.63321862;-33.89838366;1.650014648;-2.641269434;2.021852031;-1.291514986;4.43218968;-4.428965467;-26.68706955;7.455813137
14.36692622;22.04205167;-30.16513969;6.764424055;-25.51626838;0.791461876;26.61206611;1.855233319;79.99834608;4.6372334;-33.48618164;-9.750362484;-6.518557579;0.800953835;-4.97444846;1.84616899;-3.550029297;-14.62159047;6.844702761
15.86597088;24.08384148;-32.96905156;4.159341699;-26.00527002;0.636848563;25.95428256;4.531029862;69.87681395;-6.755539417;-37.94175869;-21.27125843;-14.3512914;-2.474846704;-8.641889759;0.70602813;-2.353325609;-0.047243102;5.054210045
16.53216453;27.32544029;-34.72568313;6.606490991;-28.1885235;0.536230644;26.15866716;6.787203707;58.2147806;-17.98400837;-44.42730061;-26.3231105;-22.32577318;-6.960207846;-10.38869301;1.612834219;-1.393017037;11.5846507;3.029021104
16.46811045;31.05986983;-35.12594568;10.8899537;-31.20298766;0.585944318;26.78231836;6.810920201;49.19623254;-25.34991767;-49.16117745;-22.33942032;-26.3421772;-10.85942285;-9.060428581;3.567355425;-1.284906228;15.4602518;1.972151674
15.72410291;34.00830648;-34.84980039;11.38400207;-33.83933467;0.744791255;27.03583838;4.138408741;44.94704026;-27.88185672;-49.24;-11.70046668;-24.45921369;-12.11491919;-4.972388607;5.092824297;-2.271155688;10.17857036;2.391637655
14.34087546;35.13532997;-34.77260581;4.447993459;-34.94050695;0.879759621;26.54987764;0.157456176;44.87644682;-27.28161935;-44.04054939;0.63884986;-18.06283486;-9.784356982;0.137600248;5.555161764;-4.005111166;-1.335946836;3.696331283
12.59320906;34.46638573;-35.0814372;-8.391137747;-33.83076521;0.893217693;25.73289098;-2.831945776;46.71351398;-26.20175634;-35.41272095;10.52738762;-10.96218866;-5.037664862;4.001850535;5.480904688;-5.74726197;-13.43611264;4.696446531
11.11092293;33.1976027;-35.18105055;-20.9398415;-30.63759063;0.812614778;25.38392404;-3.278741973;48.27072792;-26.26210966;-26.54079123;16.38381931;-7.045954831;-0.754265477;5.063572547;5.699657778;-6.861259415;-20.81391396;4.558994779
10.62067496;32.89909993;-34.44531571;-26.25688151;-26.34215125;0.759676117;25.92227631;-1.440336926;48.6181448;-27.25542342;-20.15350212;18.59253653;-8.080507656;0.26662392;3.283180408;6.255916186;-7.250019531;-21.0784896;3.381801186
11.41556028;34.34634817;-33.01317809;-21.22394046;-22.44902145;0.828964464;26.95900349;0.979142462;48.01576966;-27.93391289;-17.17139835;17.94026443;-13.01129299;-2.728214974;-0.008867451;6.20716926;-7.391027841;-15.42093453;1.928352019
12.98263631;36.85711632;-31.78404648;-8.605132834;-20.34196922;0.990876403;27.6226464;2.254908113;47.01396366;-27.49377806;-16.57390462;14.98798589;-18.98319159;-7.820519841;-3.083813275;4.526903884;-7.932418746;-7.341364548;0.84550866
14.17548474;38.65596061;-31.57401624;4.679230877;-20.61318537;1.112151883;27.3498726;1.930463501;45.70678105;-26.40860609;-16.43366445;10.80670604;-23.15576935;-11.71198284;-4.923529729;1.237494144;-9.169880558;-0.597843055;0.136845121
13.90479166;38.0062318;-32.25411154;11.70050034;-22.74906138;1.077543982;26.41189556;0.955250161;43.79516265;-25.93702473;-15.29272911;7.724866018;-24.08187735;-12.03419128;-5.720840309;-2.351737114;-10.83574978;2.298204693;-0.62810863
11.87345026;34.27340587;-32.75179001;9.280213467;-25.40190896;0.900817776;25.68178453;0.674263253;41.25535992;-26.82927872;-12.91055578;8.538912194;-22.0161774;-8.969972595;-6.493642606;-4.596992928;-12.37857502;0.481998319;-1.635204129
8.796088033;28.17470238;-31.98030508;-0.847815488;-27.1288377;0.721006307;25.84473475;1.619364024;38.81160439;-28.45333012;-9.987857712;14.30470607;-18.37981098;-5.009686239;-8.164371977;-4.829651023;-13.48625068;-5.609702683;-2.424111364
5.914796542;21.13437373;-29.84833855;-13.74023125;-27.16659164;0.684701379;26.77048072;3.130342832;37.60370599;-29.17929887;-7.290299406;22.68991259;-15.00509539;-3.102376681;-10.7870253;-3.82163052;-14.37295046;-14.64875817;-2.250315312
4.162647515;14.34214371;-27.38549041;-24.32833702;-25.77336896;0.820400152;27.62423844;4.035656079;38.22493726;-27.75023182;-5.000309229;28.90678055;-13.54745846;-4.634750358;-13.43240477;-2.95518709;-15.53471169;-24.59538659;-0.927080633
3.596100252;8.259338772;-25.83486545;-29.92079175;-23.95356952;1.018686591;27.61804875;3.69658747;39.96234228;-24.48491673;-2.808306528;29.11545755;-15.02045426;-8.669418445;-14.74414192;-2.835867022;-17.15057462;-32.91398006;0.682815006
3.499064043;2.855185054;-25.5476909;-30.93399456;-22.78962011;1.134531294;26.71833292;2.475616213;40.99682302;-21.25400799;-0.523993989;23.72336189;-19.31873574;-12.7908436;-13.73615857;-2.624895452;-18.66378735;-37.21700989;1.124182205
3.036476873;-1.786927723;-25.72078404;-29.86735187;-22.83814473;1.115577573;25.66762333;1.288392909;39.55556361;-20.16191127;1.497696099;17.61254402;-24.91152341;-14.70355804;-10.30543066;-0.746297295;-18.98464792;-36.28983369;-0.495623819
1.925944963;-5.129723084;-25.22792208;-29.38571213;-23.9455513;1.037752411;25.30902221;0.743285672;35.20080978;-21.92769446;2.625917688;16.68052685;-29.16263331;-13.36429924;-5.190948575;3.610996158;-17.25178865;-30.89310421;-3.612924509
0.6150535;-6.455039339;-23.74858586;-30.5955297;-25.50409105;1.018165416;25.83847583;0.689526107;29.27555806;-25.22206844;2.726315686;23.29559357;-29.48967068;-9.063280671;0.506431822;9.519735005;-13.58379491;-23.65024656;-6.422531587
-0.140618397;-5.527442039;-22.09804877;-32.37748268;-26.8769829;1.091997516;26.66640709;0.538987786;24.15082949;-27.48794437;2.68083656;34.44801271;-24.87340116;-2.80312287;5.882975131;14.77375443;-9.19529663;-17.87340706;-7.153851456
0.054937192;-3.077065611;-21.42153706;-32.15815635;-27.68240214;1.174532696;26.99904955;-0.028236729;21.81654903;-26.65342419;4.021927019;44.25586668;-16.69131806;4.285948978;10.5267523;17.46067077;-5.728187793;-15.95;-5.435737311
0.841235243;-0.67190187;-22.0258215;-27.81650333;-27.82432475;1.147705876;26.58412382;-0.697815492;22.8059617;-22.51545582;7.802996954;48.74018169;-8.098524034;11.12710153;14.42512331;17.36633088;-4.283034752;-18.26855707;-2.639449697
1.26629305;-0.024557132;-23.01074144;-19.66568634;-27.38529395;0.988555137;25.92286866;-0.841859638;26.1182231;-16.86817032;13.57277456;48.71960002;-2.186999954;16.70741507;17.62164034;16.05720283;-4.89028323;-23.3021132;-0.89130824
0.394738756;-2.177684959;-23.11745879;-11.08049246;-26.55220242;0.81112332;25.75928202;-0.180269039;30.02475921;-12.36936801;19.37311874;48.27484269;-0.154767898;20.30077414;19.90401752;15.58055368;-6.800577772;-28.67477917;-1.525103366
-2.049540232;-7.044771197;-22.00675104;-6.888929934;-25.61619254;0.770899655;26.33914547;0.895110872;33.0664179;-10.95283472;22.92328605;50.24233032;-0.821944582;21.86174504;20.76574243;16.84100707;-9.288497626;-32.43339175;-4.187509585
-5.411062005;-13.49508162;-20.6825739;-10.11685615;-24.93791358;0.912890692;27.14765456;1.669410648;34.59031933;-12.75973497;23.18249534;53.05276202;-1.842236998;22.09827685;19.69337001;18.9319683;-12.2389344;-33.76395381;-7.250402271
-8.359609549;-19.84597836;-20.52848944;-19.1831548;-24.77403657;1.106946697;27.38291661;1.789855751;34.69563971;-16.09808732;21.11710993;52.19130881;-1.623374067;21.87136829;16.60246136;19.89171435;-15.99730086;-32.93261131;-9.113172758
-9.533856817;-24.49404499;-21.7855148;-27.88875254;-25.02763149;1.143194784;26.72596925;1.606394246;33.93282743;-18.29707971;19.08020207;45.28997403;-0.400524714;21.28319608;12.11872329;18.23573559;-20.64247085;-30.79392132;-9.307083021
-8.239887612;-26.47447593;-22.98072818;-28.91215008;-25.14297453;0.915189748;25.67987812;1.811955047;33.12455035;-16.9434091;19.28569465;36.09657608;0.375961474;19.37532;7.47;14.09303129;-25.39511549;-28.35198687;-8.578603828
-4.856923137;-25.8218423;-22.07679383;-18.89487328;-24.32944046;0.530301341;25.14447757;2.711930463;33.31550408;-10.97189435;22.54202775;32.90286117;-0.262704829;15.03158482;3.993546873;9.177445724;-28.80158243;-26.56575858;-8.043810604
-0.735823032;-23.61279283;-18.51661752;-1.551522795;-22.05615485;0.24084393;25.60553888;3.835788434;35.55159801;-1.243108018;28.13549548;41.62260062;-1.573040756;8.550110205;2.520489941;5.722353814;-29.66830577;-26.23029648;-8.248541156
2.398185888;-21.57991567;-14.32241049;13.85620035;-18.50003906;0.243474239;26.68351646;4.302010408;40.30340045;9.607965076;34.76507963;58.85770027;-1.508954095;2.413307638;2.993005639;5.162958963;-28.02571931;-27.71826696;-8.92212516
3.280950753;-21.33749881;-13.00412452;18.1771787;-14.5913448;0.513454112;27.46243933;3.631386923;46.80744656;18.10791464;41.58081179;71.35844416;1.473202329;0.104101125;4.52177901;7.365560518;-25.289443;-30.65167799;-9.492323414
1.763211376;-23.54313306;-16.8652559;8.46058809;-11.5517438;0.816594229;27.30177431;2.250670917;52.93665812;21.43095111;48.39305299;63.80650238;6.728708447;3.423254266;5.811016239;10.74693691;-23.39098573;-33.8528531;-9.737331497
-1.099262771;-27.50446888;-24.81948136;-9.889451369;-10.18931887;0.892416448;26.3889452;1.183855263;56.00960174;18.81633964;54.96785473;30.07463011;11.38958246;10.39437299;5.679461953;13.13833163;-23.48482016;-35.84178012;-9.910707305
-3.622551174;-31.57454669;-32.65036991;-26.61973557;-10.41514131;0.656570581;25.53193604;1.174166495;54.25925826;12.10845215;60.23439416;-20.42810141;12.21410423;15.9062532;3.433138239;12.98553535;-25.20379201;-35.70310246;-10.27111222
-4.441640956;-34.17115115;-35.77198362;-33.39812162;-11.31635683;0.255779395;25.39580787;2.02583643;48.04040838;4.923957527;62.36997864;-66.78322751;7.991661369;15.28655372;-0.961606014;10.382413;-27.01421249;-33.72675802;-10.57312881
-3.263269621;-34.75782973;-32.48030279;-29.00117084;-11.74624639;-0.063607654;25.89872883;2.779459252;39.84592025;0.737099462;59.93908638;-88.91276641;0.643161177;8.380256534;-6.809446323;7.39210889;-27.35918701;-31.26211228;-10.11960061
-0.945813289;-34.07492095;-25.17284199;-19.27222728;-11.0462056;-0.155188701;26.32626584;2.581493976;32.94339528;0.949601587;53.22525692;-79.86149008;-5.886134004;0.670012207;-12.68208945;7.215478623;-25.68797635;-29.77580581;-8.404216004
1.141675372;-33.43255133;-18.55099893;-12.18496401;-9.440242044;-0.071953532;26.04514474;1.465395221;29.43300184;4.15815282;44.54775693;-49.46327688;-8.164178677;-0.221027154;-16.62353263;12.24926202;-22.62710651;-29.75661474;-5.746559116
2.033489934;-33.61012593;-16.18650677;-12.00003052;-7.875510563;0.006638475;25.13419804;0.329094202;29.0111472;7.124517959;37.0717852;-17.08848351;-5.401400279;9.305475204;-16.76547794;21.90216278;-19.29306359;-30.31034325;-3.259662198
1.714293109;-34.25024585;-18.09944255;-16.95114487;-7.442505187;-0.059290681;24.32951594;0.121626611;29.2953757;6.82685651;32.85261929;0.98521594;0.295472913;24.56991511;-12.29890794;31.66510467;-16.4273051;-29.81625613;-2.077761576
0.936012743;-34.26067865;-21.1389984;-21.85146796;-8.749428642;-0.261716602;24.32982501;0.977184823;27.50327019;2.24343437;31.56897361;0.578017186;5.561700495;34.12381663;-4.31061208;34.6320191;-14.08486731;-27.20898602;-2.472517007
0.494194115;-32.90662828;-21.71391946;-23.01636662;-11.61109348;-0.479001645;25.11785637;2.088145205;22.34989425;-5.249346908;30.95780777;-10.66012979;7.975355319;26.88147878;4.221842564;25.23828641;-12.02924202;-22.94087408;-3.637585013
0.558594236;-30.66369946;-18.63495681;-21.22351865;-15.18959474;-0.602424723;25.94795149;2.434727211;14.90592011;-12.9648768;28.67361436;-21.21838743;7.264104265;0.29558487;9.63661313;3.210607604;-10.32724466;-18.88526783;-4.358628896
0.58935747;-29.04709143;-13.90677768;-20.37285287;-18.45599273;-0.627114965;26.02815999;1.704282681;7.911145788;-18.56040754;24.18683194;-24.48535769;4.90462885;-36.3926541;9.541360254;-25.00806413;-9.493424189;-17.21257702;-4.004705526
-0.11418437;-29.45874286;-11.0597545;-23.3209997;-20.68664554;-0.627011603;25.26639364;0.560199742;4.096657469;-21.08305405;19.30430738;-21.83196083;2.748009838;-66.73882929;4.347328479;-48.88359179;-10.01403471;-19.01350663;-2.986801887
-1.701825891;-31.94043857;-12.5173856;-28.77670992;-21.72803628;-0.653524012;24.37613123;0.019796737;4.673075597;-20.87520451;16.96179596;-18.84486309;1.857353066;-76.91237568;-2.754277513;-59.35746025;-11.72158013;-23.59990834;-2.301179033
-3.499954669;-34.87526541;-18.0305978;-32.1289205;-21.92123262;-0.671606172;24.22665859;0.520234988;8.907256601;-18.75347127;19.2401575;-19.0408695;2.292246124;-64.21836279;-7.588663126;-53.99409376;-13.68358299;-28.89999675;-2.588108088
-4.423618366;-35.97979878;-25.11227875;-29.56335162;-21.77480179;-0.604210187;25.03152929;1.534778218;14.87862757;-15.33518855;26.06526891;-20.72811872;3.657964007;-38.49417674;-7.533672857;-38.27806096;-14.81839754;-32.60942054;-3.557544121
-3.766110117;-33.91653144;-30.77026604;-21.86478521;-21.60972789;-0.440503289;26.13248812;2.087434833;20.72134612;-11.03932908;35.41687673;-19.24798154;5.686047133;-15.4849322;-3.12228711;-22.05994183;-14.75885075;-33.32857109;-4.284787155
-1.757314723;-29.34147896;-33.06061016;-14.46336598;-21.40127728;-0.290420477;26.59212414;1.679248016;25.46027547;-6.528802008;44.67686025;-11.96282729;8.312571411;-6.879192494;2.423743331;-13.46641328;-14.19177464;-31.06261237;-4.082891154
0.534763129;-24.60174779;-31.54207569;-13.44333351;-20.90524175;-0.313368495;26.05568612;0.758661428;28.99808934;-2.913323084;51.98222622;-1.237443536;11.34808742;-13.81742273;5.447061574;-14.36238081;-14.30501738;-26.97219078;-3.140481181
1.878493063;-22.29509246;-26.86513219;-20.70024283;-19.9555746;-0.572841352;25.08235433;0.295160358;31.49921364;-1.295204347;56.67082692;7.193497177;14.24103795;-27.89620072;4.331941131;-20.3;-15.74517576;-22.70263236;-2.341180283
1.628865541;-23.71560907;-20.32402272;-32.24969695;-18.68910959;-0.952250457;24.62939022;0.853469464;32.81580002;-1.94315905;58.81450147;8.869099144;16.27554868;-38.20570003;0.472282417;-24.62665863;-17.95316343;-19.71081913;-2.438783386
0.036735172;-28.2287243;-13.78680099;-41.14690934;-17.49827696;-1.224415762;25.15834071;2.035314113;32.45924451;-3.845292696;58.58081782;4.131835868;17.04640281;-38.89456087;-2.904357874;-23.49566875;-19.47310912;-18.820549;-3.353580573
-2.036242171;-33.88421011;-9.603026554;-42.69890667;-16.72467285;-1.229852122;26.19174541;2.818082513;30.11;-5.16429381;56.1281121;-2.394355264;16.74915414;-32.0032482;-3.134447014;-18.12148895;-19.03073821;-20.03663051;-4.240292929
-3.721267808;-38.70118581;-9.858968593;-37.78918534;-16.33557899;-1.012168784;26.74089294;2.4857822;26.20079693;-4.373479428;52.04235917;-5.702652016;16.0063053;-24.31278052;0.032731805;-12.95598806;-16.52505915;-22.60465476;-4.266455961
-4.621237963;-41.70183137;-15.04206898;-31.70970318;-15.87902834;-0.785985292;26.2201626;1.291978874;22.04052004;-1.245201526;47.67962443;-4.217261885;15.41212263;-21.41875698;4.427616161;-11.63628048;-13.13206586;-25.34294707;-3.386157528
-4.895163627;-43.11531996;-23.10568471;-29.56093243;-14.81467288;-0.756787325;25.00554349;0.236007585;19.295325;3.063745886;44.8105223;-0.405330759;15.24035927;-23.7989057;7.185022009;-14.07850452;-10.44058928;-27.21176433;-2.396194921
-5.000216406;-43.84662679;-30.04433494;-32.00242104;-12.99975868;-0.94619634;24.1136583;0.152370803;19.12152195;6.881314741;44.64283526;1.986239587;15.55812212;-27.45113863;6.852304983;-16.88641617;-9.320919171;-27.88221994;-2.216517348
-5.345010882;-44.74914524;-32.05202331;-34.73892855;-10.93300662;-1.176877658;24.28537744;0.951104006;21.50942959;9.155536124;46.97717147;1.397525062;16.5363547;-27.84296589;4.360701675;-16.43147187;-9.415479315;-27.91785439;-3.045633535
-6.075883081;-46.18632101;-27.9349051;-32.04770631;-9.502220777;-1.233086943;25.31068169;1.710995472;25.26326731;10.00504063;50.26551112;-0.386662388;18.51397353;-23.5778285;2.277275943;-11.8794361;-9.598131776;-28.32684665;-4.159366628
-7.052268061;-47.99682493;-19.96700579;-21.47180358;-9.366387554;-1.056598894;26.21532243;1.54107023;28.62451638;10.35442842;52.6323592;-0.156309593;21.61868063;-16.97111921;3.011333157;-5.70247621;-8.952820587;-29.68416609;-4.542875924
-7.944214212;-49.67827222;-12.40207814;-6.044496705;-10.42820885;-0.80395382;26.14037761;0.415634798;30.141359;11.05782873;53.09393966;3.660363569;25.25321319;-11.61058419;7.278589283;-1.451529489;-7.444622862;-31.43799075;-3.797008166
-8.381057232;-50.59282095;-8.655108763;7.497583507;-11.83050974;-0.71225508;25.11023782;-0.78819269;29.26658897;12.24782161;52.01453535;9.539662185;28.01886137;-9.375604518;13.76441061;-0.820650756;-5.785158572;-32.0041929;-2.515472776
-8.12625142;-50.16323451;-9.24912321;12.96847028;-12.52156069;-0.890508197;23.99022692;-1.08604301;26.39200892;13.35528686;50.47342277;14.1568435;28.36406877;-9.428861035;19.99340924;-2.466589467;-4.707741696;-29.72183032;-1.802307268
-7.24574157;-48.11109716;-12.02169226;8.300785298;-11.976655;-1.220318325;23.68423422;-0.283848744;22.41964574;13.64840376;49.14596731;15.13167238;25.61806059;-9.651704207;23.67213735;-3.420295959;-4.338247756;-24.05558706;-2.356988997
-6.172386612;-44.68277751;-14.25308878;-3.80601078;-10.51828636;-1.4535709;24.32133966;0.843807683;18.24512101;12.77264469;47.71452659;12.80096089;20.64800178;-8.847471736;23.68961817;-1.721871833;-4.195059805;-16.15318882;-3.919531583
-5.552214775;-40.66679848;-14.84614825;-17.99925243;-8.986697882;-1.421171284;25.1812013;1.250320388;14.50211503;10.9030803;45.3433143;9.633690067;15.56779772;-7.624736639;20.40310139;2.006562144;-3.753879899;-8.281402973;-5.529240884
-5.876867515;-37.05789237;-14.75984586;-29.188692;-8.037578786;-1.170574197;25.41226594;0.543656088;11.63550452;8.538725439;41.78226433;8.019280633;12.6106199;-7.349576391;15.31735456;5.28477287;-3.019736695;-2.492848104;-6.331817191
-7.103361201;-34.49815721;-15.5045549;-34.35224943;-7.648778214;-0.915349571;24.85459385;-0.698246976;10.07307502;6.243902289;38.05574177;8.441889535;12.904645;-8.418063881;10.4391087;6.01623237;-2.580376352;0.534712646;-6.217924134
-8.55668375;-32.88397645;-17.24148058;-32.75989189;-7.238191085;-0.846890351;24.18438563;-1.484121949;10.19825264;4.546745252;35.99702888;9.494041817;15.95202687;-9.639185723;7.509972074;4.243718134;-3.10745949;1.681961155;-5.77441142
-9.266419747;-31.4813565;-18.3637714;-25.44865018;-6.273096968;-0.976733755;24.24027244;-1.293137105;12.04681347;3.913903333;36.87765591;9.455449429;20.07240047;-9.343686699;7.273172184;1.961240896;-4.761794096;2.551043509;-5.664488056
-8.570879979;-29.51283477;-17.06275467;-14.84784634;-4.828361448;-1.144182791;25.17085176;-0.462764404;14.97250611;4.595318376;40.2171;7.876640747;23.39304453;-7.129777011;9.040842829;1.274247682;-7.017631424;4.327386092;-6.036738913
-6.578738588;-26.76998407;-13.50035072;-4.534476457;-3.592563613;-1.172490221;26.22493887;0.24418768;17.66050396;6.331125143;43.81179034;5.816682969;24.68713324;-4.526036612;10.91015526;2.596181858;-9.029231561;7.204687773;-6.47762733
-4.135410384;-23.74758418;-10.49858881;1.600418421;-3.297527514;-1.026521612;26.41114207;0.42908854;18.66046487;8.213295644;45.09339279;4.729819046;23.63996617;-3.851773725;10.74739261;4.440140628;-10.19838316;10.67789758;-6.487504586
-2.29118924;-21.18299924;-11.81050501;1.086366197;-4.050909128;-0.831282186;25.43082536;0.413937095;17.19280356;9.022700829;42.85992721;5.167566386;20.64189265;-6.233240007;7.52409707;4.897495577;-10.47557018;14.2593824;-5.992143001
-1.646679521;-19.40272618;-19.12463196;-5.358888977;-5.147798086;-0.74307261;24.00961886;0.820562765;13.68639718;7.992522566;38.09223919;6.455486607;16.49178017;-10.54072218;2.152223936;3.414406886;-10.21548567;17.88989805;-5.418727575
-2.048366867;-18.06348922;-30.19675036;-13.60154033;-5.540464878;-0.799158506;23.2906927;1.810014648;9.607998233;5.4810384;33.24929429;7.473066791;12.2509742;-14.21693673;-2.895956392;1.262587222;-9.808550333;21.71277909;-5.310570362
-2.833949154;-16.53688048;-39.78317999;-18.25544811;-4.59648221;-0.886017441;23.82034133;2.774703209;6.616547437;2.943641672;30.58413074;7.661336005;9.144250836;-15.30045341;-5.118175066;0.29835923;-9.450951302;25.54690536;-5.880157219
-3.401222155;-14.603913;-42.89127439;-16.27326567;-2.54468579;-0.851821001;25.04925417;2.845707769;5.579475311;2.060507931;30.72708241;7.308714257;8.25887142;-13.90963702;-3.700674827;1.140617111;-9.201098879;28.68422711;-6.909148087
-3.642531919;-12.81994158;-38.00920296;-9.539541998;-0.284895499;-0.654802135;25.81680972;1.763193427;6.121949874;3.570214404;32.51116628;6.972695479;10.01212534;-11.95403949;-0.189016235;2.433422907;-9.150320981;30.27494366;-8.023973495
-3.930702873;-12.17697825;-27.94633838;-4.298936074;1.232011439;-0.409068174;25.39026399;0.249843796;7.009591006;6.681839275;34.02592011;6.728277385;13.71707587;-11.40331081;2.454271453;1.932708103;-9.441655307;29.91142107;-9.007799781
-4.726178782;-13.31569736;-17.73901912;-7.300308724;1.527095648;-0.287574243;24.11813742;-0.548255264;7.055081647;9.555858532;33.98931236;6.006934814;17.68317629;-12.6621805;1.797189412;-1.438049019;-10.08546859;27.74951037;-9.820215529
-6.168646264;-15.96995727;-11.28338149;-20.97430795;0.646103853;-0.373955299;23.10419911;-0.099812343;5.861584783;10.52409934;32.40612658;4.116424327;19.97094639;-14.41613894;-2.488802215;-6.322045966;-10.80216406;23.94225199;-10.3550043
-7.983279829;-19.15861515;-9.199079533;-40.95258347;-1.171478886;-0.598042633;23.20165342;0.961490807;3.873686382;9.13363422;30.1579821;0.842676881;19.40934453;-14.94779093;-8.543969426;-9.642424917;-11.15254176;17.9383567;-10.28529555
-9.727638817;-21.99326442;-9.304318021;-57.92269884;-3.787894977;-0.80752622;24.2469797;1.355431832;1.776423464;6.251872317;28.03704687;-3.483140578;16.21974932;-13.64082325;-13.71621088;-8.879409081;-10.93097442;8.544872561;-9.274074924
-11.11415727;-24.4054576;-8.984786154;-62.9923546;-7.102901705;-0.901361624;25.22882998;0.34673879;-0.197296375;3.241424695;26.09059743;-8.444107607;11.82354393;-11.32617277;-16.33583355;-4.154249157;-10.4679159;-4.889220706;-7.417650113
-12.11639573;-27.1255273;-7.380019531;-53.30799409;-10.72187954;-0.898980225;25.22608343;-1.459783207;-2.447217787;0.949268426;23.76214761;-13.92608942;7.974866691;-9.278840632;-16.56246838;1.611078446;-10.47128263;-20.8953932;-5.458124377
-12.80391425;-30.87241792;-5.707146152;-34.29857462;-13.77561373;-0.888447854;24.24521466;-2.504694079;-5.536498538;-0.668405471;20.58770482;-19.91348132;5.811785202;-7.935728555;-15.81386902;4.763821687;-11.41127851;-35.32334874;-4.42308337
-13.11413665;-35.41515999;-5.733083762;-16.89534847;-15.22013606;-0.916326819;23.18906044;-1.588373949;-9.513773347;-2.089860857;16.76500341;-25.85080018;5.416111684;-6.604047969;-15.42328254;3.770405927;-12.91265071;-42.74780948;-4.867946155
-12.81510303;-39.33318791;-7.920952226;-11.185663;-14.49884287;-0.935624004;22.9991137;1.00480014;-13.6611741;-3.496564;13.09365506;-30.316366;6.053874839;-4.410344578;-15.69486815;0.663062857;-13.72492705;-39.37897321;-6.336559471
-11.71139795;-40.77111849;-10.89503827;-20.25919413;-12.05435115;-0.865154525;23.77845157;3.586599732;-16.93620996;-4.523943991;10.37386931;-31.6020015;6.795771124;-1.490508018;-16.05173612;-0.204651602;-12.43597877;-25.68401013;-7.56727856
-9.899216779;-38.6831809;-12.60730587;-38.06154232;-9.215142942;-0.697301529;24.71275037;4.341062757;-18.7558412;-4.730563915;8.817657226;-28.96127146;7.046258562;0.854835912;-15.96566047;4.550193114;-8.476700682;-6.812259817;-7.371821325
-7.821016153;-33.65171233;-12.09912527;-52.78529425;-7.453299674;-0.537348853;24.8557126;2.741313848;-19.43754837;-4.277467239;7.98487931;-23.53179011;6.705536786;1.327650179;-15.70788858;14.24012469;-2.659692947;9.744444891;-5.512576585
-6.052714314;-27.67348791;-10.29851611;-53.99461542;-7.522319073;-0.521940738;24.03483941;-0.083340146;-19.87449994;-4.052754246;7.278851915;-18.01091738;6.016077522;0.07149988;-16.1995389;23.52650617;3.203447117;17.94530576;-2.856396627
-4.998364898;-23.07165317;-9.192459846;-39.26207426;-9.09537988;-0.686588751;23.02125049;-2.313522218;-20.68108365;-4.977395483;6.553721376;-15.10317007;5.319918182;-1.075213324;-18.10697459;25.11811061;7.366666623;16.11123626;-0.670764773
-4.739934319;-21.29144457;-10.12958463;-16.1344393;-11.133604;-0.912414306;22.79915407;-2.877062602;-21.54280863;-7.047017844;6.303050302;-15.79677349;4.890803117;0.01641967;-21.02950042;14.29122594;9.127991331;7.224901936;0.344516674
-5.132188486;-22.33099317;-12.71720884;2.089642539;-12.65094159;-1.016230633;23.6202864;-2.1280587;-21.39031497;-9.030997908;7.262059956;-18.75959348;4.851504372;3.777338513;-23.55095138;-7.607392237;9.028398495;-3.323434483;0.474642148
-6.004112306;-25.02270718;-15.21418639;4.439978713;-13.27608083;-0.912452793;24.73901304;-1.260708552;-19.34416627;-9.265992054;9.742729502;-21.32948033;5.126129109;8.135028719;-24.16669551;-33.07447651;8.19262967;-10.86295156;0.531734731
-7.250019531;-27.79941707;-16.02199303;-10.77580863;-13.24178155;-0.698376976;25.09215053;-1.091137501;-15.6853416;-7.013064908;13.23263419;-21.36156552;5.439883521;9.786683008;-22.34151982;-52.11935124;7.382899304;-13.44804467;0.971747731
-8.734234725;-29.39475686;-14.97137812;-34.73555125;-12.9292816;-0.57498136;24.29942618;-1.361500181;-11.98995538;-3.243806237;16.57551097;-18.57395135;5.434544212;6.684347177;-18.85790637;-57.62957185;6.499548476;-11.83704059;1.404149986
-10.14538359;-29.17903045;-13.33774753;-53.64533895;-12.42466431;-0.664678447;23.04718005;-1.169013809;-10.17405409;-0.072302135;18.60846984;-14.48742416;4.898730699;-0.26665257;-15.23046609;-49.20708228;4.841023222;-8.056624152;0.943463621
-11.00377988;-27.19060542;-12.64628498;-57.61084878;-11.45360101;-0.889002701;22.48027129;-0.036143961;-11.07814372;0.859466905;18.80908592;-11.17138388;3.965131257;-7.755302723;-12.72284591;-33.12484783;1.815183346;-3.930605081;-0.918602731
-10.87710366;-24.04765994;-13.35362349;-46.92987375;-9.684063534;-1.024381866;23.14921027;1.460933651;-13.67590095;-0.206895045;17.52787016;-9.859715221;3.077213816;-12.49346506;-11.75018526;-18.46248703;-2.506910271;-0.525344737;-3.716419362
-9.642199692;-20.78492207;-14.54660122;-31.43292407;-7.085920034;-0.896777398;24.48348703;2.145757808;-15.6161043;-1.15353515;15.69252602;-10.4410515;2.683612907;-13.57820349;-12.01772278;-11.87379529;-7.380401497;1.580630182;-6.237913975
-7.56477137;-18.51728716;-14.86824056;-23.24296329;-4.055558446;-0.546472904;25.28666627;1.359792849;-14.84048265;0.432808667;14.21904032;-12.00364109;2.873929597;-12.86746903;-13.07689489;-14.24154963;-11.81379847;1.965533403;-7.387411396
-5.128730277;-17.92715655;-13.7978643;-28.05166801;-1.271778803;-0.213027617;24.80802446;-0.336568531;-11.17765474;5.229562889;13.51596226;-13.7740494;3.278296022;-13.09726754;-14.69075971;-21.14922022;-15.02156899;0.511568744;-6.940537101
-2.780389021;-18.84108031;-12.12048023;-41.22220705;0.541605052;-0.145694866;23.41050306;-1.593959288;-6.742629891;11.28102412;13.36081892;-15.60691777;3.366803166;-15.35887791;-16.71347192;-26.54553145;-16.59807111;-2.185193303;-5.572635903
-0.82393034;-20.2824087;-11.16486577;-51.60975739;0.798800805;-0.399540302;22.22504677;-1.480579277;-4.756733892;15.04943765;13.17453294;-17.71428624;2.929682495;-18.08290766;-18.75131296;-26.9371088;-16.45612149;-4.814337261;-4.211994625
0.469458793;-21.12217193;-11.51041758;-50.27395258;-0.795215328;-0.792417187;22.11688701;-0.347725454;-7.496202576;13.78355472;12.49226083;-20.02893764;2.313056194;-18.38968263;-20.11480501;-23.29091958;-14.78076445;-6.098122013;-3.353202379
0.729780386;-20.94149416;-12.36744493;-37.49211672;-4.033680995;-1.057829056;22.92243051;0.484511933;-14.70414078;7.551426313;11.3405615;-21.86649757;2.150653269;-14.65424839;-20.25359414;-19.6;-12.11697748;-5.814335993;-2.929993361
-0.409112701;-20.41845203;-12.25948128;-22.65488953;-8.007305597;-1.058347249;23.65708483;-0.027680166;-23.52248763;-0.533043318;10.29849102;-22.22101785;2.765516188;-8.104696108;-19.30707136;-19.44821486;-9.412877688;-5.156177365;-2.751849155
-2.939771028;-20.81739837;-10.45843135;-17.03096538;-11.18533286;-0.875895316;23.4848156;-1.617095087;-30.01904647;-6.106102291;10.19416185;-20.45520262;3.746912009;-2.08882095;-18.17546111;-23.19778685;-7.740651536;-5.905784531;-2.946162653
-6.140847674;-22.86993868;-7.875719831;-24.96318591;-12.00006104;-0.710368997;22.52837039;-2.869611549;-31.37270861;-6.190361208;11.58951845;-16.83428614;4.119565277;0.399948965;-17.89066182;-27.77152902;-7.687697705;-8.916622682;-3.871523865
-8.669692536;-25.92582942;-6.496797457;-40.42194464;-9.769800851;-0.690126776;21.75176159;-2.487942511;-27.39770741;-0.945176269;14.34456565;-12.51303816;3.051296611;-1.089167276;-18.73598548;-28.99403633;-8.825980127;-13.12996093;-5.556522064
-9.213639247;-28.16490949;-7.700990822;-51.76245597;-5.363247097;-0.770231954;22.02334154;-0.52246116;-20.54202494;6.546793511;17.54592156;-9.012026615;0.576181125;-4.310794346;-19.90202359;-24.63715419;-9.794241921;-16.0756279;-7.285614346
-7.348116001;-27.87054042;-10.87992014;-51.06127314;-0.979560229;-0.803912493;23.2475075;1.576046054;-14.44313195;12.21641391;19.90424496;-7.537050442;-2.247461346;-6.237817016;-20.100602;-15.97292948;-9.143098019;-15.6561928;-7.905948505
-3.977052447;-24.86369286;-13.677612;-40.62669532;1.038585575;-0.707017279;24.39963049;2.177245858;-11.94757624;13.37415266;20.44363152;-8.503449801;-3.902179427;-5.398600192;-18.74291234;-6.889300359;-6.447593483;-11.90596642;-6.754469282
-0.942659837;-20.94353197;-13.88305352;-31.31155392;-0.325978779;-0.550053711;24.45366561;0.893354494;-13.72332881;10.07849651;19.08989059;-11.41863195;-3.298068714;-2.747713769;-16.7143647;-1.405316341;-2.839969972;-7.302609175;-4.421705682
0.0252018;-18.85594966;-11.52254077;-33.68625866;-4.051802037;-0.486501976;23.3431871;-1.080950891;-18.15370792;4.83453072;16.7772315;-15.07827663;-0.347890448;-0.509988987;-15.98765223;-1.393951711;-0.434419135;-5.253167443;-2.564877274
-1.661373317;-20.43788989;-9.306053058;-48.9575197;-7.716712824;-0.587935114;22.04619645;-2.034016957;-22.43057312;0.995105876;14.96435698;-17.96634319;4.124011533;-0.148842465;-18.20562696;-5.897547104;-0.933499525;-7.782766851;-2.749825062
-5.142348799;-25.27598257;-10.75021502;-67.04431868;-9.105346695;-0.751345152;21.69290364;-1.260073242;-24.13468332;0.897090301;14.82381043;-18.7599271;8.959685877;-1.243290292;-23.2426367;-12.12627495;-4.390457361;-14.10431718;-5.19593356
-8.721976893;-30.89385731;-17.20879742;-73.81887202;-7.649516694;-0.779341547;22.51568468;0.33139144;-22.42594006;4.73464238;16.58904404;-16.8189574;13.22310642;-2.139419859;-28.88885495;-17.14740612;-9.068694829;-21.11363232;-8.494695413
-10.94217588;-34.36182495;-26.14997606;-62.2672682;-4.666061221;-0.568022661;23.62608122;1.06892252;-18.2863592;10.61903184;19.44800233;-12.48198958;16.35466376;-1.645223199;-32.03896126;-19.13105557;-12.55879232;-25.42936009;-10.62309611
-11.36500377;-34.16637629;-32.30247236;-38.91378497;-2.272334787;-0.226590299;23.84457758;0.058012232;-13.82241625;15.61961587;22.02016682;-6.995893773;17.97650776;-0.175964107;-30.66087884;-17.68331628;-13.36962417;-25.48933234;-10.47915981
-10.583686;-31.00464327;-31.15024025;-20.12472328;-1.86475238;-0.005896424;22.82170787;-1.99393699;-11.10945968;17.17537416;23.09452685;-2.053175309;17.71734476;0.65997444;-25.20909268;-13.54251522;-11.84532826;-22.25478101;-8.682592173
-9.578404261;-27.00353878;-22.30909104;-20.53510741;-3.324962749;-0.086723374;21.39816918;-3.414115689;-11.21619511;14.22279086;22.18731009;0.87323085;15.34774492;-0.401244272;-18.49375302;-8.133299788;-9.768650254;-18.17248353;-6.968432109
-8.976453428;-24.04091442;-10.17333319;-42.03103931;-5.456560904;-0.413886395;20.84485632;-3.076387447;-13.85285085;7.609977317;19.65832956;1.087954012;11.14627428;-3.049240488;-14.06341834;-3.175962648;-8.994966007;-15.3108536;-6.685083365
-8.747630285;-22.45735826;-1.140851752;-71.65091567;-7.128811703;-0.730586809;21.67034868;-1.407409967;-17.70118608;-0.302935152;16.43641366;-1.109398296;6.123993848;-5.587335601;-14.14484964;-0.223800237;-10.15167824;-14.06681628;-7.6735261
-8.44771567;-21.05870449;0.680777811;-90.33478533;-8.086206962;-0.791594724;23.10826488;0.025018848;-21.14147224;-6.647531935;13.60495588;-4.578617871;1.804423035;-6.33866007;-18.42817767;-0.0557704;-12.31836906;-13.25934419;-8.47708041
-7.695036742;-18.27962567;-3.858553014;-86.40178219;-8.78900211;-0.571070135;23.78776721;-0.04894194;-22.96111084;-9.231985492;12.07159235;-7.737919023;-0.377836608;-4.975962022;-24.37447298;-2.196820186;-13.81291558;-11.33095706;-7.683259337
-6.463565538;-13.53405697;-9.898010513;-63.99614382;-9.581251832;-0.280778424;22.9947504;-1.462424563;-22.73434853;-7.418414596;12.37986504;-9.061144957;0.323398061;-2.581548637;-28.73427527;-5.017289767;-13.4;-7.637975756;-5.225538034
-5.02377366;-7.739313235;-12.37808557;-40.26852933;-10.08870571;-0.180992522;21.36270059;-2.813637423;-20.79198692;-2.31908625;14.60273584;-7.580019531;3.73722807;-0.430645647;-29.27840407;-6.561105582;-11.02705574;-2.913336378;-2.520311859
-3.690867475;-2.717900502;-9.777748121;-33.18152318;-9.489396614;-0.351223087;20.33321221;-2.804724871;-17.90300348;3.782951389;18.28825477;-3.293641018;8.973252587;1.32480373;-25.75081354;-5.66373795;-7.670402937;1.27717969;-1.335393997
-2.655831997;-0.032050432;-4.93063995;-48.6;-7.428534753;-0.62400251;20.85291294;-1.464965471;-14.87534657;8.533755794;22.53062032;2.694133461;14.79785798;3.796037623;-19.64964485;-2.592247035;-4.584971076;3.539485487;-2.38068503
-2.017152027;-0.134700021;-2.406308877;-75.84689808;-4.681501988;-0.738711712;22.49147567;-0.120259659;-12.25589839;10.60873872;26.25331868;8.504643057;19.92289154;8.1318223;-13.170298;1.261954323;-2.607509208;3.379171345;-4.822873612
-1.894628459;-2.349789324;-4.659925234;-94.87331795;-2.838534351;-0.575514437;23.80087898;-0.141386643;-10.22924976;10.259585;28.64698057;12.2806796;23.17642049;14.03476469;-8.048823858;4.383642872;-1.94955247;1.279617791;-7.086541997
-2.432424932;-5.508439694;-10.07587758;-90.01955395;-3.161064282;-0.259627982;23.60787053;-1.642947921;-8.727614368;9.007038131;29.51939307;13.0990683;23.7248154;19.45071269;-4.950029297;6.044257304;-2.411739861;-1.720805859;-8.175003272
-3.644181808;-8.640471059;-14.42099688;-60.84440305;-5.553015712;-0.045660476;22.07033178;-3.353684275;-7.677630369;8.626527817;29.2914396;11.43537279;21.4336883;21.88203525;-3.601416363;6.472655371;-3.640334058;-4.544845529;-8.32936379
-5.25460628;-11.23898568;-14.40952991;-22.71388006;-8.562590691;-0.090822017;20.53189403;-3.788633659;-7.228754335;9.99371417;28.59566794;8.807845153;17.16230355;20.32545747;-3.399481499;6.306396287;-5.168115235;-6.393593051;-8.494125277
-6.736756766;-13.08680693;-10.37932699;3.007525876;-10.47162889;-0.323289463;20.30192343;-2.635931391;-7.777375113;12.49347162;27.75628247;6.779363426;12.61727229;16.19565581;-3.986530481;5.935918471;-6.342739862;-6.84727021;-9.165168999
-7.58;-14.00645938;-5.880677065;2.350226434;-10.5859397;-0.520841534;21.47204032;-1.061167856;-9.68777053;14.41077101;26.57149761;6.002564211;9.610247861;12.3686308;-5.408479685;5.340827586;-6.441202644;-5.883480885;-9.752381832
-7.604518375;-13.86656675;-4.596828469;-23.13987902;-9.652840857;-0.520970661;22.84949781;-0.632828448;-12.82236382;14.12170137;24.616546;6.003420845;9.061940381;11.04101961;-7.810977071;4.453180472;-5.084265928;-3.884892589;-9.094769581
-7.071855802;-12.82891742;-7.246377703;-58.42192406;-9.081409249;-0.365794197;23.06488957;-1.858826316;-16.21118633;11.33519246;21.8612949;5.836932667;10.43648402;12.12404809;-10.97740256;3.542357659;-2.68141264;-1.570810894;-6.676611792
-6.494913867;-11.50999689;-11.09078806;-85.03588509;-9.67249578;-0.250113011;21.83414785;-3.697994217;-18.21918199;7.505782204;19.09044823;5.044756396;12.10140849;13.48099148;-14.13202537;3.132223478;-0.457160078;0.23762799;-3.404786941
-6.286669666;-10.75936649;-12.42155215;-92.10707897;-10.9685079;-0.326270221;20.21461735;-4.514169981;-17.29981185;5.019211301;17.70647952;4.099086364;12.45337223;12.79748328;-16.23978592;3.499980629;0.134848659;0.977014121;-1.155445609
-6.505122792;-11.1076211;-9.848926789;-81.25903727;-11.75423341;-0.552095172;19.62309991;-3.598240098;-12.97533685;5.597563301;18.95259869;3.967868872;11.03387692;9.521219324;-16.65316365;4.300631769;-1.708909256;0.627033035;-1.384709736
-6.85986408;-12.29664251;-5.534850931;-63.16333185;-11.20321094;-0.72563798;20.52549601;-1.843277148;-6.38415103;9.004363725;23.06886061;5.210895507;8.815618091;5.267219695;-15.65396379;4.780311094;-5.607863863;-0.292893991;-3.957027263
-6.940291571;-13.33910122;-3.289773965;-49.21881734;-9.601348523;-0.673742383;22.0091188;-0.932274154;0.116914492;13.03660832;29.00064553;7.431009634;7.451656924;2.392276669;-14.45003906;4.440388779;-10.25370963;-1.062116695;-7.205001603
-6.482479928;-13.19051035;-5.17052763;-44.60537491;-7.992684305;-0.416556084;22.63083126;-1.778733679;4.215047436;14.93704524;34.90830411;9.576334954;8.072040446;1.988666227;-14.53714678;3.504232884;-14.3079552;-1.245725041;-9.205739464
-5.50719041;-11.61672662;-9.543648862;-47.09450541;-7.100078125;-0.152475954;21.7530012;-3.666141284;5.030379199;13.30793263;39.15439055;10.80497935;10.53978732;3.021987612;-16.78903266;2.68217366;-17.27188989;-1.019811105;-9.232530374
-4.283674873;-9.600210604;-12.36113492;-51.2903587;-6.555229509;-0.076710337;20.12853756;-4.897101689;3.682554609;9.153503416;41.11073711;11.10366251;13.67521602;3.343597966;-20.86301306;2.440459768;-19.65755407;-1.10318147;-8.201866679
-3.180236429;-8.875578394;-10.65128842;-54.07661173;-5.199844931;-0.203447239;19.1941526;-4.363703686;2.562799689;5.23984048;41.28172444;11.09263538;16.17284113;1.696495618;-25.31763668;2.549288383;-22.33;-2.296361033;-7.791029243
-2.486468835;-10.78707299;-5.28952673;-56.74494439;-2.233309491;-0.359025376;19.73059687;-2.583843191;3.725394426;4.187154679;40.74522933;11.24231747;17.42927726;-1.021454846;-28.36775591;2.470144779;-25.55246881;-4.876083;-9.00223779
-2.267641957;-15.20200521;-0.645872596;-62.50279785;1.826630262;-0.352995958;21.13604819;-1.229198203;7.469460232;6.682471505;40.36846264;11.32233069;17.67386875;-2.345393054;-28.7912174;2.260679368;-28.51110627;-8.214440764;-11.36108031
