Channel 1 - P4;Channel 2 - O2;Channel 3 - P8;Channel 4 - T8;Channel 5 - C4;Channel 6 - Cz;Channel 7 - Fz;Channel 8 - F4;Channel 9 - Fp2;Channel 10 - F8;Channel 11 - Fp1;Channel 12 - F7;Channel 13 - F3;Channel 14 - C3;Channel 15 - T7;Channel 16 - P7;Channel 17 - P3;Channel 18 - O1;Channel 19 - Pz
27.85308293;31.65455929;86.60112341;22.47796795;55.91972996;6.205146086;92.43777476;71.61244701;45.23071113;31.52393233;18.39622456;56.6632945;4.788572987;82.87626559;54.95772196;90.98902228;25.31749927;55.70229204;-2.108938987
5.958516867;6.64719647;42.19111081;15.87713639;26.58754531;4.83436294;50.91215663;19.81760342;24.98955563;20.2620379;4.631356653;21.454087;-0.656505661;39.77851806;28.45701274;42.58279463;26.79455813;30.53173551;4.596736489
-20.22282171;-22.49751097;-4.528363776;0.962023252;-8.644086253;1.285466694;2.608091636;-25.16874213;0.488684989;3.143765362;-8.29755453;-16.31266735;-7.616523939;-9.76981988;-5.801397705;-10.71590087;24.87020945;-1.492372889;5.803249073
-38.27296055;-40.97284241;-26.31642516;-15.14323256;-32.9;-2.214158812;-24.60436275;-39.94584155;-18.33751306;-13.67176065;-16.59058248;-38.37551071;-13.46592984;-38.41251279;-29.61468764;-38.90667446;22.79617242;-22.55633853;1.549662414
-41.68592458;-41.36555796;-15.21112303;-24.17979949;-37.75895936;-3.622032082;-20.72455445;-23.34196527;-24.68830379;-24.06631596;-18.60902858;-38.2964654;-16.10826991;-35.40843384;-33.1505227;-31.36555441;23.23538056;-23.56713746;-4.128226266
-33.3011842;-27.86650337;13.68871468;-22.36283729;-27.80678973;-2.470532142;2.088511545;5.100140392;-19.14739661;-25.73273699;-16.11337279;-23.96504026;-15.43882736;-12.10861372;-20.61721642;-1.787584276;26.34789663;-9.631495409;-6.36835361
-22.09900272;-12.21687776;35.16663921;-12.69471716;-15.74786875;-0.052566228;21.40193798;21.28519426;-8.705054577;-21.12572794;-12.68425992;-10.00385108;-13.2081908;8.765175005;-5.450689487;24.30825612;29.80131424;4.766705853;-3.183349843
-16.20697762;-4.892629589;33.06949067;-2.44561351;-12.29748979;1.672834805;22.30965761;14.42116471;-1.464751418;-15.1127675;-10.62948818;-6.545590929;-11.43609623;10.9304558;0.590693635;29.04259453;30.55722565;6.809858532;3.128170651
-17.51848788;-8.300624663;11.08769378;2.124969436;-18.70610998;1.561897742;7.244330351;-6.853495746;-1.091618282;-11.32133323;-9.109053873;-12.94363243;-10.72468624;-4.520185218;-4.311141674;13.66343057;26.98089912;-5.835688018;7.849332297
-21.63739549;-16.69062954;-12.28679563;-0.167206335;-27.21723695;0.018742041;-8.741507607;-23.61167336;-5.00569044;-9.989711214;-5.223692266;-20.41022074;-9.870078125;-22.71293023;-12.4121913;-5.659531077;19.73294089;-24.6265213;7.443382514
-22.50007813;-21.99403735;-19.5178941;-5.382057449;-28.32498707;-1.511300703;-11.88477297;-22.60475473;-7.268852935;-8.734650146;2.801195068;-20.37041383;-7.052040506;-28.82512158;-14.17382473;-12.77855884;11.00342623;-37.59487669;2.089704458
-17.5448585;-20.38988817;-7.530596909;-8.039799475;-18.5975674;-1.789719498;-0.790364849;-6.049659709;-3.5658445;-5.268748104;13.16512197;-11.30786661;-1.558407883;-20.13333562;-6.464694384;-4.433697402;2.959314541;-38.27186669;-4.672157487
-9.339966371;-14.44304848;11.31615136;-5.309305501;-2.958686555;-0.738382409;13.87607374;11.78804898;5.626814537;0.336798814;21.12808965;1.059769182;5.412728648;-6.730472723;5.44469521;8.927578585;-3.279229314;-29.29756354;-8.708568751
-2.825742236;-9.757650837;20.53485468;1.362644265;9.799556107;0.624360167;19.59505165;17.18804777;15.83470478;5.670854973;22.48494544;9.493970816;11.5208906;-1.423572096;13.09027832;13.78215762;-7.507915242;-18.7802617;-8.204189197
-0.926448643;-9.618084957;13.20542846;8.061135016;14.07083723;1.123090808;12.66918706;7.793444475;22.28213659;8.110203428;17.10888089;11.37445156;14.95184511;-8.246811496;12.22977035;5.761616939;-9.642821676;-13.2875334;-4.55576952
-2.328142824;-12.34812551;-3.012695743;11.80234549;11.23149354;0.407358321;0.43268009;-6.845137994;23.36275982;7.15602792;9.55457865;10.0844526;15.61161064;-19.48774555;6.073154935;-6.904805733;-9.274163917;-13.44148665;-0.838567866
-3.06875998;-13.3547556;-12.96265425;12.66031216;7.521982965;-0.827268009;-6.076811253;-14.38240807;21.30464307;4.994230701;6.035523096;11.02493687;14.93262639;-23.23149682;1.949749855;-11.06651897;-6.092892899;-15.15602701;0.6703041
-0.266493487;-9.65896232;-6.721131012;13.09801643;8.359657151;-1.501708377;-1.938090576;-10.01597259;19.91132856;4.827199789;10.05164664;16.29188321;14.56675925;-14.28329401;4.72427937;-0.311542732;-0.72750402;-14.50693251;-0.097531609
5.345831758;-2.749746973;12.52868194;15.38546729;14.06324005;-1.086112661;7.927106699;0.583710885;21.50367139;8.349720652;20.04429376;22.84242322;15.1236014;1.244021342;12.76354236;19.4808822;4.994214505;-11.45841753;-1.547759993
10.15521419;2.66582756;31.41690541;19.43663137;20.29421154;-0.007282164;13.8437549;7.414605866;25.48576414;14.37925606;30.77304417;25.51955757;15.97022292;11.49753196;19.67703012;35.14025299;8.885484951;-9.283121301;-2.134214942
10.83508585;2.73116295;37.07807559;22.81541479;22.29544049;0.775376105;10.24536509;5.262415525;29.32301727;19.66053223;37.0910461;21.88533928;16.12099455;9.461253313;19.93782053;37.12878643;9.829707217;-10.71738026;-1.629844013
7.104428999;-2.342387009;26.70389377;22.71690402;18.95673501;0.616279989;0.355903585;-2.263888471;30.70902436;21.1319443;37.00357914;14.35417116;15.30168887;-0.829189305;13.3435853;27.01715455;8.622564339;-14.8103834;-0.97789242
1.776284602;-8.655695747;8.673429576;18.1429124;13.30109891;-0.287313139;-7.126283413;-6.800527687;28.98494679;17.88193251;31.78823311;7.759184448;14.17995007;-7.816813932;4.641306304;15.47058654;7.417601411;-17.55898833;-1.109841878
-1.75111254;-12.08720844;-4.79488506;10.52677586;9.372682869;-1.113069877;-5.979676398;-3.184746946;24.86667712;11.41569441;23.6494654;4.711838313;13.5580756;-2.552339218;-0.957782367;12.91591578;8.101097093;-15.74836716;-1.968202334
-2.244037448;-11.67616203;-6.927701047;2.52328435;8.600639362;-1.151300718;2.158552386;5.986263905;19.16576769;4.265835653;13.45663398;3.105222697;13.29469128;13.34810808;-2.182054597;21.03862895;10.85731074;-10.36664933;-2.621695494
-1.268991814;-9.9873144;-0.292431308;-3.804448596;8.886086036;-0.406440516;9.54950927;13.00814674;11.97180392;-1.785459109;0.765299486;-1.865960967;12.00730097;28.6787313;-2.223637836;32.11829309;14.08582308;-6.282009256;-2.242335118
-1.351981011;-10.31273887;6.948426794;-7.881266385;6.988883393;0.443577838;9.35371202;12.16794652;3.099032518;-6.498464817;-14.06044874;-12.91395311;7.963326503;31.61016506;-5.24212825;36.27449943;15.74211537;-8.232862863;-0.91429111
-3.482818784;-13.37416602;8.414593406;-10.12442372;1.809999626;0.662029704;1.516701783;4.754521487;-6.77427308;-10.58833114;-27.99540531;-27.40296437;0.546182123;19.02263121;-12.24514519;30.07476017;14.99783526;-16.54610846;0.519187052
-6.249889975;-16.54497542;4.199371466;-10.89150787;-4.486779371;0.086523011;-7.507724957;-2.367253519;-15.60177152;-14.52526595;-36.07708029;-38.6697389;-8.852630526;-1.455735865;-20.07874039;19.18207722;12.85752083;-26.35941916;1.374659684
-7.310349197;-16.27359096;-0.406665307;-10.07198657;-8.453863704;-0.763316283;-10.60763937;-3.05860219;-20.86574696;-17.87173107;-34.6692734;-40.98185316;-17.27193269;-17.98979541;-24.28231144;13.13361534;11.25166851;-31.15889633;1.850019531
-5.754301704;-11.49021152;-0.175267331;-7.684309399;-8.520619831;-1.169172022;-6.039536173;2.719999261;-21.2884547;-19.68108305;-24.68057144;-34.00432942;-21.71357313;-23.7968953;-23.07012949;17.07295313;11.40458165;-27.75278144;2.779414424
-3.132161336;-4.891289553;5.72163575;-4.68082439;-6.400078125;-0.841563851;1.589187803;9.186662777;-17.88771662;-19.47729344;-11.76150944;-23.01871242;-20.73862689;-21.40064346;-18.80683844;27.58327472;12.8643749;-18.58858997;4.619279377
-2.151562239;-0.877048805;13.68351722;-2.844944589;-5.469582313;-0.141805828;5.871414615;10.17280109;-13.33379767;-17.83988457;-2.799911177;-14.73287696;-15.10107629;-18.86438111;-15.72329062;35.95983812;13.98911078;-9.595805323;6.672709303
-4.177662142;-1.881474829;19.25018364;-3.534606917;-7.619970936;0.273399316;4.297785419;4.663920823;-9.979635042;-16.02105259;-1.165842617;-12.21036588;-7.134857193;-21.92708853;-16.02790296;35.82699389;13.42657048;-5.488308837;7.413480112
-7.78590031;-6.272679714;20.66681916;-6.275939447;-11.43312609;0.045861099;-0.00280235;-2.491403345;-8.12236142;-14.92035767;-4.431398936;-13.0802767;0.535300719;-29.11638404;-17.94601962;28.47799939;11.28566719;-6.464551809;5.762220051
-9.7334925;-9.669555385;19.45409339;-8.617130817;-13.32826564;-0.583812122;-1.73244825;-5.14527354;-5.957611763;-14.33100988;-6.494401471;-12.29778087;6.065270756;-33.81639699;-17.41744973;21.50775621;8.986522244;-8.865780534;2.213065079
-7.613138969;-8.593853973;18.09464344;-7.716793459;-10.66060023;-1.020919594;1.3913496;-1.409614499;-1.337163637;-13.1460503;-2.542462221;-6.87302308;8.714682732;-30.94408308;-11.89926402;22.11054618;7.931838161;-8.901728188;-1.279885404
-1.966737738;-3.390646624;17.4846329;-2.60192415;-4.047355978;-0.866722866;6.582660712;4.800185281;6.063320375;-10.38252885;7.035070909;1.521926722;8.546964397;-21.97680112;-2.89543033;30.82352057;8.16486281;-6.050491886;-2.715790431
3.94520776;2.010869543;16.57727285;4.744720305;3.080303208;-0.272276843;8.813245354;7.483929109;13.9609126;-6.167231666;16.88892419;8.134640668;6.02;-13.846028;4.984811499;40.93116331;8.195837112;-3.26046949;-1.651346472
6.567933243;3.252137641;14.20003906;10.53431975;7.247137828;0.214440065;5.709085264;4.031927026;18.80109941;-1.836610032;20.90161433;9.294338209;1.85193641;-12.84623738;7.592700558;43.9212473;6.185672351;-4.016482931;0.367665507
4.70388182;-1.028750375;10.87762758;11.8457681;7.589616213;0.156968073;-0.112894006;-2.513710052;18.26611338;0.973554534;16.98606032;5.441267373;-2.882884658;-19.10121644;4.388079949;36.45339203;1.52659265;-9.030367007;0.981051502
0.273516747;-8.267212826;8.657360786;8.792721723;6.164611498;-0.371770355;-3.416177391;-6.352360793;13.05528388;1.540779236;8.71223123;0.506008267;-6.765157939;-26.47786302;-1.368418186;23.24277632;-4.475856574;-15.47172127;-1.115622701
-3.335160578;-14.13805235;9.095272016;4.450518098;5.807452106;-0.859751547;-1.17646433;-4.232033279;6.568494998;0.606870136;2.559010461;-1.580783311;-8.388680876;-27.89962544;-5.302456679;13.67106846;-9.3740507;-19.28063362;-5.118977473
-3.889836265;-15.87086829;11.50168149;2.548965799;7.554024258;-0.825134387;4.617248998;1.665029185;2.710165736;-0.172292029;3.042748174;-0.036610534;-6.943836378;-21.27484253;-5.065621133;14.83137073;-11.1848859;-18.40614591;-8.730654387
-1.784714159;-13.98415064;13.35045122;4.719426554;9.897593281;-0.257267918;8.766211227;5.795845521;3.420485993;0.55412501;9.52913827;2.663480669;-2.637118099;-10.87376312;-1.404695103;26.21933116;-9.588727106;-14.15710816;-9.910146248
0.68193517;-11.22895483;12.62413142;9.440133717;10.40539935;0.368352466;7.59230154;4.311052374;7.674718451;2.891403953;17.0423923;3.551543961;3.370821721;-3.157822301;3.316901429;39.75108457;-5.879681784;-9.685008302;-8.333457296
1.412131833;-9.934476526;9.885721247;13.44853256;8.101641643;0.513248572;2.252501476;-1.517678537;12.52716734;5.740902379;20.18414304;2.079949893;9.484381931;-0.979054098;7.410165169;44.80122637;-1.860301818;-7.178710674;-5.431192722
0.145433923;-10.15;7.990019531;14.41081825;4.421486504;0.056302269;-2.372401434;-6.53743794;15.26965571;7.736677441;16.98655495;0.476410033;14.31383147;-1.376914178;10.80985916;34.67340641;1.34848312;-6.333090915;-3.102598503
-1.644643084;-10.05650149;9.523119425;12.67651199;1.922664864;-0.598631823;-2.159802238;-6.404104536;15.07980185;8.294188234;9.872152403;1.321859365;17.071108;1.155709208;14.10153976;10.47451029;3.696029117;-5.28327073;-2.26838032
-2.290623668;-8.025861492;14.26130729;10.76314405;1.992767925;-0.88211417;2.518134799;-1.440567267;13.09965563;7.93587159;3.37758534;4.754082048;17.5934121;9.012336907;16.98510644;-19.50140671;5.685448112;-2.850530193;-2.442804217
-1.431899023;-4.327974108;19.06472486;11.0995503;3.651977135;-0.562552291;7.200231092;3.771227124;11.16028516;7.673181706;0.769684905;8.047115489;16.14394157;18.62295108;17.98554557;-43.99232539;7.595092685;0.182160792;-2.527556453
-0.192941009;-0.965702748;20.46777217;13.93740635;4.496308912;0.055108877;7.475202679;4.591532711;10.31607748;8.000061035;2.207206304;8.085537313;13.22365307;23.08632542;15.8333336;-54.07560587;9.166908334;1.97261691;-1.967150075
-0.028141863;0.097686262;17.73361344;17.11567742;2.871407009;0.408928724;3.043402144;0.456312364;10.29879837;8.365461313;5.503061977;4.499597638;9.494290505;18.05239161;11.12669822;-47.05193284;9.928781133;1.716627238;-1.189917545
-1.384937087;-1.372052656;13.61203986;17.78836209;-0.700358414;0.183780434;-2.014785986;-4.757629264;10.11923176;7.596893421;8.363675941;0.490665129;5.733169077;5.69283994;6.454307816;-27.3983846;9.694378481;0.754383872;-1.01877931
-3.386006328;-3.787915718;12.02740051;14.65213649;-4.067259552;-0.411672754;-3.001909943;-6.355899908;9.126673463;4.96387108;10.04708808;0.374801671;2.700760624;-6.785978599;4.562121629;-4.531397873;8.682558141;1.439992743;-1.721725306
-4.714402377;-5.232670956;14.67439389;8.913587538;-5.371160163;-0.839022535;1.044196357;-3.066310958;7.601335885;1.024559169;11.26353699;5.843175896;0.925346379;-12.89830862;6.07730681;11.68260297;7.166722116;4.73500927;-2.668597517
-4.78794421;-5.087342469;19.52753126;3.366798598;-4.533898775;-0.716623167;6.389335743;1.942443;6.484414807;-2.469489094;12.83871388;14.210246;0.546465059;-11.99302561;8.89810667;15.69035718;5.1;8.866130578;-2.927381042
-4.121524358;-4.307439052;22.61171673;0.479957956;-2.979546754;-0.160628905;7.935552479;4.091594179;6.606467844;-3.620661252;14.62226051;20.30684026;1.351386518;-9.343005271;9.974020437;8.856974321;2.212815926;10.565611;-2.200358035
-3.608403527;-4.181583562;21.49255966;1.038003618;-1.955802489;0.323209683;3.855189676;1.611793106;8.112853602;-1.646368048;15.63800001;20.5474219;2.980761307;-11.1417925;8.037668312;-1.73383951;-1.421174522;8.045299509;-1.162378355
-3.483142047;-4.835570581;17.40793953;4.220245484;-1.129446468;0.296269475;-2.653953948;-2.92453719;10.49710328;2.583354488;15.16980892;15.78982273;5.126690686;-18.72873276;4.885343736;-7.840183002;-4.916936634;3.08205074;-0.83856468
-2.997195508;-4.956069545;14.16249815;8.710707735;1.147251832;-0.219484458;-6.092504643;-5.104543923;13.08126895;7.152962407;13.62577798;10.59319513;7.560320411;-27.06292061;3.978778642;-5.248921363;-6.81723655;0.1165691;-1.596831023
-1.123904248;-3.030068359;14.77812717;13.69368785;6.101332103;-0.763304033;-3.450801109;-2.842243871;15.45611975;10.42494332;12.33616779;9.517901441;10.00715167;-28.87098631;7.471614859;3.869568824;-6.060448115;2.773647642;-2.733395557
2.388978431;1.059903353;18.87034494;18.94437055;12.96851381;-0.850406358;3.181399566;1.65556849;17.55059983;12.10920183;12.50152601;13.57271556;12.06303154;-21.04295886;14.19416049;13.11527056;-2.976445333;10.56614198;-3.097224689
6.638279989;5.62041396;23.0418968;24.22381509;19.14641478;-0.405709632;8.472228506;3.93616555;19.41377904;13.28797424;14.26668663;19.69968376;13.32625071;-7.834933343;20.36752203;16.91886188;0.571927826;18.64041413;-2.214473482
10.23936245;8.38430826;23.87614942;28.83767588;22.092179;0.171842361;8.482654717;1.470445201;21.03576023;15.3826196;16.69151371;23.54032096;13.70064722;2.031142433;22.501305;14.62249869;2.191728152;21.0485208;-0.860857236
12.43348282;8.34094331;20.81668773;31.9370136;21.36835141;0.369518846;3.967126749;-3.900546018;22.39563496;18.84495432;18.51444197;22.98218196;13.59753341;2.264597509;20.07;10.40579612;0.479674076;15.12478927;-0.493220111
13.58259051;6.507477991;16.39162021;33.26964388;19.02253835;0.020556784;-0.513595209;-7.520680372;23.59339927;22.57410698;18.94472709;19.49072359;13.76596219;-5.605906134;15.77036728;9.238803237;-4.041187615;3.550048828;-1.991946746
14.57211806;4.903363114;13.69828145;33.53215517;17.89453078;-0.548221446;-0.765275294;-6.102454977;24.77723886;24.52934365;17.86066075;16.31228731;14.7603919;-12.8679601;13.2285596;12.37174403;-9.270202767;-7.525268728;-4.83027515
15.68417737;4.609490941;13.55707321;33.80607613;19.24680747;-0.810428134;3.352839176;-0.757473233;25.79733776;23.11758862;15.48860939;15.37348048;16.40101581;-10.17267748;14.14082715;16.30219762;-12.89767476;-12.81914363;-7.442930399
16.04806522;4.66203698;13.99865741;34.48464726;21.7183896;-0.509846505;7.956887532;3.887864731;25.89285954;18.34350438;12.12286799;15.69306061;17.68480754;4.761979511;17.18614041;16.16657201;-13.77292451;-11.3599657;-8.499948895
14.28878987;2.844035;12.53541753;34.70580118;22.47424165;0.114063974;8.727243074;3.731588687;23.84552804;11.86558548;8.233852322;14.59255237;17.32684273;24.12493605;19.42581207;10.5549133;-12.31513941;-6.523329264;-7.963976768
9.887768942;-2.227872257;9.016762844;32.95855546;19.55447328;0.542194009;4.755617772;-1.206336763;18.71139375;5.898355655;4.689415214;10.41986107;14.63154628;34.20922341;18.7942802;3.324515849;-9.812428547;-2.939124124;-6.987306164
4.042955074;-9.508982741;6.235185441;28.47606216;13.44577529;0.43467642;-0.766702798;-6.82423626;10.70239159;1.753666185;2.525925223;4.219805928;10.08856101;24.20994733;15.5263393;0.517411129;-7.3115438;-2.927573444;-6.74851293
-0.841990669;-15.86043241;7.476774359;22.22242;6.624752646;-0.078941517;-3.509017466;-8.55261902;1.516468678;-0.911813054;2.154745564;-1.122709274;5.227656611;-6.280078125;11.51115629;4.916094926;-5.017385464;-5.215565713;-7.299576408
-2.755240424;-18.14056362;13.10184892;16.51065223;1.577220879;-0.531636495;-1.83379546;-5.303369283;-6.285861258;-3.593437514;2.663926152;-3.369682046;1.778734261;-46.11774264;8.461324127;13.17919137;-2.573583544;-6.588930679;-7.500823953
-1.506868015;-15.3959541;19.35333904;13.42930542;-0.968026279;-0.544345381;1.948101053;-0.267372767;-10.5687855;-7.564619933;2.111227264;-2.704092815;0.688554415;-78.59747362;6.695876509;18.5187219;0.194998926;-4.740206857;-6.136323733
1.185557641;-9.399571736;20.81233294;13.32932433;-2.169367205;-0.156888062;3.909939331;2.064646008;-10.74315539;-12.67459334;-1.027377472;-1.212174007;1.655150548;-90.77140857;5.524489917;16.96892268;2.841626095;0.141743951;-3.207123666
3.047635827;-3.151513279;14.7246685;14.65776178;-3.648563331;0.229161073;2.176650313;-0.083338013;-7.963845955;-17.24254209;-6.250102212;-0.688352028;3.465648343;-80.35776523;4.570584846;11.70395136;4.564999036;6.110615048;-0.194377914
2.950959127;1.38688394;3.612688195;15.33267381;-5.908433428;0.232008244;-1.447591243;-4.317285263;-4.291219121;-19.15349437;-10.73631921;-0.921723336;4.851943677;-56.26973214;4.497101157;11.00694072;4.900742244;11.50151184;1.02205789
1.617105143;4.503091582;-6.172150586;14.54601804;-7.981091952;-0.160483795;-3.299200108;-6.395297864;-1.425866821;-17.34647459;-10.99216179;-0.087845325;5.24682223;-32.87593468;6.308437936;20.80976121;4.167987832;16.28346614;-0.301648396
0.828756936;8.033138871;-8.981347776;13.49045221;-8.473532056;-0.591826949;-1.344155138;-4.134123965;0.139166489;-12.56880914;-5.429333217;3.206275598;4.964952131;-21.78957022;9.955376759;37.84053081;3.249298586;21.62373976;-3.110662983
1.887872018;13.50543359;-3.923393134;14.38937412;-6.915274895;-0.680169825;2.919468199;0.657231418;1.099428377;-6.810422761;4.143968623;8.302290368;4.802551277;-26.09730958;13.80654302;49.74046101;2.906561331;28.32201628;-5.347067673
4.623480766;20.75771594;4.762921549;18.62452689;-4.146420599;-0.379477994;5.867907835;3.90699268;2.658355794;-1.839275658;13.50770534;12.98;5.454545044;-40.06071785;15.79368818;43.26675093;3.253259154;35.75325938;-5.527467424
7.701258329;28.11548616;11.20493466;25.49767359;-1.484446396;-0.020737182;5.114335017;3.015416254;5.762307906;2.02936921;18.93628932;15.66683946;7.18236299;-53.83461497;15.35919108;14.89760073;3.840690719;42.33487366;-3.764160416
9.847175694;33.81839344;12.33411498;32.61196088;0.427942636;0.005312578;1.699818179;-0.838730719;10.68310707;5.946970743;19.79345052;17.18856754;9.85460112;-59.84431566;14.34979532;-24.52887635;4.237831625;46.99472731;-1.413737918
10.86893232;37.36454571;9.719433357;37.50937466;1.963081869;-0.372783096;-0.891787182;-3.88204184;16.95983362;11.27891552;18.67383278;20.14830993;13.13951691;-56.82093978;15.75226249;-55.49689495;4.530615359;50.14827953;0.237523402
11.63478923;39.64280801;7.566539408;39.21538842;3.780568507;-0.823629704;0.04336098;-3.266648142;23.46845503;18.05642516;18.89313732;26.21431567;16.56404898;-49.33342415;21.08991024;-62.3328523;5.250966282;53.1840646;1.022596505
13.14210859;41.8703602;8.85475738;38.52922805;5.863560608;-0.91025046;3.946149035;0.334145436;28.52657026;24.41269841;21.37994547;33.74178507;19.40099006;-43.68991174;28.66941776;-43.59409054;6.785985953;56.90795972;1.763038807
15.5837847;44.38320969;12.95510342;37.02631542;7.379408545;-0.498490304;7.513215977;3.415022573;30.22429676;27.58758888;23.64546422;38.17505862;20.63584543;-43.33212021;34.35505574;-12.71118815;8.81672261;60.42745519;3.181329833
18.23529892;46.35843731;16.56640057;35.78102585;7.568860472;0.102758734;7.705724264;2.931871496;27.17950535;25.8688678;21.85142841;35.36162795;19.28245739;-46.88933744;34.47473383;11.47731875;10.33830404;61.60021808;4.974394257
20.17674611;46.6321908;16.8656909;34.88603921;6.769461332;0.407772259;4.472782203;-0.858222066;19.50620544;20.0263918;14.35351561;25.2094841;15.00141183;-49.95202183;28.59119143;17.1777215;10.31324879;58.75327795;5.989128353
21.10712459;44.79329269;13.97709139;33.96861382;6.4381548;0.190854485;0.720267731;-4.617154138;9.311261067;13.05939615;3.697844117;12.48547629;8.598579078;-48.89669984;19.86964078;6.082210155;8.450625859;52.19972111;5.359753873
21.48441676;41.55033307;10.67365693;32.95604433;7.948219584;-0.30521732;-0.390246869;-4.980596546;0.051437965;8.288753023;-4.824659671;3.726365856;1.915641274;-43.7076593;12.71205197;-10.19086763;5.476759234;44.21211083;3.50157418
21.91197493;38.08924413;9.773365678;32.20553617;11.16835213;-0.586122753;1.701934704;-1.624282575;-5.210911156;7.105101776;-7.132212641;2.485075621;-2.997763376;-37.68653133;9.575916478;-19.93931199;2.674410307;37.43474523;1.932664927
22.41554843;35.05347026;11.66237488;31.86860763;14.19359058;-0.357571195;4.546200717;2.46773117;-5.674440076;8.038490297;-3.678991759;6.682408233;-4.979036093;-34.46634419;9.525711396;-19.51312278;1.055615184;33.04643693;1.976576879
22.33716268;32.06564226;14.10517514;31.23487416;14.66375486;0.198813729;5.02695692;3.753139284;-3.443047723;7.911903069;0.650580637;10.26293019;-4.378823427;-34.88027665;9.54889431;-13.99469458;0.799821851;30.15841431;3.494622382
20.95717529;28.16718109;14.36662708;28.91565361;11.66508048;0.582197187;2.251614745;1.350078125;-2.277794996;4.304684815;0.187585051;7.895858237;-2.750695845;-36.29112638;7.338405845;-11.12291019;1.332387615;26.83853444;4.863416592
18.2457639;22.73291045;11.65735561;23.93887053;6.583972616;0.426648233;-1.675182147;-2.233252009;-5.127710931;-2.46832932;-7.125234529;-1.003521443;-1.79345903;-34.91918334;3.11758921;-14.3285476;1.889629311;21.79527743;4.333122746
15.01800457;16.06934576;7.769544109;16.87054636;2.10352035;-0.157640506;-3.639415545;-3.502698581;-12.10566633;-9.355446249;-18.06916096;-12.05892401;-2.282532515;-29.19465549;-0.914763999;-20.62494899;2.072534599;15.31285343;1.624412218
12.33684995;9.279628644;5.489024318;9.888991305;0.130660114;-0.670488277;-2.358748486;-1.268005505;-20.37137902;-12.59803769;-26.56336396;-19.50897548;-3.728214832;-21.28378973;-2.774034283;-24.32892638;1.98917956;8.810311021;-1.675465715
10.72484493;3.648438215;6.311557081;5.560754826;0.399992194;-0.664645591;0.56809681;2.236743022;-26.03682801;-10.3318182;-28.25059161;-20.52756138;-4.942522478;-15.45303585;-2.393352739;-22.58428039;1.983705637;3.61970994;-3.351126718
9.920311297;0.121216521;9.44147355;5.2;0.934160919;-0.148327819;2.316827884;3.442298163;-26.71931919;-3.863416275;-23.63055504;-16.83425454;-5.016953938;-14.60477414;-1.325637379;-17.63020748;2.272048478;0.135325609;-2.41542409
9.378394221;-0.812981208;12.74579136;8.109028323;-0.07972305;0.418820443;1.565228456;0.808128904;-22.90615553;3.288275675;-17.33013083;-12.58690906;-3.943753115;-17.89692927;-0.88580859;-14.17613254;2.796390021;-2.038761035;0.029662862
8.986502378;0.983292312;14.59098402;12.28906879;-2.679207211;0.537391202;-0.31120671;-3.663682514;-17.24251521;7.834473041;-14.22951438;-10.66519837;-2.451448263;-21.48017718;-0.642809287;-14.74781273;3.344270026;-3.324114611;1.716110599
9.247874969;5.271532998;14.89278123;15.98307233;-5.206759196;0.118082634;-0.68647879;-6.192718343;-12.45728076;8.821068543;-15.63863022;-10.58462831;-1.277580749;-21.75555857;1.206296333;-17.43345723;3.742880027;-3.674799375;1.155374703
10.71051816;11.24333058;14.6652975;18.74805085;-5.971303722;-0.437917627;1.645090122;-4.665501607;-9.613002045;7.90216164;-18.54876218;-9.591577316;-0.530083008;-18.3976942;5.898765374;-17.94003906;3.941196931;-2.822056959;-1.066167523
13.19023578;17.51627225;14.80945038;21.24062509;-4.943192786;-0.603410789;5.164330025;-0.596513318;-7.947038394;7.731333284;-18.38944692;-5.612390131;0.340561984;-14.56782105;12.49601335;-13.80937016;3.972847842;-0.873541851;-2.767417904
15.60229751;22.65027614;15.41917121;24.08070469;-3.897964081;-0.206124405;6.97980959;2.218387298;-6.16176298;9.831776728;-12.89302667;0.763650832;1.985200858;-14.13678729;18.2752863;-6.785258102;3.920961387;1.499382582;-2.017217103
16.68176872;25.98806752;16.10395637;26.95698726;-4.834700745;0.410435978;5.582357155;1.149188193;-3.837302308;13.59839206;-3.91206132;6.973218776;4.53159844;-18.30963046;20.93994962;-1.21984338;3.942638515;3.580676651;1.243935724
16.00958058;28.11239411;16.65575945;28.83439614;-8.083451857;0.694451049;2.366849527;-2.865271369;-1.672284113;17.07946137;4.137500735;10.96993645;7.429097152;-24.56522909;20.67115861;-0.139632737;4.254439975;5.30221418;5.175395114
14.39218282;30.32871301;17.09184005;29.0198737;-11.83660321;0.384793088;0.406459267;-6.161555368;-0.430626266;18.73669377;7.746300424;13.0129242;9.860537999;-28.82388703;20.02639842;-2.680039063;4.953764017;7.281518907;7.56657605
13.16612249;33.38007813;16.9812831;27.9845725;-13.58149299;-0.250636527;1.562466708;-5.678168171;0.280895257;18.66306082;6.809634107;15.01348607;11.31985081;-28.9530444;21.57088367;-5.197758304;5.738683721;9.984978192;7.554804761
12.9818619;36.41692366;15.02987423;27.04682876;-12.19891097;-0.654140182;4.644915094;-1.724752317;2.080664205;18.28617286;4.277489263;18.09272395;11.83136807;-26.55601157;25.2580722;-4.896800014;5.811316794;12.75602351;6.068305864
13.16;37.25275462;9.89668121;27.11476197;-8.875565781;-0.478493173;6.427161396;2.335151286;6.444444906;18.89208459;3.521211246;20.77148351;11.63848012;-25.48872458;27.98847872;-2.51408893;4.224936452;13.77830698;4.730145534
12.26352294;33.9598193;1.94953824;27.64600236;-6.030387191;0.105341093;4.658156285;3.183365764;12.99224778;20.26835455;5.742575509;19.70735581;10.69312818;-28.41212428;25.9824005;-1.576758163;0.585116151;11.30380249;4.334895835
9.442230284;26.64;-5.67137288;26.87814619;-5.235157276;0.570513452;0.282981554;0.568316511;18.99488827;20.61577927;9.445845115;12.56040632;8.481086184;-34.40309315;18.10391152;-4.989981061;-4.392189158;5.257669289;4.316376411
5.356340093;17.8457853;-8.231135316;23.26265016;-6.00670529;0.515000829;-3.271320348;-2.535443827;20.77328818;17.79491926;12.07154156;0.536595834;4.433391659;-39.70289535;7.284794872;-12.19014712;-9.017914348;-2.222222749;3.616402225
1.789631158;11.07513139;-2.598787133;16.90276634;-6.537939975;0.019497431;-3.190604889;-2.76725133;16.11592274;10.89266089;12.12053781;-11.71095657;-1.358907689;-40.9102027;-1.323301974;-19.52788646;-11.55874709;-8.013648873;2.009435309
0.208869351;8.342762548;9.792702585;9.709257141;-5.646585059;-0.443203777;0.074217733;0.423729531;5.931159599;0.895821451;9.956522728;-18.93453998;-7.732540445;-37.78049249;-4.092943688;-23.50813464;-11.39182778;-10.2140375;0.514531155
0.503704872;8.709418762;22.85239437;4.070689072;-4.087126723;-0.458157925;3.111949749;4.214071259;-6.141753462;-9.959197025;6.901998372;-18.6742963;-12.77545169;-33.18034847;-1.531033718;-23.86112374;-9.515325427;-9.578242059;0.431918076
1.046569464;9.004801634;29.27287501;1.137028627;-3.948052679;-0.056256432;2.643994275;5.0304382;-15.91508528;-19.54535186;3.812076124;-12.53218572;-14.77727373;-30.31690698;2.373569324;-23.60539584;-7.933532059;-8.954049241;1.918577846
0.075977338;6.249280479;25.31701722;0.158589492;-6.640634177;0.322720759;-1.383829849;1.945818682;-21.06753729;-26.85846014;0.596978882;-4.52465503;-13.21472304;-29.81392205;3.474116531;-26.08705338;-8.280368483;-11.09550127;3.544542963
-2.784025839;-0.118324979;13.41313984;-0.617296881;-11.34866104;0.258120048;-5.603597972;-2.330444872;-22.15192798;-32.08129915;-2.97508682;1.891845672;-9.126789196;-29.32654462;0.659224398;-31.78995689;-10.67969082;-16.59865908;3.405768903
-6.219633258;-7.964955758;0.497660867;-2.368190643;-15.46876464;-0.234971691;-6.221843338;-3.857788397;-21.69771423;-35.93711719;-6.237917537;5.6466204;-4.636511789;-26.05367942;-3.695841505;-37.89379545;-13.71149086;-23.61738815;0.87995471
-8.436046817;-14.302071;-6.712021444;-4.876336697;-16.78168522;-0.698614145;-2.548152086;-1.104192247;-22.29288425;-39.03790654;-7.649443462;7.562270714;-1.916315544;-19.81896136;-6.225234763;-40.95778227;-15.51546126;-29.5203992;-2.603113028
-8.8162068;-17.6715379;-5.956179741;-7.139733508;-15.45577559;-0.653479765;2.196979779;3.53969403;-25.07357737;-41.68825035;-6.073761561;8.550619467;-2.18973114;-13.8;-5.705375095;-40.16910696;-15.17633282;-33.02701835;-4.614766653
-8.524149716;-19.10956022;-0.105762939;-8.707736858;-14.01491059;-0.062595763;3.6457152;5.834269074;-29.46287751;-44.00928458;-2.146668911;8.522376365;-5.259282881;-12.07419263;-4.062142556;-38.07270846;-13.32730444;-35.01425699;-3.800019531
-9.459893751;-20.97887744;5.871094057;-10.33694824;-15.15090306;0.600999717;0.206784075;3.52266409;-33.93021461;-45.95024713;1.729383748;7.042340845;-9.695123509;-16.06862886;-4.447997214;-38.08674318;-11.55601395;-37.40562203;-1.157506015
-12.45861287;-24.78257016;8.878967328;-13.22391471;-19.20935575;0.762442163;-5.397731057;-1.571875867;-36.92294077;-47.04066231;3.051835531;4.822526377;-13.48752295;-23.10212737;-8.189403299;-41.16753633;-11.16235179;-41.23799718;0.686849553
-16.35447833;-29.88288716;9.369548727;-17.49255447;-23.57383552;0.265000288;-8.440666267;-5.14060144;-37.34439704;-46.2455643;1.268077088;4.194433607;-14.83082194;-28.431188;-13.35994339;-44.82860937;-12.29383429;-45.66147105;-0.314879803
-18.80832131;-34.16846884;9.745449536;-21.44993753;-24.60091938;-0.478151271;-6.329872254;-4.264841368;-34.61086993;-42.39514171;-1.569545956;7.687693885;-12.74811927;-29.09542728;-16.23708827;-45.51068698;-14.09041568;-48.70286768;-3.82497988
-18.23066405;-35.95673356;11.4102366;-22.52689946;-20.55098402;-0.851055946;-0.869255466;-0.04069913;-28.69282091;-35.14243613;-2.217906355;15.81918423;-7.372384898;-26.19586616;-14.32611007;-42.08661848;-15.57537741;-48.99358874;-7.309050994
-15.11201845;-35.36;13.35296357;-19.26836876;-13.04910197;-0.592817872;3.406222434;3.471213506;-20.32053897;-25.71892437;1.372267221;26.21466633;0.191462695;-23.57808147;-8.284572733;-37.10893046;-16.42444807;-46.82694579;-8.108768448
-11.54790431;-33.91317166;13.45551696;-12.65043788;-5.822644938;-0.03253192;3.314698303;3.029776294;-11.06577649;-16.65036181;8.652700596;35.15584952;8.368021211;-24.09361013;-1.125879274;-34.45726197;-16.94744508;-43.61781886;-5.633889095
-9.340405847;-32.90909157;11.02136177;-5.447632133;-1.767989164;0.223326415;-0.18710049;-0.755942387;-2.902609874;-10.34037888;17.14739804;40.42828076;15.75900551;-26.82122153;4.46342948;-35.47868075;-17.41109329;-40.39807096;-1.791027229
-8.365505993;-32.09498401;7.878291803;-0.051925358;-0.803085177;-0.13070963;-3.054927652;-3.988439189;2.700337077;-7.469668929;24.47320325;43.00289627;21.61225064;-27.81902336;8.217299951;-37.31093861;-17.47220807;-36.90776554;0.691829259
-6.718718247;-30.0286623;6.849517581;3.416950016;-0.254576647;-0.79312126;-2.056758704;-3.173817883;5.53586953;-6.52938314;29.85731298;45.96593931;25.86313443;-23.81090948;11.95068066;-35.22379261;-16.37775318;-32.24068108;0.544515251
-2.593517066;-25.80283171;9.015680861;7.013149007;2.65735963;-1.119318831;2.112542135;1.359761747;6.592170597;-5.027815054;33.88255912;51.53531462;28.77565972;-15.50246005;17.23204718;-27.08836259;-13.82036666;-26.42618183;-1.164700253
3.736966335;-20.48765257;12.47447573;12.87135134;8.423269315;-0.725486223;5.438270578;5.557344694;7.129349822;-1.522359569;36.94513203;58.7950005;30.50811819;-7.44259329;23.35214759;-15.90994832;-10.6311641;-21.28881593;-2.264853737
9.646973724;-16.80641128;13.96564601;20.90116225;14.93959967;0.126410748;4.40493487;5.290409591;7.645639474;3.175798759;38.1801087;64.24690101;30.98643839;-4.376511316;27.58228393;-7.867918495;-8.531954254;-19.48021001;-1.640371502
11.96962232;-17.14707193;11.97736059;28.33388484;19.40025601;0.736172873;-0.519125582;0.276801816;7.644757998;6.697829994;36.15770279;64.80108408;30.18904586;-7.206193774;27.56753282;-7.293473085;-8.972744985;-22.29793768;-0.305516887
9.439687673;-21.59368189;8.396338727;31.6420033;20.59770055;0.595722408;-5.061001896;-5.398335296;6.422074263;7.202236582;30.83906778;60.59063249;28.53747663;-12.12738712;23.66929936;-12.91701591;-11.94974377;-28.21140513;-0.410176432
3.705689539;-27.75901421;6.975174683;29.28834549;19.61628598;-0.132568102;-4.96702287;-6.799492595;4.118257911;5.075864605;24.80455794;55.05724921;26.92214866;-13.77519706;19.03306357;-18.80556924;-15.83191154;-33.60827597;-3.113109326
-1.97;-32.65674029;9.851364209;22.99063208;18.46203127;-0.745601343;-0.017225379;-2.607692119;1.960750993;2.701966925;22.13046454;52.13189918;26.17861228;-9.678632363;17.17432545;-19.34822936;-18.44420537;-35.39034332;-7.321003877
-5.238825473;-35.02291729;15.32010736;16.41636289;18.05300243;-0.641318024;5.53441735;3.546063014;1.309862107;2.372274038;25.35136746;52.94107654;26.36743936;-2.154258718;19.13015278;-14.00602265;-18.6025037;-33.3268581;-10.51129798
-6.301149223;-36.05242317;19.09281367;12.40264103;17.48183983;0.108720566;6.658266923;6.219558453;2.276520009;4.095372131;32.92232544;54.94783203;26.51712816;3.958360707;22.66155581;-7.639730447;-16.88361123;-30.12076163;-10.93464505
-7.332602927;-37.9125146;18.10801224;11.02446707;15.16422806;0.797749955;2.112389999;3.039918694;3.219107301;5.28010995;39.59780651;54.3066671;25.21621943;5.610699919;24.19599089;-6.091792709;-15.02619663;-29.03653899;-9.190296231
-10.31919268;-41.41216214;13.47036328;10.04410812;10.66178022;0.725418958;-4.320294404;-3.088062407;1.775728876;2.746695127;39.92161093;49.34911771;21.73644501;3.993402041;21.78190836;-10.9351979;-14.48893447;-31.07010987;-7.699779149
-15.27058852;-45.00822459;9.677689293;7.182134786;5.338807879;-0.132504411;-7.162122817;-6.536144886;-3.259218804;-4.514360578;32.3360569;42.09834417;16.81878873;2.949460737;16.47387074;-18.09232658;-15.37205757;-34.10272244;-8.51267948
-20.3604092;-46.13697225;10.59866229;2.123558071;1.165424177;-1.055861981;-4.183348662;-4.049717025;-10.75603332;-14.17725016;20.61417765;36.48130058;12.39686421;4.921228176;11.0449289;-21.5820542;-16.55338655;-34.78771377;-11.42569626
-23.7478406;-43.7025648;15.74965917;-3.451584661;-1.183992849;-1.20968047;1.573595228;2.221847156;-17.83631441;-22.0949704;11.26808781;34.89051239;10.34557672;8.3172093;7.372047204;-19.01217856;-16.81833242;-31.51313362;-14.14587258
-25.30109994;-39.39498589;20.3801868;-7.636693746;-3.028341944;-0.418439963;4.626608233;6.59021163;-21.8289788;-25.31031321;8.814768974;36.24177312;11.18742736;8.906951513;5.006258543;-13.79056776;-15.92114426;-25.80235869;-14.37675945
-26.56797771;-36.47112226;19.55368765;-10.04816887;-6.351773202;0.632435585;2.204391875;4.988257249;-22.00788302;-24.05952657;12.61235976;37.29871827;13.81298109;4.076017568;2.243848632;-11.94311143;-14.63841984;-20.88186151;-11.93184748
-29.0098346;-36.92707468;12.70104732;-11.85274973;-11.58885517;0.987261377;-3.067827547;-1.249746501;-19.68944602;-21.09185197;17.80016782;36.01674412;16.48681293;-4.051205182;-1.431699551;-16.34267849;-13.83721956;-18.69034866;-8.924967401
-32.1962806;-39.56194429;4.456073337;-14.11033129;-16.64723266;0.294047897;-5.565029056;-6.51474315;-16.6950768;-18.94777723;19.56657564;33.75273658;18.32329321;-9.793170026;-4.063976743;-23.62681628;-13.49960924;-18.05449318;-7.837835541
-33.7758242;-40.79234847;0.759449219;-16.17766134;-18.29672899;-0.838031667;-2.052719402;-6.048340539;-13.62289627;-17.63916927;17.24379926;34.17710481;19.96520704;-8.694779568;-2.60083575;-26.78703223;-12.68252591;-15.76396143;-9.235162519
-31.4334286;-37.69038832;3.525436612;-15.93875169;-14.89856823;-1.357873007;4.946808702;-0.431395743;-9.522048947;-14.83422443;14.86883364;39.76121078;22.83554613;-1.742565408;4.119120836;-21.31555943;-10.50684619;-9.670259211;-11.2613515
-25.15632944;-30.67329856;8.686739724;-11.87603178;-8.092128578;-0.730855629;9.149763234;4.757148158;-3.253034986;-8.407950872;17.76249509;49.03604049;27.57555963;4.961024495;13.54764038;-9.470883024;-7.26907641;-1.034138226;-11.43101331
-17.70838888;-23.44528517;9.602272034;-5.089952128;-1.817169707;0.533053818;6.284553763;3.964926569;4.784083725;0.967378175;27.94725526;57.25210276;33.0648789;5.139453558;20.73384855;1.250611396;-4.582808913;6.088266874;-9.078212363
-12.72163115;-20.12700305;2.992403219;0.831647219;0.652526714;1.296695286;-1.625601679;-3.126845672;12.28699652;9.664979214;42.14062733;60.04669148;37.0050375;-2.240580777;21.95587345;4.233919787;-4.28879167;8.026992676;-6.150244197
-11.9484483;-21.9915732;-7.914667887;2.359946754;-0.820925422;0.821555639;-7.654767357;-11.05701377;16.58074615;13.74268001;53.90451494;56.95338223;37.7157439;-11.89697741;17.63666867;-0.892357151;-6.995003253;4.509447811;-5.507994072
-14.04681827;-26.6319369;-16.06702148;-1.035272826;-3.401700257;-0.51960754;-6.122447239;-13.40476589;16.79190998;12.19099905;58.15441013;51.62809874;35.66725356;-16.65602238;11.91095553;-8.388862626;-11.50286472;-1.181136794;-8.222376362
-15.98308213;-30.28212199;-16.94012086;-6.186659558;-3.935526429;-1.524733971;1.97561476;-8.723105256;14.70857984;7.908907753;54.45333266;48.56251473;33.37385995;-13.62576465;9.060753253;-11.86630429;-15.65434205;-5.094830621;-12.38418477
-15.82713598;-31.22277769;-12.88042017;-8.624366282;-1.752952212;-1.233539711;9.425070478;-2.109483738;13.44066825;5.408054664;46.71953656;49.22841821;33.60037679;-6.646047892;9.86;-10.09275931;-17.91144985;-6.007140888;-14.65
-14.44926087;-31.21621263;-11.28157433;-6.205623159;0.866178264;0.163645914;9.132705783;-0.74221776;14.95147505;7.123571951;39.99729396;51.138116;37.29107957;-2.70696731;11.08066653;-7.840256106;-18.34103019;-6.263273495;-13.23584839
-14.58812916;-33.67336796;-17.88044036;-0.890890096;0.954047324;1.43533847;0.824201122;-7.241316543;18.60526431;11.52836216;37.15099976;50.65028752;42.93903402;-5.428066987;8.682902794;-11.00907883;-18.20814609;-9.286070792;-9.635710194
-18.13334541;-40.22765016;-31.0703883;2.954767223;-2.252602289;1.396296538;-8.151370253;-16.92659165;22.03088964;14.74755899;37.96963619;46.86811974;47.93821927;-11.50517358;1.880512461;-20.59639586;-18.62011008;-16.01564681;-7.384996201
-24.12287946;-48.89686793;-42.61256693;2.365284496;-6.487387532;0.01956102;-9.105184365;-21.73733883;23.52681149;14.28239058;40.77152213;42.87841792;50.76543073;-13.56318413;-5.653313779;-31.26450846;-19.4977832;-23.62105004;-8.857196826
-29.35459219;-55.62615489;-44.6229713;-1.593085338;-8.519259398;-1.463633604;-0.052934659;-17.53600821;23.78815627;11.50022412;44.45718219;42.97617783;52.09891659;-7.095479589;-8.733287809;-36.07830581;-19.81642353;-27.84038168;-12.97716512
-31.13448563;-57.90051619;-36.9322841;-4.699715742;-7.23516487;-1.637762704;11.83942654;-8.192193006;25.28947854;10.54730439;48.95708521;48.30861061;53.8925052;4.768411774;-5.304702939;-33.14648195;-18.84711911;-26.95689862;-16.04047756
-29.66932872;-57.10400558;-28.11420618;-3.261361087;-4.829726177;-0.228790811;16.11774149;-2.4522619;29.79235296;14.51812197;53.97203167;55.06341155;57.24173498;13.3199924;1.381396676;-27.83617334;-17.15291208;-23.73722429;-15.05219626
-27.84366489;-57.30745854;-28.71641284;2.61817294;-4.846692013;1.541448679;8.423961308;-6.059743704;36.25985271;22.28491558;57.8;57.21515488;61.00844742;11.79130778;5.219691173;-28.07859123;-16.281354;-23.30139699;-10.60703026
-28.4820884;-61.40982517;-42.15618232;9.099391811;-8.745116046;1.981505255;-5.0039879;-16.15653289;41.24141389;28.98410191;57.99078928;51.68535177;62.55938836;1.789890803;2.400620009;-36.75105574;-17.32424863;-28.55056337;-6.576951419
-31.58186325;-68.13685685;-61.214149;11.99617653;-14.18686056;0.491154394;-12.25863323;-23.33976031;41.62195459;29.98898867;53.59421508;41.32710667;60.08805553;-7.431914134;-5.23373002;-48.25937903;-19.67278502;-37.19911971;-6.684486826
-34.17138869;-72.85370545;-73.57352806;10.49380338;-16.84478014;-1.757394457;-6.31991326;-20.01487815;37.40427519;25.00325502;46.83084703;32.80591155;54.47476571;-6.85571992;-11.74563197;-53.04450641;-21.26458147;-43.32023825;-10.96393543
-33.1104253;-71.76128688;-72.01459796;7.833797503;-14.32730639;-2.736005315;8.03871846;-7.745989253;31.97646407;18.59034308;42.13320019;30.94663412;48.90445355;3.872556276;-12.39947566;-46.49845226;-20.32224665;-42.39888129;-15.4344932
-28.33469085;-65.77225498;-60.50674082;8.288725414;-8.675541015;-1.374026229;17.67110971;3.326655003;29.44025391;16.46171787;42.82127397;34.48278189;46.382171;15.15758254;-8.057351551;-34.19649236;-17.13268068;-35.57044591;-15.55046003
-23.3847824;-60.27880208;-50.6448269;13.14629847;-4.897643691;1.328367767;12.55014219;3.154291528;31.23477275;20.64159529;48.12037996;37.19588037;47.22521783;15.19926375;-4.573868882;-27.97214626;-14.16923633;-29.08051173;-10.49670407
-22.35821945;-60.50316344;-51.21308104;19.44783218;-6.484717589;2.992054699;-4.530786746;-8.761544739;35.06754532;27.80943712;53.3982399;33.7453598;48.80096375;0.625060411;-7.412337822;-35.40117526;-14.17906155;-29.00012547;-4.352949823
-25.7897242;-66.27129078;-59.96440835;22.82533086;-11.79045399;1.911187333;-19.16027689;-21.78504874;37.22087522;32.46400585;53.91105654;25.10289318;47.91463248;-19.32766878;-16.12480492;-51.76701869;-17.69541791;-35.54795568;-2.720087891
-29.33705282;-71.0956788;-65.22089843;21.98224987;-14.79277908;-1.270851456;-17.42106088;-22.68943667;36.24405235;32.22972852;49.11078703;18.45938073;43.86539381;-29.51970989;-23.85331309;-62.38312351;-22.16094304;-42.14473467;-7.509322141
-27.02614259;-67.10319885;-56.49176695;20.59072542;-10.11370723;-3.839971576;1.025917699;-7.572823051;34.61056747;30.45990213;43.63880774;21.13391403;39.40382993;-21.65155025;-22.86361809;-54.56;-23.68173757;-40.5710101;-14.58885283
-16.76573268;-52.17702964;-35.05346185;24.41765006;1.746164661;-3.225507013;20.73301827;13.31244807;36.55595513;33.40720073;43.65423465;33.50239153;38.48322542;-2.354553833;-11.69585057;-29.58708698;-20.21746984;-28.28214644;-16.8464841
-3.373371692;-33.16684658;-14.72265515;35.76835283;13.69238214;0.608478056;22.45016419;22.94383194;43.7524987;44.035941;51.20843579;47.37171892;42.51599815;10.99706488;2.419143389;-3.868151395;-13.60562884;-11.62397267;-10.52683118
4.109465659;-21.69160504;-11.03633855;50.12456174;17.11272491;4.70631617;0.305342266;11.89728322;52.71217793;57.91023965;61.47552969;51.95477654;48.39868455;4.395805461;8.6568023;3.300719403;-8.532312453;-1.657946601;0.544511843
-0.591598387;-25.10424053;-27.28562171;58.48532829;9.074348998;5.243753409;-30.40292141;-12.18478205;56.68535324;65.35402896;65.70014427;43.0066436;50.35692956;-19.93559593;1.611231243;-13.67192681;-8.975751582;-5.385979591;6.981837414
-15.06717734;-39.68036967;-49.48578858;54.23972664;-4.272668245;0.710128227;-42.80228282;-28.7817;51.04698989;58.93723629;58.05066314;27.42036979;44.50891869;-43.06879942;-13.1933732;-39.57274354;-14.83967367;-19.36319607;1.176757089
-28.55776584;-52.02215847;-55.74422828;39.25140965;-11.39052651;-6.430367917;-19.35998774;-20.17261318;37.87803618;40.49200833;40.99863876;18.77345858;32.54087824;-42.94742804;-22.44660345;-48.0743964;-21.58437697;-31.28945503;-15.73640982
-29.09439184;-48.45545364;-33.6033292;23.88214885;-3.840931565;-11.1455958;32.10239769;13.46416891;25.61600373;21.56223278;24.55424326;26.67101432;21.25494639;-12.10482089;-15.14145987;-22.08432679;-23.42332891;-28.98672061;-33.27675787
-12.47589621;-25.64132875;8.397172009;20.21726568;16.84839268;-9.456643644;80.89878613;52.04;23.41955547;16.07014645;19.39251062;48.22038893;17.899756;34.53866185;8.063680424;30.87764303;-17.7897623;-10.07441754;-38.59342976
13.79962183;5.878593528;44.98159835;33.26220297;39.46205643;-1.561633964;94.08594125;69.23341812;34.29995746;30.29119629;28.90616236;68.82149078;24.66295712;68.75052661;33.88461774;81.24424119;-7.609770836;15.31583006;-26.07492536
35.02786605;28.40644962;51.99694614;56.83140618;50.65741529;8.010435552;60.31274253;51.91646102;52.41337967;57.78411604;46.37066832;72.27644806;36.61699458;68.80920113;45.2284787;97.44295425;0.520529141;31.27723296;-2.147305851
39.22788693;29.41882314;24.55481968;77.48223664;44.26670825;13.46098717;-1.205991822;10.40052558;66.87819552;83.42586773;59.59249801;52.70543726;44.88380079;35.26423217;33.43947036;69.04680166;1.017186263;27.47291342;18.75521932
25.26978816;10.3754206;-18.64633834;83.71138047;25.38152179;11.75884418;-53.74175593;-28.61380896;69.39172507;93.75907607;59.5921572;19.06836476;42.7516259;-9.397019946;4.690978908;15.45237147;-6.64165447;6.565862927;24.26982084
3.242490125;-14.56698265;-48.48133883;73.59179585;6.272879857;4.645467022;-68.54326298;-41.14650753;59.87982202;85.97273297;46.724952;-11.25360479;30.16376573;-36.97757819;-24.41395716;-27.0626103;-17.55547265;-17.84417301;12.69100632
-13.03342753;-28.85914237;-46.20780915;55.30136964;-2.54015265;-2.833785485;-43.82023289;-22.60093139;45.9364904;68.92895156;29.71434317;-24.84466739;13.28668068;-33.40455378;-38.70143084;-30.80562538;-24.98046783;-31.09107945;-6.364228878
-15.58350372;-25.0429463;-16.25263036;40.52715581;0.785117514;-6.059774833;-3.586144461;10.3870847;36.70035365;55.84272654;18.67207614;-21.09371412;-0.277007803;-7.400668644;-34.74824634;3.952364008;-25.11333994;-27.57679243;-19.49954284
-6.876378066;-8.946614716;18.31190266;36.08182615;9.470748489;-3.968105202;21.67733884;33.59209221;36.11379007;54.55227719;17.76573509;-10.99938339;-6.751868157;17.85810408;-22.05708105;49.74249892;-19.50658421;-13.70998076;-19.31071149
3.505943528;6.023234787;33.49366177;40.05546314;14.48574869;0.677393461;17.08841771;33.2092065;40.76786153;62.7936393;23.13055782;-7.491611603;-7.922226307;22.86800906;-14.70784049;71.83651736;-13.45384963;-1.967634541;-8.957888481
6.9259012;9.522892582;21.45192087;44.8775451;11.76659287;3.816576995;-8.289103356;14.45179293;43.64556467;71.53863394;27.13774939;-15.31728009;-8.38683434;5.527043348;-20.36770339;52.46995095;-11.7860688;-1.165644733;1.514233851
1.980470193;1.505726954;-5.601572852;44.16243515;4.629021983;3.262771942;-31.65551367;-4.88717968;40.31580961;72.99291929;25.03713035;-28.36782031;-11.0395211;-19.41139917;-35.15179981;2.047114477;-15.375095;-10.49672022;3.632683548
-5.528921555;-9.056867477;-26.36742247;37.59782949;-0.015139963;0.051261217;-35.59056771;-9.556066477;32.39413401;66.52865783;18.43633638;-35.91938224;-14.71505308;-33.43158231;-47.7749677;-49.63400162;-20.88476896;-21.41457993;-3.178972573
-8.190431972;-12.14579352;-26.67371304;30.2742107;2.033279115;-2.853650251;-20.54997404;1.845014276;25.65499436;58.0977271;13.11775171;-32.06159388;-15.84116372;-28.72202385;-49.02219122;-74.41532979;-23.6712669;-25.11313377;-12.10468503
-3.13401433;-4.562236888;-8.350637021;27.66564107;8.815961113;-3.177085156;-1.905508674;17.71150861;24.7459109;54.3270717;13.54830826;-20.44697075;-12.38907131;-12.78707676;-38.74895222;-63.43118026;-21.36748143;-19.30098488;-15.21099543
6.174603846;8.366909873;14.83514487;30.8620257;14.24385943;-1.059674297;4.326127247;24.41290771;29.15429188;56.70900127;18.97809709;-10.8431105;-6.457377053;-0.667386312;-25.18154658;-29.78124666;-15.39386142;-9.171483156;-9.96
13.42056276;17.8949189;29.22093036;35.9808835;13.49404678;1.379089669;-5.548678022;17.54338195;33.76669238;60.72685543;24.29051037;-10.88736986;-3.077285862;-2.156225106;-17.76564429;3.529084126;-9.481232271;-2.51141566;-0.730912194
14.78141997;19.00360264;30.84855335;37.84118187;7.031518542;2.035568182;-21.45254969;4.374261345;33.32709944;60.22332486;24.50336536;-20.12262553;-6.155555495;-14.60806468;-19.78736165;19.97612463;-6.659946438;-3.450078125;5.392682305
11.55589012;13.71576437;25.66394664;34.40572659;-0.023758001;0.568073541;-29.46648899;-3.520264432;26.85084663;52.88162892;18.80661001;-31.02417464;-15.00132611;-26.44989103;-26.6156643;18.47598888;-7.177820514;-9.872331991;4.599350772
8.228773676;8.393545717;21.92636794;28.15329015;-2.370537198;-1.520511565;-23.77600999;-0.367535488;18.27175207;42.05858871;10.74583358;-35.6535035;-24.46289431;-27.4627731;-30.40864168;10.29826576;-8.805690932;-16.01295986;-0.955086558
8.114063807;7.926082747;22.53967107;23.46580017;1.125224636;-2.357245144;-10.5982823;9.609939166;12.94012456;33.65226631;4.751955431;-32.05397678;-28.70627997;-16.87384992;-26.88249661;8.441208;-8.968006395;-17.45895096;-5.622544425
10.5486693;11.9144559;23.87929471;22.59235081;6.816387858;-1.334169044;-1.6887573;16.81218526;13.09018338;31.01242316;2.372749712;-25.17409791;-25.63933863;-2.973464463;-18.50344397;18.17330031;-6.795745236;-14.25293119;-5.35
11.91686899;15.75740415;21.09378609;23.7867141;9.656993534;0.495420339;-3.909984223;14.9579774;16.10706434;32.3690646;1.542137604;-22.04841638;-18.45172485;4.531507744;-11.88469999;34.69714145;-3.520283352;-9.934662588;-0.882826721
9.285035242;15.163957;14.05825552;23.09500988;7.49122077;1.481346199;-13.99216999;6.134461476;16.89217955;32.79400374;-0.767536427;-25.75838994;-13.10277103;2.449378307;-12.06631619;47.69961295;-1.156087936;-7.977590859;3.424079558
3.243280193;9.911316635;8.138611645;18.02220663;2.609690615;0.858942801;-22.37572515;-1.752655249;12.15134495;28.68478177;-5.285545155;-33.33224072;-13.83923516;-4.154100416;-18.60952481;48.18765752;-0.784329449;-8.996294764;3.760610481
-2.530975776;3.738636783;9.207386508;9.79212874;-0.531880856;-0.663181072;-21.99674461;-2.284199944;2.978368876;20.73548606;-9.75817762;-38.98717462;-20.28697744;-7.126632216;-26.45904845;33.06469534;-1.869527908;-10.92259242;0.154098772
-4.450101143;0.867081251;17.80842183;2.32794969;0.754664988;-1.645584395;-14.07262626;4.071354056;-6.235253824;12.95977259;-11.43346287;-39.46124283;-28.22691335;-2.294564207;-30.34504385;5.903621561;-2.982490067;-11.45873189;-3.870333964
-2.019716434;2.476393351;28.05519276;-0.981543364;5.224777667;-1.241711298;-6.226218575;10.94074944;-11.3670112;8.941113715;-10.19686458;-36.64955598;-33.14321264;7.584265233;-28.76535172;-24.97434661;-3.093518991;-10.21956304;-4.675611879
1.948578178;6.18258562;32.37476662;0.168550355;8.99581411;0.094994536;-5.260487128;12.04645138;-11.49702391;8.828595284;-9.136069711;-35.44666105;-33.55007813;15.88924945;-24.4103784;-49.53349606;-2.267401043;-8.627047875;-1.753694869
3.965977202;8.660764517;27.84032681;3.243572543;8.96369109;1.096043482;-11.29346986;6.639415365;-8.94440136;9.68944284;-11.71351359;-39.01503631;-31.56836216;17.90912222;-21.20711109;-59.46037949;-1.298095282;-7.968372528;2.022353735
2.906730575;8.775495879;18.45748167;5.452136657;5.317825302;0.850208197;-18.22;-0.301597286;-6.790708663;8.655751627;-18.03678004;-45.81787234;-30.65427211;14.15574281;-20.92756857;-51.59583109;-0.82115001;-7.771813988;3.172355552
0.792358276;8.348704007;11.49567618;6.211318975;1.119743585;-0.409561531;-19.57399904;-2.879480027;-6.312513471;5.804230852;-23.84098036;-50.9691815;-32.64300752;8.797754;-22.26283288;-30.09569466;-0.822264071;-6.214581683;0.775914645
0.753290116;10.03957714;11.27790196;7.316094007;-0.454468923;-1.571376689;-14.24108041;0.469589721;-6.485710966;4.090019531;-23.56391876;-50.53860545;-36.54115821;5.286381057;-22.75967826;-5.410155012;-0.953530786;-2.185045092;-2.807935058
4.094000446;14.48367265;15.9438532;10.81881021;1.315142473;-1.664743784;-7.033923078;5.908580065;-5.621104013;6.458130037;-15.19007813;-44.92426612;-39.77060164;3.431800699;-21.47479701;10.60511984;-1.228565992;3.076694114;-4.203745844
9.078874029;19.42741359;19.81814447;16.68847973;4.457073067;-0.695057611;-4.012460615;7.959656515;-3.278236707;12.86331869;-2.681103985;-38.39845226;-40.47497401;0.391903645;-19.83211077;11.27778527;-2.304122946;6.522788461;-2.133722363
12.4301835;21.66672461;18.90693991;22.44307907;6.376136685;0.427837633;-7.049404006;4.458080275;-0.582189025;19.98558679;6.409928521;-35.39338327;-38.82826537;-5.780501166;-20.07116583;-0.871134843;-4.984206158;5.753952906;1.41978932
12.1176328;19.99058356;14.37496132;25.10430074;6.21202331;0.747075174;-12.48103155;-1.742449513;1.200452339;23.93992902;6.518338051;-36.88739827;-36.43117563;-13.64084936;-22.93945471;-15.94964687;-9.366597382;1.254597603;2.983458563
8.964092532;16.41618881;10.93754295;23.72315645;5.391097077;0.098013431;-14.74593627;-5.607427901;2.222770826;23.54749886;-1.607295293;-39.97962354;-34.65125222;-19.29883855;-26.84656008;-23.56883852;-14.44003906;-3.671502449;0.664344135
5.748247844;14.56116376;11.89884519;20.23512024;6.023127091;-0.809750944;-11.45220827;-4.506805004;4.052488822;21.23268789;-11.41451355;-40.80131939;-33.5501132;-19.84875549;-29.19401318;-19.96355655;-18.56908365;-5.375572102;-4.187700803
4.731232966;16.57600166;15.64;17.90411611;8.729696953;-1.092503087;-5.292731268;-0.381275959;7.996602679;20.75903356;-15.54818057;-38.00889022;-32.26444036;-16.0159156;-28.54632107;-10.03833732;-20.51636362;-2.72273725;-8.117393074
5.850799891;21.33431237;16.94270378;18.72265003;11.90761824;-0.504163213;-1.324058795;2.282444249;13.38451518;23.84871251;-11.31924533;-33.77061342;-30.23579873;-11.54231519;-25.62530134;-2.812407461;-20.17094123;2.083890088;-8.427186497
7.106877981;25.44426201;11.99332407;21.98810751;13.055404;0.372392104;-2.332931122;0.617394524;17.61663087;28.69700694;-2.289812718;-31.55151951;-27.93866379;-9.880556122;-22.32968798;-3.95348887;-18.40650088;5.417103899;-5.272352462
6.642059753;26.15570817;2.44125313;25.17833255;10.9326583;0.693353039;-6.535551782;-4.148685545;18.18544992;31.65666236;5.089591946;-32.87419633;-26.37714288;-11.21654085;-19.86403878;-11.41589424;-16.24960815;5.249190775;-1.28856395
4.544414294;23.61331812;-5.347968036;26.23450728;6.635893522;0.133756012;-9.50528636;-8.016682482;14.96145059;30.52051671;6.768946829;-36.02814528;-25.92771819;-12.49534075;-17.82042704;-17.5984527;-14.11147023;2.736139448;0.750128254
2.746805932;20.54415048;-5.396576632;25.21105882;2.695728665;-0.832170485;-8.332336949;-7.940558976;10.61377944;26.43420681;3.865577077;-37.80894633;-25.79559305;-10.37302411;-15.03532759;-16.01887663;-11.72612465;1.08058154;0.122286811
3.176875286;19.74489464;2.819332599;23.92326914;1.045114924;-1.381243401;-4.14735696;-4.487672016;8.583592514;22.74996231;0.825485478;-36.58607896;-24.75122845;-4.394618173;-11.27325936;-6.809171663;-8.764541138;2.719742161;-1.612228093
5.884050936;21.61672368;13.77268395;24.04334672;1.62068661;-1.088211332;-0.842920694;-1.107334044;10.21868072;21.90656549;0.92495754;-33.83912242;-22.50289303;2.458968681;-7.970722348;3.522424065;-5.47874545;7.259689517;-2.320720548
8.846002899;23.86717723;20.29379126;25.42973881;2.703596851;-0.287764021;-1.371932971;-0.842653147;13.54484414;23.19088363;3.249979147;-32.74955505;-20.3190635;6.333072229;-7.177632676;7.666427215;-2.724941435;11.85867394;-1.258518677
9.618292265;23.54968303;19.18358035;26.18728316;2.55470037;0.257105118;-5.105373089;-3.577002502;14.85048008;23.43058759;3.809332981;-35.12729516;-20.10566489;5.902433432;-9.594918588;3.539304706;-1.310333907;13.63701364;0.454967986
7.35654218;19.60294524;13.28554486;24.37302383;0.853451843;0.055964663;-8.581183323;-6.277770236;11.86205549;20.02503116;-0.335403444;-39.46170337;-22.58145673;3.647342871;-13.55789445;-4.328224106;-1.254221242;12.01778791;1.107052493
3.457512274;13.71811392;8.47794037;19.8171955;-1.230784846;-0.680172299;-8.78241353;-5.885758409;5.857457613;13.60596717;-7.758503271;-41.89920853;-26.1648591;3.916029523;-16.04310252;-8.988741622;-1.661447345;9.073864023;0.088728061
0.329634725;8.904068639;8.479199472;14.46650976;-2.216695922;-1.254017173;-5.835576889;-2.127016134;0.870097656;7.906837585;-13.30469084;-39.37928248;-27.73968756;9.428780964;-14.96830858;-7.000775045;-1.376908994;7.729115254;-1.576950965
-0.561363686;7.109645975;12.07878175;10.96906592;-1.567874451;-1.123311164;-2.704825717;2.291173251;0.534270338;6.847013047;-12.30628218;-32.28320017;-24.91137783;19.10896008;-10.85923443;-0.918435123;0.103359716;9.445384287;-2.282174206
0.329176296;7.957562619;14.99418782;10.71733162;0.060562579;-0.379654652;-2.310598175;4.173223903;5.099052866;11.26846018;-4.809343384;-24.37443175;-18.02345427;28.89378658;-6.466706824;3.58298553;2.229014798;13.31693431;-1.38513623
1.366630732;9.529809521;14.31085295;12.96309478;1.644190954;0.353984406;-4.829826275;2.661493705;11.03546094;18.08509295;3.895626798;-20.10547374;-10.26430325;34.6783624;-4.679166902;3.090993289;3.839227403;17.15277046;0.215192892
1.395290037;10.30502053;11.24877543;15.64184912;2.772841498;0.490714701;-7.643795169;-0.163257032;13.5757769;22.5699147;7.075578516;-21.51591901;-5.658981126;34.94886167;-6.508696309;-0.593157179;4.076250319;19.41668704;0.980063477
0.766392864;10.43612441;9.741712531;17.10191937;3.853972563;-0.011600082;-7.868311914;-1.350092773;10.19585236;21.8953543;1.689317498;-27.14846375;-6.409770713;31.19243805;-10.7710766;-2.502373528;3.00794339;20.30204651;0.208262886
0.862868561;11.30670684;12.30920695;17.26601317;5.437965631;-0.646594529;-5.033658801;0.175334421;2.372641523;17.07900736;-9.267484956;-33.60753949;-11.54761241;26.16552107;-15.51907535;0.492403634;1.471373477;21.15643405;-1.319241436
2.65859346;13.94013632;17.23663129;17.35645214;7.428296508;-0.836359265;-1.437865067;2.712480744;-5.604317859;11.91073645;-19.0292041;-38.22;-17.80114214;21.74806219;-19.76327362;6.430804708;0.327078816;22.99551351;-2.115974747
5.695991105;17.83964428;19.83832054;18.57906174;9.000364817;-0.440108733;0.070465699;3.486867463;-9.683606894;9.939016399;-22.02976469;-40.56320856;-21.88555024;18.10722196;-23.89195012;9.828858023;-0.199058459;25.57017469;-1.427154974
8.414613624;21.34305982;16.73631927;20.97229019;9.301914155;0.156912961;-1.256610815;1.304295373;-8.592369422;12.03244374;-17.62354061;-41.85333944;-22.44916616;14.49;-28.53689656;6.703423741;-0.525187465;27.79711539;0.045289085
9.48433066;23.10960012;9.202638;23.35680482;8.211894971;0.425521634;-3.452660017;-2.308323907;-4.141784799;16.29846507;-9.849374295;-43.11929085;-20.39018803;10.55543589;-33.14927299;-1.496064418;-1.111066281;29.01816888;0.821296637
8.887436043;23.30179672;2.368374001;24.30567638;6.378335886;0.173503201;-3.776481659;-4.490651986;0.547805341;20.03592898;-3.855342834;-44.00548938;-17.64806894;6.935385205;-35.83125701;-8.684824679;-1.826940449;29.78503663;0.091786019
7.769480232;23.33919392;0.847954701;23.22448673;4.488182959;-0.312038744;-1.340264301;-3.644553741;3.248204036;21.81146497;-2.155839974;-43.25642255;-15.67315556;4.668387243;-34.75977775;-9.105077568;-1.897352822;31.35361471;-1.427712656
7.247139593;24.45779736;4.658834333;20.65623214;2.517984061;-0.565659095;2.038416753;-0.846125157;3.599215613;21.96150324;-3.644968263;-40.28163827;-14.75298447;4.243065137;-29.96970839;-2.165710045;-0.51180112;34.32425954;-2.069377506
7.325335605;26.43763271;9.168958466;17.68182227;-0.221964327;-0.38402175;3.53308374;1.184768465;2.484740408;21.44910811;-5.684196194;-36.21902927;-14.42547301;5.223687345;-23.80656811;7.054804105;2.398232343;37.70836772;-0.731142796
6.953262568;27.71870162;9.241290868;15.04627729;-4.200326677;0.007455369;1.950362985;0.567732504;0.761670454;20.47391623;-6.995788881;-33.43183041;-14.28102599;6.734815367;-19.46887473;12.06154109;5.88058422;39.3642702;2.025578833
5.17100994;26.84593597;3.939475518;12.76498939;-8.760418942;0.200041504;-1.141102738;-2.085300799;-1.417796124;18.25870577;-8.697797691;-33.83220374;-14.33035232;8.241167233;-18.754886;10.23632319;8.451032382;37.53636863;4.317006075
2.267543713;23.93738078;-2.444743453;10.4384012;-12.15588296;0.008043718;-2.82882291;-4.319655978;-4.261611171;14.13548766;-12.7496914;-37.46757249;-14.74992355;9.871300443;-20.87621632;4.628873714;9.004156765;32.23725216;4.465092072
-0.166871132;20.79613979;-4.074575882;7.868686763;-12.68530613;-0.355120815;-1.499594467;-4.136276317;-7.574194157;8.736352801;-19.47653918;-42.53609026;-15.48674219;12.07226715;-23.31236637;0.863918396;7.477044503;25.31107592;2.405220289
-0.422369054;19.46726727;1.213402039;5.386083253;-10.0511433;-0.492392054;1.723217228;-1.807058893;-10.4868349;3.993412715;-26.58265296;-46.73395433;-16.25182707;15.02983073;-23.93535431;2.070987629;4.807108582;19.10987223;-0.239071064
1.904400722;20.43278506;9.786456224;3.643266658;-5.755163613;-0.217016877;4.044212401;0.430200828;-12.00533543;1.807953979;-30.61996629;-48.75068358;-16.8897966;18.42147525;-22.57940956;6.35623129;2.269437019;14.84679347;-1.476857237
5.473205378;22.00805059;15.1734511;3.131996756;-2.089262481;0.254097156;3.555813598;0.465261967;-11.85490375;2.535734995;-29.6470638;-48.74679418;-17.61430633;21.65366217;-20.78972028;8.912776603;0.706971695;11.90786782;-0.543654802
8.143249453;21.51723236;13.62195762;3.862026482;-0.472151369;0.493727431;0.941489219;-1.754925159;-10.80825117;4.649465541;-24.79288164;-47.65384112;-18.70902844;24.26930805;-20.13201255;6.660595001;0.166112385;8.572159312;1.549840996
8.513047619;17.33352191;7.414771721;5.414301175;-0.476669434;0.26454875;-1.206730836;-4.219659244;-10.1623213;5.905154326;-19.43613893;-46.15120163;-19.91999634;26.15171196;-20.69323456;1.111920512;0.081924144;3.461025506;2.906871313
6.797683554;10.1480914;2.969446867;7.22466416;-0.345716335;-0.249009732;-0.785179751;-4.739733284;-10.78902185;5.026915196;-16.74149508;-44.29834092;-20.24217837;27.456354;-21.14636845;-3.106733945;-0.240674058;-3.447042592;2.25873278
4.395591278;2.478253084;5.253428634;8.820078125;1.442036888;-0.596913835;1.926644524;-2.966622191;-12.52904654;2.521435524;-17.56023855;-42.01784516;-18.56144582;28.45920936;-20.25415016;-2.623037136;-1.226612156;-10.91317169;-0.155788962
2.624547959;-3.134482496;13.29159946;9.889520387;4.862732233;-0.467674627;4.584912864;-0.693675937;-14.36502127;0.055293645;-20.21533389;-39.74650782;-14.78514436;29.44717672;-18.32979832;1.507250302;-2.908379128;-17.37473494;-2.967705955
1.754199722;-5.771703706;20.68528899;10.2930569;8.356929636;0.029242265;4.972086457;-0.181048351;-15.15800104;-0.922836605;-22.04242891;-38.44022712;-10.45098014;30.56580527;-17.19965522;4.775342219;-5.017893174;-21.86799543;-4.83929117
1.100471839;-6.389950537;20.81094335;10.13622894;10.09085177;0.461292502;3.01933397;-2.050659941;-14.34616487;-0.091203179;-21.2606424;-38.82110955;-8.043719647;31.5525972;-18.60097022;3.464391566;-7.123388526;-24.28318296;-5.358523865
-0.045627473;-6.642051;12.36505027;9.853783832;9.368165598;0.461828486;0.818579017;-4.672730465;-12.15818051;1.940862595;-17.81733526;-40.58082361;-9.295377513;31.58192546;-22.43443928;-1.743188914;-8.733110104;-24.98247017;-4.997484114
-1.596727563;-7.370239374;0.595804255;10.10173552;7.029217046;0.056829965;0.655945797;-5.595196437;-9.352448745;4.484951756;-12.98328031;-42.38951152;-13.72874351;29.6277199;-26.51262568;-6.16057187;-9.417969218;-24.31666969;-4.374825672
-2.721418485;-8.021582508;-6.820288179;11.36606844;4.596086842;-0.364462945;2.904244968;-3.71879292;-6.808165682;7.297318556;-8.480452331;-42.85571775;-18.70449048;25.39384499;-28.1704258;-5.225470267;-9.006272521;-22.50227289;-3.638156601
-2.680718421;-7.357632208;-5.827201379;13.50094392;2.991749184;-0.403745366;5.703634336;-0.268026538;-5.241853884;10.26861507;-5.933433688;-41.68524405;-21.12536235;20.13184418;-26.44709749;1.332908567;-7.771828968;-19.84421614;-2.539772874
-1.627965875;-4.732790368;1.01711182;15.60319744;1.954206747;-0.009391466;6.688417137;2.284675781;-5.068766794;12.74089474;-6.674312825;-40.02922588;-19.59588605;16.3324783;-22.98238756;9.083437556;-6.432113756;-16.92621678;-1.020721917
-0.597602278;-0.81560903;6.966195948;16.46268847;0.57459957;0.484668983;5.145521545;2.347709816;-6.291840575;13.38468676;-11.37852306;-39.65013467;-15.38026031;15.98460041;-20.81254659;12.68071645;-5.847416568;-14.47227057;0.397733152
-0.66026208;2.81610585;6.785122499;15.3770992;-1.627377817;0.663747224;2.629702528;0.492495508;-8.404258484;11.05541122;-19.32617524;-41.52135134;-11.38823474;18.51847702;-22.0137576;10.4973155;-6.541338464;-12.97023468;0.904299185
-1.980522704;4.809202115;0.975591517;12.75880504;-4.108148889;0.398805516;1.509460263;-1.200168701;-10.45674874;6.023140075;-27.90850564;-44.960141;-9.967505439;20.40428119;-26.10318331;5.947493011;-8.352605429;-12.41627831;0.148204339
-3.603450045;4.948780373;-4.839117782;10.03420174;-5.704105388;-0.054580137;2.814869932;-1.066235093;-11.41509997;0.423133227;-33.31489729;-47.97310426;-11.22756275;17.50270254;-30.45648786;4.302748378;-10.48782222;-12.42013391;-1.277955535
-4.160545725;4.162707032;-4.660934073;8.831985241;-5.624135894;-0.3032464;5.361468312;0.70696515;-10.68840903;-2.718722367;-32.55100708;-48.54342225;-13.17774881;8.927543853;-32.31911391;7.873003057;-11.97359424;-12.5488691;-2.155190039
-2.906893765;3.701149128;3.012817176;9.995191099;-4.1147321;-0.174294664;6.910211201;2.388024948;-8.485884744;-1.360833626;-25.60373167;-45.90330139;-13.4928368;-0.760541892;-30.72537637;13.94047886;-12.21055006;-12.56521119;-1.560754961
-0.254367153;4.191417704;14.07800915;13.09728784;-2.229325654;0.142983777;6.243168372;2.388476574;-5.71800744;4.124717098;-15.97056745;-40.92926747;-11.43218359;-3.714151593;-26.83718584;17.37358988;-11.25344406;-12.35897294;0.377856851
2.574734734;5.274808772;22.10898195;16.77684981;-0.971028383;0.290996531;4.225627965;0.740516701;-3.486814951;11.05671774;-8.716726067;-35.5112042;-8.376240324;5.189977173;-22.62865784;15.58007813;-9.649706055;-11.71735542;2.560263771
4.424868702;6.016134352;23.15441962;19.62240655;-0.614445789;0.084500816;2.907526911;-0.974246079;-2.520284713;16.03545942;-7.152174995;-31.45034786;-6.619773469;22.64012197;-19.20617694;11.229099;-7.997477729;-10.26108639;3.771955405
4.903716915;5.705792686;18.22086746;20.98940677;-0.771201353;-0.318526863;3.550724469;-1.132715429;-2.910596665;16.89546537;-10.54073447;-29.61921097;-7.473270949;36.52799787;-16.21291331;10.06846361;-6.571997514;-7.691631614;3.601262091
4.439829858;4.464705283;11.80789243;21.24889773;-1.011273313;-0.56774023;5.446852438;0.402911684;-4.223524162;13.72890856;-14.70019994;-29.76202486;-10.21877633;32.69085865;-12.67363603;15.59308561;-5.277388894;-4.133667646;2.658016853
3.815439899;3.27797697;8.119203235;21.40604005;-1.326275518;-0.446488298;6.623103318;2.140243569;-5.754399813;8.479708606;-15.18457239;-30.83526897;-12.6945771;5.001284539;-8.328408867;25.34772099;-3.901330518;-0.198349172;1.961661836
3.652355594;3.479650578;8.174853437;22.42374732;-1.926611228;-0.070180994;5.75516705;2.307610974;-6.697640426;3.635417972;-10.65442727;-31.56813002;-12.94686532;-38.40726843;-4.143522529;32.46542806;-2.417209636;3.374274462;2.079261202
4.218824169;6.004892253;9.885687635;24.68187958;-2.596193346;0.221463698;3.478393688;0.456348158;-6.242523595;0.99406456;-3.798070091;-30.99794696;-10.60055641;-78.16814448;-1.533866318;31.5137564;-1.070065918;6.220861761;2.765133328
5.536711475;10.80234984;10.49604639;27.81626953;-2.363079715;0.172579035;1.85295377;-2.131290928;-3.794087155;1.140158953;0.935816343;-28.86565264;-6.950385243;-94.98;-1.058327113;23.72964259;-0.183039787;8.554202154;3.358352444
7.514331135;16.70454619;9.006304483;30.92773652;-0.027113509;-0.165817987;2.463378751;-3.568773833;0.61406196;3.594493569;0.982564446;-25.75883024;-3.871007799;-81.84718958;-1.83437913;16.84411427;0.147177322;10.86059809;3.504802083
9.924422805;21.86304179;6.610985095;33.00632911;4.73044122;-0.49731008;4.913084927;-2.986834335;5.995419238;7.230981816;-2.250770089;-22.85173532;-2.532760732;-48.64148252;-2.249147722;19.04710582;0.21507405;13.37154991;3.510290895
12.32312969;24.60346729;5.171973475;33.39011738;10.59851466;-0.559406184;7.123064612;-1.204176777;10.61665467;10.67863613;-4.542518409;-21.22937757;-2.899984211;-15.53945563;-1.360321805;31.67427831;0.591861705;15.81405835;4.01024828
14.12817236;24.30031216;5.404122941;32.08395622;15.0491665;-0.356885951;7.184733657;0.098692415;12.86332178;12.72343143;-2.335110495;-21.12230283;-4.20652489;0.127024495;0.242386594;46.65051857;1.793193746;17.68358999;5.286669555
14.90100423;21.75816937;6.417748922;29.77312432;15.80360635;-0.136472328;5.080596807;-0.103396182;12.28759083;12.77368626;4.244484273;-21.62827982;-5.795577966;-5.695523523;0.86685352;51.23277251;3.931677417;18.76503024;6.880583309
14.60618377;18.77686719;6.804030733;27.45297819;12.32338926;-0.136199961;2.6967757;-1.352231191;10.01847748;11.21059956;11.21806151;-21.30255987;-7.550179887;-23.19097582;-0.932002648;36.88345746;6.560516709;19.35585376;7.867633045
13.57250369;17.06262438;6.036763255;25.81135804;6.181277026;-0.351867466;2.108688759;-2.259824366;8.064273652;9.271988998;13.5666418;-19.3549716;-9.661192793;-37.59860994;-5.217102981;5.760019531;8.80636432;19.91746905;7.564287299
12.14865166;17.14250306;4.846156977;24.73792807;-0.00063572;-0.541882676;3.697683793;-1.859474677;7.902199835;8.344081833;8.839891595;-16.57561822;-12.12542858;-40.37814476;-10.64237971;-29.99753204;9.746312415;20.46697075;6.062069335
10.37760811;18.04369364;4.343437633;23.36239056;-4.243785779;-0.464112825;5.810039063;-0.482488008;9.416490958;9.050703229;-1.137310513;-15.12136206;-14.54626552;-34.21769958;-15.45118959;-55.64360032;8.869122945;20.35441576;4.159917597
8.050576616;18.0336485;4.871523038;20.70945444;-6.264125226;-0.118917449;6.263829363;0.612279478;11.06618454;10.83003906;-11.59950678;-17.08493069;-16.4244269;-28.83154959;-18.59428876;-62.54606281;6.405725163;18.7782837;2.792257643
5.154101436;15.95170334;5.715686868;16.56782781;-7.16631663;0.233908074;4.330689971;0.448483342;11.18978589;12.39003906;-18.0508173;-22.79332203;-17.60672119;-31.82881067;-20.08691882;-52.3185536;3.339758441;15.6866706;2.446284747
2.298439412;12.17372097;5.881745167;11.90146025;-8.172781561;0.305032869;1.397810954;-0.77969425;9.378751278;12.70952876;-18.95540045;-30.17789289;-18.41582835;-42.38918188;-20.49456577;-34.17726896;1.032533518;12.24137697;2.998938205
0.640242029;8.468066326;5.103342559;8.384353547;-9.506528432;0.041230127;-0.276567551;-1.954473458;6.752347693;11.74676468;-16.17003906;-35.8793118;-19.32457909;-52.55573888;-20.1996884;-18.24994352;0.596316542;10.2816261;3.992630835
1.218042049;6.813566101;4.074264527;7.301531455;-10.31528666;-0.320694867;0.427779556;-2.138962041;4.897688209;10.24540422;-13.19784671;-37.42984492;-20.50071396;-54.39933182;-19.17634837;-9.890214549;2.33010331;11.06298297;5.015927574
4.172350045;8.042713842;3.714534153;8.618758996;-9.582057642;-0.465657498;2.53678578;-1.465085626;4.425111836;8.844359426;-12.80390246;-34.93172673;-21.67242177;-46.66103909;-17.38784562;-8.413974046;5.556943862;14.2475698;5.863394039
8.507610933;11.30746411;4.234207559;10.97784805;-7.145422981;-0.286611312;3.919565442;-0.962287014;4.465544518;7.36642908;-15.62821408;-30.92808186;-22.43875698;-35.40198442;-15.26121796;-9.898985335;9.000415546;18.02157424;6.447126851
12.65461904;14.71866686;4.929670626;12.68489313;-3.934165671;0.01652189;3.23874529;-1.505099679;3.610768957;5.024021294;-20.36509708;-28.50289408;-22.70217414;-28.55731219;-13.62530124;-10.96410973;11.49960111;20.32919519;6.684569056
15.42529328;16.60408696;4.900174912;12.95060625;-1.264087696;0.118135766;1.135846345;-2.897476929;1.461507361;1.409534432;-24.90465872;-29.01872861;-22.7742101;-29.36976596;-13.07094126;-10.62148105;12.61442634;20.26903741;6.545028248
16.60700012;16.40316569;3.960222276;12.39802877;0.138980407;-0.133660843;-0.399390802;-3.983467259;-0.687114803;-2.675422033;-27.44722967;-31.20045654;-23.0252031;-34.25799069;-13.32782742;-9.616887356;12.72253297;18.53078483;6.182855931
16.75007813;14.60202983;2.836361779;12.42309112;0.544319182;-0.570104801;0.136554345;-3.703803588;-0.785391472;-5.4536108;-27.050561;-32.23643002;-23.40745267;-36.56;-13.31922744;-8.811582564;12.55792165;16.54327714;5.925930959
16.40691581;11.9522332;2.447184444;13.93750221;0.768695682;-0.841619775;2.409931019;-2.118670531;2.130658672;-5.435284116;-23.70290318;-30.01120989;-23.33488165;-32.54580787;-11.9671698;-8.401417771;12.55025446;15.10069524;6.022367682
15.55485869;8.77717849;2.975800222;16.54965172;1.360688454;-0.721741271;4.592045519;-0.431264322;6.857849093;-2.677273949;-18.22256465;-24.74357389;-22.09390188;-24.43580251;-9.117214071;-8.363691422;12.47488814;13.6793787;6.346781526
13.7406021;4.98349675;3.666792336;18.87927441;2.181401136;-0.306557388;5.04065876;0.035681919;10.82314989;1.107578862;-12.04952104;-18.82759726;-19.46802807;-18.08738535;-5.792712858;-9.123535247;11.68054539;11.04783239;6.397194122
10.78649016;0.665896347;3.587152466;19.73855798;2.724380049;0.064395999;3.759563816;-1.011471269;12.2412178;3.783695947;-6.778998787;-15.10207898;-16.03664886;-17.72593111;-3.534457698;-11.38573746;9.700334859;6.625496265;5.687853494
7.339012699;-3.392667883;2.635965387;19.1647356;2.814379614;0.093057871;2.317286756;-2.607206754;11.79840228;4.367335825;-3.449309205;-14.93909688;-12.86511551;-22.46068394;-3.347940676;-15.21593561;6.739588098;1.367443266;4.241608964
4.65015048;-5.926766854;1.789737866;18.41119484;2.987097842;-0.236037347;2.344207225;-3.418114639;12.27712798;3.607986182;-1.980442482;-17.54912298;-10.81338719;-27.45177542;-5.086539407;-19.44412006;3.632007396;-2.650405768;2.70787396
3.689142421;-6.014187619;2.245473871;18.90394758;4.165358762;-0.660838269;4.022563108;-2.930393381;16.25209706;3.121913099;-1.272803428;-20.83448803;-10.00477697;-28.37426169;-7.691416285;-22.23144628;1.292688592;-3.637662347;1.906753669
4.346376463;-3.801173793;4.173705047;21.07019663;6.898210458;-0.873813209;5.953636628;-1.843246701;23.73878303;3.937957664;-0.050128601;-22.92498201;-9.850058594;-25.06321451;-9.980039063;-22.43672362;0.113838355;-1.309385234;2.125033906
5.480359304;-0.430407359;6.244143632;24.05335912;10.81780226;-0.768315256;6.486633869;-1.321334992;31.87965016;5.836018093;2.124766237;-23.16322908;-9.562370364;-21.23325734;-11.28411655;-20.50751688;-0.205453305;3.091366332;2.783235059
5.839453144;2.837909212;6.481868778;26.54048789;14.76168005;-0.490475797;5.245219094;-1.825942443;37.11324036;8.055681532;4.486376075;-21.96534747;-8.731082179;-20.82808497;-11.49892376;-17.98117662;-0.273473977;7.921605976;2.836947913
5.089197864;5.58356514;3.848680499;27.93577206;17.42551468;-0.274286884;3.434137697;-2.64590404;38.11284131;10.55019948;5.703119731;-19.99124502;-7.54279395;-24.48736067;-10.71755155;-16.00766037;-0.41500079;12.36886507;1.645427494
4.032833616;8.427178917;-0.755152641;28.80434447;17.99737617;-0.229539446;2.67;-2.604642282;36.97878649;14.31928298;5.009017008;-17.52665541;-6.573405514;-29.27082117;-8.978108023;-14.2962157;-0.395614482;16.692617;-0.413583565
3.799762355;12.28766443;-4.966980992;30.17429617;16.33385906;-0.277279618;3.458829611;-1.310724053;37.51368351;20.19132592;2.857993972;-14.57885633;-6.401377561;-31.64969534;-6.42577009;-11.52714744;0.302282964;21.34106101;-2.143726451
4.710696503;17.35014793;-6.615946613;32.34020085;12.71972866;-0.273593216;4.753622528;0.23425773;41.85720694;27.05832022;0.51286771;-11.39205239;-7.337856976;-30.81597697;-3.647473337;-6.85503526;1.909024583;25.89025104;-2.426912014
5.865953409;22.67416271;-5.273322254;34.30696048;7.616956254;-0.182169501;4.991347028;0.326453397;48.2475086;31.43947192;-1.084305104;-8.680402696;-9.365946332;-29.22801869;-1.656777928;-1.021769516;4.0309301;28.95493279;-1.082477723
5.900269987;26.81799071;-2.48278224;34.47536593;1.707503333;-0.118634265;3.608981671;-1.9577663;51.8839089;29.35775384;-2.16199166;-7.217607715;-12.18330521;-29.99848143;-1.310935975;4.085029783;5.87790157;29.32012256;1.041019118
4.297891626;28.95053785;-0.514031702;32.04846782;-3.906519543;-0.224021922;1.588814962;-5.755249802;48.37148981;19.44224583;-3.929587874;-7.140231328;-15.24755251;-33.67883081;-2.559565098;7.0911942;6.884465157;27.33188456;2.818632263
2.092933495;29.47481797;-0.653270882;27.92638401;-7.786267485;-0.497192904;0.505442665;-8.817017431;37.08180278;4.724913713;-7.52212021;-7.690927627;-17.87328918;-37.49869812;-4.234042403;8.419077605;7.187481887;25.18500105;3.78488163
1.23677621;29.60925413;-2.368353922;24.22214413;-8.775171377;-0.759881478;0.97531684;-9.084185423;21.76889647;-8.748954478;-13.03333585;-7.763032761;-19.49022469;-37.78440809;-4.720230405;9.860852789;7.525929396;25.59147061;4.427162934
3.050380449;30.29998154;-3.932439153;22.69834287;-6.849636895;-0.80159445;1.997749965;-6.211894721;7.958743597;-15.9128706;-19.49493154;-6.834838476;-20.01254293;-33.31587587;-3.085535962;12.73642625;8.6237857;29.73019061;5.585968593
7.0249774;31.44078892;-3.912070106;23.39124914;-3.496443948;-0.575696229;1.85675104;-1.840487708;-0.811051229;-16.38003906;-25.76770249;-5.436850529;-20.03411366;-26.51823381;0.246232029;16.40763821;10.57727155;36.12952585;7.522993201
11.02834814;32.10415576;-2.289526101;24.59221431;-1.10667223;-0.260961454;-0.222600051;1.5727924;-4.988044919;-14.85563965;-31.4538228;-4.638750322;-20.54701555;-21.38302554;3.874754915;18.75043934;12.77973414;41.50479622;9.534541936
12.84186232;31.56562213;-0.369486966;24.24055599;-1.594899874;-0.121331142;-3.219757325;2.416110051;-7.855906966;-17.6787736;-36.93360635;-4.914129745;-22.21076036;-20.00734421;6.580966171;18.36769216;14.4538911;43.02275568;10.50509664
11.83083953;30.15704152;0.354328243;21.58701545;-5.128025833;-0.282171985;-5.121562391;0.820070801;-12.42495334;-28.0017724;-42.49920972;-5.369545663;-24.64925845;-20.88345338;8.289535181;16.48707778;15.31940651;40.27560301;9.931019864
9.395960972;29.1009558;-0.612118197;17.74454746;-9.889591787;-0.621639744;-4.705821396;-1.761074257;-19.00621459;-43.3235492;-47.48460021;-4.113564924;-26.39610996;-20.45483902;9.99469602;16.46237476;15.78790255;35.43532172;8.477637363
7.82345969;29.38781801;-2.468912751;14.6788029;-13.11880304;-0.875055594;-2.680375422;-3.764615009;-25.32304301;-57.32165575;-50.36700658;0.383050103;-25.71667648;-16.48235604;12.69885024;20.85822527;16.48880617;31.49922764;7.509113276
8.453594821;30.66946125;-3.884523327;13.51338996;-12.75777748;-0.85985436;-1.091007241;-4.489193932;-28.76361486;-64.53600291;-49.9105965;7.95801156;-21.84293397;-10.14989952;16.30290364;28.53040689;17.54398967;30.04968614;7.94186767
10.63994304;31.22956462;-4.118473663;13.60203422;-8.618412114;-0.62241834;-1.479587269;-4.167646206;-28.63725362;-64.20727308;-46.35687016;16.5483904;-15.7248608;-5.025158181;19.47725371;34.61299893;18.28120041;30.29218232;9.411880982
12.31900692;29.22718732;-3.566158779;13.1541332;-2.359112376;-0.381771955;-3.446265456;-3.348491584;-26.49872422;-60.3252837;-41.47571952;23.36128417;-9.648610648;-3.861736951;20.71331809;34.11034749;17.73455279;30.04551765;10.52205551
11.6981615;24.30028468;-3.312776047;10.86290956;3.578611373;-0.329192184;-4.951322599;-2.319781928;-24.44640934;-58.0706101;-37.2495926;26.61643062;-5.878607276;-6.162189131;19.70250244;26.5204571;15.58519779;27.76416246;10.01276162
8.6845635;18.21278381;-4.112079267;7.124105548;7.25917202;-0.468194044;-4.136613762;-1.092006993;-23.09201356;-59.72806064;-34.25950968;26.60739633;-5.239246578;-8.686595732;17.83482808;17.44634434;12.7397709;23.89456951;7.874872014
4.928728481;13.90934327;-5.664897813;3.783329028;7.953933103;-0.633908002;-1.05022224;0.205779995;-21.0866212;-63.41841147;-31.26556483;25.35044787;-6.645408019;-8.398995629;17.2952036;15.09074031;10.95309623;20.50460181;5.435638456
2.502352174;13.57850412;-6.813262141;2.605688421;6.012055118;-0.661263451;2.297334552;1.090714296;-16.59307426;-65.47616615;-26.52814354;25.14343865;-7.914946481;-5.160393298;19.40642548;23.65068159;11.65120489;19.58591044;4.309428043
2.30847259;17.11980918;-6.512328328;3.746622354;2.274372453;-0.537136779;3.640416859;1.018763628;-9.315656554;-64.1872672;-19.84087383;27.10565477;-7.264686433;-1.76210001;23.53470549;38.6410757;14.80404536;21.47242025;5.082495367
3.47103813;22.12668653;-4.793118794;5.501998563;-2.417052021;-0.395537681;2.430600104;-0.031642498;-1.219006654;-61.54224913;-13.43868813;30.67174921;-4.424641141;-1.33796436;27.45953473;48.36709276;18.74780182;24.61947508;6.84263557
4.108369993;25.37574973;-2.894584656;5.549742917;-7.360541527;-0.369946485;0.309223301;-1.30069975;4.738238078;-61.50134022;-10.72617266;34.22868086;-0.644092725;-4.544824358;28.94947084;41.36868724;21.18251152;26.80190798;7.951305907
2.801311149;24.75071429;-2.365942365;2.682113984;-11.94437595;-0.453907001;-0.361466693;-1.686261339;6.777156351;-66.35511857;-13.59768879;36.28293213;2.295088251;-9.037146806;27.33893015;14.91166934;20.68109634;26.66678687;7.399076385
-0.394003305;20.32387971;-3.763602316;-2.323124307;-15.68321425;-0.510009766;1.3886095;-0.600986341;5.547301154;-74.41057371;-20.46747562;36.31788502;3.270900951;-11.61545368;23.93611459;-21.7187355;17.63942932;24.42971624;5.597541838
-4.068994771;14.04026657;-5.964624036;-7.288152383;-18.39363474;-0.419989517;4.267484244;1.477917736;3.473292112;-81.048473;-26.77652922;34.90482163;2.411482361;-11.00133525;21.04437864;-51.97055529;13.99725524;21.34912472;3.959368662
-6.476625977;8.448624309;-6.748766223;-10.10077486;-20.28252162;-0.226495812;5.879939327;3.28905684;2.860458993;-82.26496174;-27.86556631;33.22578986;0.827883662;-8.697183058;20.43444571;-61.93529391;11.95503641;18.63427164;3.662505789
-6.593731074;5.423552568;-4.377318544;-9.88818004;-21.72443261;-0.118229994;4.884168141;3.723158394;4.379243186;-77.69675875;-22.18484772;32.46048146;-0.148181384;-7.230772076;22.41284523;-48.73084692;12.61082906;16.76194316;4.676002857
-4.529848324;5.558991811;0.925752176;-7.13853429;-22.81425502;-0.257557018;2.214131134;2.665785351;7.051209299;-70.63809719;-12.4362348;33.35702389;0.353136937;-7.524544812;26.01812018;-21.70379111;15.42903276;15.61894811;5.862780987
-1.213593068;8.269716986;6.757363537;-2.971266937;-23.08729708;-0.606454865;0.265333764;1.059627425;9.464124871;-65.18151591;-3.761675711;36.01982295;2.464634036;-7.910600528;29.94022102;4.103849806;18.7872099;15.06665578;6.018400467
2.194569251;12.21949483;9.924659767;1.617848403;-21.75545394;-0.922238462;0.765938043;0.149973665;10.95765758;-63.0301088;-0.31159471;39.83885396;5.666247276;-5.736395294;33.30524816;17.42576694;21.08056499;15.22103076;4.902664637
4.706868111;15.76650595;8.586726578;5.922734762;-18.38878674;-0.946919243;3.23876515;0.546663975;11.77912213;-62.65911835;-2.689352803;43.60301563;9.025992448;-0.054699044;35.80217909;16.68647975;21.57455459;16.17814071;3.367573535
5.647809657;17.42263032;3.619036409;9.236340854;-13.52640349;-0.634076639;5.437075041;1.85121442;12.34354002;-61.32154073;-7.996915408;45.93478422;11.50212349;7.155930834;37.33685938;8.870231552;20.53275845;17.58782216;2.515952951
4.74691559;16.4201434;-1.892968553;10.73812025;-8.651265591;-0.210787788;5.371420739;3.085420218;12.59012657;-57.88626488;-12.19208357;46.0148002;12.33278133;12.46181052;37.78377438;3.069236806;18.75511277;18.68134995;2.687472909
2.326877744;13.22599368;-4.788805555;9.954481197;-5.412313615;-0.008065935;3.116831419;3.489239217;12.19494295;-53.88;-12.84183535;44.21191131;11.45703253;13.86775272;37.14702991;3.906763028;17.02602985;18.87882371;3.198631971
-0.585880221;9.556796961;-4.076301947;7.456174369;-4.585172849;-0.194870562;0.779915897;3.008983299;11.36894921;-51.858412;-10.3263586;42.06771908;9.702307122;12.51057139;35.86832937;9.397961975;15.85737706;18.4239805;3.060201689
-2.546834675;7.568642168;-1.569385206;4.994235967;-5.523984189;-0.639110303;0.64598033;2.144262463;11.22799187;-52.72041627;-6.957261906;41.40537501;8.441670246;11.56965094;34.76135497;13.97253074;15.52069811;18.32991204;2.000771355
-2.429065753;8.494635596;-0.359916714;4.617195288;-6.533493959;-1.013604815;3.149973397;1.406534275;13.06894047;-54.55543913;-5.050180862;43.01198493;8.752271774;13.31977554;34.40895193;13.53481354;16.1037563;19.50329412;0.841709813
-0.189567838;11.61738625;-2.256236595;7.228699105;-5.92433786;-1.056839761;6.47124335;0.930409331;17.03542542;-54.19826785;-5.498763692;45.84392225;10.58962972;16.95465732;34.49478013;8.440255669;17.41981955;21.7421094;0.847543603
2.960261355;14.4717035;-6.219405174;11.71112048;-3.029372132;-0.769507065;8.104906201;0.549669729;21.47165353;-50.16458823;-7.637633044;47.51131438;12.66516272;19.15601088;33.79234791;2.502270897;18.89258375;23.57148947;2.597855453
5.25975385;14.3896395;-9.125429795;15.47501709;1.475628109;-0.389054672;7.009284503;0.167598848;23.84746967;-44.30083905;-10.02486603;45.91686365;13.29078827;16.94814441;31.06058515;-0.519944278;19.68560004;23.25319387;5.371566972
5.575001197;10.44233529;-8.330752424;16.21031295;6.069741375;-0.17814676;4.433989651;-0.012848038;22.74408053;-40.53509717;-11.26076274;40.97157294;11.67538392;10.34216342;26.2488889;0.217581977;19.15291109;20.26178179;7.607247788
4.191414508;4.362061887;-3.974905112;13.58369712;9.266746074;-0.216991772;2.728173249;0.349809551;19.2647409;-41.65052532;-10.36431074;35.06923582;8.668960542;2.454224422;20.96898827;2.587037067;17.32586013;15.98904916;8.079082095
2.585210251;-0.370416533;0.95858986;9.549254643;10.27520821;-0.372107598;3.231805232;1.352756683;16.49868822;-46.79204564;-6.923007639;31.7729476;6.255664059;-2.993769019;17.6410087;3.812769;14.99380738;12.95912368;6.814509479
2.301968586;-0.771829325;3.030739847;6.954789039;9.124970698;-0.448898316;5.147560821;2.648241507;17.23503228;-51.87803757;-1.405211244;33.45820539;6.057689507;-4.603570389;17.78679957;2.887596114;13.19844134;13.0443667;5.003994954
3.78086932;3.610345717;1.311300302;7.451760316;6.382175063;-0.37518167;6.376515535;3.653028461;21.68838834;-52.67052295;4.474380855;39.5098446;7.976799987;-4.147217076;20.74887605;1.06138698;12.46333119;16.06103904;4.009284051
6.025871889;10.35145091;-1.596678229;10.27963534;2.79037129;-0.248776327;5.515642138;3.992388978;27.1465514;-48.03438994;7.971815089;46.39451338;10.10333859;-4.690738061;23.92179799;0.291200593;12.37837657;19.90109342;4.317698388
7.368714016;15.77148049;-1.529495072;12.82845012;-0.941459598;-0.218549798;3.174031882;3.771049154;29.94521489;-40.77584055;6.554424002;49.66868484;10.06990287;-7.727335047;24.46188334;1.301908824;11.93942016;22.14964378;5.28999821
6.717539277;17.37371923;3.68532327;12.51952741;-4.231923454;-0.323831013;1.402895218;3.427212143;28.23628581;-35.47200623;-0.330633329;46.63351327;6.846545798;-11.83566404;21.26044855;3.044176979;10.43372145;21.92355286;5.838371097
4.32654441;15.365832;11.97824169;8.574466498;-6.731749631;-0.449221934;1.767021471;3.321775079;23.30671643;-35.13510348;-10.29210457;37.89668001;1.552251273;-13.94935978;15.69831025;3.901362552;8.160925191;20.46268722;5.387255903
1.534282779;12.23831424;18.10445655;2.413596698;-8.449819571;-0.436415195;3.838298704;3.457054092;18.3766673;-39.36124403;-18.95429907;26.87049766;-3.400790663;-12.02262;10.60276725;3.378463031;6.342374472;20.00443635;4.284699829
-0.254489796;10.82204434;17.42757391;-3.457895766;-9.748438447;-0.243762965;5.522963409;3.576120256;15.89868618;-45.21799939;-22.60420852;17.6482913;-6.17077263;-6.748491248;8.204962333;2.640676718;6.20140234;21.86384232;3.369544772
-0.506755942;12.32126311;9.540411755;-7.093356481;-11.08186648;0.000615663;4.966914802;3.511136888;15.62003906;-49.82580162;-20.79855006;12.73219397;-6.856138171;-0.945987203;8.649011007;3.400909006;7.902251132;25.28248152;3.153349847
0.279481867;15.72819539;-1.176562978;-8.041881295;-12.58827459;0.105731391;2.321858313;3.40534392;14.99913328;-52.35967409;-16.90280387;12.03672265;-7.251610712;2.687621402;10.13659747;6.202070638;10.22023314;27.97546717;3.378166452
1.212283198;18.89865307;-8.601043602;-7.070936686;-13.86078067;-0.01208169;-0.266445532;3.569131848;11.56084666;-53.96920216;-15.88624394;13.58748882;-9.18954299;3.452355458;10.49128032;9.703564168;11.28604903;27.92623033;3.323570503
1.823271468;20.31671782;-9.192354618;-5.180107666;-14.15944421;-0.251924237;-0.510029297;4.112203219;5.153759615;-56.04949455;-20.77586923;15.16994708;-12.83987578;2.681923167;8.846476382;11.6806673;9.89830563;24.98564013;2.53817175
2.374443508;20.1559357;-4.239661266;-2.856502727;-12.97366902;-0.414927141;1.944769197;4.740879053;-1.793089208;-58.63598074;-30.33144954;15.68932416;-16.38934452;2.223822816;6.148302106;10.90281593;6.413041403;21.01984151;1.29825169
3.462381194;19.91251953;1.628437687;-0.107765711;-10.49506212;-0.375683533;5.09678113;4.966585794;-6.173768749;-60.34922891;-39.72665402;15.43315588;-17.39157438;2.934573501;4.183313159;8.245001234;2.510029297;18.53385535;0.369413504
5.341433921;21.0473139;4.308107862;2.99478519;-7.559245791;-0.183711403;6.284260582;4.563849276;-6.604392308;-59.75616848;-43.81801268;15.33812187;-14.70798606;4.474543431;4.029440088;6.02318413;-0.005998988;18.89158983;0.298776784
7.593824354;23.79546226;3.235733273;5.964734103;-5.026332686;-0.006684358;4.572693803;3.839390993;-4.303661964;-56.74228352;-40.64226271;16.02562343;-9.480597033;6.252352498;5.226312768;6.079035737;-0.460836495;21.50561188;0.897974911
9.430354358;27.06317463;1.18097381;8.152094506;-3.075793534;0.027517723;1.738113672;3.414912863;-1.817799305;-52.62147163;-32.6236483;17.35267762;-4.376443165;8.25853497;6.292147545;8.241261951;0.328007492;24.53129761;1.404674577
10.33903217;29.39392105;1.251328095;9.329011641;-1.040611162;-0.056681234;0.90323256;3.675755514;-0.811199949;-49.00191392;-24.7155393;18.66848705;-1.738583737;10.80411784;6.077086785;10.50099765;0.833010391;26.40040539;1.19478528
10.50443234;30.1399873;3.89936632;9.95280622;1.985790976;-0.115453831;3.899286735;4.377534558;-0.866901229;-46.58759469;-20.97027973;19.39381972;-2.11128009;13.48974888;4.782877281;10.7904396;0.100788008;26.94032868;0.413086518
10.63272552;29.87824501;6.615453943;10.73653719;6.187264268;-0.027372755;9.563587543;4.795674943;-0.250491249;-45.04264979;-22.07689202;19.38978323;-4.219275487;14.69453235;3.80480606;8.872984869;-1.475731433;27.26383943;-0.054996006
11.33211906;29.78416466;6.530122645;11.85213579;10.49376833;0.190913033;14.44483171;4.321392554;2.179805441;-43.90186211;-25.49859867;18.88396942;-6.25122402;12.46149002;4.548284161;6.717747686;-2.485963996;28.64822624;0.717646009
12.57089042;30.53937173;3.499933147;12.52796913;13.0065454;0.401109599;15.3882284;2.986287872;5.705457506;-43.43801378;-27.80111357;18.14023318;-7.283863073;6.222182778;7.201434371;6.974642239;-1.647462288;31.38556928;2.900635655
13.66279781;31.70068184;0.749436209;11.53505479;12.17555559;0.471626379;11.90614454;1.436322684;8.260392464;-44.45966851;-27.22368776;17.22648898;-7.707272669;-2.234527925;10.45188947;10.76047989;1.140471282;34.50603686;5.676092518
13.79159987;32.0501918;2.269604661;8.279034943;7.897433537;0.394094693;6.428098649;0.360851086;8.223545826;-47.15400966;-24.61984754;16.06172398;-8.474415042;-9.675600336;12.3619214;16.58025958;4.646348532;36.50541515;7.783761211
12.65354288;30.63627479;9.101069079;3.607924289;1.696841367;0.279377265;2.289408292;-0.118282678;5.84974436;-50.18374033;-22.34717455;14.62543638;-10.01395462;-13.68648506;11.7168097;21.31648692;7.154212798;36.42671028;8.418625806
10.71291772;27.65939554;17.78325432;-0.42587177;-4.192468654;0.241360129;1.157395627;-0.540925241;3.053712296;-51.17767502;-22.24754863;13.07926324;-11.84019183;-14.41729211;8.84197442;22.54418544;7.650117337;34.46176732;7.785126172
8.877753188;24.48052138;22.54769302;-1.805244072;-8.212049184;0.283650637;1.976487367;-1.588332583;1.756366438;-48.49681693;-24.33814852;11.67756935;-13.15931892;-14.2473556;5.341279037;20.3426217;6.47115054;31.71276934;6.900518914
7.847713555;22.71454935;19.66686862;0.084534001;-10.34523166;0.299903793;2.171728341;-3.412409912;2.27413345;-42.84802622;-27.03628954;10.57239699;-13.81871946;-15.5756367;3.024614922;17.16804796;4.98827917;29.42017549;6.830140358
7.621218298;23.07279231;10.44274397;3.993197929;-11.87282327;0.187709358;-0.032777617;-5.428426415;3.15440754;-37.2219198;-28.48697389;9.711736314;-14.64275359;-18.629465;2.823394747;15.90325642;4.618871406;28.27762416;7.946406997
7.515686304;24.80439901;0.327661941;7.614909948;-14.24721355;-0.035446929;-4.161290401;-6.774792008;2.538696987;-34.95377886;-27.87866607;8.907123226;-16.79264842;-21.22625972;4.388304264;17.64412987;5.905163164;28.24035529;9.731833441
6.676986546;26.13642325;-5.180150475;9.079087007;-17.93610556;-0.230885861;-8.030926581;-7.03667675;-0.217898046;-37.34079082;-25.90433299;7.950595432;-20.71132497;-20.7204295;6.496675362;20.95488043;8.260673005;28.7705058;11.19915479
4.715585884;25.38645128;-4.570234638;8.043977748;-22.05499364;-0.261052266;-9.689282067;-6.580230918;-4.116011421;-42.737498;-24.30629819;6.609352996;-25.61606217;-16.41789168;7.852204633;23.10827979;10.44922561;29.17801136;11.5607115
2.034735402;21.96621451;-1.066018394;5.665526125;-24.98562075;-0.124062927;-9.021357434;-6.188407982;-7.58526331;-47.89575328;-25.00076173;4.488088014;-30.02168143;-10.30699695;7.716029627;22.24051648;11.36721363;28.8020488;10.66920191
-0.364363676;16.62551623;0.391906691;3.590867002;-25.46704056;0.029352238;-7.69837318;-6.324307893;-9.993755062;-50.46273149;-29.27300334;0.965312935;-32.85625922;-5.453918497;6.071195822;18.68559231;10.59360908;27.06556067;8.996089045
-1.469281864;10.8687052;-2.683964327;2.814966451;-23.37055809;0.022019522;-7.627174812;-6.696416143;-12.15102276;-50.59106406;-37.22460507;-4.561162745;-34.2032322;-3.504728515;3.39895192;14.51469518;8.450894177;23.60085818;7.2663228
-0.857713582;6.052342462;-8.458243334;3.223962588;-19.67976568;-0.188089191;-9.314218564;-6.53568619;-15.3247963;-50.38969687;-47.49593251;-12.13037647;-35.03867801;-3.52905684;0.336866828;11.80950312;5.695491645;18.52771049;6.0532638
1.064703959;2.820196517;-12.60833457;4.011922939;-15.79660714;-0.457299999;-11.53635437;-5.346006096;-19.70471714;-51.79279208;-57.4091535;-20.72798756;-36.22326609;-3.204354138;-2.573831472;11.17386997;3.133114226;12.7040441;5.569431753
3.33419029;1.178008927;-12.12834394;4.467292101;-12.71886846;-0.568695549;-12.51069462;-3.443245631;-23.81110583;-54.75131214;-63.76951544;-28.32380252;-37.65673908;-1.196076475;-5.00967906;11.65333212;1.364825199;7.646622662;5.691537699
5.02859792;0.96892159;-7.805574942;4.434157366;-10.61800501;-0.414751349;-11.4701867;-1.768298569;-25.53007813;-57.31669486;-64.27646871;-32.639051;-38.33910591;1.502446267;-6.902168862;11.93778606;0.67753733;4.989245413;6.114411295
5.80797224;2.220888385;-3.357272715;4.150507082;-8.985517019;-0.092417654;-9.277707129;-1.107274265;-23.97132101;-57.49577558;-58.91471361;-32.32440252;-37.26764126;2.536843834;-8.41228467;11.62625232;1.001100061;5.692232695;6.515777573
6.041999925;5.018575868;-2.143819707;3.747923852;-7.131530195;0.172624216;-7.617812062;-1.399938994;-20.51867196;-55.1932622;-50.35702174;-27.84414817;-34.36537068;0.578240072;-9.821920909;11.38207316;1.9129328;9.457337755;6.676420263
6.442115572;9.034581231;-4.389878395;2.952838296;-4.672170272;0.207616835;-7.544526926;-1.765585069;-18.04142496;-52.48283353;-42.8097216;-21.44019804;-30.62782929;-3.116572171;-11.35560017;11.91898707;2.758712123;14.73370376;6.545322761
7.456801661;13.22129849;-7.260299388;1.277941993;-1.757190489;0.025003433;-8.659029533;-1.254860341;-18.77003906;-51.91703754;-39.7606658;-16.09003906;-27.37682132;-5.511253918;-13.02980134;12.9011729;2.931205247;19.36197354;6.239557047
8.866078469;16.09003906;-7.561431513;-1.49419976;0.998958446;-0.203535771;-9.569927876;0.309876006;-22.50802012;-54.31490422;-41.99841197;-14.01989775;-25.28353655;-4.345705166;-14.64963621;12.95337144;2.20421558;21.53103021;5.967823275
9.883618318;16.52510038;-4.576516302;-5.003933706;2.780827289;-0.300564499;-9.155048723;2.13888256;-26.64287606;-57.95334697;-47.25753407;-15.6337222;-23.98898415;-0.178822845;-15.97161408;10.92916381;0.898988818;20.55596889;5.903254314
9.710078125;14.57821813;-0.547710541;-8.481831008;2.903278669;-0.225659793;-7.497996416;3.109140797;-28.00189493;-59.91369536;-51.7829591;-19.45832413;-22.58954091;3.954993412;-16.9013667;7.316933;-0.284652421;17.10522008;6.079585226
8.134987982;11.59636462;1.501961429;-11.25578244;1.10207995;-0.087110077;-5.730902136;2.696814101;-25.14271539;-58.50621425;-52.74589899;-23.06957975;-20.49669472;5.039854089;-17.54626271;4.365512214;-0.713967017;12.80433851;6.382425862
5.725044753;9.468050592;0.546245346;-13.16570916;-2.320983143;-0.024382927;-4.999600888;1.417725664;-19.36139109;-54.76764289;-49.84426901;-24.39497072;-17.90074527;2.552042069;-18.06565162;4.546117156;-0.261809238;9.442252353;6.635230521
3.434745477;9.434705727;-1.587838999;-14.54679426;-6.590115745;-0.076689198;-5.493953773;0.408490218;-13.73969302;-51.77202634;-45.07022386;-22.64714187;-15.48641005;-1.257801471;-18.45836496;8.485260098;0.574544464;8.166166116;6.699237535
1.919062906;11.28523988;-2.006329475;-15.82455749;-10.79046792;-0.157081704;-6.35516722;0.513403975;-11.04788913;-52.27239856;-41.01342063;-18.46971818;-13.74703063;-3.489421955;-18.50888956;14.1451557;0.974411071;9.030403062;6.503179914
1.075643414;13.52155558;0.501810881;-17.0897531;-14.29783282;-0.148008559;-6.462828917;1.647614351;-12.07172084;-56.52301063;-39.08700448;-13.38927645;-12.5749969;-3.184332647;-17.98137751;18.12585287;0.316551017;11.09051039;6.004684674
0.182463229;14.39345164;4.277199533;-18.01181826;-17.04317239;-0.021857866;-5.362079476;2.945163432;-15.436917;-61.95821411;-38.93775022;-9.008581007;-11.48794325;-2.038726709;-16.90778727;18.19396398;-1.428962459;12.97591908;5.1734038
-1.464074367;13.06633697;6.250477255;-18.13625537;-19.411255;0.128530654;-3.543612399;3.517736075;-18.79050549;-64.92971767;-39.22065322;-6.376928486;-10.21267149;-2.612887985;-15.69077262;15.01210934;-3.689675569;13.63427021;4.070503457
-3.907525635;10.09313559;4.728642585;-17.28396491;-21.81152581;0.176092912;-1.91574566;3.149224839;-20.29200337;-63.1593463;-38.84154167;-5.73600443;-9.006936926;-5.703395522;-14.87511125;11.59419529;-5.638647485;12.83994763;2.97420229
-6.398993126;6.889537773;0.979981558;-15.71079092;-24.21928711;0.079320071;-1.010024414;2.354907857;-19.40283138;-57.14449457;-37.58332453;-6.599223885;-8.373290105;-9.325458699;-14.73941597;10.86760643;-6.649731156;11.18236049;2.388118107
-7.893588187;4.654941243;-1.835722428;-13.92283659;-26.05029437;-0.076920501;-0.62785;1.821443157;-16.7206804;-49.66838725;-35.78794897;-8.032760028;-8.438223368;-10.30199723;-15.05633223;13.33737217;-6.578300512;9.560628024;2.809654391
-7.803888127;3.56817848;-1.459142695;-12.34651348;-26.51389474;-0.15624299;-0.172552359;1.777854808;-13.33075429;-43.97557741;-33.69288457;-9.038947588;-8.632582949;-7.075871891;-15.26276819;16.80477203;-5.743642547;8.531987982;4.339768258
-6.441933838;2.829487354;1.447147457;-11.15020281;-25.22649083;-0.090356101;0.716778603;1.863421001;-10.26998169;-41.96732381;-31.2486138;-8.968589783;-8.0539147;-1.208762281;-14.93512433;18.36603571;-4.690218331;7.965635836;6.419751501
-4.831563388;1.439977661;3.875580293;-10.33623593;-22.63318101;0.066474759;1.838478687;1.570361959;-8.299522002;-43.4817711;-28.6052146;-7.840372408;-6.24307411;3.834181593;-14.17518216;16.95475502;-3.904319549;7.24;7.976818525
-4.055945334;-0.945330099;3.170048828;-9.948655635;-19.87869544;0.194361603;2.675900314;0.808397423;-7.788030009;-46.7848367;-26.62426699;-6.392764058;-3.675522776;5.592314854;-13.55625815;14.20584809;-3.627454959;5.821063367;7.993761073
-4.6261884;-3.755977367;-0.538870737;-10.13217042;-18.14442818;0.218268788;2.933926586;0.043759115;-8.52976815;-49.64314419;-26.61356357;-5.760693717;-1.478335248;4.650493434;-13.65003906;12.88019099;-3.812412601;3.766551878;6.170927309
-6.275595626;-5.978837769;-4.343159081;-10.93170101;-17.86173492;0.167616176;2.831846804;-0.124085886;-9.648370523;-50.26793915;-29.22109905;-6.880767373;-0.571298927;3.989874123;-14.54032154;14.25872126;-4.199747924;1.754494396;3.210876933
-8.209473863;-6.912019995;-5.054079523;-11.99725382;-18.33481009;0.133123288;2.88288654;0.442874298;-9.906810229;-47.83134662;-33.3936578;-9.946010772;-0.972301939;6.194011297;-15.77251672;16.87776738;-4.471565553;0.608428725;0.476876695
-9.516659608;-6.564085043;-2.023291151;-12.50106667;-18.06360308;0.168271746;3.390364284;1.209051719;-8.463886839;-42.63403863;-36.532209;-14.25598502;-1.890073242;10.95646423;-16.81178434;17.82567328;-4.427212033;0.700909706;-0.783921708
-9.439750468;-5.416481011;2.202256634;-11.44328082;-15.61200419;0.233772405;4.152468095;1.348234632;-5.605881776;-36.02840265;-36.10109735;-18.57087281;-2.528810103;15.08737729;-17.594785;15.51265889;-4.097527016;1.725865302;-0.139044864
-7.458961968;-3.830176462;4.022473938;-8.215580944;-10.51725206;0.238853892;4.658697362;0.404531942;-2.780694798;-30.02562541;-31.62983005;-21.73169474;-2.868468209;15.04716767;-18.6088203;11.408157;-3.706889166;3.037195166;1.868521102
-3.374251294;-1.664987901;1.912842288;-3.059331569;-3.704504679;0.137370736;4.590776016;-1.32879234;-1.690343744;-26.51032628;-25.4538988;-23.12496206;-3.673607527;9.861821176;-20.30757511;9.050681581;-3.462659611;4.28056488;4.163244013
2.475928291;1.536753524;-2.171291091;2.91120588;2.839449176;-0.017548659;4.152662756;-3.022978088;-2.983524;-26.28898211;-21.32992912;-22.71104602;-5.664545887;1.983088613;-22.30121328;11.05323925;-3.291381475;5.779974002;5.825860675
8.994865431;5.962302593;-4.387897218;8.169202627;6.959365408;-0.116854939;3.912036779;-3.923693013;-5.554608711;-28.53053238;-21.72567131;-20.69888176;-8.57080703;-4.552486797;-23.09342117;16.72766661;-2.743825235;8.309010476;6.542647851
14.43805137;11.05244379;-2.313601139;11.45093369;7.315812191;-0.097645518;4.288205739;-3.84743034;-7.11711026;-31.10359849;-25.79478776;-17.23506504;-10.96738076;-7.053617333;-20.81943093;22.55390896;-1.230889146;12.36054029;6.572715605
17.03772418;15.55680745;2.818996084;12.25446853;3.955553053;-0.005099001;5.150760108;-3.191416068;-5.765551679;-31.77145535;-29.7247732;-12.43335545;-11.17096631;-5.805830306;-14.64057821;25.23746469;1.483341582;17.45074271;6.377440682
15.89445517;18.09525877;6.884432987;10.91062318;-1.800432791;0.049136652;5.899779177;-2.520531261;-1.42010749;-29.54958643;-29.41496622;-6.724925935;-8.554631984;-3.289988751;-5.79465131;24.67411241;4.86022789;22.01804103;6.264302924
11.54533567;17.80305073;6.078226105;8.260260589;-8.056950776;-0.003244774;5.968920795;-2.130537827;3.943632631;-25.31746254;-23.60048469;-1.155302731;-4.215269654;-1.952125012;2.62692139;24.02468784;7.614863247;24.07701893;6.287619995
5.723047105;14.61890852;-0.005750076;5.193065484;-13.23822535;-0.113200983;5.315213869;-1.942749699;7.50546553;-21.24180755;-15.05978633;2.784142311;-0.387331029;-2.521964724;7.258949162;26.59354637;8.314004992;22.26;6.366999012
0.371505184;9.116567141;-7.926518293;2.326794347;-16.6948512;-0.151405659;4.469815928;-1.741514002;7.413021245;-19.39138214;-8.880474491;3.852656311;1.019063357;-4.081691821;6.45582661;32.22056551;6.243813548;16.60964368;6.407982463
-3.431939856;2.150503031;-12.94263058;-0.045779712;-18.71920316;-0.029106261;4.10841771;-1.461726064;3.929731038;-20.47587924;-8.939146352;1.873943424;-0.324758326;-5.370637721;1.343370386;36.68025933;1.979694142;8.650932871;6.285124564
-5.879417637;-5.344526206;-12.53061332;-1.809103737;-20.01437053;0.206352747;4.514364861;-1.23955455;-0.827062971;-23.51102454;-15.11757773;-1.942411095;-3.037889755;-5.829147052;-4.847902862;35.16251177;-2.783351683;0.727684232;5.765368724
-7.88578205;-12.32304133;-8.128327043;-2.84731415;-20.99181979;0.393490375;5.389109328;-1.2152549;-4.275929763;-26.53072544;-23.27585795;-5.505592712;-5.076247232;-5.459094091;-8.758294313;27.16;-6.105268775;-4.995865409;4.562740161
-10.05574745;-17.59978767;-3.820580015;-2.978654885;-21.37757235;0.384520732;6.151058533;-1.332632692;-4.87461471;-27.77655237;-28.00644686;-6.933405806;-5.119380319;-3.98688204;-8.849901092;18.30222954;-6.848204552;-7.342812672;2.589970442
-12.01282911;-20.08937037;-3.088312017;-2.032325996;-20.39986836;0.170136095;6.439868827;-1.366851124;-2.787259928;-26.58511262;-26.20354086;-5.545083978;-3.277321849;-0.56985307;-6.036875304;16.73878256;-5.220668552;-6.40184854;0.224799466
-12.63904131;-19.29429702;-6.162075398;0.006075369;-17.42905126;-0.108858382;6.381098578;-1.159196251;0.529596383;-23.53110486;-18.96458075;-2.115076768;-0.70482085;5.375373812;-2.671517378;26.23216892;-2.479304371;-3.253281699;-1.701978756
-11.02464465;-15.68798386;-9.92254263;2.890769829;-12.61092219;-0.274999215;6.397965111;-0.809282127;3.336737756;-19.92530579;-10.61810358;1.747483259;1.4288679;13.01569046;-0.735152164;41.43822667;-0.029895884;0.637542134;-2.313458127
-7.341310804;-10.60544644;-10.28;6.127008952;-7.020832414;-0.254651547;6.766441997;-0.606413356;4.496989108;-17.09964122;-5.731334097;4.629072265;2.750252488;20.01964195;-0.578373297;49.87856741;1.431473212;4.059145501;-1.263437123
-2.914137979;-5.600709675;-5.173512579;9.097305422;-2.195821722;-0.124712973;7.331786721;-0.744551097;3.813713138;-15.88198233;-6.266964043;6.037237575;3.711307462;24.05761397;-1.035327506;40.16206887;2.16798844;6.471981897;0.948160796
0.577795862;-1.676411689;3.941179988;11.2411462;0.654719057;-0.029522796;7.648039352;-1.09734964;1.86214273;-16.42171718;-10.75299959;6.3785686;4.971043744;24.76378893;-0.647943349;10.83161611;2.946961498;8.061821432;3.211203501
2.145275721;1.064759919;12.98175602;12.20957264;1.23397559;-0.047278984;7.413237324;-1.292812546;-0.412444006;-18.3121731;-15.76487475;6.317510889;6.740723296;24.30088596;1.062387021;-26.93968509;4.292237033;9.427454495;4.476326228
1.985013782;3.113545295;17.69058874;11.94611199;0.178202967;-0.126985634;6.799840649;-1.044297229;-2.116254415;-20.8716511;-18.42510248;6.079290121;8.619987892;25.70430628;3.259204189;-55.4346186;6.023099379;11.06590042;4.397883309
1.118397033;4.888628667;15.96435485;10.69508148;-1.422641848;-0.148777857;6.364063344;-0.43504951;-2.773275111;-23.4388907;-18.12118613;5.248030413;9.961377068;30.19445222;4.547847351;-61.41380105;7.388505296;12.94726474;3.491109335
0.562200021;6.297938982;8.759367097;8.96580762;-2.597725276;-0.046367336;6.586266275;0.124256414;-2.571316819;-25.54726676;-16.43892132;3.18982075;10.37156994;35.78723242;4.109474514;-44.39857676;7.637461989;14.46250002;2.708897342
0.740210382;6.900541752;-0.641765441;7.463175063;-2.767311503;0.124820923;7.426248999;0.247324366;-2.340705663;-26.89320739;-15.66873487;-0.263028437;9.927900306;38.61042656;2.268567133;-16.4166788;6.566563771;14.82305846;2.773181921
1.541671851;6.500414343;-8.304509338;6.952180176;-1.65404123;0.23707179;8.282998854;-0.082853319;-3.151992559;-27.16052398;-17.13765633;-4.427893771;9.004297977;36.01091;0.092593486;6.375037235;4.656720452;13.67904677;3.749636042
2.812591253;5.598947273;-11.31929649;8.015452887;0.882367518;0.20979958;8.419003335;-0.502166046;-5.665889712;-25.93591984;-20.50614066;-8.021488222;7.928116748;28.85185223;-1.561173074;13.9851889;2.753852874;11.51940006;5.126455342
4.697448041;5.228942309;-8.839108892;10.73387104;4.771443331;0.086157686;7.521190909;-0.609926077;-9.646790479;-22.95691851;-24.30318325;-9.907595175;6.755196751;20.94844055;-2.72437317;7.602133179;1.572226765;9.513852445;6.257574236
7.451190937;6.22287871;-2.243580206;14.44473533;9.421117722;-0.0055153;5.949921455;-0.352789176;-14.04752112;-18.6491722;-27.09278693;-9.839751092;5.271925003;16.01928093;-4.185368321;-3.507858195;1.369398051;8.833830914;6.789787913
10.90626125;8.483435267;5.536088364;17.80203511;13.53654641;0.030187721;4.475296051;-0.077879815;-17.68157396;-14.50081643;-28.37683981;-8.682842904;3.140237469;14.74081435;-6.710440068;-9.941147504;1.952226465;9.889621352;6.781335749
14.16840213;10.87526712;11.30508637;19.2661263;15.4673726;0.16842654;3.711049853;-0.184873739;-19.99885112;-12.69382282;-28.71295423;-7.938291241;0.071143813;14.47853306;-10.29255427;-8.559067988;2.915240118;12.02614078;6.516416195
15.95324432;11.88360149;13.0377002;17.8823495;14.07732225;0.289789957;3.693262506;-0.692584529;-21.33107934;-14.8547998;-29.15404056;-8.85675178;-4.001003691;11.9550227;-14.02721962;-2.999423117;3.891154878;13.91480749;6.248626746
15.39577684;10.57443808;10.78720865;13.92921677;9.597255865;0.295878798;3.924820817;-1.144077505;-22.38;-20.59889163;-30.51225815;-11.69727992;-8.742516442;6.503072019;-16.67211751;0.966807422;4.663590295;14.3745976;6.0891262
12.69197976;7.15059112;6.521981183;8.963790889;3.750771155;0.206913377;3.827191833;-0.984358157;-23.38844645;-27.05227826;-32.91333501;-15.60503975;-13.34094587;0.981376084;-17.41891531;0.648280182;5.145697679;13.04052526;6.058355305
9.010957881;2.724311902;2.892077027;5.09010335;-1.129833111;0.148306994;3.220924841;-0.103087161;-23.76707587;-30.13683676;-35.794693;-19.18334818;-16.70717734;-0.532831639;-16.30833122;-2.06279676;5.319030957;10.4280141;6.161697681
5.704307812;-1.457487686;1.63940019;3.791538463;-3.514537002;0.234970409;2.450718241;0.955201175;-22.59869697;-27.14988822;-38.21244661;-21.37942439;-18.02081516;3.713530199;-14.06898696;-3.443697424;5.2026704;7.418087594;6.376687251
3.433186813;-4.706831043;2.678246756;5.047130018;-3.633567379;0.45773407;2.073331315;1.355166072;-19.64132002;-18.95186847;-39.23625731;-22.08503465;-17.35458356;11.50254599;-11.6096777;-1.822433907;4.848537269;4.626127004;6.59242255
1.90846829;-7.017222136;4.453225154;7.366476893;-3.230918113;0.677372575;2.382533638;0.652767005;-15.91292295;-9.970383062;-38.28707675;-22.03575786;-15.86939353;18.38044522;-9.572381376;1.073637911;4.3277514;2.160128519;6.631601514
0.418243098;-8.64694227;5.266793503;8.804302026;-4.217477147;0.736056532;3.165914727;-0.76735594;-13.19261244;-5.591359857;-35.36126944;-22.08213149;-15.23224093;21.2667389;-8.181006549;2.229350854;3.706141053;-0.102954275;6.399604218
-1.353889721;-9.636525819;4.552905358;8.314378625;-7.17996784;0.589921058;3.884890104;-1.894147646;-12.68856439;-8.487096128;-31.0978326;-22.38215092;-16.47991034;20.7665842;-7.330942842;0.560786426;3.044871586;-2.060973422;6.03140458
-2.953442606;-9.724747077;3.145628228;6.494426752;-10.86670683;0.346083257;4.117516199;-1.810029297;-13.93804014;-16.4957265;-26.62670822;-22.17292187;-19.1131194;20.19551086;-6.738340777;-1.955810732;2.443012394;-3.236906586;5.847773022
-3.551454696;-8.704481897;2.415179927;5.144706644;-13.0708579;0.171523505;3.893513945;-0.373902461;-14.96183611;-23.80831897;-23.18229885;-20.38748409;-21.22168134;22.29740807;-6.065297603;-2.258918973;2.076050688;-3.120638039;6.088260914
-2.747958455;-6.821036227;3.051624721;5.903223367;-12.27305561;0.154114487;3.648262763;1.667102002;-13.72999606;-24.88124143;-21.60084994;-16.72330338;-20.75602143;26.70488615;-5.073828824;0.731708655;2.155640748;-1.702185989;6.633433289
-1.044045934;-4.761293951;4.520029297;8.929999559;-8.805418894;0.236707206;3.839761162;3.214127101;-9.862087102;-18.37735141;-21.94880749;-12.3251405;-17.13179991;30.45561878;-3.838472716;4.980009766;2.795174585;0.332277404;7.010787167
0.477324465;-3.161775722;5.59885838;12.6359864;-4.642503478;0.278440476;4.546754186;3.56944344;-5.160910791;-8.241580423;-23.5190128;-9.411795639;-11.94809191;30.99541771;-2.88185883;7.257934015;3.871889316;2.014718068;6.768535698
1.027369171;-2.035642916;5.47921149;14.72012875;-1.965364142;0.184752355;5.376596911;2.832071183;-2.42046279;-1.026615382;-25.24122989;-9.921956423;-8.146997288;28.72939829;-3.013058753;6.293515277;5.0207312;2.850490271;5.949260041
0.802518719;-0.652628511;4.447722599;13.8035691;-1.584407929;-0.009997878;5.7560758;1.686404167;-3.335050988;-1.354641824;-26.29099366;-14.06827479;-8.107976416;26.57197499;-4.825393337;4.093034767;5.810867448;3.286015465;5.226380674
0.874196051;1.937929868;3.575357968;10.46629792;-2.417679958;-0.176647849;5.36963506;0.828035397;-7.134679967;-8.81015043;-26.53375356;-19.917492;-12.0481919;26.81496557;-8.152533564;4.085407327;5.998522021;4.427068184;5.485290961
2.322430774;6.095316326;3.722770935;6.892167578;-2.418607996;-0.20576815;4.396633716;0.517338386;-11.07799099;-18.48522999;-26.53217495;-24.47880857;-17.9385236;28.34126666;-11.9582656;7.773765883;5.662709548;7.142866968;7.102773709
5.297483869;11.1257105;4.765597929;5.341947553;-0.252279471;-0.098007259;3.367167663;0.571204757;-12.4914226;-24.64940268;-27.12693458;-25.66953167;-23.00453838;27.13537691;-14.89242514;13.09091431;5.110696775;11.23819891;9.505265197
8.76994401;15.57953823;5.729222004;6.548556428;3.532071023;0.046309243;2.761726108;0.693319569;-10.79853515;-24.71886773;-28.88330273;-23.76943374;-25.64674368;20.04963791;-16.20061466;16.15659139;4.633574244;15.39692564;11.44416242
11.17963059;18.14188496;5.702594466;9.198609142;6.691938551;0.120598506;2.67512924;0.778442653;-7.956612046;-20.61900888;-31.77579057;-21.22685593;-26.29447816;8.518106254;-16.28296931;14.94;4.326688612;18.03146941;11.87261351
11.47820152;18.4843968;4.703341194;10.8691361;6.696081236;0.098615926;2.799062102;0.919407416;-6.953226949;-16.76626309;-35.30014881;-20.85226293;-26.58984443;-1.510918077;-16.36626025;11.40530672;4.129786751;18.44264837;10.77756371
9.768481566;17.4608164;3.705050617;9.726091869;2.341360528;0.03837817;2.714307781;1.172863541;-9.530841273;-16.49767051;-38.88634887;-23.68333696;-27.67324912;-4.02375225;-17.43962453;9.953291525;4.028053712;17.39385867;9.277865894
7.097116807;16.51051347;3.776577104;5.760473724;-5.503857904;0.009779715;2.242304206;1.376400329;-14.89167174;-19.79664072;-42.26987613;-28.13967259;-29.07034432;1.735035475;-19.27174306;13.37393364;4.184883164;16.60627357;8.832635989
4.639707435;16.71003906;5.074768432;0.721286797;-14.43502849;0.022810921;1.576534681;1.239011778;-20.33659179;-23.89413131;-45.5260261;-31.16723968;-29.14347519;9.911666817;-20.37205035;20.00598944;4.827518369;17.5025907;10.11627309
2.959363729;18.14635144;6.584571792;-3.117654117;-21.84709571;0.026729706;1.107931397;0.633742164;-23.27578073;-25.92023415;-48.75253802;-30.55123188;-26.71060147;12.51910973;-19.05360598;24.95452903;5.956186654;20.13003906;12.42786201
1.881622239;20.01627246;6.877022554;-4.405182932;-26.15228628;-0.023457521;1.106241158;-0.201199758;-23.03436023;-25.24273797;-51.68776678;-26.63091099;-22.399657;6.506950481;-14.82821969;24.59423713;7.169863444;23.09136753;14.13061241
0.969555875;21.31312169;5.287269399;-3.365654722;-27.20700719;-0.104853436;1.519849872;-0.779938069;-21.13546073;-23.63328112;-53.63360848;-22.06571509;-18.48783338;-2.619523137;-8.999940956;20.35927957;7.861534406;24.55966173;13.82929763
0.096191843;21.55264088;2.540488423;-1.331180257;-25.91458109;-0.136417078;2.040823348;-0.736807788;-19.99707944;-23.379847;-53.83094091;-19.80205653;-17.2428919;-4.434738304;-3.891539659;18.03375601;7.719496168;23.62234427;11.40908015
-0.407254421;21.01116115;0.290531511;0.331876661;-23.47926115;-0.056182392;2.360083008;-0.131376096;-21.17477935;-25.16885078;-52.0632665;-20.80959265;-19.07866287;7.590579313;-1.230954017;22.52920388;7.13739264;20.93294383;8.149235647
-0.124120947;20.34884113;-0.081379523;1.041050973;-20.8392515;0.108224419;2.396298266;0.583725393;-24.48760631;-27.58601784;-49.03041737;-23.35365235;-22.05903706;28.95230399;-0.94671039;32.35138902;7.1088448;18.17021747;5.827195901
0.931212434;19.9576636;1.535882844;1.052732129;-18.48851126;0.248763809;2.325835237;0.914059704;-28.51421326;-28.53180072;-46.14495138;-24.3650063;-23.22546078;45.00127031;-1.338384524;38.8473331;8.553499368;16.71823339;5.491319229
2.147878585;19.56603568;3.960756858;0.929220829;-16.55657486;0.265491395;2.41503807;0.695423695;-31.8294665;-27.15124867;-44.8085742;-21.81300155;-20.75043132;40.32355787;-0.491991025;31.77511109;11.52349724;16.58968548;6.810373159
2.683608087;18.42678424;5.655978404;1.01191351;-14.92571938;0.156912236;2.805643686;0.175087786;-33.89638654;-24.51703703;-45.63161865;-16.21552918;-15.25219817;10.25310382;2.203443232;7.456040273;14.93965721;16.44233731;8.440552085
2.083587973;15.97497243;5.858560181;1.340140704;-13.31081909;0.0278018;3.415239395;-0.246110757;-35.02065317;-22.52020589;-48.14243989;-10.1506036;-9.288861584;-34.12850475;5.655771298;-26.85255628;17.17539466;14.70607432;9.07308068
0.66674532;12.48138351;5.019534506;1.940039063;-11.38018149;0.002649455;4.001367291;-0.361489661;-35.67798299;-22.06808289;-51.20082527;-6.259813266;-5.503158689;-71.79337551;8.061281749;-56.28114795;17.15131699;10.97418081;8.347500331
-0.616035384;9.19522091;4.258641924;3.041706183;-8.968992008;0.119194246;4.313999744;-0.283800744;-36.00827942;-22.28237035;-53.81104759;-5.411266397;-4.907151869;-84.78018928;8.398134136;-67.4939418;15.14187087;6.577369961;6.98210209
-0.740790713;7.789846111;4.338317881;4.901622186;-6.270436969;0.296465506;4.226392175;-0.257588642;-35.95490725;-21.43224821;-55.72349437;-6.46011688;-6.567771241;-69.42125745;7.141720642;-57.20020993;12.63932023;3.842706805;6.108770763
0.809186726;9.392288353;5.027501117;7.37547988;-3.794195066;0.405552363;3.789993108;-0.363357661;-35.78387683;-18.72253217;-57.37413676;-7.634739262;-8.730576401;-38.01125953;5.64275551;-33.89757328;11.31117903;4.515076025;6.383746716
3.801037883;13.78873617;5.379692294;9.731781392;-2.013111548;0.37897231;3.22531363;-0.41255112;-36.2868196;-15.25222786;-59.23398202;-8.202828422;-10.26826287;-10.06508364;4.807999428;-11.74;11.80314712;8.461289506;7.544623983
7.430201584;19.34314489;4.682112597;11.05163066;-0.901947358;0.260770317;2.869978218;-0.141619233;-38.27024957;-13.19099597;-61.12281916;-8.905232207;-11.2173207;0.339928456;4.338501744;-1.204008332;13.29860354;13.60510535;8.678087372
10.731665;23.75709636;3.259912276;11.01440085;0.248409569;0.155368931;3.072830786;0.480747962;-41.67871391;-13.83824728;-62.09133652;-10.81106949;-12.10606762;-7.686698442;3.25248968;-3.281522445;14.18781048;17.17597329;8.918000667
12.96525552;25.27537226;2.398898346;10.41062033;2.486704619;0.126809801;4.022020405;1.13959387;-45.17693714;-16.28730613;-61.03344469;-13.71624096;-12.90047292;-23.69041558;1.206301701;-10.84013938;13.34326471;17.42600419;8.031502659
13.82743823;23.63333807;3.334645229;10.81173843;6.459723365;0.144433928;5.56340531;1.389878509;-46.74;-17.95841881;-57.594459;-15.68058439;-12.69945768;-34.84272043;-0.680852656;-15.22902487;11.01922103;14.65033748;6.518120943
13.48555555;20.16460572;6.032066907;13.4649054;11.76097568;0.125069923;7.145778968;1.033218691;-44.96588985;-16.66446684;-52.66791622;-14.3351694;-10.55319549;-34.89884514;-0.428737266;-12.61650548;8.682600366;10.85480723;5.244108237
12.48285766;16.98915555;8.74982181;18.17312145;16.8784496;0.028701162;8.013143608;0.323212038;-40.14840431;-12.51317326;-48.05569455;-9.001805059;-6.664902565;-26.96968923;3.114205786;-5.510233966;7.915701679;8.365714888;4.928569557
11.53732425;15.77497434;8.904337168;23.0679027;19.87988641;-0.087841859;7.609664252;-0.197469651;-34.24151776;-8.014861277;-45.4913316;-1.831156708;-2.789422921;-19.23360113;8.902706314;0.772058973;9.245632945;8.375734816;5.805717732
11.25337732;16.83391551;4.816466264;25.5944363;19.46189669;-0.115978551;5.967025606;-0.108049328;-29.67069281;-6.220019531;-45.70263741;3.154735484;-1.284714242;-17.91817956;13.94140586;2.990029297;11.78653531;10.38278942;7.584543722
