Channel 1 - P4;Channel 2 - O2;Channel 3 - P8;Channel 4 - T8;Channel 5 - C4;Channel 6 - Cz;Channel 7 - Fz;Channel 8 - F4;Channel 9 - Fp2;Channel 10 - F8;Channel 11 - Fp1;Channel 12 - F7;Channel 13 - F3;Channel 14 - C3;Channel 15 - T7;Channel 16 - P7;Channel 17 - P3;Channel 18 - O1;Channel 19 - Pz
-67.71198119;-73.29657283;-47.32469823;-67.40589585;-34.78638738;-15.34062477;-21.24424389;-42.44399272;-75.84830005;-32.33429789;-69.40042965;-81.82300925;-19.97643964;-78.632009;-121.4580122;-86.8146265;-13.93607277;-56.49298776;-19.03828661
-56.97660343;-36.25412773;-18.90017285;-67.35077736;-14.41566144;-12.22996148;-1.496564375;-18.95047974;-131.7672415;-68.61028948;-120.1991426;-51.23465846;-24.5539159;-49.64038706;-95.45051486;-50.30837577;-6.305048885;-40.96945062;-13.82660673
-34.45660145;14.49056938;7.61534261;-45.54512226;13.0988671;-5.751266884;16.65910236;5.653767243;-168.1732331;-93.93377357;-146.7332763;2.626900887;-22.22639607;-15.40693535;-39.18111467;-0.382888703;5.047800746;-17.08350452;-2.617362826
-13.13205399;56.18518455;19.13843547;-17.16546498;34.91125734;0.374832987;23.95753723;17.93468518;-175.8295511;-103.3452255;-142.4937513;49.84065237;-17.03073376;5.171148756;16.47390739;33.90972938;13.80892426;-0.392073704;8.654858618
-3.165291849;74.74963492;13.6154473;0.853789795;42.74719268;3.155327855;18.21418547;13.85454863;-160.0576136;-100.5597966;-117.8946256;69.16493583;-13.79552775;4.951818676;45.69928945;36.4987092;15.99785676;0.085974864;14.64276533
-5.797856618;72.27319586;0.186552648;0.548568;37.1561455;2.137593772;5.899532025;0.238589286;-136.454602;-94.59123087;-92.64993653;61.74724821;-14.73517788;-8.807991761;43.0851078;14.90031531;12.37710635;-12.65049276;13.95652765
-14.15294497;62.62492977;-8.610902029;-13.54975846;25.50660322;-0.690458624;-2.383385279;-11.46644328;-120.596034;-93.36149311;-82.54630786;47.25179514;-18.18829286;-22.19323108;23.54338919;-6.974199666;7.252645587;-27.23392859;9.489707946
-19.63910236;59.57083058;-6.181705313;-29.7051298;15.85392883;-2.661011397;0.460378515;-13.81384247;-118.8522576;-98.93718366;-89.87923501;46.43951794;-20.27301414;-25.60291488;8.52631283;-7.827640257;4.869223738;-33.24205321;5.728322584
-18.58339956;66.88847457;4.333071728;-38.21520884;11.55115117;-2.401093208;12.71204337;-7.767563251;-126.2615457;-107.4953211;-103.7529308;64.80739204;-18.00131625;-19.30167315;9.99176437;14.9756925;6.309513951;-28.65471248;5.309062318
-14.0951886;77.48049769;14.04323123;-37.49739268;10.31072272;-0.5601704;24.86620089;-0.213217026;-132.1061977;-113.4313709;-109.1346671;90.31999429;-11.43515798;-10.37022229;23.92848987;44.23453908;9.164014827;-19.99157327;7.458714743
-12.36370868;80.92019467;16.11923643;-33.21220824;7.591696916;1.077920601;26.46279247;2.527657112;-128.4844752;-114.0848047;-97.58989528;106.05907;-3.426600016;-5.168309539;36.77355528;56.6618452;9.916771931;-15.85270395;9.266733654
-17.01878038;72.50335357;10.91198899;-32.32926887;0.916857378;1.199448878;13.85984198;-0.440232719;-115.6209391;-111.5134951;-72.22680496;106.1043751;2.55393318;-4.353180193;37.99182857;40.37855822;6.925389998;-19.69622863;8.462700513
-26.30656551;56.56355154;4.68467715;-37.51792683;-8.463775266;-0.058783023;-6.770325148;-4.927022638;-100.6968175;-110.375714;-44.31438668;100.6102834;4.660683897;-4.111471961;28.29844554;2.964528028;1.645028554;-27.70695279;5.324432415
-35.04187442;42.18756775;3.734015144;-46.07567498;-17.43138711;-1.4387035;-23.52337853;-6.114079334;-91.95032798;-114.0304492;-25.1471564;105.6884345;3.403141853;-1.185109239;17.74868668;-34.99327127;-2.643519417;-32.90792364;2.266416854
-39.19622168;35.71230724;9.180997895;-53.32853712;-24.1579861;-1.759631278;-26.99695258;-2.824267951;-92.8717503;-122.0688876;-19.42724096;127.0511289;0.711147236;3.847928154;16.56902765;-54.708043;-3.340505965;-31.44575715;1.663279418
-39.02910714;36.42925182;16.59864704;-56.88263912;-29.5026136;-0.897090001;-16.63915352;1.959370813;-100.5028962;-130.997708;-24.22499445;152.0335889;-1.536498953;8.170922864;26.93840045;-50.77756;-0.226940866;-25.57509514;3.852529061
-38.28688193;38.56551897;20.26204011;-58.04921583;-35.49611428;0.241472621;-0.593922719;4.248942957;-108.2894498;-137.1444501;-32.84431309;157.7449841;-2.284762565;11.04401657;42.12131575;-31.85838513;4.777469498;-21.1406975;6.95615592
-40.53030482;37.1351607;18.05070975;-59.76497748;-42.5610191;0.610141776;10.65788837;2.654690359;-110.6705183;-139.2443235;-39.61385376;129.4465007;-1.10145286;15.72102285;52.68436189;-11.88250587;9.273404426;-22.20121104;8.538003313
-45.98758974;32.34113473;12.92016632;-63.45306488;-48.26200853;-0.059542786;11.9064333;-0.78416369;-105.98618;-138.7486508;-42.00893167;74.29530149;2.277190868;26.14384835;53.91788681;0.051094651;11.94641305;-27.64768231;7.600116298
-51.58949257;28.97939742;10.106293;-67.83265519;-48.93295444;-1.101278115;6.312398437;-2.915826367;-96.28914783;-137.9620192;-39.59888352;18.87492773;7.847838738;41.03468834;48.42536976;3.580777643;12.90553155;-32.5612597;5.252918003
-53.89;31.81813714;12.79804652;-70.51389522;-42.85415162;-1.57801451;1.896457545;-2.421209074;-85.19698136;-137.8507014;-32.11686757;-8.209929475;14.70113554;51.38852778;42.58506167;3.554066616;12.88917926;-32.74602272;3.611957479
-52.09629886;41.19117464;19.92146864;-70.54152499;-32.17327751;-1.122655774;4.53173045;-0.546403502;-75.90951877;-137.4065513;-19.15901264;4.466468385;20.68662956;45.16140746;40.73827991;3.905030219;12.34385693;-28.23291392;3.970882968
-48.52628156;52.48547849;27.48213348;-69.33280615;-21.78493667;-0.214300156;13.19535402;0.857325033;-70.52429746;-134.9421984;-1.837852008;44.54578991;23.16731277;16.67486011;42.22451599;4.723605485;11.24994841;-22.76039135;5.816267524
-46.2437586;59.66704183;31.82913729;-69.18041084;-15.99106639;0.3041407;21.23075509;1.776535882;-70.15724059;-130.0201307;15.61587038;86.13545403;20.66787495;-26.65026716;43.21788265;4.202727505;9.668072926;-19.99645716;7.428779089
-46.13797701;59.69283218;31.93348512;-70.89151961;-15.6660664;-0.00984955;22.37481619;4.302843956;-74.77521498;-124.2648234;26.61724;108.150219;14.20928637;-66.52991997;40.95536342;2.328470159;8.235851739;-20.11688443;7.43834271
-46.12147071;54.27113612;29.13653061;-72.93506254;-18.20247682;-0.837346229;16.38299918;10.25652991;-82.49091977;-120.3380335;25.70265172;106.560303;7.086930724;-84.61496574;36.24540488;1.998680453;7.943976596;-19.82182367;5.95646184
-43.14651033;47.93526308;25.26;-72.98249374;-20.13587388;-1.425010295;9.439887082;18.42998881;-89.2790259;-119.9134728;12.55482134;92.39868925;2.962312054;-74.43056513;32.23846315;6.321929631;9.304552649;-15.60159237;4.370433643
-36.2054652;44.39895866;21.17894437;-70.40708865;-20.12060025;-1.266766194;8.892906633;24.35590418;-90.22551793;-122.2769394;-6.482735392;79.26695982;3.524664465;-45.59524761;31.05713938;14.88211184;11.69910205;-7.108187803;4.074838034
-27.61685758;44.17935843;17.03432722;-67.33654846;-19.75501904;-0.52192421;16.63646085;23.34318232;-82.18280723;-124.6410342;-20.97394857;71.82547847;7.44815117;-17.0372;31.66905208;22.88860628;13.59963705;2.494891083;5.283314655
-21.41497298;44.98996612;13.37003906;-67.13069825;-21.72306766;0.175118877;26.75;14.45466978;-66.16955532;-123.9320637;-21.85866261;64.44060836;11.45739598;-4.206060575;30.93951821;24.44064216;13.57901199;9.453918745;6.906343469
-20.18581505;44.02789042;11.56321492;-71.50475865;-27.06487983;0.303140986;29.64467659;1.939270928;-47.53905233;-118.7621864;-6.628680607;49.56200093;12.71249006;-9.678455674;26.71793271;17.25690918;11.2942332;12.82024678;7.511057706
-23.02949809;40.07371461;12.82067505;-78.80073094;-34.06938812;-0.103515634;19.66572209;-7.440019531;-33.34196311;-110.272427;18.90049553;27.11957508;10.72452159;-23.63499285;20.00098439;4.761284377;7.621435333;15.10052975;6.476282331
-26.3634381;34.00740586;16.71334041;-84.97023687;-39.75029018;-0.536389391;0.149645629;-9.286656357;-28.39378288;-101.4028787;43.3366491;6.131599535;7.420991846;-32.92879621;14.20884009;-6.350078125;3.854366227;19.51345302;4.37324214
-26.88536247;27.91576683;20.92519022;-86.51467879;-42.51862481;-0.508902734;-18.22481586;-4.76723789;-32.62164493;-95.17843728;55.52879036;-2.725823045;5.449511129;-31.14387597;12.31252789;-11.07326705;0.687980468;26.40546885;2.340141238
-24.23768392;23.8903218;22.8265841;-82.978778;-43.58579657;0.00179678;-24.73190888;0.516191442;-41.40834735;-93.0896378;50.36941257;3.361706109;6.139387927;-22.02928666;14.42454433;-9.527070551;-2.129188746;32.26841479;1.083768676
-21.21075987;23.29215361;21.64540875;-77.02243594;-45.76593571;0.558211988;-16.05259435;1.109398312;-48.54499528;-94.41727489;31.54098062;16.38184388;8.689713177;-14.58642657;17.90171751;-6.190839862;-5.210769487;32.52143881;0.390433002
-21.37143;26.4027182;19.22656181;-72.16367212;-50.68846186;0.682206128;1.713709386;-3.952703708;-49.70160639;-96.71899059;9.730719171;23.76291421;11.07358786;-14.78159848;19.68980486;-5.813124266;-8.592995267;25.77440574;-0.494623975
-26.06363056;32.07073971;18.50576074;-70.15889454;-56.91298865;0.292057914;17.81807219;-10.51836281;-44.26517019;-97.11553247;-2.880536775;18.44093291;11.78007813;-20.95259218;18.74720505;-9.440587012;-11.32931658;15.7730526;-2.040312097
-33.14506369;37.47715391;20.90820237;-70.09749983;-60.73743355;-0.236487286;24.54834356;-12.81089665;-34.82385429;-93.72622557;0.913090094;4.148680611;10.96022867;-26.18444832;16.5437299;-13.64123687;-12.02971472;9.06313592;-3.922782857
-38.367648;38.70318532;24.97551262;-69.67656519;-59.17959741;-0.422501689;21.94573351;-8.1234475;-25.20727023;-86.60411581;19.37557716;-8.315618231;10.1621504;-24.84770604;15.50261271;-13.25415331;-9.91977965;10.0724212;-5.260301771
-38.25488177;32.49395581;27.53090702;-67.30065673;-52.66976684;-0.111776975;16.30509746;1.048266303;-18.58578747;-77.7331255;42.71839138;-10.3004424;11.02365394;-17.32068487;17.01253451;-5.32231478;-5.535648877;17.6274845;-5.333283293
-32.31369579;18.48516641;26.43408249;-63.1867702;-45.10281548;0.400274059;14.24083214;8.980934797;-16.50605619;-70.03456951;58.61091166;-2.036250745;14.03934597;-9.038376917;20.73613198;8.6927618;-0.472353358;25.85036279;-4.137074512
-23.11138827;0.263372872;22.49216116;-58.79057463;-41.01629409;0.649318268;17.41557368;11.02140146;-18.75303119;-65.82174112;59.28784578;8.509583786;18.29902736;-5.207340966;25.49037939;23.68689324;3.616416977;28.7814203;-2.318461392
-14.42914188;-15.95671493;18.77899041;-55.42383676;-42.04294482;0.417657438;22.06878266;6.740415355;-23.54303148;-65.52508853;45.99234856;13.07432494;22.21535692;-6.16189057;30.48685586;33.76216386;5.982964982;24.98683903;-0.617901944
-8.9911229;-24.58308902;17.91665337;-53.46716258;-45.45702508;-0.089687708;23.24309161;-0.321133778;-27.9230295;-67.48231445;27.89385075;10.03988121;24.52296175;-7.428548801;35.59585771;35.16925982;7.009682421;18.43656809;0.652612908
-7.280639002;-23.75372471;19.73694306;-52.73062231;-46.03086377;-0.449851971;19.70585697;-5.699482257;-28.68931943;-69.01554473;16.07515399;4.990768684;24.80239511;-4.199858455;40.52040065;27.82972527;7.617676798;15.03788696;1.661312899
-7.914839614;-16.12784346;21.45773474;-53.2401973;-39.83887923;-0.403568221;15.19447498;-7.159520455;-23.92425725;-68.17231813;16.50565146;4.915739134;23.34890896;3.934125112;44.0155488;15.07339831;8.408583778;17.7585713;2.668505696
-8.925067284;-6.85;20.28107698;-55.33156814;-27.1577095;-0.06452715;14.94195721;-5.576587436;-14.45580612;-64.97381574;26.70350125;11.59689074;20.77210967;12.20013992;44.28825847;2.056781767;9.210437519;24.32588087;3.617004321
-8.908267775;-0.299525063;16.11586113;-58.78885487;-12.35849037;0.216729278;20.56536542;-3.339895626;-4.030159669;-61.26575265;38.26426951;20.10715922;17.78580682;14.42142194;40.46981367;-6.417588243;9.29071511;29.25084168;4.092606657
-7.450719581;1.944789418;11.93777895;-61.97829465;-1.007428115;0.187653208;27.84612986;-2.072593812;2.462566084;-59.22872539;43.2659662;23.5214163;15.26214032;8.036549082;33.82098306;-7.910653704;7.965231935;28.35940108;3.66810413
-4.914532196;0.666242678;11.34017414;-62.21306905;3.582457378;-0.088588012;29.52993704;-1.666349493;1.932057332;-59.6121211;39.79992663;19.39584822;14.24056912;-3.87946078;27.36972533;-3.331214384;5.109538795;22.09125515;2.28952725
-2.023888613;-3.030497925;15.32458981;-57.53884264;1.902271036;-0.321980987;21.07102339;-1.117367598;-4.752610999;-61.025577;32.65341502;12.16341015;15.60464726;-15.10003906;24.02727822;3.778521813;1.272279334;15.03559654;0.352346112
0.441423644;-9.255850451;21.12128377;-48.6591688;-2.913799327;-0.288791814;4.736606937;0.024579617;-13.10036749;-60.88373089;28.94134604;9.37330507;19.5304426;-20.91844157;24.6427845;9.508944867;-2.562159864;12.34028943;-1.572725683
1.831951903;-18.95767174;24.13817755;-39.23987039;-7.716648315;-0.043726461;-11.28843622;1.12139795;-17.83424797;-57.36414997;32.34056931;15.15353196;25.1542914;-21.07526142;27.5999727;12.08565572;-5.335304668;16.04784676;-3.086590911
1.791483355;-32.15582263;21.47071278;-33.93744241;-11.31345725;0.145287234;-18.24082738;1.227480217;-16.30167766;-50.93929446;40.49529721;26.58945233;30.83336829;-18.82254179;30.26137483;12.7884037;-6.245877059;24.16765166;-4.076648962
0.379625708;-46.69907206;14.07972363;-35.35387424;-14.4920361;0.068359505;-12.58429861;0.217737372;-9.9844013;-44.3129253;47.44;36.02049515;34.91799733;-17.43027918;30.99344738;14.41850702;-5.033308847;32.81116957;-4.559735193
-1.972377953;-59.01319124;5.89588803;-42.14824162;-18.50117281;-0.213139003;1.940964016;-0.98946368;-3.021786249;-40.74677304;48.76764011;37.11209651;36.52816865;-17.42919203;30.08007813;18.41254065;-2.192894026;39.23598767;-4.489960684
-4.710411648;-66.43861228;0.711752042;-49.79191767;-23.51559784;-0.416390281;17.26131119;-1.371445219;1.043083247;-41.93673584;45.12496575;29.50294134;35.81742499;-16.84782217;28.91081019;23.05960892;1.026287046;43.21801485;-3.779923742
-7.438547519;-69.16771322;-0.487487637;-53.4856028;-28.36543889;-0.304564817;26.41630647;-0.932911751;1.720145905;-46.91180892;41.18353929;18.36107285;33.62134441;-13.80353197;28.39220193;24.6063344;3.024635046;45.95211785;-2.525447816
-9.982330212;-69.97046359;0.368259094;-51.14973854;-31.56935191;0.07926986;27.46450917;-0.829892128;1.352340851;-52.67354565;41.13826266;9.714581733;30.85186513;-8.746143475;28.14114407;20.58809172;2.620384881;47.93870386;-1.164550809
-12.17320404;-71.7529325;0.706781521;-44.43299086;-32.60756182;0.433525123;23.41424653;-2.273081906;2.54580003;-56.06619253;44.73742949;5.873091505;28.11445529;-4.198122299;27.15682285;12.53685638;-0.209112032;48.05104319;-0.317688393
-13.5898852;-74.91724172;-0.229372807;-37.25945105;-32.28748374;0.461192931;18.96534621;-5.231832676;5.494928525;-55.57977958;47.34593804;4.735885482;25.73229232;-2.319086376;25.19506127;5.407589807;-4.159036808;44.67147233;-0.357321471
-13.58789694;-76.77140491;-0.929471887;-33.21795447;-31.93945542;0.138028907;17.02003906;-8.226894604;7.505226138;-51.96156428;44.0409363;3.032381325;23.97012014;-2.680727385;23.39013453;3.799717506;-7.260364467;37.73900322;-1.060258524
-11.70363201;-73.57560781;0.579132404;-33.68891828;-32.19728754;-0.257390192;17.506161;-9.512203943;5.176295746;-47.42126819;34.227579;0.069187912;23.12725881;-2.414096902;23.4166048;8.079714475;-8.042536629;29.65070006;-1.695875135
-8.134654291;-63.60299972;4.476722633;-37.70512976;-32.41546041;-0.380740299;18.74999373;-8.621555216;-2.511616108;-44.13767153;22.7462007;-1.594517539;23.39056647;1.325812472;25.92904314;13.99547997;-6.426508468;23.98362491;-1.557227143
-3.843785446;-48.72014672;8.619854691;-43.09379091;-31.17929833;-0.116455638;19.57433159;-6.853206757;-12.74712276;-43.07818415;16.37559674;0.96927976;24.6393537;8.764189774;29.77325862;16.51867319;-3.698465829;22.99064911;-0.538276331
-0.094565539;-33.19819654;10.28520051;-47.70231385;-27.44838207;0.328111295;20.12794455;-6.193645805;-20.33964955;-43.73919616;18.53636089;7.505657969;26.45316628;17.08382834;32.79383909;14.72977486;-1.561451782;25.98;0.732611991
2.299990339;-20.72659455;8.64224107;-49.92843413;-21.40627687;0.604913182;21.03470808;-7.604717847;-21.06497679;-44.72506612;26.55521034;13.84641589;28.33903155;22.53628729;33.581348;13.14444633;-0.953878704;29.99237508;1.361091651
3.463226668;-12.02235975;5.718317634;-48.72135219;-14.39519811;0.516251505;22.14;-10.20225321;-14.44549764;-44.63175742;33.74800399;14.86463502;29.93420099;23.23882834;32.59627185;17.63369971;-1.503090478;32.2529813;0.917998811
4.310832005;-4.862670906;4.932820726;-43.68326159;-8.064922581;0.160145791;22.37543082;-12.06638615;-3.985847078;-42.70881938;34.59996502;8.592488049;30.95700499;20.30321081;31.64;28.98255721;-1.987738182;32.38230016;-0.149112991
5.905480577;3.645043246;8.401775885;-35.4897601;-3.42534495;-0.183490173;20.95277379;-11.95082874;5.171748272;-39.07640354;28.8201116;-2.097736807;30.98397595;16.51022005;32.14349089;39.88852653;-1.401720006;32.5530576;-0.776308104
8.810689936;14.49649791;15.26937306;-26.1234391;-0.4614197;-0.30577106;18.59576173;-10.34481499;9.376140577;-34.56075499;21.09116593;-11.70566921;29.40795918;13.897413;33.829442;38.99417532;0.23118027;35.49375423;-0.040762342
12.88348284;25.96166215;22.41413832;-18.26693895;1.537402047;-0.22736976;17.31080619;-8.935775103;8.232405165;-30.31385519;16.97583283;-16.27375438;25.84098055;12.43198149;34.97283635;19.74099092;1.903848488;41.99498792;2.154911745
17.5342745;34.99817388;26.84939515;-13.91080062;3.30462522;-0.13165108;18.55828949;-8.985127713;4.092003272;-27.35835147;18.56044815;-15.96548684;20.77340341;10.76678939;34.02030961;-12.81258181;2.439129759;49.94235352;4.98540623
22.11095175;39.61095548;27.77635602;-13.14151204;5.103916699;-0.156138674;21.36290336;-10.12701282;0.062396382;-26.18356677;23.41819281;-14.01754466;15.89038258;8.105421472;31.08401796;-43.31365394;1.386724994;55.63645563;7.250247929
26.0588354;40.24800732;26.68636065;-14.21068539;6.686803127;-0.251632994;22.29227978;-10.71489631;-1.829237057;-26.54446853;27.46583939;-13.2493703;13.52881304;5.268868771;27.93157714;-55.6240906;-0.689064605;56.35575053;8.14153832
28.83128026;39.26257411;25.66820756;-15.03581096;7.593991215;-0.242903933;17.81993258;-9.41794704;-1.190509323;-27.59053493;28.9319254;-13.35821341;15.38390246;3.957297762;26.46306572;-43.8862459;-2.688469284;52.22218389;7.677150716
29.82707888;39.05265144;25.56264091;-14.99531393;7.496523854;-0.025887919;7.477638265;-6.602517727;1.3730937;-28.30018403;29.83282848;-11.36469792;21.27568113;5.005067985;27.04758783;-16.77925148;-3.772492684;46.06787053;6.542665578
28.59860075;40.39610967;25.55716223;-15.44830338;6.348148249;0.29638806;-4.781894056;-4.193621088;5.152138417;-27.99060224;33.69851731;-4.678289927;28.93604116;7.403451063;28.2289774;8.473135106;-3.838286539;41.54922993;5.543453924
25.24274931;42.1282792;24.38640299;-18.36495792;4.328254367;0.479322862;-12.47055104;-4.068484397;9.66940621;-26.59230554;41.69036618;6.062913771;35.14727386;9.111529734;28.08154476;17.9499431;-3.372132406;40.95424173;5.116433288
20.60226106;42.15093367;21.8513776;-24.09434948;1.69864496;0.351621644;-10.68945192;-6.373604482;14.41571709;-24.53094465;50.72456953;16.95882583;37.57646033;8.939302058;26.01764283;9.879366567;-2.906782581;44.15701099;5.223629244
15.9832957;38.84091506;19.18422612;-30.21473906;-1.303617466;-0.018179877;0.39360724;-9.269350435;18.55988717;-22.34829914;55.48381876;23.68653989;36.07883809;7.731988774;23.44759788;-5.855854736;-2.578770571;49.16256805;5.598420153
12.49942305;31.88195458;17.94803131;-32.71160529;-4.498127724;-0.363045748;15.33180934;-10.37724924;21.13567547;-20.38003906;52.77837747;24.78214937;32.57703734;7.714404112;22.70938123;-16.48147616;-2.110336059;53.55775063;6.051087
10.51007813;22.18771773;18.54604554;-28.86780835;-7.741314912;-0.437849968;26.7652312;-8.717362816;21.61991914;-18.72429711;44.56853395;22.60894664;29.64030719;10.57261819;25.18737028;-16.03245802;-1.139679256;55.76697094;6.561231127
9.578419714;11.240201;19.75462533;-19.72718734;-10.88492376;-0.224850373;30.06086956;-5.489310036;20.34342954;-17.45392271;36.94519476;21.28062588;28.81049851;16.03026003;30.19132166;-8.528184993;0.435711328;55.43807151;7.128079712
8.941865281;0.352893726;19.72711813;-10.11190572;-13.73186366;0.059535142;25.98676321;-3.047449383;18.28435261;-16.80684009;35.67024415;23.34565601;29.83960658;22.19935309;35.4390772;-2.956098006;2.363708986;53.03628795;7.577893982
8.060078125;-9.843152642;17.57029703;-5.928585102;-16.01881079;0.162872354;19.63331563;-2.9660898;16.3623456;-17.12877154;41.7358972;27.92490208;31.25037502;27.30049551;38.5971961;-5.077293866;4.176361681;49.18196952;7.548951833
6.78074419;-19.60628972;14.09873546;-10.53875664;-17.46865403;0.022181279;16.52321252;-4.836683238;14.8269258;-18.60509143;50.44607105;31.6099566;31.62742571;31.05808955;38.5440523;-13.11113785;5.364628483;44.21072475;6.697585251
5.075348679;-29.90448481;11.13638393;-22.69419305;-17.92411824;-0.184501029;18.80455749;-6.762489076;13.26388377;-21.04108032;54.74854468;31.11849789;30.58052817;34.42602565;35.4690215;-20.40564554;5.453691979;38.10232002;4.967890501
2.746911381;-41.74167367;10.02271602;-37.39463609;-17.49147703;-0.204518354;24.19220043;-7.044512669;11.19373301;-23.91426009;50.25059255;25.47085032;28.71147534;37.97368565;30.08175288;-22.00040937;4.040129539;30.67404092;2.713565039
-0.452934752;-55.11141825;10.62691665;-48.93369274;-16.56029186;0.05628011;28.17853212;-5.579008769;8.708088596;-26.65717741;38.1689878;16.1940527;26.78;40.65326576;22.93885085;-18.9510179;0.93716735;21.89350707;0.578076402
-4.304600701;-68.14441133;11.6463426;-53.96920522;-15.60849718;0.442752945;27.6466148;-3.821933818;6.556968459;-28.89678454;24.21988537;5.894824698;24.87629883;40.38489602;14.55129475;-16.78019317;-3.566188467;12.20206602;-0.788096532
-7.717281707;-77.23767184;11.80661419;-52.68975959;-14.85828729;0.681590849;23.14271449;-3.462054518;5.586223505;-30.42077114;14.59200647;-3.248154485;22.30641752;36.11838061;5.946028787;-19.90600989;-8.549997207;2.703034734;-1.004549147
-9.009556081;-78.52732111;10.85496228;-47.70720444;-14.00837915;0.615843352;18.24347279;-5.021424709;5.998533846;-30.93843217;12.14089621;-9.899923153;18.24393546;29.42334541;-1.22736713;-27.3761383;-12.67732398;-4.994422261;-0.098988909
-6.899102749;-70.10724168;9.546526627;-41.88546913;-12.28536619;0.335466845;16.68912025;-7.557506238;7.078026173;-29.9651639;15.3808833;-13.09991046;12.57199364;23.84411458;-5.507079581;-33.75319413;-14.8027495;-9.390178858;1.529046929
-1.530495752;-53.61165517;8.795673371;-36.76652908;-8.876363818;0.093250174;19.54832862;-9.594488369;7.643256655;-27.09837362;20.45725981;-12.03830589;6.241336697;22.23365145;-6.765616945;-34.13552555;-14.6465465;-9.9614997;3.277205653
5.331202892;-33.92295943;8.867486262;-32.44108469;-3.531664015;0.086841382;24.51804176;-10.34823836;6.899070993;-22.57374765;24.11861623;-6.773973677;0.902872609;24.30475787;-6.548514141;-28.57650129;-13.05441703;-7.746394634;4.572454861
11.2522758;-16.92288593;9.313355273;-28.47554225;3.041331293;0.3009601;27.77906449;-10.16141291;5.033894634;-17.62380255;25.39286348;0.712766799;-1.876771754;26.74201275;-7.035814705;-21.88553013;-11.58918439;-5.102178651;5.089309649
14.62026119;-6.594748107;9.562297909;-24.85451652;9.291671143;0.541623096;26.93905084;-9.887882478;3.104090995;-14.17744952;25.13811995;6.529648119;-1.288900483;26.0840321;-9.320501482;-19.13582915;-11.66118518;-4.568420117;4.867811776
15.5611961;-3.325225246;9.475653788;-22.18486594;13.44955079;0.618697167;22.86553992;-9.943077946;2.288802971;-13.90159599;24.43406608;6.692807214;2.474217542;21.99417188;-12.46533924;-21.10851295;-13.74203558;-7.428612917;4.257658762
15.56209629;-4.456818278;9.317602006;-21.18450321;14.34561825;0.505454574;19.08815687;-9.9693353;3.060901957;-17.14830167;23.42924802;-0.135113434;8.364973226;17.89069703;-14.26190028;-23.83580836;-17.15203719;-12.90397232;3.688105581
16.09186817;-6.564984485;9.277285854;-22.02308605;11.97562409;0.335894515;19.2172859;-9.3903456;4.867152017;-22.55301846;21.47799034;-11.05058544;14.79606136;18.03308162;-13.1545605;-22.53902171;-20.50927777;-18.58633266;3.381534483
17.33211613;-7.771347759;9.165753744;-24.04297711;7.501089153;0.256114075;24.20675348;-8.231531543;6.535890945;-27.63292156;18.12186645;-20.03901012;20.00131412;23.38645165;-9.699344033;-16.21261986;-22.49527271;-21.89514617;3.203417263
18.05325549;-8.528973494;8.694250388;-25.98555143;2.694979324;0.278604316;31.36107276;-7.325199588;7.121564873;-30.03897435;13.8578645;-21.48410467;22.47633928;30.03653288;-6.24181346;-8.58710641;-22.44703626;-21.61886188;2.781320551
16.73570156;-10.57578348;8.048576752;-26.52104207;-0.861561977;0.278047446;35.78362387;-7.631146913;6.602912157;-28.66386096;10.05229187;-13.82487464;21.51536329;32.05036558;-5.019249673;-4.62087417;-20.49390166;-18.53200185;1.837685451
13.00270139;-15.11659121;8.044792618;-24.83332193;-2.418554656;0.128660069;33.35204007;-9.287264597;5.951718787;-23.95411199;8.2086144;-0.818877887;17.65460862;26.79687737;-6.300446259;-5.829440588;-17.30518228;-14.73464913;0.497485533
8.160829062;-21.71336053;9.485746942;-21.09502559;-2.242798229;-0.151835728;23.3534564;-11.31173714;6.498184545;-17.38416844;9.236950401;10.54558499;12.67930202;18.15077629;-8.194938088;-8.830195138;-13.71844818;-12.25135564;-0.685685281
4.369209848;-28.60998536;12.17017381;-16.66322787;-1.318631875;-0.392821989;9.169543542;-12.30774642;8.975782349;-10.61691752;13.13226792;14.14232749;8.991483119;14.20924879;-8.327246915;-8.502863598;-10.46728604;-11.88798401;-1.047802884
3.082767252;-34.01043953;14.52080555;-13.75693206;-0.772903949;-0.410944847;-3.37738998;-11.59739604;12.85776796;-4.956437447;18.98909366;8.146895982;8.541141622;20.55808018;-5.927155047;-2.893945766;-8.045060852;-13.06113218;-0.268390701
4.010009766;-37.17218263;14.41043033;-14.49295263;-1.334157849;-0.174408967;-9.027528631;-9.791567455;16.45657351;-1.287062672;25.13724758;-4.255624487;11.88347907;34.24766928;-2.50055849;4.654316199;-6.630702192;-14.54900725;1.377839281
5.407839333;-38.51844405;10.72617411;-19.5834247;-3.067401282;0.158787084;-5.729371349;-8.281946892;17.80970236;-0.203318299;29.44364367;-17.04823495;17.91569192;43.8615365;-0.485044109;8.190165805;-6.044521476;-15.47385331;3.176669784
5.46106104;-38.89621623;4.439653121;-27.47060399;-5.448801663;0.365970158;4.482791508;-8.090503343;15.86958012;-1.921884975;30.01958706;-24.79447256;24.43301857;36.73168941;-1.076833036;4.345240142;-5.797514343;-15.77522345;4.437431386
3.649632507;-38.76984699;-1.796627418;-34.68912567;-7.668259512;0.339026338;16.74052499;-9.072623387;11.26370324;-5.91409678;26.27928975;-25.15714001;29.13306239;8.611405258;-3.157573866;-4.552027005;-5.296853005;-15.93931873;4.926724756
1.064142095;-38.03007813;-5.355019461;-37.55964242;-8.96661627;0.161530132;25.92225752;-10.14228676;6.09157163;-10.64994202;19.69904972;-19.3420096;30.48031;-31.44859657;-4.281207818;-12.19741931;-4.144517879;-16.3578165;4.960136102
-0.495707131;-36.42652378;-5.374830677;-34.31126767;-8.857044269;0.020869709;29.1258053;-10.27725786;2.802622551;-13.93496688;13.42113726;-10.75041145;28.05636261;-65.30482839;-2.855556104;-13.36043051;-2.343224968;-16.91754708;5.10560643
0.144065349;-34.06443803;-3.197102444;-26.2103078;-7.196333189;0.039294222;26.76804161;-9.392863029;2.809416821;-13.90401309;10.51320458;-3.031811101;22.43997366;-76.74051322;0.408016957;-7.896692888;-0.25357768;-17.13966151;5.744389558
2.811476595;-31.43578656;-1.18814604;-16.79988524;-4.167642317;0.175242542;21.87070922;-8.332877692;5.713731823;-10.13546459;11.87218599;1.355521448;14.91314048;-61.81918912;3.056822949;-0.401231603;1.666291698;-16.68043965;6.821121544
6.351765615;-28.97591421;-0.93535217;-9.671955561;-0.243829592;0.276626951;18.08358634;-8.044354671;9.662891894;-4.092888306;15.40878188;1.665930096;7.198858573;-31.29200077;2.973892003;3.91623254;3.125271673;-15.70899429;7.938349424
9.651213907;-26.61933932;-2.245818596;-6.318917355;3.868602663;0.228428402;17.62658993;-8.723953707;12.61291734;1.540707501;17.46075848;-1.318909547;1.169940653;-3.385916662;0.146746903;3.350315412;4.056442532;-14.81151311;8.673972009
12.43214724;-23.82250095;-3.631435183;-5.607244117;7.366894598;0.055926758;20.28791565;-9.704165937;13.65347551;4.326292844;15.66309423;-5.816780632;-1.64210266;7.852908255;-3.399540177;0.333953557;4.453446051;-14.49339313;8.853082539
15.2167806;-20.07129701;-3.70394693;-5.200476916;9.604923826;-0.107221307;23.94774669;-10.13656527;13.49659439;3.444338155;11.10138348;-9.727990057;-0.7046477;0.522504925;-5.39619534;-1.53332739;4.186480764;-14.69893194;8.590470612
18.58927471;-15.44163077;-2.22672922;-3.754482143;10.37935062;-0.148847137;26.19069106;-9.79852423;13.80529989;0.125637634;7.815390621;-11.42391274;3.058592964;-15.96611835;-5.235309421;-0.958437807;3.019151659;-14.76737711;8.134183288
22.42887341;-10.74040878;-0.01503064;-2.120970137;10.06259036;-0.080664734;25.94266607;-9.266552925;15.8442743;-3.108625632;9.674558662;-10.48283614;7.469383271;-29.04715658;-4.32450644;0.340681458;0.843696786;-13.9078537;7.68517628
25.73445285;-7.125784474;2.028488464;-2.617060666;9.425828513;-0.018661154;24.09030465;-9.317206072;19.40361493;-3.896371803;16.88097677;-8.021324812;10.07204771;-31.95885407;-4.658463103;0.08302119;-2.08654759;-11.87129144;7.332158683
27.13383533;-5.522747301;3.728983191;-6.990548853;9.183778652;-0.064310514;22.71350306;-10.14451843;22.75392186;-1.297673013;24.98839802;-6.293189717;9.424600583;-27.08998425;-6.967258228;-1.684061387;-5.183587941;-9.326674917;7.091293407
25.65344347;-6.247829313;5.557529215;-14.75247138;9.519072756;-0.202040844;23.4832413;-11.14461105;23.68620066;3.80700023;27.61798661;-7.585596893;5.897361421;-22.12436477;-10.12954156;-2.308103128;-7.842526335;-7.629332258;6.941563875
21.21527447;-9.002368201;7.845967482;-23.22141207;9.919477164;-0.310878395;26.35771047;-11.47490544;20.97042966;9.297438565;21.16246072;-12.92177915;1.399065982;-22.91727335;-12.3328035;0.750236604;-9.797944109;-8.069762625;6.79238431
14.63017738;-13.07752854;10.18152893;-29.22561647;9.487200291;-0.279222573;29.53717675;-10.86301604;15.30481206;12.95583364;7.965242796;-21.31323481;-1.851224491;-29.00793653;-12.84378926;6.90553761;-11.19638358;-11.04324998;6.444785558
7.238778753;-17.53617869;11.64927009;-31.109805;7.552960733;-0.114352931;30.77532957;-9.901858024;9.153903903;13.54153858;-4.686266736;-30.07198421;-2.714849109;-34.90419414;-12.69966;12.30844619;-12.29972823;-15.65914191;5.659327828
0.492285891;-21.31702388;11.70470998;-29.54114258;4.187631562;0.05694525;29.14591909;-9.541108598;5.536509492;11.30401287;-9.373166249;-36.10406015;-1.759871869;-35.36085614;-13.64170354;13.06111289;-13.08081794;-20.06786671;4.346589909
-4.370781469;-23.39734167;10.78541782;-26.65926426;0.249166383;0.098894774;25.93993934;-10.22963572;6.412145318;7.759574182;-3.816823142;-37.51682613;-0.718670938;-29.87275567;-16.25853729;8.945536451;-13.10617639;-22.36841022;2.73740365
-6.583106846;-23.11648868;9.987474663;-24.42960619;-3.081058573;-0.012345443;23.8934863;-11.49142498;11.52850038;4.88610707;7.295164499;-34.64650969;-1.180048828;-22.72846971;-19.07915485;4.071053284;-11.87196832;-21.61207008;1.342891487
-6.089599087;-20.53174822;10.05369651;-23.54379233;-4.960524792;-0.167453564;25.13485853;-12.32856642;18.36911523;4.124611932;15.43642554;-29.89260927;-3.430505946;-18.96032061;-19.54305755;3.529767918;-9.34714966;-18.34283852;0.661549837
-3.672226559;-16.51304123;10.65380178;-23.55082878;-5.305840209;-0.220734524;29.27532875;-12.09640831;23.30980314;5.66403307;14.20553416;-26.39094305;-6.22402224;-19.91282175;-16.09694495;8.877888068;-6.247335786;-14.36118739;0.823764141
-0.764101251;-12.40045138;10.7323998;-23.77955378;-4.723342883;-0.115966818;33.149275;-11.06984011;23.47732533;8.377206248;3.87137243;-26.22595538;-7.603394375;-22.21565407;-9.630121759;16.54721663;-3.740900531;-11.83164125;1.466468566
1.112113779;-9.381522158;9.689952431;-24.04361825;-4.056063526;0.071790887;32.65730837;-10.19833871;18.36539411;10.46226139;-8.781326949;-29.20447887;-6.198599091;-20.870572;-2.996485312;20.79940421;-2.74732212;-12.2245501;1.978547376
1.054599979;-7.991059155;8.279359577;-24.54010809;-3.888833042;0.212033276;25.63902225;-10.27219393;10.25440823;10.44210534;-15.21224176;-32.96867224;-2.155891229;-13.68426767;0.994049265;18.72249758;-3.340947218;-15.66603331;1.954238838
-0.777994397;-8.049892362;8.230474684;-25.26359994;-4.307636799;0.237909869;13.79566051;-11.23799674;3.0282759;7.928857809;-11.1094609;-34.48506882;2.859443822;-3.292649481;1.444769297;12.79461134;-4.711887444;-21.01365657;1.496436136
-3.299339581;-9.003508676;10.73531411;-25.73984958;-4.96212112;0.197665063;2.147491781;-12.25381788;-0.08828702;3.686208554;0.601891819;-32.08772057;6.538137659;4.809935229;-0.385666301;8.619175127;-5.703772436;-26.53997632;1.112726916
-5.127257449;-10.31934564;15.06445947;-25.47882944;-5.268031;0.194368026;-3.856669704;-12.41260873;1.448979738;-1.003315554;11.75044811;-26.80286883;7.119728244;6.470878956;-2.501268952;9.796961186;-5.509974581;-30.77041021;1.280116094
-5.300378262;-11.62804572;18.66181076;-24.68637327;-4.581510875;0.275904767;-1.758596101;-11.48777206;5.101466016;-5.156738177;14.41729142;-22.00294898;4.217597743;1.830974608;-3.869740452;14.59566215;-4.031389066;-32.99610412;2.040433627
-3.635654111;-12.60729647;18.89660532;-24.35719553;-2.33493981;0.382818427;6.301527585;-10.06943894;6.923319381;-8.45772537;6.122259866;-21.43530386;-1.129203585;-5.220675483;-4.903934833;17.56311234;-1.725680777;-33.26060398;2.971405961
-0.581404888;-12.88513776;15.18440432;-25.39031695;1.760662296;0.404921517;14.99441783;-9.022229373;4.351073572;-10.92691829;-8.717978157;-26.76184111;-7.109507608;-10.3629286;-6.440770222;14.75535513;0.797791473;-31.98498849;3.55853109
3.208595625;-12.19677745;9.714535662;-27.39138145;7.421245758;0.292833422;19.36204092;-8.780678392;-1.794656293;-12.27177282;-21.79694863;-36.18670569;-12.04930167;-12.04085416;-8.350881832;7.834779811;3.038557094;-29.58624453;3.641057749
7.212076388;-10.70459716;6.038356505;-28.36108192;13.58707062;0.116687685;18.10704944;-9.090763113;-7.6331619;-11.61632066;-26.15857451;-45.1592091;-15.0367159;-12.01948682;-9.228195756;3.122227874;4.560747293;-26.34591288;3.533044612
11.08869526;-9.123664124;6.498809934;-25.8835063;18.59780712;0.012383955;14.30343637;-9.358488609;-8.822437387;-8.013671573;-20.18519329;-48.83451582;-15.95378426;-13.16784701;-7.553414257;6.162715554;4.84743515;-22.51685376;3.702130673
14.54023393;-8.391451935;10.48142294;-19.10714058;20.84938837;0.061523495;12.98936368;-9.218376619;-3.649974455;-1.423716457;-7.968914192;-44.81231059;-15.01498431;-16.64442613;-3.286611827;16.52724971;3.377072432;-18.45405452;4.285089749
17.22048946;-9.035930109;14.87116056;-9.901306784;19.6525619;0.215760962;17.30564223;-8.786192371;5.686563214;6.697040254;3.783515036;-34.46512515;-12.24972864;-20.94166298;1.642076354;27.60505384;-0.00476449;-14.57988237;4.879771928
18.82207143;-10.74645754;16.3664332;-1.989875096;15.74012995;0.338333591;25.90924568;-8.414060771;14.67218517;13.88;10.02640791;-22.07675429;-7.402853417;-23.43500435;4.541661609;31.84834967;-4.72145313;-11.19683114;4.825225229
19.24179435;-12.5674376;13.84710315;1.571078926;10.99186107;0.328406524;33.53877959;-8.25598192;19.83143331;18.07020039;10.09356177;-12.41056046;-0.404364764;-22.85988477;3.942972351;27.0431494;-9.52581161;-8.338976439;3.754478476
18.62630805;-13.63150303;9.001621302;0.730083008;7.445498225;0.215730061;34.42351204;-8.107158285;21.30028081;19.02218292;7.417534519;-8.252762758;7.932990236;-20.43522974;0.688497648;18.09278327;-13.09367486;-5.835488975;1.950338109
17.2225746;-13.85354401;4.851082381;-1.340889481;6.18811757;0.136805285;26.24681667;-7.672295024;22.5722131;18.56712711;6.81622524;-9.334150538;15.63414883;-18.67918616;-2.808414937;12.63195175;-14.77554444;-3.559767741;0.184163698
15.1708672;-13.98475037;3.457892349;-0.557621123;6.853112161;0.209651274;11.98213894;-6.966354806;27.54660091;19.41843072;11.30919059;-13.01910877;20.17425043;-19.05947824;-4.502770751;14.26077633;-14.91781636;-1.642977802;-0.848747896
12.45539088;-14.94289679;4.634058683;4.833017301;8.045290741;0.417346213;-1.637359563;-6.40591094;37.16976025;23.29425227;20.44940658;-16.04750838;19.84144845;-20.62150201;-4.194094228;19.43863431;-14.45944442;-0.431448265;-1.037839692
9.078508034;-16.96429761;6.512652696;12.55727417;8.362639912;0.606301963;-8.00975293;-6.454379143;48.35539001;29.70178653;30.97910449;-16.1676998;15.04855222;-20.81;-3.299852283;20.97054163;-14.0994937;-0.181606739;-0.89415975
5.288301161;-19.30580272;7.291658998;17.60682491;7.274475405;0.60623606;-4.410659104;-7.142265244;56.10580306;36.2657607;39.10280844;-12.87182229;8.610039063;-17.72563516;-3.191039094;15.14143848;-13.71352519;-0.734893886;-1.097041415
1.604304088;-20.77619839;6.613559566;15.72541066;5.265975525;0.372305808;6.701795943;-7.942626033;57.19624008;40.32819579;42.76721356;-7.188894458;4.538087381;-11.79933511;-3.622702889;6.060306187;-12.51743642;-1.474197959;-1.940571255
-1.443821745;-20.66872132;5.533567765;6.58179069;3.243228228;0.029593103;19.44901426;-8.172388348;52.50366017;40.60763678;42.52336227;-0.994701575;5.882728871;-5.420569071;-2.714101614;2.893196536;-9.858211113;-1.661333074;-3.137577221
-3.668284368;-19.31630434;5.321090952;-5.7203178;1.746305405;-0.217012053;28.05143202;-7.592278266;46.13677794;37.72684078;40.60144138;3.704763854;12.88158422;-0.885937099;1.422284324;11.77644145;-5.967629765;-0.944064092;-4.114280467
-5.342698542;-17.81114613;6.275970644;-15.20558864;0.612864147;-0.232014497;29.86062338;-6.662767252;42.10988493;33.36093317;39.02430439;5.349875519;22.61751856;1.478957423;8.760058594;29.1171397;-2.019016613;0.344165984;-4.503097377
-6.934708788;-17.14343626;7.572437345;-17.8297903;-0.678375896;-0.037199746;26.20880517;-6.197933519;41.28557935;28.83773869;38.15266967;3.280266553;30.4824696;3.345299555;16.80654404;42.36204535;0.608159711;1.342881098;-4.388862415
-8.63303723;-17.49495289;8.130855775;-13.83773218;-2.322227602;0.224443226;20.89449348;-6.696016701;41.05;24.36194462;36.6551282;-2.003019065;32.59789287;6.537176835;21.97392665;38.43202975;1.293750484;1.203056539;-4.110725348
-10.058587;-18.25436133;7.622077975;-7.138030893;-3.762638347;0.406092216;17.54183962;-7.925138661;37.89231147;19.39627437;32.83143444;-8.97976836;27.74084978;10.98259679;21.85978629;13.65443709;0.613473363;-0.354873673;-3.836650106
-10.43117791;-18.66595278;6.698520762;-2.366773445;-3.905051353;0.452943824;17.54723212;-9.125274608;30.64527607;13.69872674;26.23375747;-15.77869167;17.68382826;14.34361689;16.70072761;-22.52598404;-0.085845623;-2.843161721;-3.332128808
-9.101417854;-18.47677826;6.337131751;-1.892720135;-1.831402254;0.405986959;19.71876394;-9.644474585;21.62955581;7.977583057;18.32038786;-21.12468697;5.90386143;13.76508096;8.955026883;-53.14618062;0.380832689;-5.295250449;-2.156353039
-6.052075365;-17.99533414;6.985678793;-4.838048415;2.496483852;0.331006608;21.55141554;-9.44870471;14.74242706;3.523661263;11.59576365;-24.98871754;-4.392597512;8.320661787;1.45714656;-64.61;2.319688097;-6.834241235;-0.113309927
-1.985410713;-17.5579837;8.296950903;-8.515278522;8.035301332;0.251182079;21.1259136;-9.07094743;12.13129249;1.135402801;7.829162981;-28.44502538;-11.70241807;0.071516668;-4.366620639;-54.92456605;5.147793103;-7.14304984;2.463848762
2.065007937;-16.96993489;9.599199682;-10.88060943;13.08326274;0.144584167;18.38536107;-9.076240535;12.29069707;0.317803556;6.671192021;-32.77146973;-16.41790498;-7.22790884;-8.926520491;-33.63;7.976335649;-6.552133897;4.877201485
5.295723637;-15.51521389;10.54285703;-12.02894884;16.0450923;-0.003515217;15.05982244;-9.547056432;11.22571625;-0.470040283;5.750922123;-38.4149254;-19.94587372;-10.78412326;-13.42445083;-14.20285493;10.23016546;-5.729566717;6.553634945
7.45706612;-12.58798111;11.25956851;-13.71759808;16.09431864;-0.15750548;13.39557643;-10.05250849;5.756648209;-2.639868065;2.284857689;-44.57819265;-23.49946599;-10.64788523;-18.3581167;-5.077679039;11.82077085;-5.203986522;7.433292571
8.747874354;-8.388092727;11.92946668;-17.5258559;13.42208494;-0.247645105;14.57420897;-10.10384907;-3.734309215;-6.303124683;-4.880500244;-49.71316543;-27.2960663;-9.334612444;-22.80934922;-5.704578809;12.86344032;-5.022404823;7.911579606
9.436806864;-4.017576329;12.29180027;-23.24526545;9.030727551;-0.231597639;17.87531604;-9.64947736;-13.33064126;-10.06655375;-14.22254704;-52.49754239;-30.46607823;-9.556483648;-24.98498388;-9.499529935;13.34034928;-4.729844856;8.388619297
9.548882481;-0.824607327;11.70725652;-28.76761331;4.238384085;-0.138094356;21.15592162;-9.138451556;-18.31558033;-11.98670139;-22.25231874;-52.52331909;-31.54048198;-11.96249635;-23.46231245;-10.20203962;13.08895011;-3.659184269;8.839107307
8.846506404;0.486125319;9.808555687;-31.48081492;0.131313668;-0.044491752;22.3606525;-9.096715379;-16.4039054;-10.95386416;-25.53132282;-50.22998715;-29.20425453;-14.70617861;-18.15085501;-6.259433522;12.09538467;-1.360390502;8.804564856
7.06;0.233951951;7.122038388;-30.04487591;-2.821836492;-0.004854204;21.05382546;-9.622171381;-9.014841641;-7.459735755;-22.67063089;-46.29753859;-23.03339181;-15.0963485;-10.36066908;-0.421369307;10.71067729;2.055702401;7.829279567
4.133828974;-0.672982753;4.969303838;-25.24225414;-4.839265038;0.003469126;18.86552999;-10.28137396;0.133767297;-3.220009766;-15.04946134;-41.16252051;-13.97924835;-11.87907967;-2.116934007;3.93545914;9.455217928;5.834953428;5.948597135
0.295287682;-1.583756642;4.582276455;-19.39799744;-6.529718107;0.060277754;18.41033708;-10.51193499;7.675987709;-0.011755399;-5.899987853;-35.13347664;-4.350732731;-6.262944139;4.677370789;5.89884514;8.503803872;8.817909435;3.770194326
-4.053367431;-2.605920397;6.127219469;-14.92759267;-8.35843722;0.223224908;21.30091091;-10.15589887;12.30041902;1.381574952;1.522857029;-28.9363759;2.891509534;-0.932331434;8.743060882;6.965653513;7.335767271;9.9132091;2.039808539
-8.473015765;-4.330978311;8.50618254;-13.07946259;-10.19057485;0.460825054;26.62570235;-9.619257578;14.44741652;1.422232022;5.478096243;-24.01988281;5.417618951;2.025969562;9.540744679;8.557656223;4.982993087;8.597346836;1.049131959
-12.5403723;-7.061666376;10.17952291;-13.61193786;-11.26639941;0.662945837;31.09534837;-9.496313065;14.81057295;1.252512802;6.132948973;-22.08425966;2.828078306;2.551754316;7.243239929;9.974472057;0.806078974;5.188099233;0.407454985
-15.84625421;-10.2753718;10.35952126;-15.3663392;-10.73209724;0.725342095;30.98298325;-9.998553701;13.34779098;1.858955896;4.823082887;-23.98993667;-2.837986452;2.339899477;2.727824646;8.898805253;-4.793122744;0.723910519;-0.599150047
-18.05822533;-12.85341493;9.567069573;-17.12265811;-8.43444236;0.636325266;24.67792209;-10.72054463;9.724424441;3.549573277;2.895896723;-28.85686982;-7.909533575;3.293281344;-2.512840712;3.907147291;-10.36230263;-3.518388554;-2.347835006
-19.0903048;-13.92146061;9.069119687;-18.12911677;-5.387030964;0.488626845;14.09260304;-10.97595511;4.515764573;5.929998237;0.964902782;-34.18237974;-8.955035476;6.104422009;-6.742323313;-3.532100913;-14.20770324;-6.619956309;-4.482343015
-19.25625197;-13.58952836;9.683205753;-18.13826459;-3.429265928;0.403941293;3.822395512;-10.41483205;-0.338370575;8.170980688;-1.052130354;-37.10723521;-4.698847373;10.06624012;-8.628116734;-9.604462782;-15.45453946;-8.393532483;-6.136500359
-19.2098801;-12.9421248;10.99535463;-17.20548184;-4.140290432;0.434209775;-1.520535051;-9.366345467;-2.609390059;9.302525951;-3.353062013;-36.07961109;3.198854135;14.00990042;-7.843348435;-10.90202827;-14.54173871;-9.316183172;-6.610951296
-19.60475023;-13.25359107;11.68457354;-15.57045365;-7.679328672;0.523829424;-0.062222378;-8.587634162;-1.591009211;8.485102542;-5.707069506;-31.80678511;11.02508044;17.30702809;-5.207840996;-7.030977479;-12.75968766;-10.07526547;-5.944570324
-20.65102068;-15.0467357;10.68059809;-13.68546238;-12.40830489;0.563033412;6.345735814;-8.629169957;1.044889538;5.358262569;-7.410103948;-26.83845062;15.02823545;19.99315056;-2.215838433;-0.853731336;-11.20928256;-11.03321178;-4.90203564
-21.89245366;-17.728303;8.147828061;-12.1951482;-15.69096229;0.483543089;13.5446815;-9.372293802;2.336280558;0.43105692;-7.787713687;-24.04847432;13.32363551;22.06817759;-0.217981273;3.787351434;-10.0316029;-11.97095117;-4.385667348
-22.41780398;-20.04670309;5.4329904;-11.68467379;-15.43702556;0.313619135;17.84240278;-10.14353369;0.331951274;-4.793309832;-6.877348803;-24.98822653;6.600593298;22.89893467;0.237588163;4.913082991;-8.524482121;-12.27933802;-4.757787833
-21.41597839;-20.96337463;4.010941814;-12.27666085;-11.38212288;0.149113703;18.17881533;-10.29953522;-4.297054007;-8.299693753;-5.759152715;-29.09684681;-2.594037556;21.53635461;-0.472491077;3.531692028;-6.011998923;-11.45841748;-5.623603414
-18.71759227;-20.25741151;4.326652219;-13.39621645;-5.232112411;0.072080525;16.26031601;-9.765004956;-8.744374221;-8.597947036;-6.177920964;-34.13878528;-11.31514219;17.77406037;-1.466013644;2.347579477;-2.695173602;-9.569440923;-6.226547284
-14.95375857;-18.47790277;5.510707921;-13.97755269;0.415896729;0.091015092;14.79717249;-9.059215238;-10.28311714;-5.703312278;-9.520765087;-37.48546918;-17.44437127;12.88475283;-1.993470849;3.367144969;0.272898549;-7.313699186;-6.095630369
-11.22291214;-16.41349249;6.181922031;-13.05814807;3.614074395;0.151168776;15.34599529;-8.808576283;-8.337811216;-1.258098389;-15.67137832;-37.45580831;-20.13135183;9.093782483;-1.898539854;6.424566888;1.586375861;-5.664613717;-5.394770277
-8.491130422;-14.57575436;5.619722654;-10.36843963;4.028265251;0.196871641;17.40228688;-9.193576208;-4.670369967;2.517273864;-22.48674496;-34.03246201;-19.58867883;7.965495476;-1.66920707;9.623033723;0.811726594;-5.281644494;-4.706837112
-7.113453495;-13.06109592;4.299043347;-6.479265523;2.774239253;0.223006179;19.25941291;-9.817645989;-1.596468865;4.455039808;-26.43384147;-28.68642036;-16.72768666;8.996855353;-2.091372706;11.00373348;-1.218805769;-6.084248297;-4.480993715
-6.751887729;-11.7604998;3.364777371;-2.381356645;1.412830265;0.268928688;19.70854047;-10.09117454;0.13062868;5.466311561;-24.29485834;-23.48117968;-12.92744075;9.753058666;-3.698030425;9.913574858;-2.99690895;-7.267108667;-4.647541606
-6.689037539;-10.62055401;3.550469583;1.196398903;0.923396274;0.366306496;19.0686005;-9.762592911;1.880853548;8.059731341;-15.11044158;-19.91916364;-9.813367296;7.680188481;-6.290466288;7.111919191;-3.46339613;-7.762883456;-4.731636556
-6.30484273;-9.73066525;4.503996819;4.21859138;1.331329358;0.495740518;18.73206707;-9.11535419;5.695989347;14.51808628;-1.176163487;-18.10067793;-8.781552137;2.26387145;-8.806823547;3.903702603;-2.78704484;-6.882684881;-4.343272241
-5.436298536;-9.273541463;5.092172502;7.207232321;2.047132264;0.595624031;19.74539341;-8.673218823;12.18489934;24.97620482;12.70491257;-16.67150941;-10.31134411;-4.236080385;-9.70750635;1.30173133;-2.193971011;-4.755815828;-3.590703781
-4.45726411;-9.515295115;4.38646307;10.66261457;2.443411118;0.613981214;21.75976061;-8.708086043;19.68901951;36.85686759;21.4908082;-13.69941323;-13.53588711;-8.191828405;-7.8030251;-0.130544149;-2.996015853;-2.309329157;-3.041133901
-4.077640516;-10.88392971;2.454922362;14.50664951;2.16987188;0.55229131;23.30868771;-9.010448308;25.46359575;46.21851097;22.4344077;-8.095154981;-16.58342693;-7.148324702;-3.133114368;0.013302489;-5.578452679;-0.799568723;-3.255986082
-4.969978203;-13.96103261;0.288471367;17.98725615;1.112519656;0.459473513;23.15438459;-9.121547978;27.78924304;50.17383869;16.33461298;-0.742723499;-17.69267427;-1.542159773;2.672928116;2.045877698;-9.104587376;-1.170481837;-4.297950176
-7.374996092;-19.18720791;-1.036803336;20.11647791;-0.711398501;0.383952805;21.47208329;-8.791478329;27.11956652;48.70358999;6.721472907;5.500215659;-16.42373852;5.71317817;6.943534561;5.742715044;-12.11364244;-3.611593192;-5.625684003
-10.85012032;-26.35057156;-1.211195006;20.30585763;-3.050260299;0.332500375;19.77040761;-8.223862449;25.31057699;44.57630042;-2.43868493;7.158791716;-14.05427617;11.37183151;7.269358146;9.869195813;-13.51513879;-7.560244157;-6.458182543
-14.3098388;-34.25044338;-0.838460231;18.72995679;-5.20515757;0.276284993;19.57044323;-7.877650228;23.77904744;41.43240827;-8.926529346;2.155459792;-12.7623853;13.979089;2.843734275;12.40937865;-13.23781309;-12.11054395;-6.305577424
-16.41908257;-40.94837817;-0.809720638;16.18148981;-6.098949378;0.195797101;21.00094405;-8.017131319;22.41378782;41.40191894;-12.88476459;-8.795782943;-14.10774455;14.36166529;-5.02914385;11.65643444;-12.11750698;-16.53003906;-5.254229453
-16.22090009;-44.62484525;-1.505682991;13.57590221;-4.860878559;0.115779611;22.59794524;-8.438705415;20.29123568;43.92663844;-15.62822544;-22.40034558;-17.8986344;14.33057001;-13.64662085;7.45137046;-11.19926107;-20.52165374;-3.830839327
-13.68761476;-44.54189185;-2.534656998;11.50007813;-1.628645313;0.090236541;22.57159254;-8.638503383;17.43546788;46.54335794;-17.80410236;-34.52156004;-22.27600649;14.92799592;-20.40699337;1.545475345;-11.01431562;-24.06097656;-2.620953746
-9.83785183;-41.43224758;-3.193909823;10.10691941;2.133475097;0.148584934;20.48779686;-8.273789914;15.72848133;46.95413597;-18.52592817;-42.29586285;-24.93610292;15.78571321;-24.10817031;-3.331120156;-11.32184402;-26.97372174;-1.972497764
-6.263136298;-37.0060177;-3.186259115;9.34;4.305988519;0.256944242;17.86446088;-7.494783901;17.75722845;44.82376157;-16.25123139;-45.23935037;-24.57596274;16.00495399;-25.22426915;-5.088031732;-11.4051621;-28.64866993;-1.966617138
-4.277833205;-32.92369944;-2.917877647;9.212131778;3.523944936;0.33886386;17.04501803;-6.836813963;24.34563739;42.02188737;-10.65823701;-44.78310889;-21.5458366;15.51244297;-25.11982636;-3.426027085;-10.62927695;-28.22042451;-2.559465648
-4.196399382;-29.98765806;-3.108792911;9.867318346;0.349245731;0.343194252;19.19887202;-6.761086421;32.97915362;41.21148167;-3.834409856;-42.8957738;-17.37373931;15.43179715;-24.93956867;0.239151838;-8.86418451;-25.20215282;-3.664873525
-5.211295593;-28.10205957;-4.07994881;11.39974182;-2.791926152;0.296553024;23.14075135;-7.251388925;38.85171996;43.87760891;0.466236261;-41.04791524;-13.69247347;17.0038439;-25.05783207;3.875139129;-6.555980371;-20.14538654;-5.07313442
-5.96862156;-26.90346587;-5.37162674;13.6468493;-3.077862294;0.285063046;26.08313713;-7.824681123;38.11348658;49.23942077;-0.794410909;-40.23891484;-11.43696873;20.06007813;-25.38381484;6.046165629;-4.485807693;-14.77032647;-6.338158001
-5.463110031;-26.41935538;-6.051982486;16.19756929;0.756767179;0.373294928;25.84751996;-7.943654717;30.8877601;54.79596631;-7.620227805;-41.63943237;-10.77421826;22.61077456;-26.02464995;6.432746757;-3.401951674;-11.30167928;-6.856745633
-3.64883048;-27.13498601;-5.468794206;18.64411203;7.393333572;0.531133066;22.76238188;-7.465332825;21.56536512;58.07269425;-16.55233748;-46.70570375;-11.51566717;22.18096115;-27.51521903;5.546502159;-3.702480622;-11.30107251;-6.197809275
-1.366772245;-29.41406788;-3.816847076;20.86126921;13.65341458;0.640650698;19.59475485;-6.737440089;15.95421506;58.31513904;-22.62293555;-56.12224881;-13.40755579;17.90880324;-30.29361689;4.142323703;-5.271670266;-14.71316876;-4.464734697
0.317691527;-32.8275532;-2.054583241;23.05254898;16.54038399;0.58778918;19.3877269;-6.275015589;17.38701798;56.96292081;-22.40170427;-68.2557613;-15.98369399;11.58546362;-33.90406657;2.863888739;-7.517343173;-19.79354069;-2.36453994
0.861283397;-36.06177359;-1.245826982;25.50588474;15.17514547;0.364981104;22.81803753;-6.318127325;24.74578352;56.61701943;-16.00471525;-78.72377955;-18.26111319;6.587776372;-36.79220731;2.221882543;-9.615690631;-24.04454632;-0.849546894
0.538341745;-37.59640696;-1.85349284;28.26935627;11.26134459;0.093233322;27.21595701;-6.659367833;33.80564917;59.24552682;-6.701845297;-82.17511055;-18.84024271;5.431204477;-37.12212189;2.621132061;-10.8955472;-25.60802965;-0.54768792
0.11430135;-36.67831396;-3.509925953;31.03983713;7.790203487;-0.063434149;28.20548201;-6.871328226;40.63073248;64.8584601;1.465392441;-75.62792848;-16.62726581;7.911155757;-34.12845216;4.200412332;-11.18871945;-24.23750637;-1.399344629
0.192530669;-33.83947732;-5.375348874;33.37041906;6.965665627;-0.024891726;22.90012441;-6.705368656;44.20584983;71.52618825;6.236582739;-61.10271573;-11.73156792;11.38187456;-28.92712311;6.602074552;-10.92643511;-21.24866862;-2.777020376
0.745597998;-30.54993311;-6.745614942;35.01151277;8.837572028;0.143119691;12.30691335;-6.298037765;46.31708106;76.69115316;8.057373894;-45.30826581;-5.751430661;12.95364801;-24.01428754;9.002349533;-10.86705459;-18.5384733;-3.982135733
1.164747265;-28.26569859;-7.442781095;36.07551997;11.52785711;0.286315109;1.081956768;-6.018289741;49.11999949;78.85864646;8.940383507;-36.05584922;-1.029712222;11.77813965;-21.69255096;10.53792721;-11.57465363;-17.37421206;-4.712558246
0.754825449;-27.57236066;-7.767190146;36.87974051;12.73479503;0.291407581;-5.296862999;-6.121351159;52.74397173;78.51649596;10.40645108;-37.55095612;0.720068359;9.536119285;-22.55311463;10.85418365;-12.9728303;-17.75213307;-5.135834523
-0.714028239;-27.99903992;-8.1505561;37.62961149;11.33420972;0.177690694;-3.978565395;-6.535711147;55.07234681;77.67;12.22082071;-47.78118706;-0.554151707;8.797016555;-25.15251316;10.32055105;-14.29544753;-18.66588147;-5.552963043
-2.793036493;-28.53133334;-8.822611687;38.26186068;7.970217899;0.072316974;3.588193568;-6.963245863;53.78533057;78.3255219;12.83578694;-59.89890867;-3.324018974;10.73585822;-27.11681568;9.72656178;-14.51136152;-18.97464845;-5.992248317
-4.605774659;-28.35677664;-9.700458172;38.60963575;4.384664469;0.09162291;12.83118726;-7.171691038;48.71478371;80.97568303;11.01126693;-66.67413453;-5.60412735;14.19346633;-26.81708252;9.736358295;-12.97489815;-18.20169196;-6.122731016
-5.371114844;-27.30711894;-10.48808247;38.71281385;2.148530585;0.233116231;19.10629012;-7.190058594;42.32452964;84.15152744;7.186416152;-64.89989881;-6.25128983;16.83205371;-24.37174706;10.57163728;-9.888258486;-16.75115582;-5.578853015
-4.859287016;-25.79725014;-10.84838129;38.90582457;1.755084626;0.374168798;20.42320196;-7.230719024;37.85288228;85.37471529;3.475409983;-56.76402219;-5.482966194;17.27702432;-21.33266374;12.11756642;-6.281788328;-15.5215123;-4.405105255
-3.525907349;-24.45538165;-10.54734629;39.4934894;2.598711201;0.380564966;18.07988105;-7.435849728;36.7659669;82.87696014;2.317318937;-47.53746571;-4.33333801;16.29552882;-19.46403126;14.19621409;-3.53153203;-15.30556928;-3.200140793
-2.27643304;-23.76645292;-9.560947392;40.2520622;3.647461187;0.231321741;15.09152943;-7.713701072;37.78942213;76.90663738;4.843554237;-41.62133023;-3.62173092;15.97182318;-19.6444514;16.61313125;-2.709969945;-16.40704015;-2.782261279
-1.996775708;-23.88540974;-8.148640809;40.27507598;4.199741069;0.049996438;13.84627027;-7.832958819;38.37793206;69.71810695;10.15444178;-39.9618505;-3.329317454;17.66543834;-21.64660947;18.91678804;-4.123654846;-18.61846275;-3.606660727
-3.070009766;-24.56573303;-6.833489058;38.49920466;4.228951559;0.011602029;14.73804991;-7.681481969;37.30649604;64.25123774;15.928586;-40.4488963;-2.835028382;20.63598701;-24.7028746;20.25689853;-7.231437262;-21.39824618;-5.38952851
-5.095756903;-25.12711533;-6.209557368;34.66676897;4.238956919;0.200415594;16.52873519;-7.42470439;36.04729473;62.41090414;19.82077895;-40.42967418;-1.681970815;22.60576179;-28.13732219;19.75644688;-10.91246933;-24.02382047;-7.243647086
-6.96664516;-24.53580934;-6.610152376;29.97553133;4.877365753;0.536341373;17.79156027;-7.387534493;37.62793984;64.09894492;20.67762339;-38.96078363;-0.122281695;21.76669397;-31.46531749;17.29717184;-13.91991435;-25.68092924;-8.232437594
-7.333550569;-21.75472564;-7.840980126;26.72426536;6.578402009;0.830565297;18.10127239;-7.750262108;43.85479681;67.56749259;18.91411488;-37.01733481;1.041235321;18.4172016;-34.04208247;14.03626915;-15.34852614;-25.63234965;-7.935338994
-5.303678046;-16.35388727;-9.223977434;26.95297223;9.345894196;0.924605486;18.08948476;-8.340039063;53.2413413;70.70357193;16.05003906;-35.88616323;1.125078358;14.73330156;-34.88028459;11.97592294;-14.98550808;-23.56301798;-6.635094715
-1.032117523;-9.05275938;-10.00564922;30.91721452;12.67633931;0.800941827;18.55800498;-8.728585701;61.46420999;72.2481418;13.84862917;-35.56055393;0.106175476;12.85550182;-33.11016753;12.64886172;-13.43224283;-19.94481777;-5.049399383
4.173471217;-1.715951401;-9.877117833;36.53716725;15.64973552;0.581383723;19.59186272;-8.572150803;64.12585384;72.13706438;13.50861214;-34.77325022;-1.443600769;12.99907209;-28.85259306;15.8645133;-11.90058828;-16.07011254;-3.862024208
8.406034548;3.418188483;-9.202337416;40.39335943;17.25299399;0.423582548;20.47151258;-7.90298953;59.7461191;70.93296647;15.14280805;-32.61971831;-2.92015121;13.29093231;-23.70101836;19.62439825;-11.68095988;-13.52613996;-3.398994481
10.14313928;4.943660858;-8.733870347;39.75224788;16.88979219;0.405247182;20.38235867;-7.113984216;50.74178052;69.03354559;17.64091489;-30.12217859;-4.18836084;11.49719366;-20.16493769;21.46931218;-13.4678575;-13.3008327;-3.609514064
9.097190736;3.172270234;-9.003975537;34.30196438;14.80986352;0.486011145;19.21217442;-6.645183814;41.74672007;66.41183517;19.02820968;-30.03601154;-5.558558187;7.110741443;-20.25439186;20.30612168;-16.89656801;-15.09618142;-4.247538281
6.367999027;0.04188492;-9.875651782;26.40349817;12.09710275;0.564943315;17.70642144;-6.642543847;36.62417418;63.04863189;17.37114054;-34.75798008;-7.300336537;1.941586246;-24.17977478;17.25342176;-20.61901065;-17.40827533;-5.041198133
3.744575085;-1.987206154;-10.64313335;19.6663311;10.08242111;0.573390251;16.86889054;-6.879645753;36.34767634;59.51;11.96626283;-43.97325454;-9.200831217;-1.311961683;-30.1733322;14.77630936;-22.96486344;-18.44182644;-5.742699242
2.579709509;-1.371461183;-10.62659419;16.81043624;9.494695739;0.523336437;17.16077876;-6.996139215;39.05753941;56.94895758;4.142353579;-54.08725549;-10.6215919;-1.238075819;-35.61703879;14.79088119;-22.8482899;-17.29658843;-6.124715282
2.987106751;1.676496574;-9.772912891;18.22627636;9.961917013;0.480064697;18.18599247;-6.827990898;41.88428167;56.33905599;-3.053047339;-60.13583194;-11.01983959;1.282170331;-38.64578225;17.28974933;-20.37325916;-14.5946212;-6.040578816
3.912469839;5.47725722;-8.736914973;22.0807626;10.30150486;0.495480405;19.08173711;-6.534056424;42.96696831;57.52216234;-6.436380476;-58.88561276;-10.44824005;4.070664053;-39.03963639;20.57802656;-16.75003906;-12.06708045;-5.550985895
4.014986907;8.054942094;-8.338867801;25.70447536;9.450481168;0.565434644;19.21734064;-6.41830464;42.26320218;58.9580568;-4.743988403;-50.88297579;-9.561090251;5.673262843;-37.83015326;22.80188496;-13.58007813;-11.36170315;-4.978518171
2.706318954;8.365453875;-8.83623399;27.18633605;7.337794257;0.643232043;18.58816725;-6.624447284;40.89237287;58.58676728;0.234387878;-40.04018881;-9.115236965;6.535050371;-36.10479716;23.35760359;-11.98074271;-12.91122306;-4.757189266
0.580720099;6.789738782;-9.643112294;26.15437867;4.983887733;0.687274939;17.62916662;-6.987850035;39.84467021;55.30198336;4.465873506;-31.20967383;-9.418849045;8.287423685;-34.10129194;22.98053466;-12.10115626;-15.66536641;-5.122338666
-1.066780606;4.670078125;-9.785573342;23.48298439;3.706466746;0.694487395;16.71718253;-7.176767265;39.14064593;49.9511144;4.180087891;-27.54533751;-10.20959369;11.88264455;-31.33652315;22.62189902;-13.27015379;-17.85264393;-5.874034584
-1.242738152;3.326556407;-8.760887785;20.45566194;4.061261839;0.69226366;15.87677968;-6.987916457;37.95279612;45.04111127;-1.488594698;-29.29242617;-11.01727738;16.39350165;-27.53943923;22.37971144;-14.5697692;-18.18804154;-6.445623373
0.004374328;3.267351305;-7.092209377;18.11593802;5.412767776;0.704341616;14.94937835;-6.52528629;35.41710386;43.26633592;-9.5991802;-34.33247173;-11.60422916;19.67250263;-23.42116463;21.63196287;-15.38153993;-16.65070533;-6.281814809
1.671470029;4.061357719;-6.073926976;17.11146932;6.539816361;0.727677012;13.9987186;-6.104313972;31.46207872;45.85103061;-15.06854333;-39.58890832;-12.03207116;20.30089536;-20.46650275;20.21548473;-15.57019177;-14.32807519;-5.258867703
2.626801229;4.824088889;-6.844535411;17.77688459;6.801961804;0.74038351;13.48;-5.975036941;27.10198368;51.82600507;-13.96473761;-42.23550815;-12.32007813;18.98871828;-19.83316362;19.28296344;-15.30858465;-12.54399197;-3.809513275
2.508832567;4.880677539;-9.48594424;20.05843234;6.860835769;0.726523712;13.92948345;-6.115563415;24.0274248;58.65998053;-6.274481915;-40.3952243;-12.12206693;18.02164434;-21.29842723;20.63092837;-14.80761399;-11.9849083;-2.632236109
1.986400203;4.149274388;-12.86222552;23.24943392;8.254266759;0.688240914;15.41752709;-6.273028266;23.69536516;63.71815186;3.760019531;-33.68720941;-10.87570759;19.13846032;-23.23260183;24.81730808;-14.19893036;-12.44452804;-2.200171286
2.184153448;3.070237025;-15.35010207;25.94747065;12.06007813;0.633514248;17.28738142;-6.200211022;26.36880654;65.55379457;10.05516477;-23.81616046;-8.405958786;21.74063562;-23.74339159;29.86414016;-13.59305813;-13.24725702;-2.454011808
3.740477234;2.23357995;-15.92194871;26.6364657;17.70174355;0.557691111;18.49437058;-5.865773613;30.66922193;64.33397235;8.352553028;-14.65958056;-5.429056947;23.15317137;-22.12713771;32.20346685;-13.14423758;-13.87389841;-2.913997993
6.249791935;2.004701372;-14.7730072;24.74749683;22.93732321;0.445628744;18.33537661;-5.454912522;34.08517694;61.40628929;-1.158292969;-11.00728122;-3.358183255;20.86614295;-19.44772203;29.60333194;-12.97833173;-14.23390191;-3.099887383
8.528140318;2.371045824;-13.04891718;21.43503211;25.19203507;0.29815123;16.98509555;-5.17839104;34.40682805;58.51331942;-13.83882847;-15.92611773;-3.375677032;14.86633724;-17.7308421;23.70075542;-13.03492117;-14.43035723;-2.899752024
9.487301564;3.042994859;-11.92853338;19.2542425;23.31953576;0.155341001;15.38142582;-5.079576208;31.35251888;57.13;-23.1288555;-28.17155307;-5.446775366;7.980117891;-18.37367691;19.52781329;-13.02036544;-14.35922274;-2.58994623
8.929411868;3.687141174;-11.79170941;20.63824287;18.47658997;0.084433807;14.53428201;-5.016572862;27.21425266;58.04231178;-24.0358006;-41.76858548;-8.142074319;3.823454553;-21.01456895;21.65146626;-12.59583739;-13.62382533;-2.521105449
7.648920856;4.12503462;-12.08934077;26.06521378;13.41460458;0.13124968;14.81210321;-4.822231959;25.71893929;61.06152818;-15.62690785;-48.8298765;-9.559293886;4.043730955;-23.75571155;29.61979165;-11.68716676;-11.91207003;-2.771747083
6.779722867;4.385204371;-11.94980671;33.25539512;10.66611147;0.273490505;15.76947849;-4.478830041;29.49935894;64.9;-1.327669023;-44.33357108;-8.723832682;7.182356979;-24.57124412;36.63609053;-10.63577625;-9.49091411;-3.08225085
6.909647136;4.598526402;-10.98477615;38.17853622;10.9249461;0.421987497;16.61075448;-4.140048828;37.81764634;67.47551015;12.89003906;-29.73813174;-6.380823013;10.08950001;-22.81793897;33.35206121;-10.00146188;-7.286348994;-3.115828275
7.647341208;4.822924327;-9.644834579;37.40439432;12.75751939;0.479230366;16.85070875;-3.985865266;46.38874053;66.83909529;21.33900898;-12.65989289;-4.512849253;10.60522719;-19.71227472;14.66396665;-10.12802351;-6.338315198;-2.794121969
7.956991541;4.92861505;-8.878375127;30.30381639;13.78300722;0.412930054;16.60007813;-4.054872435;49.84935601;62.42357201;21.0706274;-2.441127215;-4.918954876;9.153202975;-17.45595988;-15.42195942;-10.82732439;-6.992282269;-2.39258976
6.98;4.640513756;-9.410741795;19.6069565;12.4039912;0.283256267;16.27640159;-4.213846669;45.38867694;55.78382073;12.90581002;-4.453512409;-7.946289343;7.924374748;-17.70866806;-44.91074835;-11.48296937;-8.505572061;-2.306659584
4.706489217;3.727862186;-11.22778118;9.897290155;8.843446955;0.196898223;16.07245045;-4.287643358;34.89612896;50.05585546;0.702320358;-17.04416245;-12.33538046;8.526521132;-20.53342752;-60.75925651;-11.53430946;-9.487676532;-2.703798401
2.001954072;2.214801139;-13.63217928;5.004410373;4.837283676;0.222317783;15.72250735;-4.219800199;23.8249318;48.16610012;-10.71511693;-33.18124896;-16.22936325;10.35305683;-24.49842237;-57.03440834;-10.95644809;-8.926008964;-3.380087891
1.11689E-05;0.44889942;-15.75649472;5.962202483;2.332142543;0.335370908;14.80342739;-4.110727172;17.39791959;50.854315;-17.93859131;-45.43112858;-18.47653916;11.2281426;-27.71988042;-38.54328963;-10.31559113;-7.014249704;-3.949234561
-0.664185453;-1.047026433;-17.07688198;10.74820527;2.18199733;0.440749218;13.27867066;-4.103686162;16.94989414;55.95244314;-20.45498663;-50.53869116;-19.19475867;9.740698354;-28.99686271;-17.36231611;-10.31245595;-5.075694972;-4.183724301
-0.224778984;-1.8549161;-17.53864583;15.79270326;3.708670309;0.451280652;11.73186157;-4.235859093;19.26339855;59.62222859;-20.40045654;-50.41592525;-19.2695549;7.043402922;-28.26387802;-4.825368989;-11.16420285;-4.553490266;-4.188010924
0.463545342;-1.883229337;-17.28665648;18.14449019;5.291687792;0.35846312;10.99882725;-4.401007066;19.47260589;58.83910884;-20.72603819;-49.29061038;-19.38269982;6.286727117;-26.21980071;-4.705483854;-12.34090493;-5.80549916;-4.241684377
0.559362988;-1.382577719;-16.34220554;16.93284794;5.46288318;0.235919759;11.46794713;-4.457060226;15.22132471;53.40426357;-22.94554525;-49.72461523;-19.50033374;9.977114078;-23.61874819;-12.16756669;-12.9047244;-7.663920246;-4.463639814
-0.217831958;-0.766245612;-14.58356964;13.41972808;3.769222975;0.175271067;12.6662734;-4.369496353;8.657611604;46.02866069;-26.03681588;-50.82519987;-19.22760172;17.50404506;-20.84614913;-18.6063823;-12.20569177;-8.175757375;-4.624631518
-1.468891784;-0.385373714;-12.0690547;9.91088591;0.964787718;0.21064897;13.54599773;-4.248170186;4.561789683;40.43605432;-27.37794353;-49.8614659;-18.57172982;25.08543126;-18.0201504;-18.25113207;-10.37926003;-6.023997222;-4.30729471
-2.4221988;-0.407414323;-9.37777037;8.389382838;-1.432831163;0.294987076;13.28610428;-4.241388635;6.123986226;38.90217364;-25.12917787;-45.52548807;-18.26003906;28.36663773;-15.34774418;-11.59726377;-8.236820278;-1.562134405;-3.2904446
-2.388767226;-0.819707592;-7.56463335;9.652060575;-1.890479951;0.34417819;11.95149707;-4.390942467;11.93827322;41.01604636;-20.24508515;-39.75656603;-19.20292112;25.61720419;-13.27497339;-3.669584131;-6.631984826;3.349287695;-1.812743583
-1.069098528;-1.465882819;-7.621988308;13.20753896;0.435755654;0.307141642;10.43970863;-4.588725899;16.85955815;44.42707346;-16.35999501;-36.42874468;-21.55840522;18.91679257;-12.22916858;0.757673678;-5.818259904;6.607448195;-0.459761523
1.392443492;-2.043648176;-9.779593404;17.71067227;5.266486486;0.201485214;9.740710214;-4.674751323;16.14596655;46.77701142;-17.29698182;-38.02828574;-24.32395568;12.40426226;-12.18905128;0.845969453;-5.324664924;7.280919104;0.252402547
4.512047014;-2.119838686;-13.18856861;21.56365493;11.17139929;0.089224951;10.12923933;-4.577967382;9.465252297;47.19371997;-23.88771343;-43.26230986;-25.97310187;9.113787782;-12.52821005;-0.418886836;-4.449723843;6.10151053;0.248259144
7.596571937;-1.288855435;-16.31672269;23.45090919;16.023617;0.020910612;10.97663686;-4.361713058;1.341298075;46.28052085;-32.61855786;-47.78961142;-25.70413323;9.014425729;-12.36854902;0.539406594;-2.960019531;4.692175881;-0.098348121
9.871720651;0.513207557;-17.86625792;22.73620987;17.86934059;0.00060254;11.33798069;-4.133665798;-2.44197718;44.9271758;-37.49909194;-47.60490971;-24.22981388;9.70418798;-11.23251148;4.621880255;-1.401687516;4.192154019;-0.317233786
10.67511903;2.752379588;-17.59634648;19.67097872;15.88942299;-0.000729418;10.79684569;-3.918406086;0.484256557;43.25425916;-34.14765348;-42.31637483;-23.33379213;8.883081121;-9.483506965;9.475600845;-0.740294878;4.411298546;-0.234743516
9.734211865;4.408488653;-16.43961329;15.30756183;10.92652221;-0.003403233;9.826090097;-3.630663631;7.27533795;40.73239827;-23.20798911;-35.58324181;-24.44946336;6.31652895;-8.159387452;11.77693559;-1.589424643;4.19389557;-0.053464635
7.393312486;4.550175732;-15.77688708;11.05567208;5.15221081;0.00625464;9.351833689;-3.185913631;12.51360958;37.27904756;-10.42583394;-32.30302251;-27.40121656;3.68275036;-8.258751551;10.15453597;-3.630613901;2.655530679;-0.058968849
4.56371302;3.048059374;-16.35339265;8.021967957;0.919684336;0.059342166;9.915229177;-2.639856981;13.04243455;34.09374513;-3.048894177;-34.80456249;-30.38873399;2.738020822;-9.978381217;6.234606634;-5.696053854;0.205810388;-0.247882566
2.29204177;0.839390722;-17.62413926;6.481387542;-0.575510251;0.163857147;11.18480425;-2.205050387;10.78608939;33.14552503;-4.984008234;-41.0980593;-31.29375058;3.709546388;-12.47118189;3.116582897;-6.486331232;-1.581757029;-0.25774931
1.132960533;-0.62584438;-18.05513721;5.82318564;0.0332112;0.282567271;12.25670383;-2.10232888;10.99155444;35.48887818;-14.19729259;-46.52967597;-29.27639966;5.42073868;-14.33022772;2.796073415;-5.420039063;-1.237936169;0.295579531
0.743505209;-0.498210068;-16.23600142;5.032139018;0.77683666;0.354174469;12.46735866;-2.368055653;17.26678751;39.83084556;-24.26644208;-47.43417538;-25.36239312;6.849981084;-14.47610224;4.768422317;-3.018734917;1.201041006;1.363943174
0.05435632;0.616734993;-12.048333;3.394013966;-0.270349573;0.340736124;11.97322485;-2.797440017;27.68167753;42.81638694;-28.92290488;-43.84283269;-21.55224201;8.402010473;-12.83047382;6.830398721;-0.572464458;3.861899164;2.339414596
-2.001694237;0.839032922;-7.035533319;0.948206523;-3.645551461;0.258440742;11.55861372;-3.093170948;35.4975953;41.1748962;-26.20960366;-39.18191706;-19.21700144;11.50296376;-10.31936436;7.164067067;0.664087184;4.174710396;2.441604749
-5.65947975;-1.724907089;-3.633952266;-1.605004866;-8.110560974;0.163699189;11.8424319;-3.102378762;34.26953191;34.23951011;-19.25378766;-37.37434941;-18.13095557;16.87374232;-8.239519003;5.82161098;0.198187357;0.702823539;1.348198665
-9.991526972;-7.495526096;-3.711004879;-3.436715266;-11.47885087;0.107623151;12.6277428;-2.935842507;23.28736678;24.82956685;-13.31743833;-39.76477938;-16.92645475;23.26401472;-7.468077427;4.43445415;-1.500442039;-5.731787306;-0.462099087
-13.37600637;-14.87045553;-7.361139766;-4.152179155;-12.04995017;0.100068359;13.03609805;-2.860188781;8.811780057;17.61953505;-11.63139979;-44.25381429;-14.52435992;28.09134959;-8.067273571;4.581345203;-3.390278457;-12.53426032;-1.990543566
-14.49043416;-21.14433661;-12.76756887;-3.992277065;-9.632138961;0.11330531;12.35353819;-3.054424562;-0.150895141;16.05956985;-13.30793167;-47.12268355;-11.25665165;29.58163128;-9.494926828;6.332947136;-4.527317168;-17.10608266;-2.44759682
-13.14603177;-24.28689281;-17.23465005;-3.580976943;-5.477110189;0.116751489;10.82110141;-3.444937527;1.637543252;20.09405507;-14.79328491;-45.91547948;-8.67905654;28.41932716;-11.15960914;8.202488943;-4.573813558;-18.56206373;-1.853670828
-10.35838867;-24.23228778;-18.72097477;-3.454628341;-1.273176235;0.105926509;9.582788373;-3.764080016;11.92575275;26.35662825;-13.41150607;-41.11292897;-8.228224143;27.20382506;-12.83100266;8.453384153;-3.871578393;-18.09362307;-1.003065842
-7.59627189;-22.66433446;-16.89534865;-3.720679825;1.988965758;0.097941818;9.729966195;-3.777581872;22.91720545;30.63575039;-9.93655978;-35.52609623;-9.906282262;28.03027315;-14.59943282;6.594918585;-3.107749279;-17.74514434;-0.791375228
-5.763346491;-21.47792748;-13.09790952;-4.042522912;4.447496519;0.102350397;11.23870583;-3.477062931;27.23807404;30.71135438;-8.069006897;-32.20359667;-12.17620265;30.40233452;-16.50255285;3.826851584;-2.834456548;-18.62666432;-1.443468412
-4.673113572;-21.19517947;-9.340471158;-3.894516425;6.876127143;0.102715342;12.79911273;-3.071011559;23.16501641;27.4974245;-11.32545722;-32.61500773;-13.20987472;31.559369;-18.23357539;2.119862242;-3.145851728;-20.02058227;-2.288031987
-3.400790619;-20.67333359;-7.083325208;-2.880523366;9.771704119;0.073129292;12.83017485;-2.794116298;15.13283959;23.85944452;-19.95782539;-36.30146202;-12.4381928;29.10908752;-19.25747751;2.710166126;-3.680222482;-20.09654262;-2.294220832
-1.215670429;-18.35925433;-6.576581511;-0.935577927;12.80412685;0.015252919;10.91280276;-2.716731522;9.488940796;22.28968626;-30.3997439;-41.78104081;-11.04472315;23.56903078;-19.26484634;5.189539679;-3.907222564;-17.62463795;-0.957231113
1.658335584;-14.00210163;-7.070547065;1.649257942;15.05097764;-0.025460294;8.383945182;-2.724795487;9.254892377;23.35028652;-37.58981486;-47.56998499;-10.91092256;18.27608057;-18.53954893;7.860984332;-3.500455564;-13.24766381;1.188389876
4.073472294;-9.283959618;-7.578601669;4.349755186;15.77158186;0.009326146;7.41793159;-2.671157742;12.20822118;25.93498297;-38.21678147;-52.44744059;-12.84595598;16.4753166;-17.83706987;9.07244526;-2.560137373;-9.21898371;2.870675405
4.773985629;-6.703736883;-7.571119236;6.63243935;15.04813666;0.132942147;9.174679889;-2.535919627;13.59668425;28.78672222;-32.38053761;-55.11548326;-15.59596393;18.19644937;-17.77984783;8.547121033;-1.54954058;-7.760804257;2.991238572
3.362625142;-7.555512617;-7.159620163;8.227794388;13.76050823;0.282853191;12.49051916;-2.432338712;10.87231981;31.73769947;-22.702371;-54.10710225;-16.54580703;20.06618862;-18.23750659;7.735904342;-0.987240205;-9.337137416;1.443778627
0.653254484;-10.69947307;-6.786286828;9.350596836;12.92331716;0.355387555;14.31743465;-2.455547182;6.270019531;35.57169814;-12.09325901;-48.49332281;-13.65747418;18.6813392;-18.25785936;8.871935616;-1.094252637;-12.2367732;-0.798964692
-1.878210955;-13.25496623;-6.780988377;10.70724471;12.92831165;0.28777354;11.80120715;-2.536071737;5.047853114;40.76503072;-2.284039781;-38.96892915;-7.152929238;14.6514358;-16.71726964;13.28598848;-1.631073201;-13.83366038;-2.396942173
-3.124063127;-12.77243688;-7.147038827;13.17268525;13.29506029;0.120535842;4.538474904;-2.464684023;10.94511068;46.39972549;5.84986717;-28.24573554;0.399439804;13.20438678;-13.25976558;20.11780843;-2.038847845;-12.55951998;-2.599216402
-3.058952072;-9.168021078;-7.66135447;17.21390694;13.11338593;-0.019611755;-4.726549317;-2.088405702;22.72069459;50.36485488;11.06230486;-20.05159919;5.709180077;19.85936845;-8.790988305;26.45058732;-1.790676991;-9.05673233;-1.715317135
-2.594677015;-4.827166769;-8.104005151;22.37794974;11.81501264;-0.013112753;-11.6225333;-1.497243638;34.65446191;50.77644267;11.41973135;-17.16509363;6.894247886;34.21161996;-5.072199436;29.05908227;-0.707531806;-5.628621336;-0.770321406
-2.712625555;-2.743279721;-8.388749945;27.24026631;9.671559418;0.15364213;-12.89837252;-1.006632216;40.58271842;47.4340984;5.718843287;-19.82052689;4.546095516;47.3747983;-3.635011212;26.79966989;0.982070273;-4.441294926;-0.653493336
-3.574419955;-4.161289985;-8.534161695;29.98996531;7.65018926;0.366591316;-8.467947421;-0.91883869;38.21867455;42.07129202;-4.510656393;-25.66630058;1.010115029;46.45260611;-4.779230513;21.93526976;2.865061258;-5.887383245;-1.441155771
-4.314851813;-7.608810226;-8.590554937;29.406317;6.759252253;0.463072046;-1.327876927;-1.258949536;30.44630728;37.17421271;-14.60597666;-31.32940644;-1.469017667;23.81571362;-7.380078125;19.06643803;4.656482763;-8.353901705;-2.397756684
-3.674052104;-10.0699128;-8.644273024;25.64901859;7.386258624;0.352928315;4.516485938;-1.725722581;22.84354455;34.33201691;-19.1015948;-34.45313086;-2.282662977;-15.59624458;-9.63363758;21.87470759;6.342289844;-9.511641838;-2.603409153
-0.972918294;-9.32527453;-8.876701692;20.31987473;9.100325449;0.086460051;6.570249181;-1.920249162;19.63212488;33.41712063;-15.50392277;-34.79866376;-2.569342939;-55.171096;-10.18354924;29.68791539;8.042010065;-8.078435998;-1.679188211
3.309861353;-5.579700797;-9.541008183;15.68256653;11.0154703;-0.184167384;5.061786036;-1.668030207;21.19021956;33.13198332;-6.567493612;-33.81780225;-3.963185987;-76.16367282;-8.839066382;36.55740425;9.728641504;-4.711436504;-0.049703756
7.769124652;-1.144455261;-10.78182867;13.47553079;12.39969707;-0.31767723;2.188488278;-1.15777229;24.66116743;32.3051839;1.122266958;-33.28892527;-7.07563663;-69.61016288;-6.471605283;34.22971205;11.07868824;-1.4336234;1.413832227
10.90566201;1.445146925;-12.41480113;14.03455777;13.07609636;-0.28045145;0.212283276;-0.774098916;26.62207925;30.77680731;1.657850151;-34.18401505;-10.92600092;-42.08928157;-4.321267861;17.66393686;11.62229111;-0.144677734;2.03953882
11.94499975;1.281361343;-13.89966891;16.2485282;13.37048021;-0.154861292;-0.06090408;-0.769380134;25.4203475;29.19799409;-5.824480882;-36.50652067;-13.71835995;-11.05825209;-3.315124611;-10.52197804;11.09814042;-1.390336092;1.776587359
11.11931629;-0.531423124;-14.62592955;18.33436347;13.72230577;-0.062271576;0.601973075;-1.061835006;21.55769489;28.08607157;-16.35350128;-39.88757569;-14.30226043;6.8558154;-3.830610456;-40.17303494;9.716259887;-4.233311592;1.113708197
9.348362876;-2.079448613;-14.34955101;18.90869566;14.30381186;-0.071189867;0.947795117;-1.332781253;16.42627622;27.10201098;-22.73441978;-44.12680694;-13.17258632;6.104756004;-5.851295176;-58.92824976;8.07955742;-7.138058853;0.637469219
7.674906097;-2.250541283;-13.42684513;17.69340108;14.93113211;-0.164183733;0.432585204;-1.326747535;10.96892677;25.23324077;-20.95703716;-49.0981392;-12.26932921;-6.107417583;-9.140019531;-59.62490312;6.78968143;-9.043967622;0.627692939
6.869694408;-1.376809969;-12.59879798;15.48609089;15.28252473;-0.278465319;-0.470054932;-1.077670637;5.462583039;21.68953149;-13.29429986;-54.21;-13.74747751;-17.12602848;-13.18103088;-44.77438428;6.039058574;-9.81;0.991282369
7.343923018;-0.513987446;-12.43847846;13.52124204;15.19490444;-0.370431582;-0.948298874;-0.856838474;0.222696215;16.67428807;-6.696024521;-58.14781573;-18.59003906;-18.84978349;-17.04393736;-24.82763701;5.526936694;-9.858554786;1.510380106
9.20155399;-0.1835492;-12.8885955;12.69928485;14.7788763;-0.441457009;-0.759074881;-0.897202316;-3.924343374;11.34311876;-7.697020986;-59.41523033;-25.9620691;-12.71967179;-19.54403533;-11.26059342;4.785317618;-9.515423559;2.122012008
12.21706575;0.21379279;-13.29012995;13.16302746;14.27622001;-0.50823608;-0.493419277;-1.156245332;-6.162461638;7.022681063;-17.71044183;-57.42263976;-33.62958781;-6.58802701;-19.83393313;-9.284665822;3.659951321;-8.684070962;2.9628101
15.73997187;1.827513632;-12.9188625;14.40410818;13.81226662;-0.558713176;-0.991887871;-1.343983174;-6.724745468;4.408816079;-32.17500392;-53.24698508;-39.07962254;-7.003700062;-18.05828295;-15.29577114;2.547207793;-7.069014771;4.159673987
18.74180113;5.240871015;-11.61092198;15.72215027;13.27599643;-0.547937246;-2.492414163;-1.195417567;-7.218735981;3.410435024;-43.95435716;-49.30136305;-40.64466402;-13.69020429;-15.44984198;-20.65699942;2.169515509;-4.626056673;5.588373897
20.17397508;9.873840668;-9.952375786;16.67211219;12.43453348;-0.444893744;-4.311455583;-0.73551566;-9.568044732;3.642248072;-48.16368413;-47.94844029;-38.08405577;-20.48846461;-13.58248675;-18.69832412;3.039747676;-1.757826071;6.845621456
19.50656184;14.41247492;-8.849541511;17.20807897;11.17279951;-0.284467892;-5.350374719;-0.284813094;-14.28745156;4.94860305;-44.77369713;-49.93561197;-32.48214043;-21.27175121;-13.21767487;-9.545901493;5.021027948;0.915088239;7.479480688
17.05535041;17.78413621;-8.816292711;17.47772245;9.632451012;-0.165316206;-4.973547453;-0.18874519;-19.66297912;7.357618855;-37.42321629;-53.7414095;-25.66977111;-15.31687994;-13.65451195;0.689909473;7.325632714;2.94400674;7.288077368
13.77294137;19.73304786;-9.569594689;17.46615805;8.108922542;-0.181093244;-3.493123731;-0.510021973;-22.80433039;10.49877648;-29.98747554;-56.33444419;-19.49940787;-7.551520696;-13.21914717;5.307936716;8.968272197;4.214983205;6.437107642
10.58319799;20.52527945;-10.28145335;16.783765;6.781237741;-0.337837231;-1.870715862;-0.964266402;-21.90749207;13.15228997;-23.99686827;-54.90696675;-15.25171236;-3.846027564;-10.63401156;2.427335877;9.358837527;4.777930911;5.308634615
7.750019531;20.22820432;-10.28565359;14.79338579;5.511456467;-0.53225658;-0.942831414;-1.163262633;-17.86547369;13.5987336;-18.83843062;-48.53098914;-13.34625275;-5.787331377;-6.211811878;-3.871223691;8.639072411;4.611131877;4.226651033
4.805836839;18.44497545;-9.64631556;11.04204297;3.913837904;-0.619337394;-0.862486737;-0.951752428;-13.75656218;10.74505579;-14.00003052;-38.77783972;-13.4242224;-9.540192805;-1.845421687;-7.272690201;7.57420045;3.65890304;3.300825449
1.135825;14.89007813;-9.103807522;5.736048344;1.676726553;-0.520759876;-1.198406673;-0.536528705;-12.48978343;5.213739915;-10.84212486;-29.00016839;-14.7409255;-9.567154671;0.318408244;-4.451073583;7.117184166;2.154744791;2.506863639
-3.24993384;10.23963198;-9.43818803;-0.08306544;-1.103118174;-0.286249093;-1.504742911;-0.292291593;-14.50924096;-0.577541378;-12.00015769;-22.72241416;-16.64896843;-3.682502404;-0.462914184;2.576796504;7.933789432;0.848991955;1.893542278
-7.438660744;6.240970965;-10.78600939;-4.868833563;-3.853462897;-0.055614889;-1.75882554;-0.420179469;-17.50124197;-3.640584867;-18.8690402;-21.9928725;-18.8659175;5.084753593;-2.870310613;8.672512926;10.12270817;0.730306722;1.680119127
-10.15035915;4.647131939;-12.48771117;-7.312322655;-5.815217507;0.048623317;-2.238880302;-0.767693046;-18.40128648;-2.238517817;-29.52656537;-26.48339105;-21.32918172;11.33280284;-4.449837776;10.15519103;13.19209282;2.269233457;2.102885953
-10.72735772;5.694558658;-13.59372013;-7.106094464;-6.496474268;0.010158316;-2.999833724;-0.971778606;-16.04071393;2.920766274;-39.20050377;-33.71566876;-23.7471425;12.13507689;-3.436295944;7.694612123;16.23113208;4.754378812;3.111365261
-9.781343857;7.49193572;-13.60359362;-5.248302102;-5.959838855;-0.081689382;-3.53845534;-0.793298109;-12.19771342;8.956067648;-43.20062945;-40.27335694;-25.25924656;9.520300675;-0.040476089;5.190799369;18.20804058;6.40504804;4.193489499
-8.900166461;7.123187533;-12.82728661;-3.619412275;-4.728452264;-0.11618183;-3.090595205;-0.337575088;-10.15144093;12.39086433;-40.06661853;-43.42152409;-24.63927861;8.444104937;3.811263786;5.933234997;18.35425738;5.423382203;4.555956633
-9.535253977;2.851933135;-12.09126826;-3.986838255;-3.387901817;-0.053364713;-1.385361554;0.04034009;-11.95847567;11.0368914;-32.43580677;-42.351692;-21.10439488;12.15516297;6.037128914;9.638747507;16.55089238;1.355122268;3.618628258
-11.86926198;-4.257841287;-12.06648201;-6.969432812;-2.19640074;0.053634561;0.837536859;0.060301709;-16.75817275;5.079437724;-25.01146776;-38.41720304;-15.24395329;19.1077724;5.961166757;12.99337987;13.52773675;-4.272196369;1.501561183
-14.54474196;-10.71903246;-12.7901839;-11.56973715;-1.003161952;0.118840721;2.143441245;-0.222918811;-21.52406574;-3.124789233;-21.35688373;-34.22407542;-9.292191268;24.12162629;4.61700029;13.04410972;10.6594748;-8.661748669;-0.878749666
-15.52261956;-12.90496698;-13.74926696;-15.58358489;0.477534678;0.105609101;1.453348228;-0.460988334;-23.57161074;-10.23;-22.03316853;-32.08718773;-6.258428455;22.72993317;3.62655999;10.19156192;9.323381496;-9.465621824;-2.254166636
-13.49286832;-9.600835662;-14.39031727;-16.69635148;2.277159989;0.054285565;-0.981061288;-0.319841929;-22.6255358;-13.3361294;-25.23708118;-32.76353002;-8.200337494;14.93800109;3.694643141;7.948173563;10.10746939;-6.355882064;-1.760931199
-8.833187331;-2.89196193;-14.57312377;-13.68146168;3.998102455;0.032879749;-3.564728109;0.220515639;-20.65191235;-11.0529117;-28.88364333;-35.21365125;-14.66181328;5.247286382;4.053408309;9.642431177;12.37641405;-1.312657957;0.476498245
-3.434775003;3.292945122;-14.58440918;-7.066616817;5.001721503;0.06139117;-4.487372589;0.841111227;-19.63513121;-3.927813473;-32.01465721;-37.46051039;-22.40887193;-0.908698142;3.326606764;15.11619199;14.57192683;2.627019205;3.345437318
0.464718145;5.864593681;-14.75951362;1.061581723;4.810152249;0.085202098;-3.210385824;1.155143105;-19.3247987;5.764758628;-34.38047217;-37.87059112;-26.88864073;-1.180822894;1.017267754;20.55478315;15.15406407;3.314452268;5.37083546
1.608659333;4.462706708;-15.11342698;7.986001699;3.406362413;0.026634656;-1.120476497;1.034828581;-17.07857274;14.7962135;-35.03443857;-35.94225916;-24.71322823;2.505082901;-1.744594654;21.77840346;13.59689206;0.788491631;5.586592342
0.317748789;1.23692922;-15.34042068;11.54535366;1.215093125;-0.131082247;-0.703219677;0.709167579;-10.15127779;20.17401295;-31.85870957;-32.15603316;-15.69886462;6.2201048;-2.931593935;18.11494542;10.73816973;-2.930385271;4.091651169
-1.95991194;-1.105545683;-15.1625876;11.02631573;-1.183617064;-0.307405189;-3.723299119;0.554928635;1.390342543;20.39867656;-23.03715228;-27.24349795;-3.155383712;7.449410252;-1.281157024;13.28965048;8.19778201;-5.325537993;1.928062014
-3.71717204;-1.326191821;-14.6625191;7.388111458;-3.353195252;-0.376342024;-9.738739676;0.771984735;13.65989044;16.2094907;-9.418450647;-21.68115716;7.825828303;6.649938107;2.490641505;12.31575225;7.254595374;-5.048640815;0.368835967
-4.287118994;-0.214113969;-14.25342703;2.756536567;-5.090087891;-0.268369227;-16.12405666;1.225955193;20.97538291;10.29860376;4.551122493;-15.90541442;13.0787752;5.933616319;5.977799258;16.96238965;7.994442626;-2.620600172;0.100268472
-4.019835718;0.543121305;-14.29988951;-0.571263535;-6.308848624;-0.036133779;-19.69380012;1.582489626;19.61521139;5.971271435;12.77119401;-10.93886098;11.44389342;6.541676396;6.716703804;23.81355525;9.360058594;0.207468264;0.84976986
-3.762934031;0.036254304;-14.75472033;-1.169140462;-6.927229588;0.175342831;-18.80987696;1.599421179;10.53061162;5.419007053;11.33849991;-8.566053046;5.044165169;7.681408034;3.922683177;26.83993076;10.05664915;1.846858882;1.695308971
-4.134534313;-1.084246512;-15.1777547;0.903856191;-6.935820555;0.233376105;-14.4572994;1.31700402;-1.072895479;8.625750738;1.463504218;-10.48086958;-2.245714516;7.73302387;-0.972007334;22.50568331;9.607127366;1.972947988;1.813262349
-5.118236005;-1.270613838;-15.14136868;4.22099578;-6.610513039;0.113117263;-9.510665697;0.994844255;-9.047477911;13.58472806;-10.97780686;-16.79520351;-7.042165408;6.416421185;-5.315902484;13.10143265;8.73024776;1.607238447;1.114974642
-6.182167908;0.503418227;-14.64630321;6.793212685;-6.611825719;-0.09236464;-6.740381309;0.875608978;-10.13420332;17.63818518;-19.17;-25.12007813;-8.01525379;5.569425258;-6.945938002;5.331864178;8.739209392;2.230556044;0.308413084
-6.733483324;3.787320057;-14.14135228;7.138798838;-7.739861045;-0.251575322;-7.018811611;0.996893273;-5.635995763;18.99488329;-19.68716517;-31.28801125;-6.003326382;7.589842958;-5.355991439;5.142068783;10.42571642;4.625170111;0.341721676
-6.546440437;6.865461923;-14.1064372;5.009808852;-10.39781755;-0.29445059;-8.997015758;1.205981803;0.048004707;17.42341622;-14.26163397;-31.62994165;-2.937669897;12.95326884;-1.651676473;12.98954857;13.30252479;8.23920049;1.639687476
-5.903587562;7.838777607;-14.58337001;1.34709176;-14.13131238;-0.251208268;-10.39331246;1.335164436;2.694669038;13.81003906;-7.871418;-25.40913984;-0.518886434;19.2518342;2.391225069;23.47411381;15.8063756;11.43426276;3.702064481
-5.417630961;5.682385312;-15.11235948;-2.476786374;-17.66141928;-0.205713143;-9.839309458;1.356896364;0.856858898;9.146757761;-4.895829083;-15.65016549;0.483897449;22.87662297;5.289913184;29.62535594;16.32751307;12.38773231;5.375227715
-5.674631646;0.605161733;-15.16392316;-5.578754913;-19.51900251;-0.212661497;-7.870956898;1.378804119;-3.901252755;3.868229937;-6.414429242;-7.59728239;0.086201524;21.98893516;6.217824167;28.26646255;14.30752169;10.07203391;5.619264715
-6.88643624;-6.274325576;-14.67632516;-7.980188374;-18.92598362;-0.254033467;-6.372152984;1.504254346;-8.878850567;-1.973293949;-10.48896584;-5.705551878;-1.476038575;18.11380723;4.842253221;22.02689966;10.61075334;4.78106787;4.227810397
-8.704451406;-13.45279837;-14.17527965;-10.22497071;-16.32189824;-0.268788;-6.987520225;1.70916658;-12.45536275;-8.014937442;-14.65200079;-11.13289254;-4.117096546;14.82310477;1.147811204;16.48618494;6.933023184;-2.004223046;1.986231368
-10.28629349;-19.39096758;-14.31754192;-12.54098514;-13.1276148;-0.22115928;-9.778661575;1.855687508;-14.90887039;-13.1606218;-18.1219502;-21.32789098;-7.805032252;14.58144742;-4.42730536;15.10298562;4.714095029;-8.265184774;0.155752239
-10.62561744;-22.72832371;-15.24666037;-14.27994515;-10.85955808;-0.139867619;-13.14700587;1.819964897;-17.46027263;-15.94936266;-21.85414081;-31.79513429;-12.21395887;16.54140717;-10.74447465;16.43506262;4.332485014;-12.25683816;-0.348129471
-9.035058413;-22.60808264;-16.36627638;-14.18269214;-10.17710124;-0.091284916;-15.02624595;1.602026591;-20.64296754;-15.48545832;-26.72509958;-38.65460943;-16.55287349;17.29660098;-16.0857797;16.08507368;5.081880807;-13.11462636;0.493431514
-5.549528972;-19.11567046;-16.79237434;-11.3511124;-10.50778204;-0.113622918;-14.37856212;1.314695975;-23.50266616;-12.15088142;-31.86389708;-40.28975741;-19.79926287;13.98190272;-18.83268055;11.58383186;5.822884904;-11.02431686;1.887820444
-0.995769774;-13.46013293;-16.12631773;-6.179130328;-10.49763919;-0.176584336;-11.85298084;1.076798784;-24.2659008;-7.462850329;-34.85820219;-37.32248033;-21.18462223;6.988117146;-18.31502288;5.694851461;5.757571194;-6.934599939;2.853233869
3.369248821;-7.518355257;-14.86069347;-0.43553949;-8.968236557;-0.207269051;-9.173169671;0.927827427;-21.82035552;-3.150120088;-33.64989939;-31.47395708;-20.56939173;-0.141910949;-15.16609305;4.811126416;4.796289085;-2.003208084;2.908113196
6.474428892;-2.848211249;-14.01982041;3.698965572;-5.734598076;-0.160569665;-7.816817586;0.844772976;-16.72456811;-0.171652174;-28.27446601;-24.47831225;-18.46350344;-3.586693843;-10.85638758;13.31814083;3.387158842;2.911879483;2.345177744
7.931373871;0.16662076;-14.31584182;5.01060465;-1.76439211;-0.068697725;-8.041081122;0.821794316;-10.94869283;1.577910639;-20.78184349;-17.75159791;-15.74499871;-2.380665504;-6.75130194;28.50689649;2.089647536;7.450513111;1.94054875
8.096758367;2.339972293;-15.56023134;4.036636182;1.382883954;-0.02061817;-8.948146701;0.902615357;-6.631121349;2.745895027;-13.50194156;-12.5846706;-13.31827537;0.936505603;-3.428932791;40.6382502;1.275029102;11.58120479;2.360220066
7.689499419;4.803419195;-16.86824022;2.647822743;2.446664916;-0.084633926;-9.412917456;1.114317783;-4.871754322;3.746767889;-7.476739542;-10.16193468;-11.89354408;2.701886236;-0.734930142;38.88759917;1.110189309;15.25931779;3.710287976
7.277057218;7.939172982;-17.48068386;2.721393971;1.143306035;-0.240491366;-9.036603267;1.378820824;-5.413562099;4.45960216;-2.689462914;-11.09133871;-11.87713853;1.410841397;1.620222817;19.1599017;1.683707708;18.22075686;5.521577735
7.022753267;11.05199482;-17.44162625;4.888091577;-1.717279377;-0.383023972;-8.355542512;1.531153677;-7.240898962;4.624379169;0.216231448;-14.87400021;-13.27067883;-1.005855647;3.573191865;-12.03092703;3.041241064;20.09500655;7.114876192
6.841252895;13.08037056;-17.47183979;8.267522268;-4.667393552;-0.399847085;-8.219362055;1.476201011;-9.410472418;4.477000937;-1.171003458;-20.00716637;-15.5817496;-1.006392493;4.800590875;-40.76027256;5.063562852;20.74110014;8.036083061
6.745852129;13.69897884;-18.11816061;11.32907599;-6.281248429;-0.261877129;-8.953966969;1.351915804;-11.40772004;4.922939419;-9.692277608;-24.87041505;-17.90554638;3.298623304;5.233531522;-53.98185994;7.3494003;20.49661017;8.258296714
7.008480566;13.76003906;-18.98351103;13.15288864;-5.77635894;-0.052410536;-10.0602547;1.510140103;-12.90652247;6.98011082;-25.36792012;-28.71680315;-19.31428921;10.35801665;5.376116132;-47.23706401;9.312446436;20.0714515;8.072553374
7.944485997;14.58166875;-18.85802244;14.09949329;-3.26;0.090468642;-10.68727296;2.264344638;-13.40139084;10.93092209;-43.13101834;-31.85511551;-19.43220944;16.43410303;5.984932371;-26.62318155;10.50807766;20.10089208;7.82349694
9.514913937;16.65801062;-16.79194406;15.41512427;0.450898582;0.073637671;-10.42582187;3.582572387;-12.23734331;15.9552359;-54.38062556;-34.80815831;-18.79886698;18.75232899;7.322232874;-4.06176515;10.950558;20.6717653;7.709955312
11.1580956;18.97497082;-13.22902228;18.15345092;4.324319461;-0.086261033;-9.697879243;5.004966802;-9.085456033;20.64323707;-52.27723715;-37.26557213;-18.64451921;17.75014993;8.694048835;10.43789854;11.11914252;21.19686055;7.751464816
12.09542707;19.65508861;-10.10700997;22.28756656;7.669812817;-0.280221468;-9.390845431;5.911413922;-4.404937989;24.01658017;-37.19083131;-37.99064147;-20.10261093;16.48588718;8.808626767;14.1186391;11.57239707;20.76698366;7.861401172
11.92460689;17.48390321;-9.613191099;26.65538782;10.45434324;-0.388442415;-10.06377055;5.962196653;0.598980206;26.19824662;-17.76875938;-36.02950708;-23.37959376;17.81805586;6.756432296;11.25761494;12.42879998;18.74685215;7.91433417
10.99989983;13.02031672;-12.45959948;29.67717677;13.16967479;-0.361381425;-11.43621741;5.350828175;4.542125396;28.12159108;-5.986484492;-32.25;-27.54158151;21.90401051;2.792394462;8.446358255;13.13833821;15.1937844;7.770740337
10.21387108;8.276016872;-17.09727868;30.22094101;16.29476099;-0.242714274;-12.6226213;4.633579925;6.473683109;30.47625535;-9.265276093;-29.65199523;-31.15722738;26.18725299;-1.796884615;9.383339015;12.79603416;10.81899146;7.31610651
10.28329147;5.175214465;-20.65955771;28.00811597;19.68982422;-0.126450455;-12.91374717;4.255356669;6.031210248;32.77632688;-25.43082904;-31.74347736;-33.3402202;27.75111124;-5.676868903;12.91023838;10.8396104;6.560327315;6.564810635
11.10003906;4.109258434;-21.04252381;23.45141397;22.38421058;-0.08919173;-12.41428863;4.172759871;3.132795311;33.40589261;-44.46379122;-39.9763909;-34.34818411;25.82066081;-8.466187697;15.10149854;7.638430226;3.104313775;5.771020889
11.7203011;3.866311826;-18.52195435;17.29666508;23.02187138;-0.148647842;-11.96011459;3.916684281;-2.273675141;30.74223362;-55.83043753;-52.29616745;-35.20648299;22.17087744;-10.88168064;13.12528111;4.492801716;0.67524135;5.40260269
11.0755265;3.015662967;-15.56158843;10.47256215;20.77330913;-0.269558286;-12.3683993;3.06240069;-9.898671064;24.57588181;-55.76774581;-64.20509864;-36.64224742;19.20315176;-13.91238438;7.625616188;2.943126579;-0.854291738;5.893791976
8.882943695;1.496096747;-14.86276065;4.167902749;16.11562043;-0.398959358;-13.67091504;1.70132156;-18.36048268;16.74960639;-48.92084649;-71.74713203;-38.26039933;17.60113696;-17.78975398;1.967723414;3.780929243;-1.735010596;7.285939636
6.020019531;0.908577246;-17.14483179;-0.209360093;10.86333214;-0.497189926;-15.01600881;0.476509581;-24.80289069;10.46670811;-43.31778036;-74.13548723;-38.7663028;15.79796279;-21.71193032;-0.678320303;6.407753651;-2.227586203;9.030142242
4.020313052;3.133819315;-20.43958807;-1.478652112;7.292580955;-0.546245284;-15.35409602;0.107626521;-25.69512357;8.662155368;-43.11212725;-73.89296971;-37.16349648;11.7235965;-24.58070864;0.12644464;9.010731061;-2.639349166;10.18389545
4.043236026;8.439377767;-21.53896092;0.62686145;6.85369984;-0.542625085;-14.3339716;0.788061805;-18.76029932;12.47269666;-45.29240367;-74.37739883;-33.93353165;5.124729555;-26.05025839;1.92263845;9.518522483;-3.338410793;9.966669769
6.103283484;14.82129274;-18.53441138;5.09802127;9.325817676;-0.492328074;-12.63543537;1.980574353;-4.858849969;20.73422878;-43.10541559;-76.78854867;-31.06612207;-1.802150845;-26.86400649;1.524641667;6.796460101;-4.577081044;8.333298506
9.146410672;19.34643595;-12.48643021;10.07241959;13.01838476;-0.414660425;-11.43579404;2.819418168;11.71561628;30.71394333;-33.11845033;-79.25331502;-30.6763689;-6.135783968;-28.10263356;-2.304626097;1.36592711;-6.184851027;6.136653283
11.88748275;20.50210684;-6.897514393;13.90286502;15.9052042;-0.344718724;-11.45351823;2.805346826;25.17371462;39.51519489;-19.58460502;-78.82250649;-33.1762321;-6.741310772;-30.01166199;-7.774891133;-4.793927824;-7.421914775;4.692941959
13.72329282;19.55;-5.339497668;16.13259651;16.90577648;-0.321561044;-12.38357435;2.209252801;31.40868272;45.29669496;-11.93634827;-74.62563628;-36.51966472;-5.205694313;-31.54486309;-11.34959539;-9.254946242;-7.262604356;4.983978019
15.00317116;19.58015301;-8.985876201;17.60455464;16.42082586;-0.363810817;-13.20521398;1.831622401;30.30757508;47.73134353;-17.10459312;-69.27934925;-37.3502096;-4.26796704;-31.16643566;-10.34447444;-10.37059705;-5.062126457;7.018085589
16.4919949;22.86793682;-15.83934992;19.57218777;15.7828056;-0.451262871;-13.08791001;2.313159914;25.49904915;47.68395953;-33.00746123;-67.0458229;-33.39479058;-5.164259438;-28.29130432;-4.882198317;-8.023690474;-1.187124289;9.79225653
18.53022522;28.66581422;-22.13542244;22.49990046;16.08590657;-0.531513553;-12.1027058;3.583899969;21.63318901;46.49523709;-48.94358763;-70.09708021;-25.33944318;-6.380542999;-24.06697182;2.195560445;-3.501050848;2.906517809;11.89284502
20.62412711;33.35653626;-24.80423951;25.54214478;17.30218069;-0.551954266;-11.12208739;4.924932506;21.15;45.3204125;-53.0935631;-76.09897059;-16.65287553;-5.055770711;-20.68181237;7.32429953;1.3540556;5.346114938;12.33334116
21.80792052;33.0375959;-23.21184708;27.17250595;18.33850544;-0.495679015;-11.01110298;5.587559523;22.93333425;44.77758135;-41.40217056;-79.45902797;-11.31705248;0.18974377;-19.66151435;8.634651501;5.138416607;4.923233433;11.07804655
21.45282897;26.58395895;-19.10149634;26.48913591;17.95056109;-0.394732862;-11.84167888;5.42832489;23.81671243;44.93;-20.75721544;-75.565438;-11.05970964;7.630483611;-20.5713585;7.069923245;7.421794251;1.884538722;8.942438254
19.82334304;16.74014554;-15.05998953;24.12937737;15.78276691;-0.310739683;-12.83968617;5.004268632;21.66424371;45.49441543;-3.836202821;-64.68578086;-14.15717629;13.62923038;-21.28981588;5.461750987;8.561271418;-2.143767818;7.002268312
17.90636355;8.287623062;-12.81161539;21.99844141;12.73608439;-0.297218053;-13.11385641;5.048564914;17.46381824;46.12359182;0.336418049;-52.23207973;-16.75559948;15.68413644;-19.71779342;6.282829933;9.046522371;-5.120273298;5.953495388
16.65964887;4.643580359;-12.51685852;21.95699984;10.40154075;-0.369758686;-12.5033355;5.795692808;14.64326213;46.61224488;-7.332951979;-44.95292898;-15.7698971;14.58231936;-15.54424248;9.712831127;8.928867772;-5.853467383;5.83383359
16.31082577;5.50684543;-13.28647033;24.46081497;9.997603988;-0.501492409;-11.75995878;6.760677036;16.09361562;46.90949825;-17.70011403;-45.97710203;-11.21712309;13.62574024;-10.59848492;13.4149795;7.781058814;-4.744668713;6.205408572
16.2847894;7.352737331;-14.19333185;28.20800846;11.58031543;-0.641579511;-11.8744698;7.17444508;21.3490154;46.94302894;-21.35281208;-52.66462657;-6.259779641;15.54404788;-7.489797992;14.21133924;5.201555849;-3.502121612;6.569278546
15.80527195;6.346785698;-14.88821932;31.07425588;14.04423127;-0.74090387;-13.14081604;6.690664612;26.38384234;46.42466537;-16.17902326;-58.97332376;-4.948392546;19.90107465;-7.666776109;10.50014563;1.437437217;-3.98299004;6.678467484
14.66111125;1.385667359;-15.49305691;31.63110752;15.84253895;-0.770456672;-14.81819482;5.730550991;26.4439841;44.88644446;-8.438484411;-60.34281386;-9.33774418;23.46136649;-10.48456269;3.700336414;-2.414880138;-6.891556493;6.573710202
13.50588712;-5.058294524;-16.13888836;30.12925711;15.89094821;-0.728205459;-15.73584811;5.14740718;19.8250464;42.05662482;-6.78456879;-57.03929771;-18.03909539;23.3017751;-13.96134284;-2.368031683;-4.867527149;-11.16855036;6.415186706
13.45125611;-8.845966581;-16.7195285;28.28260493;14.08948761;-0.637481885;-15.33172858;5.497137838;9.591619339;38.37094801;-14.49835924;-53.25243989;-27.13136938;19.82335992;-16.44622263;-3.853854486;-4.89166204;-14.48206864;6.311623216
15.27767704;-7.271070828;-17.06278914;28.10448021;11.24100509;-0.538881813;-14.18996331;6.55814634;1.724097856;35.17476457;-26.48276668;-52.87073992;-32.62726152;16.72264789;-17.69515508;0.561551137;-2.57321467;-14.54584444;6.279702207
18.86341363;-0.972190075;-17.22783426;30.68628625;8.548323406;-0.474323032;-13.55184096;7.531784612;0.963456843;34.27377437;-33.39495626;-55.69585664;-32.69400423;17.68174122;-18.47866466;8.682585994;0.902682168;-10.47185103;6.305319534
23.22996159;6.682848586;-17.52157691;35.71801118;7.049101886;-0.46496348;-14.18602565;7.75494401;7.487925338;36.95125521;-29.29229155;-57.45321095;-28.22166603;22.69237471;-19.22994974;16.17070501;3.946487284;-3.329171843;6.389797921
27.12274694;12.10575008;-18.16757517;41.89769109;7.254388771;-0.494015334;-15.61153445;7.298629974;16.97148275;43.06375203;-16.36683927;-53.63527889;-21.66632583;27.59347912;-19.11933325;19.44865091;5.468445276;4.446678642;6.519046766
29.6865494;13.91484215;-18.97442845;47.74806384;9.058620663;-0.510394101;-16.40641889;6.918915385;23.96090335;50.91608132;-2.962961141;-43.81608507;-15.27216867;27.71387714;-16.5197632;18.20235232;5.392825862;10.45075752;6.612232994
30.80529514;13.55225477;-19.39672714;52.22715985;11.86243372;-0.459361383;-15.39982818;7.393018504;25.92597661;58.13190514;3.251445333;-32.55284399;-9.964012655;22.65675344;-10.5041606;15.69796831;4.490486844;13.66496823;6.550381915
30.98034069;13.85396229;-19.00161227;54.87412941;14.82970193;-0.324997762;-12.74404028;8.816297846;24.84171123;62.98892478;1.179663141;-25.86240809;-5.439687859;17.71682061;-2.008930256;16.51805376;3.736185187;14.93551873;6.30020701
30.93371794;16.82650913;-17.92448113;55.66188222;17.2020347;-0.153766721;-9.917776597;10.47618271;25.1428653;65.27182346;-3.493526432;-26.11969389;-1.029816815;19.88808548;6.45914389;23.07007813;3.701648505;16.27116428;6.020663253
31.21687717;22.27978845;-16.85651764;54.84782857;18.5563494;-0.035605831;-8.607831376;11.41893829;29.76096853;66.00534811;-3.619426326;-29.75605163;3.512399513;31.12799226;12.4115692;33.17547016;4.390115693;19.4111532;6.011799967
31.98829912;28.13018334;-16.52074015;52.90700729;18.8654467;-0.048387559;-9.38920247;11.22317118;37.42977812;66.28638124;3.263809119;-29.9416536;7.812411869;44.52016043;14.94073597;40.52364394;5.519392588;24.59656637;6.491293205
32.97170032;31.91521917;-17.08130902;50.40994438;18.30511297;-0.20200583;-11.318579;10.31764771;43.38762799;66.17374243;13.06342853;-22.27603014;11.1912506;47.37443424;14.95807486;38.03387793;6.910058594;30.36229579;7.362626858
33.56059179;32.33102393;-18.0227701;47.75217104;16.94154836;-0.423882142;-12.78230091;9.581941122;42.9075187;64.5878066;18.82883128;-8.861440136;13.0981477;29.9838628;14.00146716;22.27014649;8.61190618;34.49423839;8.196879947
33.06637671;29.82303959;-18.62409531;44.90080694;14.5762019;-0.600384855;-12.85968019;9.590891377;34.91040115;60.36464379;16.6196122;2.726406016;13.37147727;-6.143827178;12.78020311;-3.783318316;10.6938688;35.5007055;8.503884872
31.08603049;26.06891092;-18.60668127;41.46585116;10.94513717;-0.647515329;-12.02158828;10.16152669;22.93608529;53.61889854;8.571586412;4.98368903;12.31581396;-47.1192459;10.81311376;-31.46738406;12.95313942;33.57962352;8.11822599
27.84050382;22.89711338;-18.36547207;37.18407544;6.167007889;-0.56131917;-11.57796055;10.57938064;12.83813554;46.21637182;0.828818937;-3.738979723;10.6755607;-74.25569252;7.438541559;-50.55889767;14.87168155;30.4049477;7.38565746
24.22565639;21.35188516;-18.5684788;32.461858;1.043937746;-0.412833486;-12.3996824;10.27761214;9.006702253;40.78896073;-1.598308574;-17.77727376;9.458602799;-75.57314375;3.127915432;-54.53693639;15.90674471;27.89015106;6.951733311
21.40447464;21.31888529;-19.49356729;28.40349838;-3.163252419;-0.293544116;-14.08545766;9.35296218;11.8317667;38.89318319;1.374142256;-28.20171011;9.488721585;-53.24983154;-0.31494211;-43.99161588;15.87342925;26.82431061;7.263114844
20.08257929;21.73300798;-20.72106165;26.07632112;-5.472558698;-0.253268277;-15.34076686;8.465300642;17.95881647;39.69620114;5.395721162;-29.25270461;10.76999975;-21.81966261;-1.069306708;-26.15956999;15.06780763;26.37333782;8.152186619
19.93358666;21.17152391;-21.47638487;25.46229558;-5.932227919;-0.275377124;-15.23266338;8.227223107;22.7607895;40.30337212;5.604638654;-22.25020084;12.09629399;1.449345108;0.956196421;-10.82233581;13.9977006;24.80941339;8.859661414
19.6666601;18.58995541;-21.31216927;25.01791739;-5.739994453;-0.303234007;-14.16544785;8.643685745;23.0651517;37.66336051;0.411583916;-14.14988601;11.42133856;7.091537581;3.601679483;-4.965358726;12.94541305;20.93162554;8.539347671
17.83746591;13.94395673;-20.49712605;22.48528335;-6.483372108;-0.292348461;-13.6372227;9.108481195;18.43506732;30.77555004;-7.875218525;-12.10914098;7.060313286;-2.246748029;3.867573076;-9.325472553;11.75807006;15.13697172;6.908633459
13.93194117;8.413975099;-19.74827218;16.640788;-8.949747802;-0.245919886;-14.92044898;8.959622056;10.69472335;21.61649981;-15.56794713;-18.35487364;-0.93303095;-15.92090939;0.270903002;-18.76715381;10.07658345;9.365698019;4.557953391
8.948553314;4.022974073;-19.56083508;8.750798709;-12.38895862;-0.208396286;-17.80738543;8.094390716;2.606906999;14.06413342;-20.58461941;-29.10052174;-10.25040656;-23.87797117;-5.794321264;-26.04231152;7.818974396;5.969748796;2.649557782
4.968928663;2.710731562;-19.77642185;2.447570515;-14.87037401;-0.226376975;-20.56902487;7.092487028;-3.238104023;11.5113854;-23.22912986;-37.89012234;-17.28456429;-23.09393673;-10.93173588;-26.41665245;5.4737343;6.31171495;2.175075646
3.907045724;5.297423633;-19.80826019;1.755918526;-14.57507357;-0.310168768;-21.25134713;6.733813716;-4.979923944;14.78950036;-24.49563875;-40.38084016;-19.12742486;-17.70524899;-12.26093361;-20.22663965;3.882006436;10.03897885;3.277540162
6.257025146;10.9495993;-19.30523595;8.420738507;-11.10592628;-0.425210802;-19.25574176;7.332627885;-1.81320933;21.79446936;-24.02761984;-36.82790968;-15.31613738;-13.9281824;-9.573511549;-11.92712634;3.61670719;15.43355647;5.119128945
10.71934861;17.53482745;-18.58553509;20.40658186;-5.813078878;-0.516726448;-15.86166086;8.468456215;5.648792947;29.01185958;-20.02377286;-30.7494569;-8.091380068;-14.58081548;-5.360039063;-6.575324318;4.447907212;20.46905546;6.400195823
14.99089792;22.70491896;-18.3589309;32.79897761;-0.843104301;-0.545765076;-13.22680366;9.342052894;15.25141741;33.84067345;-11.2751808;-25.39875317;-0.958424278;-17.53031482;-2.675501275;-6.336654333;5.377196217;23.79908484;6.179916805
17.17982981;25.05835513;-18.94432765;40.69160584;2.396826714;-0.509350258;-12.6965186;9.439227873;23.95551103;36.13018688;0.748298708;-21.18047326;3.433296795;-18.58377092;-2.595528698;-9.385304372;5.299396179;25.1063756;4.443757415
16.86905177;24.67634457;-19.73920792;42.17355935;4.190019531;-0.433130126;-13.84166338;8.92749485;29.30570687;37.95491942;12.05372881;-15.99164872;4.624294159;-15.65769281;-3.349761462;-11.7224702;3.832463043;24.80803369;2.050500935
15.13079367;22.76177714;-19.55264775;39.36204477;6.13646352;-0.346856875;-15.00559431;8.458261147;30.86227977;41.87858079;18.73498821;-7.850784942;4.101606126;-10.46235085;-1.82369547;-10.33329549;1.671230191;23.54384774;0.127234589
13.57076965;20.71500455;-17.63785492;36.74832739;9.735641093;-0.263931843;-14.83273788;8.570763719;30.42511024;48.93760591;19.8439549;2.649710934;3.915134883;-6.551333963;3.822048571;-5.281542948;0.144359793;21.86400981;-0.651727365
13.16065134;19.30962105;-14.53413481;38.00913548;15.02270548;-0.179860512;-13.41988337;9.22871465;30.63249542;57.68694077;17.91130013;12.18481471;5.349992514;-5.87295068;12.53944765;0.66501241;0.256529342;20.1926601;-0.418821678
13.70048184;18.46952884;-11.85981921;43.5099814;20.31789901;-0.08813368;-12.10283583;9.881759393;32.84882587;64.89647306;16.55308179;16.92297949;8.556503759;-7.065044426;21.02980877;4.323627671;1.913404313;18.8525172;0.097710427
14.21165682;17.66243873;-11.05686421;50.20459743;23.29088319;0.00114915;-12.1267896;9.970312787;35.99274957;67.41642766;17.27119687;15.30540778;13.04406002;-6.914211642;26.02907337;4.365635425;3.92;17.96203926;0.150353475
13.84415401;16.50201351;-12.07537443;53.90600075;22.53989442;0.056113869;-13.44442384;9.410991089;37.32369535;64.02990913;18.3583513;9.227645068;18.20303805;-3.473725084;26.3919096;1.859912577;4.779227645;17.27786919;-0.512755706
12.54157656;15.08023797;-13.20197259;52.23837539;18.52017979;0.037903278;-14.75318092;8.640555157;34.61278307;56.16828875;16.9245392;2.823545616;23.20740545;2.066301022;23.44547489;-1.070328224;3.719081471;16.22823961;-1.53929033
10.97077311;13.82283175;-12.38217344;46.17164682;13.18559889;-0.071982403;-14.74405482;8.205208278;27.91689121;47.0843625;12.13868621;-0.157399966;26.5393497;6.410641278;19.59061974;-3.111727962;1.199299571;14.24528822;-2.306591284
9.838640791;13.02442999;-9.099080453;39.14059797;8.683162542;-0.249047557;-13.41460109;8.283345459;19.46090664;39.99799192;6.524121801;1.459893887;26.03581996;7.091402561;16.48617724;-4.52145578;-1.472301547;11.17329183;-2.428361621
9.188561111;12.41890312;-5.240019531;34.50769525;6.09225967;-0.425229331;-12.21338599;8.569305677;11.74652392;36.31650041;3.824472765;5.814583782;20.03275346;4.642712566;14.26488973;-6.300942401;-3.129963204;7.35918424;-2.067262513
8.248459741;11.08898564;-4.035660304;33.25696182;5.060352841;-0.516909281;-12.82244919;8.603435585;5.56658249;34.96925889;5.166458183;9.289154433;9.057546544;2.106112741;12.14730813;-8.774334619;-3.621246402;3.255786195;-1.84299669
5.949969275;7.809013938;-7.667464856;33.53310281;4.436323717;-0.470464461;-15.62494424;8.229444188;-0.29686985;33.23011663;7.089320083;8.545841329;-3.375920288;2.350675925;9.597686405;-11.05241694;-3.925430502;-1.163061195;-2.409654571
1.730304114;1.68561172;-15.31590413;32.23763204;3.277278836;-0.29955918;-19.22895492;7.75661325;-7.426539577;28.51453221;3.67486611;2.176738469;-12.00958405;5.581875935;6.866479143;-11.94918297;-5.432954751;-6.599132205;-3.991551096
-3.957102882;-7.198019361;-23.25385091;27.4244262;1.451607522;-0.087477055;-21.51629774;7.68392976;-15.72390226;20.04971926;-8.523192357;-8.694266696;-12.77857786;9.17791228;4.532757697;-11.45532115;-8.898925467;-13.90018382;-6.181146502
-9.762316757;-17.47971633;-27.1166332;19.74731964;-0.485628358;0.054333289;-21.34409965;8.243222214;-22.96382403;9.394855868;-26.75638084;-20.92935627;-5.575192516;9.921866919;2.679065905;-11.2274784;-13.80610793;-23.09195995;-8.12387965
-14.08846585;-26.81035836;-24.80450419;11.98838212;-1.857330025;0.051558555;-19.43784121;9.177336178;-26.54493028;-0.486176127;-42.97051195;-30.71066989;5.256953341;6.653290144;0.635995202;-13.3742859;-18.57523392;-32.74971447;-8.970058594
-15.85225785;-32.73278656;-17.91466779;7.109705433;-2.320831597;-0.084414247;-17.71010233;9.951927955;-25.95676895;-6.96653445;-49.10449522;-35.18554078;13.34452229;1.09717355;-2.399694057;-18.42402524;-21.47108048;-40.36153534;-8.31874875
-14.92600814;-33.78588622;-10.63240377;6.285928964;-1.904217365;-0.259957502;-17.61189031;10.20978389;-23.63099992;-9.158439776;-42.90733783;-33.76714592;14.1477694;-3.71498323;-6.470947764;-24.29070386;-21.590449;-43.60979249;-6.399026113
-12.07531636;-30.23123031;-6.86924811;8.299322287;-0.75288887;-0.357533283;-18.95938648;10.06586917;-23.10895634;-8.085044466;-29.72725626;-28.42;7.65215832;-5.949478587;-10.5731841;-27.38330773;-19.29092506;-41.72637223;-3.90500396
-8.502580891;-23.90454174;-7.708403631;10.63349823;1.055932409;-0.312569648;-20.23803155;9.990880545;-25.85698894;-5.61939309;-18.75641496;-22.61315079;-1.933034683;-6.225102547;-13.27239803;-25.19968769;-15.82124987;-35.91969481;-1.606830971
-5.277743306;-17.18537361;-10.94974127;11.37918747;3.429472203;-0.156088584;-20.0639539;10.39720766;-29.48932231;-3.069106629;-16.51790662;-19.3575391;-9.13234282;-6.643117695;-13.66432934;-18.35037271;-12.45147749;-28.51829676;0.022197802
-2.934107046;-11.68124919;-12.97453732;10.53744325;6.041586882;0.007999636;-18.46105207;11.29399677;-29.22140455;-0.50006958;-22.48379111;-19.44020449;-10.61792098;-8.582126004;-11.81359973;-10.25505659;-9.709157347;-21.4495348;0.957392072
-1.385541114;-7.487395579;-11.48435765;9.809171825;8.282424935;0.075463078;-16.80198676;12.30029371;-21.70120858;2.739386279;-29.96220291;-21.02007813;-6.732563187;-11.25833385;-8.358764762;-4.611707118;-7.217170935;-15.19105368;1.501374333
-0.162726253;-3.535959773;-7.134307227;11.09136786;9.515948687;0.011837889;-16.48728452;12.98017381;-8.181839457;6.832068851;-31.28712439;-20.94383902;-0.380454846;-12.29912085;-3.808556516;-2.632365774;-4.196742751;-8.957107831;2.006142248
1.175325031;1.229432287;-2.992614273;14.83291825;9.467205095;-0.130193473;-17.59127632;13.18871469;5.731525396;10.75135804;-23.21907785;-16.95157276;5.448272267;-9.797774294;1.656418328;-2.324128657;-0.246541487;-1.8962711;2.633084352
2.684230123;6.75905031;-2.347379394;19.48085968;8.404182293;-0.25584099;-18.74087156;13.13167801;13.85565985;12.72579535;-8.694054139;-9.267574957;9.442969965;-4.072774257;7.632637408;-0.43895183;4.166195981;5.72642418;3.293161558
3.947961709;11.76111812;-6.456847365;22.43891243;6.94032694;-0.29802007;-18.37229602;13.11634437;13.88536713;11.64355706;5.816999105;-0.484268925;11.87407277;2.33999765;12.83297568;4.536503706;7.859308764;12.35995315;3.772971615
4.339373475;14.67050092;-13.70870531;21.85801524;5.612557889;-0.25786353;-16.23991861;13.24768473;8.978582417;8.253797366;14.78122064;6.122058667;13.21425957;6.431414624;15.25264422;10.91007813;9.647679377;16.17213856;3.929342815
3.481711685;14.97085501;-20.56856898;17.97245739;4.577086395;-0.188934023;-13.78552971;13.3553841;5.127991139;5.046478665;16.47779062;8.600828949;13.0827777;6.78974109;13.42080119;15.14725682;9.142644585;16.43319949;3.805329873
1.595651278;13.78058219;-23.54095376;13.01109251;3.640355893;-0.145241677;-12.97570423;13.20718252;6.365669337;4.672971926;12.72891754;7.287227053;10.59832006;4.438818918;7.890994013;14.96162224;7.094083798;14.17475744;3.593321346
-0.554812441;13.14644459;-20.9129797;9.7197215;2.531170825;-0.140416094;-14.59730894;12.79262063;11.62372261;7.966437812;6.639829231;4.224501278;5.72985258;1.960684075;1.618294479;11.47915408;5.016170336;11.59345051;3.485000389
-2.146965545;14.50837198;-13.43323322;9.510579513;1.121578332;-0.150611796;-17.52359173;12.39748786;15.73794718;13.06380133;0.65502221;1.693971831;0.165743982;1.724292171;-1.455032431;8.51874755;4.299808532;10.63863683;3.520953266
-2.910313498;17.49961002;-3.829871165;11.51655892;-0.597655625;-0.151623745;-19.63638624;12.38574713;13.71277141;16.40669565;-3.82676005;0.974860878;-3.427724231;4.528475775;1.121318528;9.450154819;5.355084111;11.81544691;3.54187478
-3.402857901;20.04827566;4.38134141;13.1950202;-2.693375111;-0.149715949;-19.62958878;12.87806552;4.745346723;15.01778702;-5.928331729;2.008110236;-3.410029297;9.406281321;8.475342651;14.21079065;7.324384022;14.01512709;3.269390497
-4.672166732;19.77866903;8.235850134;12.0557008;-5.342600072;-0.173792146;-18.12068053;13.61603978;-7.208053757;8.470994482;-5.26104094;3.803813354;-0.798230857;14.38174671;16.63732308;19.05416523;8.560019531;15.38783749;2.466298924
-7.453374405;15.72237823;6.392078153;7.334846336;-8.605771258;-0.235957736;-17.08348817;14.14111871;-16.62516518;-0.828537248;-2.763557178;4.99576661;1.015664924;17.45412939;20.79190553;19.39986988;7.589543862;14.55828602;1.090886836
-11.43869788;9.110530547;-0.338426817;0.514850262;-12.08546179;-0.301286886;-18.08416245;14.14360534;-20.59258121;-9.20591516;-1.247195063;4.199245226;-1.471230677;17.27852804;18.0738312;13.56051278;3.995945802;11.3718297;-0.626357668
-15.17976865;2.703304618;-9.211309797;-5.592544672;-14.83989525;-0.302959831;-20.86085871;13.69320408;-20.50405177;-13.95109533;-4.226268504;0.340952237;-9.218069971;13.49883573;9.075198535;4.314577396;-1.299110132;6.832053381;-2.218303622
-16.7910933;-0.828972442;-16.5808873;-8.523005206;-15.77553495;-0.197812466;-23.49592456;13.16999132;-20.04803793;-14.6561238;-13.16576351;-6.754462454;-19.62862245;6.897763392;-2.776720196;-3.007823253;-6.492568448;2.484528626;-3.126746028
-15.06381661;-0.34129436;-19.4559105;-7.485594879;-14.3336925;-0.016154482;-24.03722235;12.97099016;-21.43205798;-12.86436281;-25.24039453;-15.69665155;-28.03155633;-0.666609679;-13.30829616;-4.433416008;-9.807015472;-0.253607556;-2.920848866
-10.27500399;3.418441883;-16.89560792;-3.568185285;-10.96597071;0.142547977;-22.1561161;13.24538593;-23.21852978;-10.53924213;-34.0059828;-23.47246075;-30.61873953;-6.77821266;-19.64061921;-0.138237227;-10.3245986;-0.507377362;-1.512407901
-4.14056152;8.55380146;-10.46424772;1.140938799;-6.975618828;0.174064442;-19.40072082;13.86310194;-21.6523436;-8.646205633;-33.32928826;-26.56535141;-26.72570175;-9.484416643;-21.01495079;6.052025057;-8.316482579;1.886224644;0.73793311
1.085906214;13.18193944;-3.386258413;4.806983328;-3.765307438;0.047298151;-17.83724334;14.60367831;-14.28334021;-6.855580935;-22.02981071;-22.93;-18.8957012;-8.352772045;-18.32763891;9.924206255;-4.961957064;6.321673375;3.113550899
3.803473428;16.21110646;1.189462946;6.667035993;-2.011577008;-0.167269939;-18.27982403;15.36562136;-2.686650507;-4.34769254;-5.527418708;-13.55731314;-10.87823652;-4.787436566;-13.16805689;10.14695264;-1.689810832;11.48889555;4.836626105
3.800754696;17.41578594;1.813108492;7.044596853;-1.373616926;-0.344887617;-19.65324083;16.20141167;8.14747055;-0.832156167;7.304967438;-2.312962331;-5.196686007;-1.190804504;-7.169407602;8.884151653;0.470065918;15.70810304;5.437963996
2.120241726;17.07402493;-0.716833588;6.778801193;-0.942134428;-0.394889632;-20.02094808;17.16268786;13.34180788;3.12906925;10.17690199;6.15092241;-2.049737775;0.57810964;-1.839717778;9.39169942;1.218499794;17.58084939;4.989666901
0.218044146;15.63157673;-4.147003288;6.588180966;-0.056530797;-0.321151459;-18.34661537;18.12338571;11.69829331;6.65589881;3.87070254;9.112708823;-0.093956786;0.353280972;1.530773937;12.79665799;0.919696379;16.68847627;4.034159711
-0.975410335;13.60997884;-6.302925652;6.765530579;1.163476171;-0.207886778;-15.43231057;18.77066008;6.407744317;9.305243679;-4.359711657;7.204366403;1.844618821;-0.456141693;2.248538689;16.92383052;0.26447184;13.86357506;3.224204854
-1.486464689;11.61846982;-6.331007501;7.251350194;1.978683141;-0.144887369;-13.22742872;18.7993414;2.406636729;11.27481937;-6.220078125;3.509057234;3.662559032;-0.134708253;0.719722538;18.25439913;-0.112681912;10.74403145;2.896057251
-2.015065635;10.23555142;-4.911747927;7.872656498;1.718147392;-0.155002266;-13.14670913;18.156803;2.621031223;12.88603598;1.395674012;1.077839777;4.301922235;1.97814185;-1.479744004;15.37273453;0.122378143;8.824120535;2.87304224
-3.228904756;9.747087587;-3.470381663;8.521083757;0.402720168;-0.18261622;-14.89011783;17.12871212;6.120417303;13.92161746;14.09968763;0.829350207;3.033281528;5.144546279;-2.319523358;10.87300753;0.969853275;8.63592268;2.655553934
-5.175844108;9.980308518;-3.065642023;9.195587989;-1.218931496;-0.14934358;-16.78073308;16.17973448;9.463575603;13.56912698;23.33440604;1.41548223;0.447638511;8.097339513;-0.506492863;9.840438766;2.226793198;9.633719005;1.873053083
-7.214971142;10.45204898;-3.73999119;9.960495945;-2.249440081;-0.027188324;-17.27654804;15.65975652;9.827080265;11.14831785;22.69254453;0.948649594;-1.763389214;10.24236068;3.659520445;15.79761272;3.664239996;10.81335558;0.65743331
-8.472563839;10.75064423;-4.671119967;10.87271109;-2.357294882;0.132961562;-16.28884488;15.59211413;7.164341233;6.998457002;12.37145019;-1.077838347;-2.077337916;12.05896121;8.420019531;27.18092774;5.128982682;11.51263244;-0.373803205
-8.4724237;10.80101026;-4.869910965;11.87854799;-2.043096674;0.239546822;-15.15204453;15.69447791;3.697344284;2.627146186;-1.489766883;-3.432870693;-0.407779019;14.36825914;11.61097476;37.22750454;6.512714808;11.71649893;-0.55538006
-7.50115694;10.72954354;-3.862286029;12.68890816;-2.245124317;0.230566444;-15.32215719;15.6064554;1.457941167;-0.218116412;-11.7673345;-4.63895919;1.669329773;17.25225501;11.88197132;37.71913165;7.636002537;11.65757157;0.272199981
-6.473968406;10.43265925;-1.924106601;12.726393;-3.600983507;0.116413018;-17.01448303;15.15285202;0.230132538;-0.939854545;-15.53560986;-4.858617998;1.917448598;19.76264541;9.264553123;24.20098458;8.178317489;11.16225061;1.527187659
-6.399019781;9.302563677;0.179620435;11.28335135;-5.937823992;-0.037370267;-19.01599611;14.46185388;-2.261147519;-0.804652939;-15.5068398;-6.279315217;-1.09370036;20.78398083;4.846447585;-0.817418536;7.778553198;9.455773598;2.200257974
