Channel 1 - P4;Channel 2 - O2;Channel 3 - P8;Channel 4 - T8;Channel 5 - C4;Channel 6 - Cz;Channel 7 - Fz;Channel 8 - F4;Channel 9 - Fp2;Channel 10 - F8;Channel 11 - Fp1;Channel 12 - F7;Channel 13 - F3;Channel 14 - C3;Channel 15 - T7;Channel 16 - P7;Channel 17 - P3;Channel 18 - O1;Channel 19 - Pz
-28.82856266;16.8871644;-42.98231717;-95.11517814;-57.31993955;-31.05354129;0.657555592;11.08731575;-5.709839673;-24.41485178;-2.817253913;-51.75172062;4.680855024;-24.82054772;-38.0087939;-139.4995737;-81.58585523;-99.25995606;-83.95257247
11.7732314;-31.58464287;-89.47680914;-136.7993944;-73.90646791;-19.28120839;38.08349953;25.7173776;-8.016875562;-17.07534195;-6.607998707;-95.12315222;26.93898792;-4.261231009;-51.11536118;-145.5829837;-120.9983196;-103.2907033;-79.68417016
46.53320102;-66.86340869;-93.46418264;-112.2852897;-53.90287984;2.019187544;47.59627708;29.22038916;-12.50393145;4.52597618;0.135269716;-94.15247102;38.24898417;29.45697829;-42.18740766;-93.05376107;-110.2619014;-64.69752007;-42.91120736
65.83724053;-66.44091073;-59.98986573;-36.52650506;-10.53978901;19.12873121;24.96576471;13.45416819;-25.87180234;23.73845665;8.742204434;-54.27540941;28.30312981;58.3082099;-23.65885669;-14.38079456;-62.88643112;-8.411585825;0.532243206
67.98769976;-33.3713147;-18.14549582;44.52415252;28.97472263;22.38189723;-12.39240462;-15.81507792;-47.74667087;26.82959905;10.06806527;-5.02609943;2.151134888;66.87452892;-11.18165364;43.83933539;-13.5152598;31.39483119;24.03325656
59.34473197;7.064954718;1.934218456;85.0268516;43.04246265;12.8787829;-38.97742962;-42.72146;-69.91124793;13.34938122;1.488932678;22.07244037;-23.17656545;50.74967475;-12.14307766;54.04491424;7.463412895;35.26605488;18.66596825
49.37621789;27.14249251;-8.75739149;68.3479969;29.874725;0.570463997;-39.91314688;-52.83577971;-82.22398904;-4.435671831;-11.77415387;15.39501732;-31.44604164;17.19561069;-21.73278297;24.63225729;-5.815979609;10.30313401;-2.998657437
44.39984789;17.04154947;-33.8691652;14.0776702;6.091378548;-4.318580865;-20.39354396;-43.49309414;-80.58200504;-12.15721913;-21.65353512;-11.41430852;-19.26691016;-20.83214683;-28.84361524;-10.97677433;-34.24498115;-18.16760432;-19.33318932
44.55907946;-9.88248351;-47.44869566;-39.700337;-7.894073769;0.707114472;0.642712313;-25.03800998;-70.43704081;-5.009014561;-24.07314023;-33.22297556;2.02641556;-51.94204914;-26.18081094;-22.48467701;-51.68490266;-27.3212211;-17.30470034
45.79423087;-29.89780393;-35.69249033;-63.63071631;-3.314496414;9.382722574;6.469932231;-12.37010884;-62.89624036;9.047786194;-21.93439578;-34.02150067;15.79194014;-70.11347387;-16.07251275;-4.844459718;-45.80986835;-13.2340831;-1.186070649
44.59665641;-28.34249873;-6.839986969;-53.64432422;12.6150595;12.95246489;-5.025684192;-13.70746387;-66.44453003;16.72701775;-22.08957948;-17.7754061;12.93538872;-74.30841571;-7.660571927;22.19457853;-25.4389849;9.08316777;13.49542957
41.39842336;-9.868338069;17.7270206;-27.21947632;25.47425108;8.010933952;-21.80528812;-25.3027369;-80.8472438;10.84574594;-29.26276214;-2.13302299;-2.017993807;-66.48801363;-8.554184287;34.20864622;-10.13629017;20.26131865;14.28260603
39.98134907;7.766366123;22.23467502;-5.918606633;26.81944057;-0.802291171;-29.26666911;-35.72145818;-97.94809437;-3.917162006;-42.24196395;-1.980831391;-15.9122146;-50.61492277;-18.36681999;23.3525613;-12.44541381;12.6895758;1.853526676
43.81134635;9.752293946;8.793641852;0.424017413;20.36590037;-5.271303251;-22.47936999;-35.61686821;-108.4605955;-15.45243039;-55.42615075;-17.34846123;-18.21780264;-32.66420908;-29.441521;2.993461821;-28.08400568;-4.819845738;-12.00673809
52.69335426;-3.895208863;-6.362822768;-3.222764055;16.73421507;-1.058922658;-9.063989025;-24.94654636;-109.1356694;-14.68929028;-64.07841586;-35.17138478;-9.091807396;-19.71052453;-33.67347454;-6.570283189;-41.39884207;-16.29088023;-15.60446099
62.61928748;-19.99433071;-7.971426731;-5.846501798;22.45260713;8.40783953;-1.341639309;-12.22491162;-104.6829037;-3.112764861;-68.54075461;-41.99172857;1.94127949;-16.98151006;-29.27741707;2.6475342;-39.98989846;-12.66719127;-7.362698617
68.80128355;-24.69998922;5.70359901;-1.154549057;33.43723946;14.87621524;-5.391886276;-7.134989752;-103.334242;8.792670725;-73.77031107;-35.73555891;4.786025666;-24.45062472;-21.78277889;19.35536963;-25.22601135;1.425861595;3.784592438
69.22419668;-15.33268747;23.26667309;8.717254659;38.60985944;12.33717162;-16.52367244;-12.95147935;-110.071317;10.46868013;-84.74153014;-26.50350308;-2.799827649;-36.09573915;-18.76522231;23.83530911;-9.976793586;13.10905595;7.172461785
65.8223136;-1.577098955;31.76792678;17.56326989;30.1003182;2.106393679;-24.38493248;-24.763767;-123.0779668;-0.143782978;-101.8184526;-26.54710344;-14.05704155;-43.38017907;-23.14166586;6.296362728;-6.519692326;13.06347214;0.037288846
62.57909344;4.03222403;28.01693502;21.40239636;10.79861148;-8.301472408;-22.45598419;-34.27311898;-135.9097113;-15.3934512;-120.1127913;-38.95433349;-19.67163798;-40.93653178;-30.77864242;-23.74832851;-15.82977988;3.095911861;-10.47136304
62.40915165;-2.755686739;19.4425678;20.41338462;-7.402140262;-11.34158457;-13.37034264;-36.61218455;-143.0428251;-24.60821965;-133.3216579;-55.06942941;-15.78980225;-30.14971835;-34.19255;-45.1592733;-27.47914515;-6.581528062;-14.18227908
65.41731766;-14.921185;14.71614947;15.94449037;-13.08921179;-5.345102857;-5.813552891;-33.53415822;-143.9854664;-22.72218681;-138.7225068;-62.45734097;-6.757388212;-17.70522674;-28.91820488;-42.89897818;-29.54360075;-7.05528439;-7.124185522
69.6135614;-21.28612257;13.98309521;7.288913932;-4.384402878;4.614600716;-6.391123325;-30.92191601;-142.8440791;-13.74312077;-139.1476786;-55.92886072;-0.740581155;-10.25376462;-17.14110238;-20.33542293;-19.24140214;1.614811758;5.158423593
72.95764448;-16.72879763;8.553260224;-7.429912725;9.946479645;11.19815477;-13.97629803;-33.42117557;-144.3242012;-6.742677945;-140.4529106;-41.88274016;-2.550477851;-9.602479428;-5.844900512;4.176433481;-4.966289347;11.22546726;12.80589424
74.72016311;-6.285385598;-9.470350327;-27.02280448;17.88901863;10.52975122;-21.31403605;-40.95063784;-149.9446793;-8.308955759;-146.7772079;-32.53854878;-9.999508902;-12.31759676;-1.419445044;12.9228109;1.546527387;13.30250542;10.36970035
75.19640288;0.064492755;-36.98043165;-44.69415754;13.60105538;4.475476296;-21.9308358;-49.59064184;-157.5230329;-17.82232207;-157.5218043;-35.54200748;-16.55129094;-13.70445688;-5.308729228;2.950087891;-4.498838404;6.531397684;1.24795381
74.57952235;-3.318584589;-59.45833457;-51.1260032;1.187513486;-1.866672082;-15.85141027;-55.30329242;-163.7513253;-28.87119453;-168.2375601;-48.04656504;-17.3627631;-12.29960849;-13.86742563;-13.05607091;-17.31883275;-2.733586341;-5.814579415
72.50828684;-12.91317295;-61.88772306;-41.53970603;-9.599256293;-4.673997881;-9.119543696;-56.78822334;-167.032035;-34.74118464;-174.2314813;-59.91311968;-13.11998651;-10.71935277;-21.77671371;-18.97377081;-26.25720784;-6.737160058;-4.660716651
68.83665903;-19.7272429;-41.82035365;-20.55961349;-11.3885382;-3.839634791;-7.958568843;-55.18717563;-167.9792063;-32.97479952;-173.6785335;-62.53966103;-8.492706248;-12.22456503;-25.66094566;-9.283449612;-25.2038594;-3.23659605;3.104367298
64.62567846;-17.71275688;-12.80532775;0.09612921;-4.113470346;-1.685755921;-13.14069192;-51.65058413;-167.6021749;-25.67876327;-167.9391434;-55.35669526;-7.106672485;-16.46555809;-25.10758457;7.120770229;-17.24531924;3.156249245;10.06485386
61.91115179;-9.092055267;5.521643859;9.90405232;6.548894757;0.128530709;-19.61255321;-45.73558993;-165.5156242;-16.47333528;-159.5308951;-44.82285714;-7.978333287;-18.76077478;-21.16497151;15.83359824;-10.88199134;5.940359068;9.923651467
62.01430735;-1.961949569;2.680525902;7.088299262;14.75536584;2.173762699;-21.41083712;-36.46407622;-160.3306317;-7.661080262;-150.1583827;-37.79359848;-6.73777296;-14.03459946;-14.65643918;9.933770224;-11.87693779;2.973237187;2.997737687
63.86775913;-2.715237308;-14.95589133;-0.930743803;18.6831603;5.847974398;-17.13402045;-24.89356255;-151.9517229;-0.122649422;-140.6724274;-35.84516987;-0.347933303;-2.074747377;-6.261619357;-4.491484672;-18.3834405;-1.848719345;-4.490668211
64.23021187;-10.35938126;-30.46938831;-4.470039063;20.08178636;10.73841783;-10.98513837;-15.22173609;-143.2855192;4.880998616;-132.5275191;-35.4995317;9.274600374;10.82226895;2.061474663;-14.57177498;-23.48272337;-2.757787901;-6.315677461
60.13057766;-17.7644243;-31.07327604;0.21340958;20.69176988;13.81209113;-8.663257991;-12.61103933;-139.1167084;4.892172289;-128.585292;-33.3;16.31709448;15.8610978;6.538246301;-12.36003906;-22.23662379;2.087488654;-1.765538727
51.69916331;-18.38509166;-18.4192953;8.485006885;19.75108313;11.70498863;-12.0895326;-19.07187222;-142.5246794;-1.918645883;-131.6987952;-30.16683291;16.03580014;8.509620592;3.454167454;-1.361446455;-16.38932061;8.730285125;4.137129943
42.80985126;-12.12510923;-5.893641147;12.36908984;15.1719224;4.194812212;-17.82637885;-30.93757715;-151.786125;-13.82987669;-141.8816351;-30.55150055;9.175342755;-7.537073161;-7.600436812;7.517792828;-12.4036165;11.14948101;5.590484363
38.59418527;-5.078543959;-5.822540109;8.111361448;6.898381156;-4.541310001;-20.46720238;-40.54155125;-160.7373414;-24.89451392;-154.7253457;-37.31262876;1.743485028;-22.65872206;-22.07123015;6.293401118;-14.94795501;6.970981191;1.351549151
41.6224961;-3.671389989;-18.23835935;-0.632826146;-1.427574937;-8.535376286;-17.68523162;-41.30058867;-162.82;-28.2208299;-163.1558008;-47.62848532;0.139513787;-28.22506456;-32.50352731;-3.123633265;-22.17033015;-0.251959233;-4.43945332
49.92522085;-8.79034501;-31.11593539;-6.525950451;-4.735887577;-4.670450319;-12.25119277;-32.43029121;-155.8339268;-21.16227336;-161.8916362;-54.40870929;5.804766896;-22.67218552;-33.39119221;-11.36448704;-27.26880614;-4.298407349;-6.48548541
58.64299859;-15.25516799;-31.53089297;-5.289069364;-0.967528448;4.525106068;-9.289097922;-19.58947971;-143.6103058;-8.051960944;-151.4036084;-52.36892873;14.06637255;-12.03409015;-25.2116753;-10.71399645;-24.85903263;-1.993372151;-3.469264351
63.99809645;-16.88671384;-17.46888029;0.95448395;6.530269534;12.47429166;-11.4686849;-10.88849066;-133.2091202;2.339725828;-138.1140911;-43.23410394;18.20821337;-4.814540276;-14.29170203;-2.263195644;-16.12804634;3.948182059;0.748209252
66.18411033;-12.28718858;0.349513595;6.536461267;11.28195681;13.4344527;-16.62818536;-11.29989154;-129.8407293;3.113678381;-130.2868566;-34.96391675;15.23316221;-5.570678747;-8.313304271;5.36619006;-7.918931432;7.538928116;0.925698819
68.64248865;-5.97722697;8.130727773;8.016689817;9.017427071;6.770426188;-19.93177303;-19.62086522;-133.4784086;-5.56865524;-132.4205576;-35.20509493;8.30906037;-12.24551203;-10.7845971;4.269451597;-6.560604127;5.106085501;-4.392025123
74.3864314;-3.99496019;1.351974014;6.923799147;1.471051647;-2.779156477;-18.42467747;-29.95370208;-139.6090982;-16.63844284;-142.2297488;-44.54885769;3.810286029;-18.82066105;-18.70032793;-5.281705435;-12.13572857;-1.346878186;-11.21881498
82.73017693;-8.199682197;-11.28634012;6.804873056;-4.814421415;-8.900514481;-13.70884529;-36.1369421;-143.1465354;-21.55229371;-152.408108;-55.63167937;5.605921863;-20.45835846;-25.11453066;-14.9830014;-18.46742001;-6.066874011;-13.58280936
89.48566274;-14.59594503;-15.72608106;7.88409808;-3.829281943;-8.351111802;-10.32444544;-35.58848662;-142.1389737;-16.65267781;-155.8106473;-59.11681724;11.64712247;-16.71573596;-24.50460305;-15.9761732;-18.83288711;-4.908274822;-8.959985355
90.54767335;-17.13625431;-5.100864426;5.318799276;4.907116344;-2.787731825;-11.45501143;-30.00753926;-138.4555834;-5.468198683;-150.2540735;-51.54711179;15.87490699;-10.6843894;-16.75904851;-6.772117542;-12.16996399;0.870661906;-0.721025778
85.6008986;-13.36187848;14.17979331;-6.379148048;15.89761155;3.290551975;-16.00156145;-23.16744806;-135.4280077;4.539391859;-139.6225976;-38.35986344;13.78736809;-5.6581685;-6.929943019;5.483665986;-4.129394638;5.85186053;4.659456641
78.43131247;-6.631211271;28.00413344;-26.57467411;22.03269569;6.308399602;-19.69992739;-18.1241563;-134.8989514;7.733952095;-130.8260501;-29.51676834;6.755166229;-2.726743498;-1.314634154;11.33785812;-2.058106301;5.527358211;3.142389706
73.40030356;-2.956643958;26.58830342;-46.29067546;19.9837186;5.828702329;-19.14931616;-15.98392781;-136.2173941;3.811827;-129.0738256;-31.52986784;1.184039553;-1.179151149;-3.108126228;7.098268784;-8.493397449;0.469146022;-3.521576701
71.31945497;-5.485323521;12.28448073;-53.81607099;12.20632979;3.753740667;-14.95289417;-16.49123572;-137.6107587;-3.317434114;-134.7742184;-42.60387426;3.034465007;-0.565734858;-10.7762082;-2.503800603;-19.00233618;-4.241722076;-9.533833048
68.77303596;-11.75044039;-3.351476843;-44.08038407;4.312641544;1.874088579;-11.07945977;-19.07206496;-138.1702729;-9.521508074;-143.8109518;-54.70899053;12.24682547;-1.752642192;-19.83536617;-9.077615857;-26.16370997;-3.758992385;-10.2062472
61.8767904;-16.13206904;-9.978404645;-23.53428055;0.551361635;0.358810013;-11.11778194;-23.02574923;-138.4025326;-13.39898293;-150.4660448;-60.37784967;21.84759999;-5.673541095;-26.13405433;-8.095889848;-25.94092513;2.013731223;-5.877926083
51.14489726;-15.09957831;-6.672499379;-5.56686186;1.368972693;-1.539436309;-14.95920262;-26.94889937;-139.0008994;-15.83575296;-150.7476818;-58.23175783;22.73600035;-11.20321007;-28.0539854;-2.331568706;-20.69825831;8.285103711;-1.197066481
42.60408528;-10.31244043;-0.776696303;0.220369865;4.640514085;-3.69557034;-18.97469861;-28.58583031;-139.3842411;-17.33384885;-144.1612914;-52.83499312;10.52846741;-14.80230187;-26.47536473;1.555143249;-16.37671978;9.708764258;-0.63269617
43.32317751;-6.784431782;0.788648296;-4.302607682;8.622239543;-4.46044322;-19.45256413;-25.92984261;-137.7667666;-16.36723034;-133.3823264;-49.72199711;-10.83211472;-12.9743311;-23.31570492;-0.31756637;-16.74046552;5.190707948;-4.418951158
54.74294013;-7.984871777;-1.029617358;-8.128558899;13.35978651;-2.113407482;-16.04446021;-18.93745456;-132.8926768;-10.74996048;-122.5710376;-50.49933754;-31.43358442;-5.638644032;-20.23576477;-5.496367612;-20.13955172;-1.204578566;-8.57596561
69.89094905;-12.56267128;1.404628148;-1.686843628;19.27655632;2.926065938;-12.02213036;-10.21897661;-125.7412501;-0.720339506;-115.4438983;-52.30434968;-41.84263433;2.822706649;-18.33168558;-7.911914368;-21.67108686;-4.004119773;-8.820785877
77.87609348;-15.75138137;13.61923766;13.72077234;24.83936813;7.514431332;-11.16676673;-3.683500155;-119.3281751;9.592924692;-113.8569516;-51.51583295;-38.83441217;6.333100284;-18.37737908;-4.057375063;-18.46361878;-1.239474689;-4.644234993
72.79249354;-14.0473633;31.14451137;26.38370443;26.329568;7.865096343;-14.24310727;-1.908019271;-116.4512761;14.38585442;-117.1991292;-47.70625559;-26.49697382;1.781400664;-20.75887643;3.351851034;-12.90158991;3.954393588;0.213744554
59.64538949;-8.675002209;40.67743341;24.61401641;20.65669494;2.781541224;-18.34348474;-4.307887632;-117.2512758;10.66092312;-122.6928156;-43.94874215;-12.5327677;-8.287534894;-24.92531751;7.723178303;-10.61625315;6.413889871;1.26254532
51.47914598;-4.533311617;30.34362534;8.012721149;8.856556204;-4.810068359;-19.66116397;-7.694416723;-118.8313947;1.138166644;-126.586295;-43.38357474;-3.009491015;-17.36528441;-29.06739001;4.734238552;-15.06070473;3.76436222;-2.549878556
58.874198;-5.607519194;0.562612283;-10.86749593;-3.28869128;-9.64202977;-17.05136533;-8.835715382;-117.4609341;-7.225694616;-125.905247;-45.65;0.620073242;-19.79025325;-30.77253647;-3.466091335;-23.77564393;-1.467261708;-7.818579561
79.82418903;-11.1742003;-34.16600547;-16.71941141;-8.796000205;-7.991868955;-13.04790853;-6.913573326;-111.5939885;-8.234397347;-119.9864932;-46.87809987;0.739594563;-14.74869667;-28.49498846;-9.921536943;-29.97423917;-4.306795033;-9.738474358
98.71457675;-16.3902916;-54.81520546;-5.099342176;-4.666580937;-0.56341466;-11.42864818;-3.857253641;-103.157172;-0.979648272;-110.8995671;-43.41303277;0.546194689;-6.282665332;-22.74733837;-8.897177026;-28.20147309;-1.984576011;-6.41598826
96.47904363;-16.74139982;-51.36585044;12.61147822;5.625040499;8.000321722;-13.6586722;-2.387485457;-96.03323313;9.788800474;-102.3944121;-35.74118777;1.555608289;0.397628664;-15.96277965;-0.811588261;-19.05764238;3.545434407;-0.524440636
64.99060478;-12.20180483;-29.53528631;17.94830441;14.64082139;12.55292792;-17.55635186;-3.577286166;-93.07945839;17.63904227;-97.94065834;-28.75402594;3.273305748;2.912483263;-11.0314105;8.300702597;-8.773074849;7.487463192;3.133254963
14.70420812;-7.222885927;-5.587318524;0.972091438;16.5751471;11.01991098;-19.40236641;-6.075197131;-94.21400293;19.33968597;-99.03727149;-27.85276757;4.525743773;2.676011414;-9.610302599;12.14653143;-4.027080445;6.652305;1.877101182
-30.84796664;-6.565555421;6.104874182;-30.45336748;11.35765039;5.354889879;-17.46911962;-7.567814175;-97.04814032;16.62865584;-104.7442137;-34.29144018;4.756212321;2.47823057;-11.42359167;9.421525803;-6.597550519;2.315261948;-2.623490677
-50.20243361;-10.87253346;2.576950485;-55.95808559;3.982309192;-0.537209345;-13.63519266;-7.029828845;-99.25245738;13.74196189;-112.4958404;-43.92697195;4.157448066;3.434921733;-14.83574448;4.341322052;-12.43220592;-1.111807156;-6.053554354
-37.79902519;-16.10963519;-8.098616172;-58.52191265;-0.085381752;-3.832926825;-11.57964181;-5.658140299;-100.4151084;13.28528764;-119.4448342;-50.48299164;2.971144312;4.366282802;-17.93343536;2.311145013;-15.65457701;-0.265208221;-5.409358976
-6.528844897;-17.38016674;-15.39535509;-37.83432214;0.713736978;-4.226407063;-13.28220649;-5.664401261;-101.8186718;14.24800646;-123.485932;-50.40282922;1.102673376;4.000355027;-19.18295663;4.960939044;-13.66260455;4.070152409;-1.58853657
22.3403897;-13.52896248;-15.02741737;-10.13480868;3.551666661;-2.994089064;-17.14348628;-8.094557547;-104.6047862;13.71823915;-123.6602193;-45.08494222;-1.343206438;3.408525572;-17.49748756;9.074439505;-8.781687029;7.792904927;1.619320077
33.79018042;-8.224833552;-10.69574909;5.090860382;4.632220832;-1.140271003;-19.49875758;-11.71487075;-108.2576373;10.34325908;-120.1980143;-38.85572847;-3.229502724;5.737387135;-12.33193074;10.08483064;-5.361612453;7.385759787;1.04441524
27.36466705;-6.516744164;-8.706921415;0.241848857;3.026879818;1.336833528;-18.09084666;-13.97976119;-110.8864682;6.056789366;-114.4733031;-34.94334559;-2.471898907;13.02747623;-4.29834478;6.549422146;-5.431432287;3.185857246;-3.126371573
14.00875078;-10.09981926;-11.45090853;-15.88035403;1.311991603;4.489269585;-14.21634497;-13.16107961;-110.9404874;4.39689249;-108.7304263;-33.29606152;2.471426261;23.10539899;4.154966638;1.327013477;-7.11702616;-1.008149568;-7.773158527
5.471936761;-15.73109042;-15.82891535;-27.1690437;2.616672757;7.151403955;-11.50928786;-9.673374814;-108.5739999;7.085214513;-105.2396969;-31.96784219;10.65508094;29.99536793;9.147929393;-1.449570328;-7.112073143;-1.541124903;-9.80959517
5.491451482;-18.27634311;-17.31188813;-24.32308764;7.16468098;7.158582521;-12.50128863;-5.421741407;-105.2643818;12.24349206;-104.9731222;-30.15581369;18.00147024;28.29680837;7.437502964;-0.435432419;-4.488139615;1.732408956;-8.809563923
9.302803979;-15.52287301;-14.8852329;-11.67247902;11.82544275;3.284198301;-16.20614469;-1.860009766;-102.0732446;16.07803342;-106.6320876;-29.41220537;19.02296756;18.12118842;-0.86759949;1.871470467;-1.895992032;5.482410546;-6.929558
10.37381026;-10.23542726;-11.76591348;-1.513201445;13.19305935;-2.87955658;-19.02601545;1.366717997;-98.36142455;16.52827601;-107.0533856;-31.58851608;10.20874161;6.112256636;-11.15337107;2.036473834;-2.881337723;6.234220417;-6.443628795
7.377943571;-7.52316739;-11.43100094;-1.98539347;11.16838465;-7.24260316;-18.14835275;5.900978049;-92.3935859;15.40717053;-103.1757573;-35.66562114;-7.10855754;1.070075684;-16.30749404;-0.464261588;-7.974370169;3.762213082;-7.441912147
5.088800268;-9.997625952;-13.3544483;-9.846850317;9.36418227;-6.054593329;-14.23785324;12.76249322;-83.4097518;16.85658655;-94.38690936;-37.13899359;-26.56217053;7.335446251;-11.17838443;-2.434772282;-13.55554617;1.27686266;-7.939608548
8.966032525;-15.29024781;-13.11062041;-14.41628677;11.61505037;0.868996976;-10.86405826;20.85428179;-73.18211627;23.35320393;-83.41345572;-31.36951042;-39.75338786;21.27720903;3.47124813;-0.15815656;-14.88595202;2.218233723;-6.182523922
19.00847994;-18.28765808;-6.995829152;-8.443529013;17.72164207;9.390039063;-11.16650221;27.32650624;-65.37421575;32.87853281;-74.77833386;-18.28333583;-40.82141678;33.87424787;20.63681602;6.487718074;-10.58769181;6.738502122;-2.748085611
28.86989989;-15.99477902;3.435505616;4.589518547;22.610257;13.76048634;-14.87764167;29.55061742;-62.99035486;39.96617781;-71.74168583;-3.922091912;-29.8024601;37.38681198;31.09677557;13.1986848;-4.243246273;11.29880147;-0.249487534
31.17832491;-10.43211335;11.75391898;13.63157608;20.1769863;10.857636;-18.52351913;27.01431902;-66.03763838;39.91332853;-74.01493271;3.298009363;-12.64652119;30.75571774;29.25782641;14.85417168;-1.330004883;11.87037973;-0.839422461
24.23431621;-6.79297482;12.12945549;10.63959589;8.749352545;2.558429916;-18.65559227;21.55930913;-71.47069637;32.57885108;-78.09997489;-0.966721151;2.193435926;19.55519075;16.74931549;10.35889542;-4.123050001;7.776561341;-3.945350496
13.98907098;-8.549809655;4.958140746;-1.483833126;-6.670546018;-5.702458595;-15.1030774;15.89137972;-75.52755896;22.49269667;-80.05351125;-13.22452115;8.550876453;10.98125545;1.210182477;4.04751718;-9.310112359;2.521294773;-6.548951608
9.439192731;-14.11454747;-2.844019329;-11.22823402;-17.64974351;-9.015662378;-11.17615118;11.76399875;-76.46580052;15.21244254;-78.47567579;-24.5633858;5.797131892;8.386796424;-8.817135828;2.00678604;-10.74758139;0.722341092;-5.908174262
15.40083529;-18.25013233;-3.597316154;-9.118774625;-18.58234775;-6.41221123;-10.58653404;9.338033533;-75.40336078;13.09839556;-75.3172063;-27.558284;-1.405589998;9.82346312;-9.224381811;6.475168557;-5.062196871;3.930490403;-2.205492579
28.83112835;-16.9739159;4.335412563;3.19331486;-10.78850446;-0.993829351;-13.94599613;7.959136193;-74.7355754;14.06055705;-73.93935389;-22.02713846;-6.606018858;11.17211144;-2.302207438;13.52626357;4.962798626;9.218932478;1.45558413
41.61781187;-11.36155332;14.93550449;14.05356;-1.078972151;2.985445274;-18.14144308;7.260155795;-75.78303033;14.09178285;-76.18755961;-14.84;-5.993652946;10.38560766;5.602279802;16.42787119;12.42413482;11.88792775;1.847082738
47.11584687;-6.622991336;19.76882193;12.47440113;3.852666994;3.381565431;-19.21816947;7.379818445;-77.88447912;11.08220821;-81.01248951;-14.00723819;-0.81430241;8.790826065;8.59786414;11.83482798;12.0818303;9.79079864;-1.328918807
44.72527778;-7.239079429;15.45250343;-1.271756426;2.369388808;1.095869738;-16.10150841;8.22735213;-79.59495753;6.49385688;-85.69891951;-22.10059813;3.846757559;8.629754551;4.655063255;3.163729537;4.760142427;5.24847433;-5.019279697
38.95655374;-12.6971928;6.567416987;-15.04630976;-1.849075834;-1.6456478;-11.65529348;8.883887941;-80.5184287;3.663652696;-88.37555586;-34.47584304;3.055068861;9.832468585;-3.99921401;-2.135128629;-3.564881572;2.760808065;-5.537446324
34.51893844;-17.88469548;1.327231773;-15.26438904;-3.94448134;-3.60764232;-10.0351644;8.158561898;-81.69909879;4.644369166;-89.36607273;-43.46827505;-4.053440795;9.702944534;-12.97111212;0.842491218;-7.113140958;4.676314889;-1.973720449
32.28745505;-17.86269078;3.973158139;0.733273711;-2.322515926;-5.144520758;-12.77721825;6.016901129;-84.04427935;8.647229905;-90.14594716;-44.60771837;-13.31331322;6.104673846;-18.29541319;9.927951718;-5.188682191;8.933872447;2.883539999
29.68664457;-12.57829853;10.94158955;21.56652048;0.618242674;-6.762348955;-17.29847531;4.393983684;-86.44713898;13.34612202;-91.07626567;-39.47074313;-18.35073078;0.896644737;-17.9520389;17.61746396;-2.203569906;11.06296295;5.053811646
24.56870271;-7.030596952;14.42292365;31.17500724;1.745398677;-7.516601469;-19.27029175;6.150446951;-85.88152959;17.39963683;-90.39597554;-33.15503048;-15.20483565;-0.3429135;-12.11052439;17.651757;-2.987400392;8.587976648;3.042392405
18.36996713;-6.61713304;10.06872257;22.72934668;0.900801326;-5.321435404;-16.68987009;12.61086191;-79.9716189;21.40923556;-85.82196016;-29.27710457;-5.313597827;7.09545688;-2.800019531;10.54586373;-7.920540522;3.629321429;-0.725905033
15.24968947;-11.96344293;1.630382606;4.854279296;1.223614306;0.777662081;-11.82669606;21.7277361;-69.9493358;26.26747038;-77.48016371;-27.33275119;5.459326124;21.96506487;6.561846209;3.03115378;-12.54444845;1.108375629;-2.116574008
18.03094684;-18.14886594;-2.024264674;-5.573262686;5.703557595;8.582259191;-9.156200328;28.79176186;-61.03421108;30.72789239;-69.24807888;-24.59291068;11.09736471;36.45739328;12.0698463;1.875389827;-12.01406053;4.10719743;0.84484736
25.04116534;-19.20500957;4.897554634;1.925167337;13.43104496;13.36898969;-11.15489015;29.60007813;-59.20726907;31.12887452;-66.6632792;-20.14496358;9.743650978;41.49770106;10.98827044;7.708740771;-6.084799727;10.72890196;6.033522128
31.19743335;-13.77776798;19.05299183;21.92894676;19.51037297;11.27063739;-15.89993637;23.74753178;-66.58163077;24.26251523;-72.61239634;-16.65122174;4.694327337;34.00804954;3.586758598;14.53057644;0.285715185;15.54631546;9.085779184
32.58345763;-6.60740205;29.69364706;37.03800173;19.15927637;2.766952124;-18.7961599;15.28228619;-79.18486502;11.11264981;-84.35259454;-17.81456785;1.333061958;19.93862032;-6.290214886;15.37730236;1.519896813;14.47925034;7.411997849
30.24222655;-4.27564075;26.99503606;31.97696977;12.34046687;-6.916544065;-16.89207343;9.94173739;-89.3025051;-2.22870115;-94.74179618;-24.02689416;2.578947834;10.05602981;-12.97985803;8.924170833;-3.05082856;8.636568298;2.656090065
29.40861439;-9.05344068;9.929319904;6.009615865;4.400457111;-11.31283115;-11.74684018;10.99191819;-90.82258752;-8.089765836;-97.17013136;-30.79774522;6.682322997;11.60834521;-12.43196566;0.861429456;-8.09374911;3.461732976;-0.73971111
34.59922109;-16.61067489;-12.97759903;-26.55406167;1.666175346;-7.552251818;-8.076326379;16.92623895;-83.43857882;-2.873260322;-90.41914855;-32.10147517;9.243043469;22.71064258;-5.006927041;-1.326766402;-7.004560358;3.811429821;0.386022887
44.98372904;-19.88650255;-30.41088664;-47.68652228;5.69492871;1.390359816;-9.340853965;22.80845397;-72.42804848;9.761423923;-79.4647119;-25.94897959;7.665606011;34.17169337;4.613999109;4.598078788;1.695616702;9.443394607;4.949602227
54.45191193;-15.6674726;-36.53;-48.92671697;11.44617728;8.966401956;-14.3841911;24.08441979;-64.36013854;21.13555813;-71.46884663;-16.92726584;4.003394087;37.18935055;10.61155947;13.35084422;12.3162827;15.15141528;8.578273158
56.61186521;-7.742514163;-33.82454528;-35.80246818;11.37449489;10.03983339;-18.36669152;19.76256788;-62.36673078;23.76803075;-70.21321613;-12.83773056;3.366038955;30.3420892;10.02654134;16.86730421;16.56830178;15.55385061;7.684407003
50.38280704;-3.533688084;-28.88263292;-20.85558662;2.121922427;4.548524541;-17.25736793;12.58696423;-64.71446688;16.74494579;-73.54388618;-17.94331259;8.933132369;20.0287074;4.533168244;11.79643422;10.91201878;10.17067379;2.906821055
41.13824609;-7.168880655;-25.73995218;-12.52907407;-12.05967673;-2.997917316;-11.73339886;6.473852801;-67.34793887;6.026992161;-75.81476557;-28.75870464;17.88573305;14.34145342;-1.297457838;2.778053739;0.036264033;4.020741998;-1.339905929
36.27546791;-15.43720392;-23.11627793;-9.858626101;-22.3441631;-7.456227001;-6.743433148;3.668127647;-67.66170628;-0.365851467;-73.03693028;-36.41798605;22.25414404;16.09975569;-3.666245951;-1.685273621;-6.919963634;3.04139732;-0.902802488
39.10722409;-20.57191202;-17.54635629;-6.628803724;-22.36682868;-6.91216693;-6.973065266;3.930354078;-66.04897488;1.775256277;-66.19880685;-33.90318009;14.73329097;21.273901;-2.061642268;2.910492038;-4.251492441;8.48972028;4.171849731
46.47431403;-17.48075975;-8.527680294;0.325771443;-13.23294317;-3.345609662;-12.3607542;5.909034713;-64.25338014;10.56079793;-59.98405227;-21.9595293;-4.90543424;23.87170299;1.288043033;12.75383157;5.345252445;15.58112629;9.510210124
52.0443514;-8.728783522;-0.060040131;7.310941223;-2.23800757;-0.038722499;-17.93739783;8.83278306;-62.7332967;20.59261495;-58.28927669;-8.512033501;-28.2290504;22.30182704;4.131467395;19.09540531;13.26488837;17.79735847;10.34601343
52.05053643;-2.435926019;3.087882634;8.009422112;3.402001202;1.475455475;-18.33372903;12.68069263;-60.05348362;27.5551948;-60.77161306;-2.093194072;-43.27676543;20.8987477;6.2991539;16.35169463;12.76125726;12.98695924;5.970313729
48.08667252;-4.774450927;0.429206727;1.04390958;2.169001947;2.058863147;-12.87691063;16.9086544;-55.01077047;30.64274817;-63.58274235;-5.095179664;-42.86387751;25.00592499;9.174616401;7.423053275;4.934300706;5.543075464;0.545312963
44.52447575;-13.9597299;-3.400911577;-7.250039063;-1.630235579;2.973344091;-6.453979985;19.58352073;-49.11630691;31.20100077;-63.46459703;-12.72196272;-29.66092995;34.4197981;13.20354207;1.107455022;-2.572210177;2.442081741;-0.606916738
43.37784223;-21.53262894;-3.333574618;-8.214613536;-2.896925036;3.705316087;-5.120019531;18.48820159;-46.3720339;29.75062388;-61.174314;-18.24090571;-13.96234556;41.99020145;16.18406476;3.802907254;-2.975345838;6.664737281;4.066574145
41.97082982;-20.08306732;0.500172839;0.48649792;-0.862897575;2.183272184;-10.37481738;13.56971539;-49.87811727;24.9372511;-60.79420243;-19.36245677;-5.830308788;39.5720436;14.47958806;13.20124543;3.060409167;14.16346362;10.75238163
36.03254866;-10.3968888;2.316796748;11.60767423;0.65907079;-2.627434549;-17.48879315;8.212282404;-58.27027076;15.6652128;-65.40622453;-19.6794252;-7.833397765;26.33382997;6.452606496;20.10272719;7.955632071;17.44822964;13.59273916
25.32889762;-1.185636357;-3.284922011;14.37985133;-1.990351099;-8.488091986;-19.68270553;7.371768754;-65.7836725;4.050039063;-73.25145495;-23.95056398;-14.08057495;11.41038099;-5.031818774;17.01;4.580019531;12.70278785;9.984067307
15.97228622;-1.234630259;-14.31959407;4.869064648;-7.480196424;-10.78215195;-14.49440022;13.46510731;-66.69274371;-4.440666502;-78.35173121;-32.07281344;-16.0347267;7.341247458;-13.78759586;5.60121715;-6.394049135;3.801305777;2.990554762
16.27278203;-11.00119161;-20.93630052;-9.109352118;-9.735379315;-6.389916031;-6.389048622;23.50175382;-60.55992167;-4.734174855;-75.55296339;-38.04244828;-10.0113579;19.14317367;-14.77287305;-4.193386863;-16.30985961;-0.834486602;-1.427493422
29.19066628;-21.63115376;-13.4191241;-13.91594523;-3.587410106;2.814488916;-2.907176402;30.55741281;-53.30432245;3.201180055;-65.63183687;-35.47166288;-0.024559071;38.66225035;-8.260354816;-3.18148581;-16.1772848;3.982956333;0.111232498
48.32718963;-22.80084163;7.820776379;-2.376946301;9.374711518;10.46048143;-7.632168302;29.15447327;-52.38597662;13.35369988;-55.57293336;-24.62830672;6.224551584;50.16417898;0.05782999;8.131218093;-5.32246182;14.89727154;5.306323857
61.91465738;-12.49991022;29.99139084;18.44402237;20.75309849;10.47366327;-16.48254544;20.33243641;-59.82135244;18.01708162;-53.16909447;-13.86795312;4.471447119;43.495459;3.533245542;19.26638992;7.228521131;22.42205684;8.422428828
62.18579529;0.422829896;37.19535165;31.59416864;22.00713419;2.380226629;-21.08395804;11.74696478;-69.3470983;14.25326655;-60.29241056;-13.12974262;-2.249961418;23.81879516;0.06431175;19.17570576;10.54822609;19.37746382;5.883934273
52.13423336;3.885754182;24.41700799;23.79543326;12.25594464;-7.667031169;-16.49256683;11.95199665;-70.98934098;6.765765689;-70.79173263;-24.75621652;-6.412097283;8.770624389;-6.069198571;7.10840157;2.097776839;7.830151379;-0.051551225
43.27429817;-6.130106354;3.745071254;-3.155059066;-0.113266469;-11.56088943;-6.219074563;23.15086162;-59.7808099;4.153087599;-75.2539214;-40.15297731;-2.907001446;14.10760867;-7.803953949;-5.416457782;-9.070955744;-2.122144794;-3.199465659
45.70528941;-21.07095664;-4.260117254;-33.16257488;-4.248378868;-5.989645885;0.437571944;38.6153765;-41.10290473;11.33810227;-68.85666279;-46.19273711;6.190360412;39.16133549;-1.39591962;-4.3971061;-9.842447602;-1.20331233;0.596845705
58.93327413;-26.9083784;11.66294832;-48.44410824;3.462020302;4.551185133;-3.18906456;47.54652264;-27.33467484;24.77992243;-55.55652757;-36.47131248;13.3915205;64.69229314;10.2322682;13.12794699;4.869000022;10.27242534;9.011960027
71.83395136;-17.06827027;41.51162185;-43.28769659;15.5542051;11.3902096;-14.49913428;43.87908156;-27.82674435;35.11021284;-44.77414094;-17.49626745;12.6228439;66.23176658;19.92076754;34.22238395;26.398457;21.94130834;14.78080318
72.3649155;0.569578902;59.50182706;-27.22680402;19.63801535;9.101328336;-23.23663329;31.72787219;-40.48951218;35.38616717;-43.2482888;-3.691540494;4.984184381;33.16274599;22.46616187;39.48913127;38.85941368;22.33204692;12.28306278
58.74678078;9.769463502;44.39465021;-15.23790776;9.717617296;0.29229787;-20.54719378;22.45361604;-52.67555065;27.78706709;-49.1538019;-4.929543297;-1.913557697;-21.6405667;19.1198967;19.79464551;32.89236237;9.61509457;3.250575211
41.92038679;0.600989566;-1.443011634;-14.07551024;-7.379213158;-6.651168306;-7.59;25.22661063;-51.45098462;22.35282554;-53.82952742;-17.50602503;-0.706619454;-69.85296657;16.25110716;-14.13772323;14.52133088;-5.73165812;-4.037965098
36.39954215;-20.34366764;-50.96300426;-17.19062387;-16.92919554;-5.148574439;4.482732262;38.80545326;-34.99215928;28.11342634;-49.81850393;-27.15262759;8.80425012;-87.63814799;19.17050445;-38.66850724;0.565022806;-9.542509638;-2.020029297
47.11827492;-34.27613316;-72.03259827;-12.71427551;-9.174281255;3.328960284;4.025611573;51.81311924;-15.13218188;44.03935213;-38.13271481;-22.20782358;18.96388623;-72.04601847;26.6284297;-36.17931045;3.760840262;3.116835379;8.667393088
64.13953088;-26.60619289;-52.79149059;3.186866441;10.95740864;10.20788701;-10.06640577;51.96383146;-8.087946289;58.21838903;-27.9871035;-5.441506601;20.82254261;-41.20410218;31.26455849;-10.39815548;20.49868392;22.31162126;18.6213399
70.79123435;-1.431491315;-11.77280543;20.56355405;26.57024723;7.608071625;-25.96897119;36.92619992;-20.58886632;57.0780547;-28.7284614;6.80358214;12.35420628;-18.71833884;26.19780412;15.60616735;32.77737326;30.82177013;17.44333355
58.89795956;19.62074824;16.66178549;23.82142177;22.86211331;-3.709804633;-28.40075808;17.47141554;-43.2367863;37.55784705;-40.81569513;-1.171450274;0.808768536;-15.34163773;12.25601119;18.34664454;23.99807577;19.3305939;3.615241634
37.69631586;15.12060925;10.62754096;7.046466064;1.046106674;-13.68221953;-12.57456821;9.436067374;-57.48848927;11.65478888;-54.1092721;-28.51702664;-3.529825698;-22.75134273;-0.866423326;-5.465239206;-4.490078125;-3.877195051;-12.46788883
27.55450987;-15.9236247;-20.46378811;-17.69748925;-20.420576;-11.0488786;9.675259009;20.35632704;-51.22557609;-1.687687458;-55.78674071;-54.87030903;2.754024799;-23.81412487;-1.518812731;-34.41746523;-31.20390147;-18.14419584;-16.07468695
42.56999888;-49.2606889;-43.01199812;-28.10065094;-19.88491251;6.11010157;18.17381732;41.69771327;-30.02071322;8.14277514;-41.74696495;-54.98544262;11.43445379;-9.837446418;13.89778169;-39.15591082;-30.49392481;-7.605560406;-0.936664837
76.52253397;-52.34412164;-27.62860469;-10.36995081;8.723569499;26.60297189;1.492109705;53.83934107;-13.97414379;33.26223825;-21.71968303;-20.42086369;8.109735846;10.35837049;36.1080525;-7.636786947;5.245336496;23.57975329;23.42953314
105.0551009;-11.06472032;24.02459932;26.63851343;48.03572635;33.31255264;-31.18108925;40.95804571;-21.65858325;51.43487636;-12.95677272;29.72632066;-15.5453765;17.49670958;48.12204182;42.01495108;55.7079567;51.47530784;37.00775388
103.8841248;55.31337584;76.70374929;55.09553622;68.07202188;16.45427644;-54.35151391;4.615847086;-53.80442874;42.62501976;-26.79;59.63076651;-52.54574486;-0.936598953;37.34236043;72.84813428;84.94257029;49.5740805;24.22149717
68.95566083;104.6613013;87.01985344;48.55732995;48.52519197;-17.5702843;-44.90886806;-34.90935271;-90.41349522;5.663957918;-58.67207966;42.58571581;-82.69386472;-38.11293159;5.663323243;56.98809446;67.77277386;10.21933407;-12.85629372
21.75230972;101.6654003;37.63715048;3.514808266;-4.628616345;-49.32598231;-1.12239256;-51.5128132;-104.6214998;-38.32028027;-90.05376272;-17.58771421;-85.70328029;-71.02519778;-30.4324806;-1.550745069;10.12993209;-46.97095561;-53.91558167
-5.630531814;44.45905101;-46.87957163;-55.44395779;-61.64300941;-59.74626386;53.4780779;-31.44565327;-83.02188703;-59.43548391;-101.1726997;-86.79242213;-56.04659971;-77.39471144;-50.40715342;-67.59889085;-53.19888081;-87.34609793;-73.82608858
5.479517548;-32.64857522;-115.8117106;-91.94922141;-89.39401486;-43.71129847;85.46999882;16.41;-36.49385429;-40.21523699;-85.04833376;-123.4602486;-8.22572934;-52.78899395;-43.362039;-99.34840589;-82.61509303;-85.57566424;-60.35342574
46.16;-83.06216315;-128.1476123;-83.64234756;-74.38277562;-13.34135066;75.12638466;65.67287826;7.26509603;11.05567425;-51.93493951;-107.2097813;31.95860042;-14.08116397;-14.96428785;-78.17889387;-61.63480259;-43.72634413;-22.80120945
86.94374446;-80.50771927;-81.31804928;-37.75073817;-31.04675504;11.44452547;30.40325645;89.24556768;23.916973;64.83058443;-21.06378826;-51.96391667;44.06235023;13.53728657;17.21911386;-21.16408629;-7.653707994;10.67661798;14.93245871
100.4066466;-35.85552873;-11.3123632;15.2201902;10.34407072;17.58515143;-19.26303874;75.80943253;9.769649469;89.45153525;-6.499718015;5.809523709;25.6050236;15.51141384;36.15311031;32.72520707;42.0972024;44.85416785;31.42542584
81.19838655;13.73805721;34.92647663;44.19152527;26.14033236;7.362211997;-44.36966735;34.97211552;-17.00182876;71.24356912;-8.221537918;33.93555472;-8.088776333;-2.189378688;36.2183873;51.35985646;57.93395898;43.57616856;21.932566
47.90612329;33.74689694;32.94278161;38.78778078;14.68418424;-5.410238104;-35.51356037;-11.21353586;-31.56024002;21.705919;-14.81465255;25.69287132;-35.83625057;-19.60041482;24.96920794;30.94804439;37.36264549;17.54582196;-0.522682824
26.33042386;16.42119495;-5.021129276;13.50199981;-6.247531196;-7.669746522;-7.468671405;-43.02049118;-21.63;-32.09367844;-14.58964531;0.147008234;-44.89742;-19.70674893;15.46597837;-5.059336906;3.05321951;-7.748898647;-16.87111287
28.82543747;-17.48177918;-43.83882817;-6.701103603;-16.11352077;2.432845025;14.61961216;-53.44413174;4.223521471;-65.75941194;-5.481451834;-16.45495366;-37.35885194;-1.79286061;15.84523587;-26.73083344;-17.27322447;-12.61712833;-16.5610218
46.76207268;-38.45779434;-54.22856344;-6.465972927;-7.955805928;15.10230475;14.98403517;-48.27325598;24.90763486;-71.17612222;4.175695874;-11.93022137;-25.22077925;19.20735239;24.16916455;-20.45836703;-11.95163829;3.282313104;-3.730330102
61.23984849;-32.08193279;-33.22962022;10.12192712;8.359855465;18.1201604;-2.573861517;-38.1420234;24.10093312;-57.18463798;3.847044385;4.754990853;-19.52149907;25.9629134;31.77393376;3.66158902;8.722092219;23.92146912;8.652873137
61.40248773;-7.987847669;-2.003065734;26.15100495;17.04752142;7.53331298;-20.75631808;-30.04037078;2.469259573;-39.3166368;-9.56539806;14.49691312;-22.50433993;13.14784088;31.50822892;23.57963591;24.44993917;32.09977361;10.56674129
53.67050961;11.31003906;14.38287813;27.53111552;10.9012987;-9.082806607;-24.47701765;-24.45089046;-24.21569425;-27.94498943;-28.84999469;6.164716406;-28.15713606;-8.712353405;23.83154021;24.56498624;23.03954179;23.40126614;2.55532295
53.86860007;10.46435226;7.101752217;14.06081587;-3.111374331;-19.08674539;-12.67842598;-18.58033401;-38.30128967;-23.54732766;-42.40189174;-13.93406084;-29.14708043;-22.4294106;16.06670363;9.826276742;9.342761574;7.937454909;-6.372999606
69.80690433;-7.020157286;-12.10197061;-2.26347644;-11.09819828;-15.1628402;2.717094264;-11.27015257;-33.46505132;-20.75976525;-43.5020427;-28.43406836;-23.45474767;-18.17508384;15.88458547;-4.851819537;-1.157416047;-0.023040883;-7.588416718
90.65932611;-24.06681939;-23.5795819;-8.51033632;-5.072214678;-0.965590117;8.349548212;-4.842365868;-17.72400401;-15.84471845;-35.09632262;-24.53304395;-15.33891135;-0.758287198;24.58672324;-6.01;2.981204523;5.438163544;-0.236992786
93.73420268;-26.02097417;-16.85169434;-1.158792628;10.14300218;12.27577694;0.772286581;-2.815793994;-5.187710312;-10.591543;-26.48586053;-4.990631351;-10.78455056;15.2103396;35.59970331;6.50097393;19.44124333;17.89620222;8.876590171
63.8806086;-12.8393865;2.361915147;12.67371543;21.6147499;14.88741225;-11.79425503;-6.336376289;-4.488040898;-9.93029623;-25.28520089;14.51253226;-12.19694068;17.50621598;39.29289627;21.08107697;35.1276306;25.51922385;12.00092493
9.133649228;2.416180122;19.39144691;22.55897102;19.96460526;5.936310532;-17.75492427;-12.91222267;-13.40950971;-16.35076545;-31.62255155;18.64127802;-17.04045973;5.533388114;30.35754056;25.65737219;38.14697132;21.89237156;7.296643058
-41.51278428;6.152598136;23.94407217;23.07313878;7.572957014;-7.016195334;-12.43977084;-18.4551663;-22.94848241;-26.61272933;-39.07710912;4.633333788;-21.00335827;-10.44775878;12.20652852;17.99436408;27.7946645;11.07703903;-0.111779855
-57.7949137;-3.917040237;17.33808344;16.03451527;-3.655332149;-14.63264536;-1.441856875;-20.4774825;-25.91850823;-33.69260331;-40.84713748;-16.46281046;-22.15015379;-18.48307618;-4.794524164;6.359604538;14.23665062;3.096885008;-3.275466225
-30.31818507;-17.79355833;8.392434189;6.16761494;-2.71147646;-12.96557978;5.212692419;-19.49291131;-22.24090888;-32.15861834;-35.46304322;-29.62566497;-22.05409265;-14.23817321;-10.00962217;1.05872558;9.088970364;4.631144228;0.287590251
22.2695768;-22.97590154;3.38456572;-4.294717291;11.03364451;-5.392446222;2.208348117;-17.67359297;-17.09927118;-22.3948687;-27.35942483;-27.73638394;-23.16451154;-2.950179947;0.400647524;5.188430233;15.75564258;13.43276999;6.779890833
66.6783215;-15.61408875;0.190550997;-16.5052304;27.2197847;1.42640987;-6.81161162;-16.45824523;-14.89339834;-10.35018432;-22.46142433;-15.65269534;-25.37089465;6.646584094;20.59858267;12.80646981;27.77286443;21.0427859;10.03854002
78.35300514;-3.198287861;-8.165982171;-31.12547171;32.90651003;3.358745296;-13.18171935;-15.55230988;-15.20606639;-3.278779592;-23.12314276;-4.121629194;-25.40076397;10.33317611;38.09454199;15.42041482;35.73565454;20.76233365;7.272561202
56.8905905;2.910378223;-24.64401405;-44.51800334;22.68917368;1.339063739;-11.24313354;-14.07384445;-14.27831487;-4.925611921;-26.76303281;0.10783998;-19.82799488;11.26861678;40.7538111;10.23046745;35.87264749;13.46782453;1.380994925
22.69452845;-2.209179235;-43.05789727;-49.77633237;2.303128394;-0.882810148;-3.11492292;-12.3026077;-9.843722404;-13.56717671;-28.80820661;-0.84937773;-8.864484293;15.74470236;23.66378712;2.504746986;32.52;6.296301076;-1.995557575
-0.735321189;-13.16238654;-52.04853778;-42.34678811;-16.57203458;-0.936894168;3.741344217;-11.89362797;-4.064123811;-23.76139136;-26.74923173;0.320324348;2.821464281;26.28273052;-7.967191138;0.278684362;32.83261363;5.864762331;0.278095697
-3.869508181;-19.75946096;-44.83765343;-25.0530015;-25.3;0.183301736;3.499028021;-14.08281281;-1.484145105;-29.97520858;-21.59704323;8.214526582;9.381086863;38.59101502;-41.37858674;6.621798507;39.18847923;12.40038412;6.127353007
5.27537402;-16.40199538;-25.89252745;-7.351616544;-23.57570367;-0.082842192;-2.98950529;-17.65961995;-4.05225276;-29.46329178;-15.92872422;20.11885869;8.486514211;45.10091675;-62.82395838;16.64893592;46.50525868;19.92748105;10.38844372
11.74587543;-6.756602879;-8.208979599;1.255340922;-17.4585045;-2.495477802;-9.407738193;-19.03474249;-8.326400588;-22.98153083;-11.01207139;28.60795982;3.323524198;41.7593086;-64.58088856;21.84621132;46.84116443;21.95679792;9.58427971
7.734595088;0.128949903;-3.218026597;-1.719592412;-12.99936446;-4.682790121;-9.951098119;-14.91744041;-8.039991951;-13.68152384;-6.082689501;28.40252754;-0.015834326;31.87391868;-48.65748483;17.60263577;36.90071118;17.27827598;4.923497325
-1.968437705;-1.733457789;-11.85563388;-10.27156509;-11.51873725;-3.31176632;-4.447150835;-5.549107219;-0.063391084;-5.386656729;-0.356493369;20.90707079;2.364273171;23.5042488;-25.25098313;7.143758553;21.53929375;10.70587778;0.924877376
-6.47281883;-10.08744111;-24.34221011;-15.26560348;-10.23005859;2.289384209;1.876054895;4.455978458;11.70558335;-1.140310605;4.610029297;12.42170415;8.891104776;22.64123412;-6.919540834;-1.457787678;10.12704257;8.428468505;1.141291969
0.050262852;-16.94709099;-28.68976058;-11.94880356;-6.640395258;8.644669317;3.425250496;8.845853038;18.49053273;-2.252450083;5.086125835;8.059031107;13.88485627;28.12501864;-1.858212639;-2.27203254;9.057511441;12.43798036;4.996271688
13.05828546;-16.11712362;-20.56752984;-3.191427459;-1.93380408;10.49206341;-0.716033824;4.212510135;13.51125812;-7.852583658;-1.758979461;7.225592352;12.41326631;32.72701473;-10.14952476;3.765823337;16.95376209;19.04889073;8.542102513
22.45847294;-8.691878498;-6.272546521;3.99;-0.032098964;5.162238694;-6.252962662;-7.260779524;-2.089475121;-15.16446267;-14.55407145;4.79083377;4.543381715;29.48070305;-24.97666443;10.31736152;26.49503019;22.56291094;8.26203569
22.37071256;-1.698405509;3.29511378;5.085655005;-3.46176098;-4.815784633;-7.866219249;-19.05770772;-19.42975392;-20.72416163;-27.50509527;-3.377563849;-4.558590187;17.84615054;-37.65174783;11.56069014;30.86946048;20.47137075;4.311590608
16.52716121;-1.457617126;2.093202383;1.799037619;-10.24298243;-13.25977411;-4.085529662;-24.73882949;-28.3099984;-22.20578969;-34.01986511;-15.85389912;-8.710820161;4.468030013;-42.97682695;7.078881274;29.02421342;15.43619817;0.25256014
14.51310522;-7.90514465;-6.305865814;-0.289958244;-14.97771319;-14.88111908;1.579616695;-22.19097335;-24.77164753;-19.82042791;-31.47516037;-26.39058134;-5.562389604;-2.101776095;-41.52505314;1.549592524;25.37433924;12.4788881;-0.354052968
22.62819883;-14.9416248;-12.36780678;2.478442106;-13.30200172;-9.153396721;4.074365978;-14.61449545;-13.75652484;-16.22084413;-23.20490424;-29.3037612;1.727757736;1.713179371;-37.8251694;-0.024717188;24.80675044;14.22357631;2.731525867
37.88614746;-16.20960791;-9.056008717;8.235944709;-5.701323621;-0.453330626;1.460185205;-7.771254029;-4.918979954;-14.77340316;-15.99360972;-24.58402108;7.18422504;11.70640967;-36.36021521;3.092763047;27.8787807;18.636236;6.249166137
50.51829053;-10.83485738;2.325786768;11.53607786;2.750926043;5.428537022;-3.475387054;-5.837007009;-5.194035557;-17.30105704;-15.08022592;-18.07849188;6.730516235;19.34441273;-38.57015545;7.081005205;30.53941276;21.18520423;6.505214244
52.49272501;-3.955894759;13.63930782;8.873495862;6.501965178;5.425933469;-5.97250726;-8.975058695;-14.07069537;-22.88618455;-20.65816902;-16.55214518;1.134206595;18.49795935;-42.81625217;7.499293344;28.30373305;19.21132289;2.819769093
44.24876136;-1.802287651;16.99185874;2.4051194;3.872899055;0.778869514;-3.715749308;-14.05620633;-24.90803712;-28.55798216;-28.42996132;-21.98291355;-4.936391189;9.944067255;-46.66586203;3.537865944;20.76074335;14.3780512;-1.800824912
33.73060747;-6.01164726;11.06585178;-1.766418597;-2.020892831;-4.738308246;1.170297745;-17.40361523;-30.56020989;-31.27079851;-33.30986887;-30.03035441;-6.685819508;0.230225164;-49.08500326;-1.379657768;12.21158697;11.01683263;-3.346308616
28.91079085;-12.35427971;1.497364445;0.77937419;-6.316225037;-7.972085711;4.253022662;-17.16504899;-28.4150206;-29.68414772;-32.95537172;-33.85350351;-2.723717197;-3.759855135;-50.59056022;-3.01057771;7.972334203;12.04590763;-0.379560656
30.76083398;-14.82609871;-4.467190486;8.509052412;-6.523615176;-8.199364981;2.936762509;-13.73499026;-21.10860768;-24.58688594;-28.43755955;-29.81106487;4.137300089;0.140001221;-51.56122815;-0.340370546;9.850208296;16.31123552;4.705904229
32.9470206;-11.17597843;-4.013597375;15.09129884;-4.151336196;-6.515487602;-1.23450249;-8.550369237;-13.2163811;-17.98627665;-22.2001858;-20.15003906;8.966473964;8.648972011;-50.73355909;3.574125585;14.90043139;19.75645141;7.817344674
28.25367329;-4.80315009;-0.353293149;15.02077639;-2.738331626;-4.03530436;-4.140466547;-2.792267456;-7.415565007;-11.83524057;-15.76344783;-10.65542044;7.817990579;16.65465313;-45.73903445;4.671327038;18.41193808;19.22902393;6.714477063
15.68595948;-1.456990075;1.006756092;8.563951934;-4.425971524;-0.954638276;-2.940842949;2.867578608;-3.375157332;-7.341292544;-9.359171033;-5.657727146;-0.2388316;21.59274851;-35.51417907;1.874258052;18.19751829;15.34568298;2.821403073
1.784667595;-3.941334473;-2.455996182;1.456667055;-8.254344287;2.738068239;1.374653707;7.686868844;0.368771982;-5.00178673;-3.34876904;-4.843326243;-12.96959545;24.76025118;-22.39675346;-1.798545316;16.2309275;11.81469863;-0.210404391
-4.924667688;-9.700409177;-8.20974424;-0.374161764;-11.48798804;6.021632316;5.018197269;10.52488855;4.029136358;-4.828549736;0.671883151;-4.370162825;-26.14645082;28.82146941;-11.63372993;-2.052283825;16.29604718;11.94293;0.221132161
-1.244140475;-13.3533817;-11.33403725;3.845585826;-12.38883888;6.811760329;4.949008746;10.43959802;6.184568398;-6.304338425;0.768588005;-0.853613996;-35.12285255;34.29185598;-8.115716312;2.575851224;20.04314217;15.61557836;3.506678395
8.153090248;-11.67600322;-9.143394477;9.340168741;-11.66985304;3.600417463;1.613932226;7.709339515;5.535114793;-8.238122552;-3.073713409;5.551393537;-36.37529587;38.58085595;-12.68405428;9.16284158;25.22673348;19.50429412;6.597307889
15.04175048;-6.412130861;-3.470957829;10.74240361;-11.35142102;-2.659534033;-1.583605476;4.112913672;2.678956554;-9.061455743;-7.808504396;11.56075026;-28.93657;38.60125102;-21.08069321;12.87801962;27.74716068;20.21553774;6.847871965
14.77822733;-2.456439679;1.283082433;7.714403566;-12.34483726;-8.429461416;-1.487997552;1.87845806;-0.143282354;-7.731653131;-9.102810917;13.89075474;-15.33143259;34.4137095;-26.73432526;11.25435649;25.52541078;17.39968174;4.298588196
9.882164919;-3.254264581;2.299086743;5.702433427;-13.28716831;-9.815183261;1.941369767;2.01108519;-1.191355073;-4.631821844;-5.065250686;11.97932101;-1.145347602;30.15880433;-25.52600427;6.368190019;20.55446748;13.96060733;1.42497206
7.117096178;-7.720357661;0.770635142;10.66081475;-11.86081735;-5.569468083;5.698181393;3.457626542;-1.060243061;-1.555341624;1.308877469;7.865432113;7.318114649;30.86077595;-18.95506848;2.949998958;17.19639469;13.24938463;0.759063134
11.01162884;-11.42329882;0.459790611;22.29166266;-7.348040578;1.643391188;6.567396685;3.966807323;-2.200273544;-0.50779737;3.627491746;3.668455713;6.481489325;37.58424417;-13.21076544;4.138277045;18.27725337;15.9069654;2.652513537
19.78530697;-10.78469139;3.840019531;32.1829289;-1.891060089;6.960904917;4.05218393;2.024332347;-6.394186101;-2.158840666;-3.067588856;-0.638612309;-2.113786547;45.36946745;-14.74167037;8.700286048;22.55016592;19.28510304;5.171384447
27.2234672;-6.336888472;9.468372473;29.30808039;0.927161293;6.812051429;0.721880881;-1.778433471;-12.59641506;-5.265727116;-17.86613036;-6.901740451;-12.49089689;46.40106358;-25.56499222;12.19533194;25.83471752;19.93877471;6.059978282
28.56087768;-2.09097927;13.05410355;8.930146583;-0.930276542;1.473972369;-0.242437613;-5.169238677;-17.37945214;-7.670956839;-33.80286322;-16.23315757;-18.03405831;36.40939154;-41.70262527;11.01045134;24.80029523;16.84400822;4.840888296
24.89978266;-1.734509174;11.31072638;-22.372638;-6.032547689;-5.27540789;2.035219274;-6.097096369;-17.8186945;-8.087190885;-42.48154397;-26.79243849;-15.9412117;19.12455633;-55.73468689;5.661065656;19.99527571;12.36593653;3.116005281
22.18055077;-5.259250896;5.150589312;-50.0468719;-10.39287843;-9.032360075;5.426294735;-4.474964005;-14.23047461;-7.092522144;-40.05575918;-34.23535635;-9.014242945;4.6377804;-61.47328805;0.455413528;15.43488202;10.113953;2.899661217
25.71675791;-9.10283004;-0.677301421;-61.07539702;-10.52127965;-7.838162665;6.875369722;-2.223847814;-10.11062579;-6.391897564;-29.83886949;-34.7217834;-3.264617007;2.271195162;-57.46116246;-0.132737241;15.13869523;11.68441141;4.643480172
35.2233331;-9.559077408;-1.323393955;-52.48758909;-6.090984972;-3.149481124;5.253389563;-1.55092585;-9.101792494;-6.983656946;-19.48651085;-27.99013777;-3.067991417;13.26911551;-47.18848896;4.814269361;19.6595313;15.27273925;6.820662297
44.68168946;-6.21330636;4.141884632;-32.55320182;-0.087176908;1.723703157;2.339433548;-2.964558836;-11.62253686;-7.970904666;-15.11162189;-17.85251385;-7.686591436;29.29340176;-36.42157589;12.0105568;25.55464895;17.37898589;7.406481501
47.02114735;-2.232968484;11.76088425;-14.21295538;3.50447622;4.140586386;1.085787423;-4.802644381;-14.28704597;-7.276237954;-17.1143982;-9.643612844;-12.0184991;38.44007813;-29.83659922;16.79096467;28.11956232;15.99508912;5.808651045
39.47960078;-1.332390185;15.56452263;-6.217940184;2.431179755;3.56363829;2.844446785;-4.748812117;-12.84694066;-3.771472497;-20.90340504;-6.687222713;-11.02724732;34.46762581;-29.07970959;16.83025767;24.95521068;12.35500786;3.426188807
25.2255716;-4.3025829;11.95895503;-8.640820465;-2.788982552;1.116921466;6.142303949;-2.040814197;-6.179225478;1.126543888;-21.4887149;-8.522638139;-4.196332125;21.98588269;-32.89053053;13.59895515;17.454176;9.704097503;2.345792242
10.36084683;-8.324997381;2.192631298;-15.2823965;-9.933203372;-1.823989266;8.097989147;1.612869481;2.259902508;4.094694203;-17.78132234;-11.99717354;3.80283816;13.11500972;-38.46933556;10.57150147;9.312235792;10.28652253;3.430039063
-0.616620153;-9.641469243;-8.81914415;-19.85728197;-16.85540546;-4.511780627;7.112892169;3.351082793;7.001699332;2.576520183;-12.98305151;-13.95553126;6.968837433;17.69927243;-42.90618156;10.05962802;3.723384679;13.33267342;5.580778959
-6.951025512;-7.042357733;-16.09268135;-20.44424481;-22.32825826;-6.563869177;4.327562442;1.723817777;5.117379647;-2.661165865;-11.07413675;-13.221031;3.254528109;34.47764388;-44.11095969;11.54;1.722876295;15.84415304;6.820817088
-10.14719794;-2.93567571;-17.66539464;-19.1166022;-25.60702035;-7.27662122;2.527671834;-1.670535908;-1.12141837;-7.444285572;-12.82932882;-10.57833337;-3.206205845;50.35076191;-41.3615214;12.7434243;2.687951689;15.38429366;6.13590321
-11.13257569;-1.059403911;-15.01924266;-18.27960094;-25.81250953;-5.6564746;3.558032357;-3.024506767;-5.840789306;-7.03976933;-15.03012844;-7.375308108;-5.069917461;48.97875973;-35.62565373;12.18729918;5.867777484;12.28319032;4.349517807
-9.267220396;-3.01262752;-11.05604978;-17.80835729;-22.30657661;-1.428349706;6.650248024;0.804159878;-4.186602522;0.102723219;-13.50353622;-4.359850931;2.160504564;22.78970518;-29.39789553;10.64840828;11.060232;9.270182796;3.257050308
-4.099438664;-6.82495357;-7.706753225;-15.61373804;-15.91121973;3.961033215;9.177432966;9.580348619;3.84436655;10.71689562;-7.115446381;-1.705228393;15.80118886;-20.41137312;-25.66974515;10.25642285;17.77828516;8.937584199;3.888842355
2.348409563;-8.841788439;-5.141993334;-10.56568046;-9.527157922;7.623015247;9.089684484;19.3862292;13.51113031;18.69352034;0.979865069;0.262884779;27.03625904;-61.33204766;-26.22709812;12.20968444;24.09383451;11.39494184;5.556832492
5.745115249;-7.125157021;-2.804137191;-4.42603163;-6.901942346;7.015518939;6.761802197;25.18163335;19.20204412;19.33678596;6.006259117;0.820751426;26.86582227;-81.08234786;-30.28563837;15.37737801;26.88884038;14.2308647;6.558722159
2.651663294;-3.210672762;-0.802306567;-0.624384876;-9.988716918;1.989355996;4.578315671;24.42839009;18.80386759;12.72642417;5.767849641;-0.423645495;12.60642918;-72.78582084;-34.62586904;17.14839781;23.88336273;14.74615195;5.835332823
-5.911140219;-0.635642032;-0.08224886;-1.005270739;-16.9723524;-4.655056961;4.695048146;19.02857466;15.02459429;3.657739556;2.620185726;-2.594759589;-9.903197907;-44.97161762;-35.46501388;15.74710505;15.85699114;12.37154548;3.994989851
-14.08311639;-1.653946277;-1.188581588;-3.797498158;-22.9373736;-8.798357572;7.075721711;13.99616688;12.80414992;-1.742760962;1.426274175;-3.630273634;-29.9985574;-14.88974653;-30.92617934;11.88133849;6.89417598;9.092263647;2.743538411
-14.98623612;-5.192983192;-2.976637283;-4.954596424;-23.1405828;-7.753302115;9.595638379;13.73584786;15.18098918;-0.148783182;5.256187968;-1.701289891;-38.99892635;2.960702223;-22.3280177;8.232553141;1.981722903;7.583950573;3.275086684
-5.975792366;-7.90649269;-2.830341039;-1.772957854;-16.56417994;-2.099576671;10.06116495;18.68221706;21.04007813;7.061255084;12.54827456;3.106173311;-35.20775747;4.888524638;-13.29670005;7.276005954;3.607574087;8.839693062;5.149321522
9.010906012;-7.294995786;1.417388515;4.562546691;-6.909811785;4.760443022;8.237212687;24.88621258;26.32621615;15.23466731;18.15209977;8.415284801;-23.8324311;-2.346117894;-7.359130873;9.378326587;10.0433183;11.44196096;6.704856289
22.12210184;-3.984675115;9.360924284;9.947408625;-0.06063795;8.931348497;6.014519087;26.97856243;27.34898074;19.8127757;17.33838119;11.05440144;-12.49685593;-8.785066593;-5.849514773;12.76711031;16.72517251;13.03365974;6.603206999
27.22761783;-1.085127639;17.65167391;11.03220117;0.166542708;8.470039063;5.606264358;22.37184923;23.31575849;19.07671373;9.429871262;9.355127695;-6.092886445;-9.170568704;-7.640948285;15.21975969;19.62478798;12.51104117;5.043317218
23.99250692;-1.27213356;22.03600622;8.245825341;-5.248859687;4.263472372;7.483566663;13.52847996;16.2966265;14.59650548;-1.796097351;4.411801833;-4.663912609;-5.639210192;-10.66094862;15.83679158;17.90854917;10.8796118;3.516551802
17.22431502;-4.322355215;20.42192348;5.368694955;-11.37355773;-0.992776127;9.964832708;6.469839895;9.229604432;9.644672086;-10.96288405;-0.71017919;-5.198007724;-4.08286299;-13.70192132;15.36744204;13.88995769;10.06144705;3.359588395
12.33425814;-7.362201663;14.56239126;6.034337779;-12.99919735;-4.647395452;10.80928141;6.502253683;4.05769782;7.143300813;-14.64955515;-3.131854606;-5.109407658;-8.047506056;-16.94003906;15.030516;10.6195822;10.89706513;4.491030846
10.90143387;-7.556560169;8.877249726;10.39255422;-8.301312059;-5.378359345;9.307279329;14.31232327;1.465582042;8.517590106;-12.88761739;-1.941829702;-4.262220238;-15.44658264;-20.87599728;15.15995543;9.357804436;12.30234719;5.526847776
9.962950151;-4.72304541;7.172807829;15.0348972;0.168662344;-3.318109196;6.926919363;25.43858339;1.81736461;13.66472412;-7.93672418;1.665796433;-4.120009766;-20.47199267;-24.91183178;15.01828388;9.027544018;12.38138141;5.150371463
5.253291201;-1.466954914;9.761438323;16.25742893;7.584541065;0.531950972;5.940337775;33.64790223;5.7309636;21.362698;-1.994673582;5.680171241;-5.289127115;-18.62258467;-27.11173945;13.84598057;7.80995803;10.39405299;3.417982677
-4.728676847;-0.749708068;13.26698436;13.60544776;10.15357016;4.825010493;7.325628353;35.71693151;13.3644581;29.55913017;4.003732416;8.676263305;-6.047524614;-10.43620312;-25.5554798;11.95580759;5.149877911;7.646118;1.742940076
-17.36148558;-3.162802696;13.32467583;10.33326642;7.161499683;8.071015313;9.887534867;33.86296754;23.17604932;35.6918408;9.846129621;10.23910468;-3.418519243;-0.952855785;-20.12344786;10.66791895;2.263813974;6.391639973;1.560024414
-28.12546083;-6.41390999;8.08;10.26521661;0.655552417;8.885273778;11.38759025;33.69186976;31.83194893;37.52266269;14.93933266;10.47914095;4.014547726;4.371049378;-13.00837786;11.09;0.82580377;7.740781456;2.940828626
-34.10587383;-7.463015112;-0.273889324;13.96693342;-6.394245335;6.63617965;10.61333617;38.97764883;36.01966292;34.43664935;18.18060942;9.569772789;13.98892864;3.805973322;-7.281390795;12.95503904;1.273903302;10.5478749;4.49813136
-35.61959424;-5.311422871;-7.135663454;17.93589719;-11.75560583;2.193358803;8.470458388;47.29155397;34.96794792;28.31265113;19.0187047;7.95601094;21.13264569;0.32410979;-4.574067279;14.72766011;2.466487175;12.3772483;4.707581228
-34.84951951;-1.882906029;-8.992833106;17.84246516;-14.41603398;-2.047035603;7.111249998;50.25780312;31.40584478;22.92154804;18.41113923;6.843776203;20.11297334;-1.046609543;-3.828312404;14.96419869;3.009789792;11.71214791;3.41499378
-33.2180355;-0.226393448;-5.982735612;13.03373981;-14.20299339;-3.360381552;7.93292856;38.94725426;29.72656935;21.77338588;18.32533917;7.984113204;9.208841863;2.872556727;-2.2689816;13.65620925;2.874914895;9.383865924;2.077803507
-30.20502018;-1.730792749;-1.509901163;8.039662944;-11.47206669;-0.56382462;10.30264926;10.9113459;32.51887018;25.71133736;19.93937408;12.37746525;-8.235170383;11.25797624;2.101039883;12.24882852;3.585751331;7.87301817;2.444734326
-24.63725757;-4.910058594;0.6803735;9.194627618;-7.267019813;4.831693958;12.16704957;-26.33401775;38.26606087;32.08052211;22.23639861;18.82035976;-25.51399005;20.16773832;8.520019531;12.2775826;6.636848785;9.070544848;4.85342063
-16.89615645;-6.828963613;-0.476712335;18.79625994;-3.446231515;9.302250413;11.95519006;-58.43067089;42.2956484;36.3339155;22.59130732;23.84060898;-36.27375427;25.34353429;13.69132689;13.91823206;11.59297566;12.51025581;7.741168838
-9.545779464;-5.806438093;-2.705540617;31.72897204;-2.06026067;9.59409345;10.00858459;-72.33576161;40.43771803;35.11493179;19.13123992;23.66602741;-37.80493107;24.68757024;14.1338947;15.86829498;15.7987424;15.68623845;8.898693591
-5.470193527;-2.8997667;-2.528056815;37.86502344;-4.037443454;5.028548944;8.237875943;-64.16896275;32.51383136;28.63607306;12.79634718;17.05515306;-31.9483501;18.93361408;8.855627935;16.70836224;16.25595532;16.20081302;7.399530849
-5.165935427;-0.847648078;1.699569054;28.98583305;-8.187158193;-1.917870058;8.354384022;-41.37106215;22.78078128;20.60039154;7.018552452;6.727957313;-23.34685364;10.66471669;0.28164229;16.41885137;12.20678929;13.84470895;4.473122228
-5.860240999;-1.506753916;8.434263564;5.16833862;-11.59758613;-7.249076559;10.32193939;-17.68639162;16.87815723;15.7045584;4.992533833;-2.054274223;-16.44506528;2.842850516;-7.249030623;16.49571215;6.149068846;10.77490124;2.493369985
-3.570269652;-4.169998849;14.33762149;-24.28098208;-11.45310006;-8.098635897;12.43811488;-4.507117295;17.67183434;16.52401899;6.834797394;-4.978476421;-13.1969809;-2.208017594;-10.24616249;18.4152558;2.220832794;9.656735699;2.936027775
3.506222829;-6.287508963;17.08368631;-46.23768416;-7.018185879;-4.448913601;12.93201428;-4.564615074;23.26728713;21.95913682;9.289238591;-1.655245702;-12.69615617;-3.270980809;-8.077186024;21.85377785;3.124324789;11.43096978;5.10328172
13.22030702;-5.868451154;17.08181596;-51.69913662;-0.234328785;1.21777239;11.58016425;-12.01763813;28.67244121;28.19511307;8.5085594;4.249606126;-12.57394111;-0.513365115;-2.960199662;24.46917578;8.064936213;14.64975182;6.75615205
20.93477198;-3.312812317;16.66563594;-40.71940025;5.582055067;5.830968823;9.860558152;-18.18640894;29.65924862;31.32079394;3.61870251;7.842199186;-10.97093642;4.373025699;1.7274817;23.70832518;13.3922025;16.88194436;6.109240267
23.00019337;-0.996300153;17.6183148;-21.26904992;7.931329953;7.606322889;9.540516026;-18.19383421;25.74462955;29.73114906;-2.147898134;6.545534847;-7.753212624;8.591583408;3.40226304;19.1748261;15.4069551;16.85312259;3.432047521
19.27419941;-1.036572111;19.39798074;-3.457446;6.528016829;6.582245451;11.03475774;-13.57407066;20.13670768;24.83034242;-3.98049786;1.618334571;-4.33915567;9.521307803;1.243704694;13.38083262;13.04654082;15.40682218;0.847961088
12.63617854;-3.336946782;19.7338394;6.443119914;2.970125226;3.820794245;13.05095246;-9.458319649;17.04114249;19.86343088;0.351032795;-3.333585291;-2.467719687;6.368318127;-4.000881996;9.990534137;8.355273749;14.52027714;0.514020132
6.175354471;-5.708057951;17.00553859;8.299059235;-0.776261964;0.352284751;13.82130386;-9.293204748;18.69059277;17.8746898;8.360039063;-5.349745962;-2.856539965;1.019730983;-10.67456006;10.89373683;4.562708508;15.38415364;2.7820079
0.747750107;-5.918904775;12.08193497;6.110039063;-3.655778241;-3.124437163;12.75070237;-11.72869577;24.31101513;20.08595555;14.77863032;-4.038153364;-4.652849943;-2.796077232;-16.65354796;14.62208569;3.538199125;17.34;5.93357305
-4.918926575;-3.752717353;7.745797152;4.152465699;-5.597630644;-5.790898035;10.95117484;-12.14058444;31.34719065;25.45783565;16.04997326;-1.046829236;-5.983534237;-1.732526016;-19.59601248;17.58337646;4.724766214;18.59712177;7.679164164
-11.90491676;-1.172731263;6.133964322;4.37988675;-6.685006545;-6.402921997;10.18922468;-7.192360128;37.43741956;31.41416843;13.46305276;2.016749876;-5.180856187;5.039462653;-17.51637197;17.15069974;6.201966661;17.98112012;7.076222737
-19.01970743;-0.478099052;6.652990716;6.390976035;-6.558295747;-3.883180792;11.2458931;1.684908616;41.39572397;35.19112958;12.01195143;5.03741778;-1.85386812;15.29990681;-9.889801001;13.94003906;6.658374218;16.0537417;5.207191177
-23.16465795;-2.184014519;6.57846741;8.956377421;-4.811007517;1.478938943;13.21308937;8.977007533;42.78941722;35.14203386;15.74418053;8.862166979;2.878261709;25.17555004;1.355132279;11.22431126;6.416076552;14.58441485;4.100689447
-21.94762545;-4.583357472;4.048078015;11.24032923;-1.956371269;7.408317259;14.35871128;9.403669157;41.15513988;31.44691774;23.57162699;13.51155769;7.099834489;31.3494552;12.05269745;11.92418379;6.707052512;14.90880394;4.924757175
-16.10007813;-5.362965899;0.638352165;12.83610758;0.230411308;10.57149783;13.73492995;2.249894043;36.07584519;25.93067882;29.37268826;17.17652918;9.255631516;32.51927736;17.71875826;15.82862081;8.091462763;16.71415436;7.05625294
-9.275599198;-3.747547765;0.661655917;13.25606415;-0.276872397;8.734351014;12.03394275;-7.894328965;28.17874049;21.07932439;26.67656258;17.32914161;8.999408783;29.39313342;16.30748159;19.61906899;9.663740005;18.34741122;8.772617859
-5.16;-1.184899203;7.128452041;12.00547307;-3.995402981;2.594845532;10.91741036;-14.56957665;19.86671925;18.7815382;14.23517598;13.16799607;7.239912158;23.79074057;9.942477457;19.85554122;9.868908957;18.31007813;8.845847889
-4.353232332;0.033941419;17.6777716;9.458746203;-8.965120204;-4.286466719;11.46844402;-14.21198175;14.58493484;19.53744154;-2.202458848;7.105846412;5.447039114;17.89841147;4.108145638;16.37667199;8.166919556;16.53777927;7.571136663
-3.831476362;-1.089672725;24.53804417;7.516312693;-11.67829586;-7.677298101;13.21242072;-8.428358218;14.74796694;22.59418889;-13.63565464;3.587975565;4.737228694;14.04705865;4.437848893;12.98151288;5.925094612;14.3282088;6.360292483
0.416430898;-3.355685905;19.61458361;8.835836516;-9.467877566;-5.521689243;14.59941207;-2.162348167;19.87743524;26.77868246;-14.290166;5.807776156;5.319078231;14.40246656;13.03136277;14.44898447;5.578065633;13.07982737;6.368084565
9.800879378;-4.506704453;1.295778388;14.64442834;-2.582010555;0.627210602;14.47155098;0.452462309;26.61904886;31.23880303;-5.748734817;12.87378434;6.56067095;19.88119557;26.77928369;22.14808103;8.665116892;13.08464809;7.459390232
21.69276841;-3.332310245;-22.59135894;22.69976935;5.737880564;6.653879442;13.13397553;-0.979179879;30.88243382;35.43744674;4.495453578;19.8670996;7.515494604;28.68722907;38.95088531;31.9585705;14.41140074;13.48643876;8.436286831
31.37631142;-0.779478807;-38.81875922;27.38050929;11.34500448;8.635276689;12.0387182;-3.634792754;30.57106216;38.55171806;8.832366378;21.00458286;7.513346314;36.00128981;43.12701104;36.58173749;20.11162631;13.34148299;8.242107064
35.69694346;0.941022712;-37.48964781;22.56455419;11.91706074;5.324581972;12.39584171;-4.598607264;26.81369686;39.17999037;5.059174859;13.62948281;6.484583748;36.09178915;36.97818972;30.79837229;23.06324569;12.65727521;6.977661904
35.29850831;0.3991367;-19.08171797;5.796394466;8.335220928;-1.290083008;14.02226428;-3.599753467;22.80014234;36.11345926;-2.574149791;0.0738738;4.912810472;26.1953436;23.51736605;15.69736708;22.50293487;12.35010405;5.793767904
33.66603054;-1.758883796;5.730688962;-19.06112215;3.825959383;-7.505164093;15.50498724;-2.941502108;21.25795071;29.82288158;-7.276548521;-13.88809309;3.511523318;9.440299778;9.16484279;-1.505975422;20.02423237;13.17039874;5.804114187
33.99130948;-3.441798854;23.58219211;-42.82873103;1.686765007;-10.22401294;15.52197143;-4.852517733;22.63082326;23.21997062;-5.173160556;-22.68645497;2.810244321;-6.032128986;0.012559053;-12.11014042;18.22741043;14.70373664;7.06358787
36.63861218;-3.054441899;27.6089776;-55.51029168;3.318195143;-8.504461668;14.08541291;-8.828865624;25.29164207;20.40423024;2.026854729;-24.00174974;2.853064271;-12.05156785;-1.329686537;-11.64143993;18.75309093;15.52249136;8.555253249
39.22270749;-0.936868479;21.33455404;-51.77239713;7.76487743;-3.61027074;12.548369;-11.51695463;27.33497511;23.73660401;8.916889775;-19.30731863;3.195709515;-6.314515827;3.460039063;-2.456462153;21.22167358;14.44953328;9.157246599
38.86799636;1.011537441;14.5036977;-34.08893217;12.65670518;2.017488103;12.36732397;-9.386929669;28.22767563;31.43036954;10.87763499;-12.09927097;3.288284001;5.455436863;10.08183804;8.513587595;23.73419694;11.76630173;8.652547293
34.40356775;1.134000314;14.54573653;-11.55967308;15.53850476;5.960472905;13.76604556;-1.924131738;28.91179064;38.0793461;7.413121947;-5.564431994;3.090859102;13.4251342;14.40016169;14.92468669;24.32635928;9.160564663;7.842633771
26.65582477;-0.456226523;20.68738638;4.992100733;14.72973614;6.621938025;15.53354855;7.467425192;30.47701654;38.46138966;1.96126918;-1.32327225;3.479891666;11.26719593;14.59617311;15.1011091;22.1796316;8.347727642;7.70214836
17.06241665;-2.036487994;25.2909459;8.808718266;9.648547307;3.63812365;16.13793356;13.75350338;32.82615386;31.97990851;-1.133279839;0.452751619;5.937091759;1.656419761;11.65282619;12.1811102;17.848411;9.566636055;8.418111001
6.44800866;-1.94192605;20.90596578;0.534951602;1.018329331;-1.908070151;15.12645656;13.9690968;34.67677554;23.86339004;0.278365801;0.393319536;11.40033836;-5.189056881;8.300294955;10.71203928;12.68929512;11.33897203;9.240346776
-4.603781446;-0.154257743;6.929728661;-12.74543387;-8.92445568;-7.584159069;13.52744858;9.364579163;34.89957781;21.30370958;5.277346309;-0.426805512;18.87865634;0.401355612;7.336653136;12.76271915;8.192267712;11.76750574;9.270122989
-14.3077454;1.682041396;-9.572509675;-22.05620233;-16.7145818;-10.37595984;12.89682667;4.312029711;33.86062435;26.89278091;11.31657577;-0.592049339;24.95438147;18.67742488;10.28497018;16.67852071;5.653419254;10.23342293;8.405980385
-19.15110129;1.825225548;-19.21390813;-21.83890474;-18.96562823;-8.170205441;13.89658425;2.900706418;33.35898852;34.64333919;16.20412491;1.196755057;25.02708163;38.0137402;16.86650081;19.17780739;6.028839486;7.951644716;7.514638548
-15.62046391;0.10844446;-17.06015456;-12.82528349;-14.38490214;-1.251704329;15.70871578;5.92391541;35.02665873;32.69314164;18.90169664;5.139826207;16.02117224;41.71904405;25.24587564;18.68886096;9.588348872;6.8584016;7.63932438
-3.219398994;-1.856398583;-5.352121244;-0.849307861;-5.159832635;7.324503019;16.80481877;10.51076497;38.54109339;11.81202399;18.97080228;9.600634855;-1.019564229;19.89833815;32.76584971;16.93340263;15.39437319;7.829504032;8.986084651
13.92461148;-2.147160308;9.380019531;7.43616708;3.687532622;13.13325939;16.34434765;12.48706678;41.33659866;-26.2362995;15.89230228;11.67230966;-20.42313297;-22.17036195;36.91127353;17.38948976;21.18849294;9.85954215;10.65653028
28.86447311;-0.315284154;21.51051827;9.004401373;7.091145613;12.94965086;14.91359928;9.497633723;40.32773558;-67.26790392;9.38452472;9.16113678;-34.35163936;-65.68521784;36.29069503;21.96346916;24.26336619;10.97;11.40297947
36.2410241;2.171874626;29.0606353;6.086200023;3.219793095;6.841203126;13.94589298;2.564183052;34.43826004;-92.33832285;0.496270223;2.64355292;-37.090986;-89.4360294;31.35176004;28.7287474;23.13864448;10.02939317;10.72027477
35.98593074;3.249446587;32.22107312;3.989238055;-5.137181066;-1.752925207;14.38433014;-4.831959193;25.92287805;-89.74014201;-7.87959199;-4.265938155;-28.49179831;-82.88904167;24.45235243;32.74781975;18.95188333;7.813716211;9.265831772
33.19797096;2.127291168;30.24716894;6.802020793;-12.31136939;-8.14552526;15.83107363;-9.173316121;19.28867547;-62.84526091;-12.12804139;-7.118952533;-14.14141526;-52.24327234;19.0272821;29.52121666;15.31888437;6.313712923;8.224516214
34.04515262;-0.0017378;20.8105913;14.19992297;-13.56517855;-9.316498491;16.954115;-8.996587477;18.4377657;-27.95177477;-10.21379499;-3.918777956;-1.938726857;-15.55198026;18.01978427;18.50018982;16.35642992;6.901735727;8.223467099
40.87626061;-1.063405898;3.086237577;21.75952477;-8.268943186;-5.614460154;16.74963237;-5.401423261;24.02686563;-3.576705344;-3.405764538;3.074443666;2.734118287;9.188029161;22.28131139;3.992548208;23.97315231;9.03808761;8.822635743
50.50254723;0.001805799;-18.48855741;24.54953872;-0.139243158;-0.14769874;15.47697206;-1.032866837;32.91310893;1.050367431;4.14718934;8.656481025;-0.017168567;14.41811133;29.87271705;-7.289312845;36.28213008;10.72733944;9.056800425
57.03766666;2.284309394;-34.35748235;21.22079914;5.5719126;3.531247123;14.40653088;1.507206949;40.06695639;-9.832006825;7.950606282;8.318582318;-5.458351795;5.106584674;36.83638927;-10.35123047;48.36825125;10.3377176;8.494847384
56.87871155;3.754446913;-35.33222724;15.32606663;5.774402086;3.684094565;14.63174108;0.876694659;41.64116482;-23.94593298;6.08702713;1.47959412;-8.129542857;-7.678440552;39.17088427;-4.883479426;55.02747266;8.125474151;7.766056284
51.62491758;3.121826609;-19.70303867;12.6445594;1.407653226;1.068424435;16.05748144;-2.536387226;37.20717143;-30.96823747;0.46589053;-8.184631323;-5.830114525;-15.8498688;34.9455335;4.845642854;53.68672426;6.040640869;7.985658789
46.51757804;0.999285329;4.113987304;16.39470787;-3.691121882;-2.132422803;17.49799563;-6.808020012;29.87081684;-29.08339072;-4.408161094;-15.50976881;-0.790365249;-19.05200749;25.31774748;12.90065713;45.59270924;5.944924964;9.564765378
45.81729418;-0.678052877;22.46030697;24.01097157;-5.764703218;-4.014361051;17.7793131;-9.188869146;24.40940342;-23.65313514;-4.188886928;-17.44592591;2.625823114;-22.32575183;13.8499946;15.29181048;34.6134951;7.844013228;11.53338045
49.11414373;-0.422933236;25.73636516;28.17601997;-3.583560452;-3.943225135;16.81541469;-7.237445892;24.68972098;-20.39548779;2.886350789;-14.67810691;1.688989035;-29.76230327;4.577758735;11.93545197;24.65966045;9.771876822;12.11218763
51.69359677;1.474599974;14.97659604;21.68718453;1.276815992;-2.344984685;15.66669454;-0.098424281;31.80083918;-19.7357739;15.23453889;-10.23128087;-2.464435403;-39.97918144;0.031429574;5.948821875;17.5597649;9.499396681;10.15709872
48.56155265;3.258309813;0.402932874;2.817522841;6.077593973;0.108191715;15.54274573;10.70506336;43.69030587;-17.26100282;28.89166043;-6.571344415;-5.783940396;-47.08382889;0.338683597;1.117616111;12.67825427;6.57808796;6.264190216
38.64185581;3.340029297;-6.902683797;-22.67127611;8.842786129;2.9739032;16.68518539;21.65063895;56.22394072;-9.294828408;39.33140158;-3.822425497;-4.520269631;-45.88251322;3.714051204;-0.566821426;8.178647495;2.878593921;2.535775253
25.63735851;1.740427225;-3.431998682;-44.39689719;9.110497957;5.822330992;18.16113417;28.87362785;65.01851554;2.114470694;43.1959769;-0.506370357;1.916473385;-36.62425225;7.72046952;0.260445596;2.72587936;1.087027134;1.11653608
15.00989375;0.02819056;4.969308285;-53.24247743;7.383697152;7.819320168;18.74037655;30.27590012;67.25360664;9.860993052;39.45200274;4.158572021;10.62208134;-25.22201234;10.35512191;1.38571048;-3.632033052;2.435026194;2.653975958
9.826296434;-0.150891337;9.041769104;-46.41157473;4.296218058;7.852551338;18.02652682;26.73913096;62.7946129;7.83397132;29.80824404;8.738632555;17.43827165;-18.82549955;10.4477781;0.919193736;-9.78766647;5.643512398;5.908158971
8.991848056;1.422073058;4.361230301;-28.57062258;0.455283675;5.355977607;16.79379065;21.54798398;54.19990022;-3.080029297;18.21981667;10.37085684;19.83722369;-20.41983767;7.590299236;-1.367459704;-14.51071135;8.014971817;8.774644815
9.105286655;3.377212252;-5.211879524;-8.766518862;-3.099290675;1.152400368;16.23584489;18.33233273;45.53802451;-14.75763281;9.346983524;7.179972925;18.2357996;-26.74614331;2.140312727;-4.077235919;-17.10809027;7.731370825;9.831942982
7.967284577;4.049555443;-11.53953815;4.550718932;-4.721452389;-2.602853285;16.84730964;18.88486119;40.42878224;-18.10039582;6.338539859;0.097216674;15.01100671;-31.01164508;-4.523781525;-5.3537123;-17.4121642;5.364379646;9.165695283
6.502422208;3.004548971;-9.733772551;7.337836933;-2.936736539;-3.633026716;17.98680593;22.26686937;40.19335888;-10.67473016;9.04544301;-7.641987384;12.37128905;-28.07167466;-9.95801963;-4.21265412;-15.41850761;3.305776149;7.921484799
7.520571457;1.388883932;-2.353424656;0.870999009;2.249915657;-1.144090014;18.51810483;25.6487229;43.12727943;0.901340933;13.95959682;-12.95661747;10.9416425;-18.06376947;-11.4431431;-1.113853653;-11.15504679;3.649183304;7.136906062
12.7033779;0.815402962;3.352269301;-9.913589793;8.751086283;3.408346049;17.91193411;26.13825801;45.44895213;6.140734602;16.27869451;-15.206658;10.0019398;-5.986186169;-7.579798182;2.502750499;-4.982565176;6.385938364;6.933621071
20.73736838;1.850004883;2.420496765;-19.10852399;13.36023729;7.081483899;16.76446848;22.34907855;43.55158984;-0.72022568;12.95766168;-16.33452857;8.752359794;2.045715343;0.322629171;5.264299463;2.062789214;9.459325477;6.69972712
28.31340189;3.512399799;-3.099197221;-22.16288306;13.8083084;7.288574243;16.24226851;14.90933427;36.32305854;-15.8905048;4.659595675;-18.80594044;7.205098704;2.823108439;8.398817018;6.729162228;8.451741425;10.56697013;5.93802338
32.98869132;4.232616369;-5.966296628;-17.30338124;10.34883486;3.452208987;16.97399095;5.965290133;26.10395026;-29.01022683;-4.857592919;-23.23385179;5.91986973;-2.449017022;12.35236514;7.533757955;12.98260474;9.093718381;4.886570681
35.211389;3.343364097;-0.396383857;-6.044806736;5.532239303;-2.654988466;18.43079491;-1.764642868;17.56735854;-31.42042654;-11.48092537;-27.79504868;5.096676203;-9.712928344;10.36275743;8.81767236;15.66645377;6.51262146;4.317337158
37.65667874;1.703639125;12.54838181;7.286022781;2.279006368;-8.037326002;19.38445077;-5.933476756;15.06196342;-22.78796522;-13.48667287;-29.89477255;4.207836438;-15.00241235;4.59338102;11.36330335;17.84342936;4.998802717;4.750456654
42.55357019;0.87931916;25.69;17.22172877;1.798087972;-10.22530338;19.02830173;-5.371549147;19.98460071;-10.70122858;-12.17200537;-28.52197262;2.738330491;-16.52791563;-0.172526809;14.99449058;21.19448847;5.567761601;5.881117597
49.51167481;1.662003129;31.84506358;19.77247204;3.03576887;-8.508515089;17.72614852;-0.649022704;29.84143556;-3.917753222;-10.04397039;-25.17229345;1.318527384;-14.85685295;-0.101734607;18.56991008;26.23082026;7.386743229;6.792344602
55.81920862;3.320658167;29.73840847;14.80475626;4.022816141;-4.036115953;16.69366093;5.962595713;39.67863442;-5.236436238;-8.317875823;-22.55895672;1.876348869;-11.77909048;4.53287564;20.56460912;31.42091196;8.768480403;6.761329544
58.84164786;4.287172219;24.46791799;6.503036887;3.856623298;1.017229626;16.90053235;11.5029998;45.07040162;-9.969899063;-6.022163135;-22.32;6.166424338;-9.131617491;9.256131061;19.94020231;33.79839447;8.821575048;5.899188086
58.22605634;3.6325653;22.36441836;1.042217273;3.546287706;4.555195233;18.19852394;14.07750324;44.78748839;-10.88434146;-1.484247264;-23.76283648;13.60857169;-8.290303785;8.778799575;16.85582824;30.83131235;8.198405847;5.025293864
55.88973218;1.951495481;25.20218716;2.49275489;5.003807207;5.368521708;19.47012165;14.25201597;41.37734801;-4.866030219;5.290954001;-24.66431011;20.36308657;-10.0704686;1.425190367;12.80182924;22.31412942;8.294884031;4.900648985
53.93262674;0.824216941;29.12681787;9.600058594;9.131343384;3.465983127;19.65315412;14.7849683;39.20130132;4.631916615;11.77408159;-23.26963291;20.94126312;-14.45298864;-8.979337816;9.967107244;10.89313307;9.732634254;5.54
52.58245525;1.34997354;29.06980338;15.95251845;14.74268836;-0.004887387;18.69730677;18.43643221;41.2114284;11.2327835;14.68733515;-19.63562341;11.71963005;-20.09894533;-15.56255505;10.05418772;0.743427042;11.61701181;6.235006303
50.18914942;3.111321185;24.17957123;13.92117949;19.2796228;-3.187351633;17.5823981;25.3037419;46.73919337;11.69813984;13.00890763;-15.20990969;-5.991246469;-24.31456025;-13.51844365;13.1737586;-4.759099454;12.31331475;6.246408269
45.23645198;4.53349563;18.87795406;0.007412589;20.66753169;-4.280917044;17.39881161;32.00536432;52.01222076;8.73079261;9.435277275;-11.25027526;-25.70616404;-24.09357813;-3.818792858;17.58852663;-4.787461178;11.03252109;5.504961862
38.31345078;4.315539143;18.44137649;-22.05374909;18.66977458;-2.469866604;18.34890067;33.94326068;53.22280965;8.060696299;8.65110637;-7.728064764;-38.90542368;-17.96061368;7.658552169;20.69332099;-1.080208879;8.723884435;4.671979954
31.96513161;2.621932424;23.43995744;-42.79023278;14.62214995;1.450737633;19.58592165;29.31803023;49.96982762;12.73039059;13.54521027;-3.767687723;-39.7298012;-7.362816795;15.08325198;20.80143538;3.646597874;7.38042804;4.524960703
28.39718462;0.94408545;28.69338705;-52.36075869;9.949022889;5.288458318;20.02166611;21.60173035;46.29152523;20.05654512;22.53674629;0.935202953;-28.26253526;3.68460396;17.64;18.56466238;7.613148543;8.323116848;5.259480719
27.20674907;0.761058868;28.16773624;-46.38300062;4.965688885;6.630940176;19.33987136;17.77736234;47.9878483;24.16615462;30.51696591;5.314592172;-10.37116572;10.84732565;20.09309298;16.83182038;10.80584704;10.99769183;6.350956938
25.49312733;2.222222919;21.31405964;-28.46977331;-0.862829946;4.399609235;18.27511304;22.85790099;57.68680557;21.71600412;32.93598766;7.778399973;5.625154076;12.2503545;28.00745033;18.69376338;14.27847408;13.39306289;7.068577294
20.5642239;4.041568596;14.44973413;-7.943457384;-7.494200196;-0.255803808;17.91036084;34.6454117;71.19817509;15.33589837;29.74655336;8.040802154;13.23872909;9.797847501;41.34648439;24.86106413;18.7338988;13.74119188;7.119301536
12.91294227;4.677260176;15.07481162;5.638198289;-13.21674872;-4.468810265;18.65900498;43.35230173;78.37216776;11.38799642;25.7622002;8.111609792;10.51519254;7.93949397;52.09;32.32862164;23.70738111;11.99679749;6.808197079
6.612992269;3.704735183;23.83967116;7.61667465;-15.20741656;-5.388287314;19.88222154;37.48921328;68.79638929;13.96946872;26.81520217;11.14974277;-0.028436038;10.61215662;48.76300279;35.68754329;28.03723598;9.783114424;6.604210237
6.426958563;2.140989867;31.86366008;0.040794636;-11.57080054;-2.033918532;20.49284925;12.44877206;39.05049119;20.76505907;34.64984053;18.77811149;-13.56699418;18.45939136;25.20097446;30.62798875;31.09710577;8.869766768;6.594603849
13.90566348;1.460148179;27.01076212;-10.46909494;-3.22944487;3.987483071;19.97666614;-24.57011737;-3.443312857;24.86212836;44.7623644;29.03137857;-25.54411309;28.27590691;-13.07080637;17.37280008;33.54743252;9.576570158;6.410649428
25.86390679;2.236108557;4.72314101;-16.98639145;6.056765254;9.409404558;18.87694962;-57.632489;-43.15481596;21.18056387;49.21489972;36.87699564;-33.25671671;35.03289093;-50.35556854;1.44827104;36.79225771;10.56399251;5.713327358
36.71011503;3.659966215;-25.82808083;-15.91846267;11.82783907;11.25003906;18.29153382;-71.73895484;-64.6385906;11.69919315;42.49772713;37.27535383;-36.08922164;35.0176463;-70.00323884;-9.164624601;41.54265524;10.20234031;4.729504962
42.76582015;4.343181945;-46.4602948;-8.143439111;11.73128843;8.487727149;18.85090681;-62.53334604;-61.17202833;4.41721433;25.99852911;28.64471199;-34.91277097;27.93121172;-65.1132632;-8.870078125;46.80056611;8.247663754;4.230802669
44.89712397;3.626516246;-42.88;2.437859804;6.917324035;2.457307283;20.1268603;-39.03137812;-38.24720362;6.541266786;7.621164649;14.1567882;-31.32860502;16.68823914;-42.97265959;1.959144208;50.31333686;6.22959067;4.875653495
47.18672943;2.172185272;-15.82581632;11.57075967;1.029611297;-4.102940998;21.0205608;-17.26812612;-9.66330497;17.83349039;-3.207114586;-0.091320881;-27.06930073;5.379658791;-19.8663208;17.20528714;50.26406168;6.099276141;6.496078274
52.83633641;1.312362989;18.69515877;16.82679094;-2.344382726;-8.5713737;20.77156684;-9.424898786;11.05449265;30.33287832;-1.455205869;-8.637510225;-23.52080958;-2.957602803;-9.975665852;28.93968687;46.77178259;8.294004999;8.049241618
60.94663585;1.792766314;40.67382353;18.24878188;-1.816880131;-9.572688973;19.65638187;-16.28105629;18.13142457;35.19283232;10.86462259;-9.392491577;-21.32043386;-7.301844336;-16.41177403;32.30756131;41.80512642;10.99827783;8.388187008
67.04392698;3.096662601;40.16542119;17.47049348;1.490850963;-7.255167753;18.73395667;-28.17892254;15.20481186;30.82357201;26.85610694;-3.875368917;-20.18392172;-8.116510619;-30.65460861;27.9686137;37.45701045;11.41290185;7.231537215
66.8539515;3.967702662;23.21465983;16.14421641;5.332488206;-2.897239496;18.87516731;-33.18713433;10.78432519;24.82404608;39.65752184;4.684544448;-19.16281143;-6.280574301;-40.21066789;20.61063949;34.06125067;8.085247343;5.460039063
59.87946334;3.617281679;5.432806951;14.76762157;8.034285524;1.702904714;19.96996443;-25.90364237;11.43027501;27.23640999;46.37834706;13.54572553;-17.28295266;-2.581548053;-38.22558132;15.02334983;29.93268915;2.338363364;4.417855274
49.51870764;2.468470228;-0.964039884;12.65603715;9.192305961;4.782317527;21.03702506;-10.36776532;17.70388721;40.38921489;48.5821034;21.33788692;-14.18685155;1.995286979;-27.76279624;12.9075198;23.15706835;-2.50763917;4.784176935
39.67223635;1.738438935;4.061062686;9.037899976;9.189435002;5.127235674;21.12797716;4.416946956;25.28561359;54.27843436;49.72990009;27.49209616;-10.3419669;5.923966093;-18.06142297;12.70278355;13.92803009;-3.607015688;5.999492824
31.12718724;2.261351504;10.36800648;4.431783795;8.416864441;2.582611;20.19204449;12.03380585;29.51023554;52.49122551;52.0741029;31.3633092;-6.685829201;7.596249917;-16.45347404;12.06523957;5.181844947;-0.781208855;6.769273377
21.34385116;3.668295165;7.731602403;1.099503612;7.126589343;-1.652570434;19.11236806;13.01189089;29.23209276;24.9958658;55.31577953;32.18165117;-4.000161035;6.549908614;-22.67217477;10.47059873;0.585845445;3.375627822;6.214245678
8.116198003;4.70357998;-5.108955864;1.847418088;5.94330812;-5.318358473;18.89201924;12.9276093;27.05581522;-22.13447503;57.48058334;29.85419163;-2.474498694;4.399047321;-29.8209509;9.553534269;1.350931734;5.605363153;4.645212157
-6.300292765;4.388727878;-19.89038448;7.654988285;6.200039063;-6.11123885;19.74439944;16.57549597;26.31949126;-68.36391224;56.72659496;25.61209711;-1.712454351;4.290126039;-30.61398032;11.02287283;4.742054979;4.618667915;3.263094402
-14.95652091;2.948411255;-26.36120678;15.78965073;9.334044891;-3.004543305;20.91790277;23.54648305;27.86524682;-91.4307263;52.51727567;21.5740217;-1.0723551;8.817009595;-23.38854992;14.2995147;6.065826305;2.117124359;3.05035713
-11.05926566;1.63058312;-20.67788857;20.21813353;15.55210518;2.956524648;21.39999324;28.86653528;29.45199432;-82.15495196;45.61515316;19.37;-0.046658893;17.79491161;-13.03230898;16.32905555;2.935584541;1.369699299;3.861467769
5.688180261;1.580610198;-7.441839607;14.79955925;22.90770432;9.032666275;20.84038419;27.71536224;28.06026973;-50.42319941;37.44734537;18.96801923;1.517431829;27.77686567;-6.507093797;14.01935708;-1.791603779;4.485235696;4.554821528
26.94884575;2.807610119;5.49889295;-2.369538168;27.8661205;12.24730711;19.84662032;19.79218522;22.75063499;-18.0328126;29.57672857;18.77981054;3.354380753;34.06791183;-7.097354256;7.22403085;-1.520856382;10.56516884;4.06798846
40.66747217;4.194170337;13.81841847;-26.4454438;27.30713695;11.0571617;19.39770042;9.505871223;15.43516792;-3.886764328;23.41569089;17.03378631;4.816353091;34.00310212;-12.21209572;-0.541616314;8.465095432;16.20232227;2.465868251
40.03997898;4.532641813;18.60452889;-47.45013887;20.65444057;6.179792151;19.9345643;2.07305714;9.032956438;-12.38402688;19.85401603;13.29071756;5.06;29.03203193;-16.2121087;-4.618348767;25.42948035;17.9241001;0.987136701
29.51366247;3.624235349;22.27197637;-55.65176166;10.53607257;0.082999439;20.96952179;-0.776655791;4.961182292;-32.80867339;18.7360351;8.865126761;3.483442538;23.84862059;-15.41151756;-3.021292102;38.65114631;14.67631108;1.002575437
22.31671189;2.428709823;23.51404842;-47.49871012;1.376880875;-4.46536273;21.56018894;-1.636213997;2.448002663;-48.89661199;18.73284606;5.875256827;0.312181766;23.03322463;-10.82081318;1.747385971;35.61025463;8.477321919;2.790467395
30.39180513;2.141259904;17.2479261;-28.0265898;-3.172271819;-5.83090138;21.18977012;-4.250800751;0.268540685;-50.54040445;18.20148001;5.781362804;-3.089845947;27.69348313;-6.515026341;4.686953637;11.22816951;2.847716547;5.229476078
53.96926191;3.068406677;0.343180053;-7.748530978;-2.244251559;-4.121309734;20.23157544;-9.485551552;-0.998935048;-39.14112651;16.74812123;8.573138528;-4.665246136;34.69558495;-5.489348917;2.642078099;-26.63341508;0.3164946;6.713485881
79.10444737;4.352208391;-22.36962557;4.14610378;2.048408557;-0.813897455;19.57892646;-14.30778064;1.20484458;-24.03594066;16.17164195;13.04739934;-2.885228299;39.07403859;-6.961152657;-2.641751237;-60.26705032;0.897854782;6.504705295
86.01212718;4.792889886;-38.51449496;5.649905782;6.165018696;2.151519632;19.80437802;-14.80500304;8.832749634;-14.38505551;19.48031987;17.64141242;1.964320562;37.6796245;-7.550541006;-5.535139138;-72.62538829;2.543990662;5.33549497
62.88724526;3.993055767;-36.26900893;2.639816754;7.258829355;3.228342743;20.64186672;-10.42963901;20.05451826;-13.36721134;28.14803521;20.99083543;7.505717408;31.1735591;-5.113796472;-1.046764922;-58.32899604;3.00669405;4.72059338
15.35259686;2.748472308;-14.06774981;3.795621208;4.555367554;1.763166075;21.26865088;-5.355760147;28.77846207;-18.27026817;39.63030468;21.9594799;10.55995007;22.93;-1.52870151;10.77568501;-27.37178722;1.547776567;5.580163988
-35.60664064;2.315539673;16.56162229;13.354813;-0.583868025;-1.838157667;21.10693117;-5.306469324;28.22146154;-24.63500735;47.61955963;19.63797749;9.37603603;16.04866464;-1.630541897;24.29326512;1.33536854;-0.766327722;7.38891357
-66.22550852;3.234863608;38.32535963;27.07379536;-5.590885836;-6.190938184;20.38;-12.33090781;16.30958966;-29.84642034;45.7487134;13.86664052;5.205845364;11.21956374;-8.959040612;32.22606971;12.17396441;-2.218331369;8.606890114
-64.53085006;4.806906539;40.40658091;34.58504361;-7.909079679;-9.312434908;19.89582988;-22.11679941;-1.434511256;-33.33432583;32.5683268;6.08507588;1.802173254;7.255931172;-21.9431848;31.02386806;2.238176956;-1.950146795;8.018057367
-37.02181773;5.713074775;25.92448682;26.70779242;-5.983089481;-9.394288652;20.26250661;-26.54830606;-14.45197043;-34.49882415;13.99945524;-0.460171744;2.824835376;3.525837173;-34.00761094;23.3383077;-18.40747353;-0.581690192;5.803995626
-3.303228476;5.214275577;8.627396576;2.560048828;0.161314097;-5.797107714;21.28011113;-19.84437716;-13.96652369;-31.61572503;0.762256864;-1.970135;8.826548331;1.628954285;-37.90679278;15.64237645;-35.18933238;0.469537528;3.417196374
17.04547067;3.823494009;1.688613775;-28.69729996;8.823751943;0.279335714;22.0906906;-3.441740379;0.722080085;-23.44443022;1.860845174;3.541766892;16.10384171;4.303294957;-31.05225653;13.05180392;-39.51027917;0.293760324;2.375114976
16.11171584;2.834143203;7.883586317;-52.90973874;17.16222549;6.065968784;21.96062606;14.42997573;21.27612476;-11.88844828;18.4030187;14.36169398;18.58408871;12.27213183;-17.66013506;15.66707036;-33.58;-0.70754057;3.032824063
0.375076432;3.140665551;18.92478585;-59.40634653;22.37904594;8.567847088;20.97288725;24.36195284;35.68921963;-2.40879942;42.22340794;25.33438175;11.75599025;22.08582295;-5.982188646;19.34757452;-26.71338367;-1.165573808;4.386302057
-16.10226377;4.436237167;23.75548494;-47.18118172;23.14938243;6.329106193;19.98135326;22.30893664;36.22846219;-0.760495684;60.57033941;30.54846623;-3.973353613;27.62093778;-2.682175494;19.96797046;-26.84902482;0.08192537;5.032735222
-22.121947;5.518452546;18.17416906;-24.78322294;20.45199321;0.489191458;19.85724322;12.08365116;24.22542362;-8.312717972;63.81305802;26.85127814;-22.90571315;24.76373238;-8.52702641;17.23131641;-34.29803983;2.959445371;4.403916719
-15.89320042;5.409930056;7.629870877;-4.375111606;17.07216417;-5.696439158;20.71169594;2.070234323;8.393254356;-20.13302367;50.97273525;15.77602314;-37.09206621;15.54500195;-18.39995848;14.61147964;-42.31587578;6.092293691;3.186679223
-3.964029957;4.255098984;1.517751996;5.688860685;15.85378493;-8.721028347;21.80331835;-1.074982915;-1.775408935;-28.09177971;29.50295473;2.476311311;-40.86918939;7.710512478;-25.29346651;15.53928507;-43.29611781;7.758126333;2.606481154
5.293093589;3.17167308;4.777927272;4.822531446;17.76250102;-6.949620634;22.21232846;3.154663972;-2.44703363;-26.955341;9.869052977;-7.599803994;-33.97417108;9.15615632;-25.11309367;19.42299428;-35.035507;7.111713067;3.272450132
8.037845477;3.206717901;14.41776802;-1.346002587;21.14715546;-1.632527093;21.66284382;9.649180022;2.871372097;-18.57861883;-1.026062501;-11.95338716;-21.35571766;21.22952055;-18.89262285;21.39646753;-21.98165568;4.759256906;4.645857772
6.682538018;4.370314651;23.44982723;-6.076462368;22.84127298;3.852062802;20.74577975;12.19727477;7.084680946;-10.57248574;-3.14757243;-12.00976747;-10.05223475;36.59818446;-11.26960942;16.44590116;-10.91775939;2.280113279;5.592035988
6.66633589;5.637121684;27.71181134;-6.058381947;20.40194118;6.027021127;20.35126735;8.106808492;5.279095923;-10.30751394;-1.689428606;-11.38461066;-5.310802051;44.25805079;-6.820412539;4.538112831;-5.166549782;1.09084137;5.474771082
11.64040338;5.903059447;28.70113056;-2.376719568;13.88688847;3.325641998;20.84456755;-0.507606874;-1.994267457;-19.02953826;-2.372539814;-12.92543285;-8.2777845;38.4056977;-7.032486255;-7.882838576;-2.302457285;1.509298509;4.766035445
20.9496846;5.002798956;29.93183974;1.966515595;5.880373439;-3.109380449;21.74559902;-9.124472781;-9.938372933;-30.82325441;-7.298570456;-16.67448313;-16.21816321;24.099606;-9.734268643;-11.88404111;2.950487669;2.679824524;4.604136857
30.81645998;3.847611709;31.04669687;5.25950222;-0.210494536;-10.18029356;22.19719122;-14.32359184;-13.5254704;-37.17289859;-13.95134267;-19.96524274;-24.52012296;14.43516624;-10.83304995;-2.761306642;13.45346611;3.347400231;5.707850832
37.53819097;3.566584108;26.40163522;8.216332699;-2.292364539;-14.53695842;21.77611846;-15.42896055;-10.7583928;-33.32984871;-17.37412789;-19.25852488;-28.95131171;20.46514968;-6.853212208;15.82595957;26.67879413;2.845017216;7.649962184
39.79713199;4.457215163;10.51252489;12.43618531;-0.630336961;-14.19768635;20.89013183;-13.4684272;-2.925648378;-21.42732071;-13.55245017;-12.32289649;-27.07;41.30418714;3.220312456;33.84234759;36.4781053;1.545085766;9.170468573
38.47767634;5.719223322;-14.40159046;18.02399366;2.771009999;-9.313073694;20.39562844;-9.162652498;7.461355425;-8.224994528;-1.818097667;0.473423692;-18.6643538;62.53525418;17.39671026;41.74022544;37.88431633;0.47906239;9.264695606
34.75135045;6.20994615;-36.5933056;22.82177315;5.726543601;-1.903901988;20.79596271;-2.26151125;18.53321461;0.155038395;14.73395102;16.1350346;-5.648197964;65.13710385;31.25931548;37.02777863;30.75818367;0.478498054;8.073450322
28.53064964;5.510507234;-42.05497972;24.07023572;7.07933638;5.102996664;21.76687042;7.157743486;29.00917361;1.991514201;30.53820077;29.97056094;8.346518281;38.98784973;39.32666647;25.53472766;19.30487852;1.533384187;6.771635052
18.74556148;4.310366108;-25.90683981;20.98118591;6.814130222;9.062221258;22.44901704;17.06203967;36.91129809;-0.444103204;39.75543771;37.07310791;18.8870781;-8.982175436;36.96177713;16.52251588;8.166784758;2.852316966;6.545100957
5.055527854;3.75923999;1.760655549;15.76184104;5.390817197;8.623707954;22.23659678;23.7007832;39.25761998;-4.217737347;38.64812445;34.08674218;22.35215028;-58.32159077;22.43584574;15.57187353;-1.324829834;3.531665606;7.559367631
-10.72911119;4.397225886;21.56435977;11.95377318;3.198268703;4.283323423;21.33416793;24.17724711;33.99454811;-8.36361151;27.45302035;20.86954095;17.7735371;-87.99569056;-1.715140597;20.76628573;-11.50879955;3.264306946;8.830399758
-24.9732347;5.661082458;18.56454477;11.39324387;0.663072213;-1.750831183;20.5704817;19.36126986;22.83993679;-13.40406321;10.87734381;1.255852754;7.774104687;-89.45385525;-29.07905973;24.89767941;-25.25769314;2.51671021;9.105619013
-34.2078981;6.421543141;-6.572133104;12.49344748;-1.321500196;-6.449712741;20.64328856;14.31243125;12.04169716;-18.78534671;-3.557600862;-17.96824341;-2.392697357;-70.6071707;-51.8528627;21.62137165;-42.31916317;2.062996885;7.971802485
-37.26302503;6.043727346;-38.08532306;11.56665809;-1.439833883;-7.361980723;21.48914577;15.15156805;9.224576447;-21.51999867;-9.146899341;-29.98360845;-7.558113643;-48.49950091;-64.4231144;10.5653796;-58.48235156;2.30031352;6.216181393
-35.87175864;4.977682881;-57.11235239;6.271570777;1.181877509;-3.89540297;22.35144219;24.35464022;17.85720787;-18.16423386;-3.912787547;-31.47341819;-5.586353491;-36.83851978;-66.01774014;-2.446437954;-68.362439;2.938240837;5.136789195
-33.28331189;4.327935284;-55.60613328;-1.766429905;5.88898098;2.258668718;22.47605434;38.14899477;33.56352643;-8.716618438;7.75092574;-24.59066984;1.425384793;-37.80975731;-60.69291459;-9.84427497;-69.4194951;3.319297553;5.423868476
-31.94844686;4.805390866;-41.14132642;-7.67817742;10.28343387;7.932740235;21.79323073;48.43334707;45.87103265;1.468633077;17.31618885;-15.76157578;8.655135932;-43.48663325;-54.54581673;-7.679051347;-63.78423209;3.073125109;6.596673332
-31.97324482;6.042601129;-29.22309361;-7.189394286;11.43925224;10.18212536;20.96740477;48.22086908;45.04077186;4.469370839;17.34940817;-11.72785761;11.84488475;-44.34294475;-51.90855903;2.139183788;-56.37968554;2.506984712;7.472444452
-31.35046303;6.917136073;-29.99249738;-0.515841576;7.902074645;7.926590165;20.78289129;36.70420581;29.33134409;-4.148030905;6.480178629;-15.27871273;10.09228349;-37.25783414;-52.97490749;13.9042983;-50.97210724;2.354350828;7.231558533
-27.60770932;6.590457567;-40.45954504;7.168948608;0.992039563;2.544158592;21.43721494;20.0696838;7.051831255;-20.89584619;-9.380883184;-23.57081398;6.157980386;-26.80011387;-54.27905299;22.24481296;-47.44913677;3.066924003;6.133984467
-19.55720631;5.301712859;-48.21706683;9.572902979;-5.731992769;-2.96084518;22.38352879;7.278600364;-8.716865346;-35.84373983;-20.67080943;-30.24238745;4.106873364;-19.7948165;-51.45480599;24.93468767;-42.4699774;4.265280238;5.270954894
-7.959403079;4.177148969;-42.70772692;4.632566009;-8.652378533;-5.712750119;22.84732612;3.859621866;-9.260221534;-39.67160741;-20.31821316;-29.84585276;6.096121464;-18.71920308;-42.24303504;22.72919071;-32.75954905;4.877508526;5.59106112
5.114971497;4.221975533;-24.08120452;-3.108506218;-6.438933719;-4.580905569;22.5261003;8.334089796;3.523226118;-31.0297508;-8.204848268;-21.47256684;10.77280777;-19.82894667;-27.80072011;17.34580432;-18.2088217;3.938705137;7.061309377
17.47919184;5.414913509;-2.413633119;-5.583469932;-0.903003263;-0.721146328;21.83027009;13.94159909;18.66449046;-18.05633214;9.055743149;-9.103184485;14.51105261;-17.22702707;-11.77341808;10.00789638;-2.294991489;1.447993821;8.680530322
27.62245058;6.731662765;11.24382021;2.106688772;4.217312297;3.201411198;21.46484259;14.29892849;24.52765563;-12.23498741;22.63536179;1.330087891;14.51141559;-8.748759521;1.863082947;1.834351003;10.31533336;-1.427354466;9.308002134
34.72066277;7.071202415;13.67482393;16.54326575;5.633711039;4.573848435;21.76260949;8.595889787;17.7692305;-19.05318661;26.9392733;5.849904428;11.29203871;1.809986629;10.63342921;-4.886447656;16.85847581;-3.034420747;8.579778174
38.25762418;6.235371667;10.66809906;26.91286208;2.403434321;2.264564941;22.39372328;2.247785665;5.899418375;-32.95781731;22.28725687;4.533772431;8.498009723;8.035744246;14.14175256;-6.599258496;17.81737058;-2.344439568;7.147438907
37.91747678;5.073418359;10.3457209;22.13497999;-3.792140148;-2.818989898;22.70669747;2.381648593;1.268179566;-41.11374635;13.51678279;0.659790872;9.992474474;6.654816749;13.55153414;-0.495877862;15.7585034;0.323012064;6.085170009
33.98701258;4.677667166;15.40249095;-0.62018993;-9.888541047;-8.244791441;22.36043883;11.53317441;10.93124406;-33.56;6.242295132;-1.975793024;16.35553366;0.493777234;10.71309038;12.71319322;12.993267;3.499552861;6.011291803
27.83181823;5.384694231;21.44466151;-32.40825256;-13.15472979;-11.29997496;21.64490316;24.44544208;30.2007028;-11.99896496;3.792308769;-1.341189416;23.55160531;-3.937159655;7.492128424;27.8643649;10.1112398;5.541053848;6.660432568
21.74590634;6.499951622;22.48168638;-57.08401105;-12.32154852;-10.33012519;21.19569088;30.7083284;45.05982688;9.911563058;6.610489757;2.402549182;25.08362237;-2.012967947;5.320526191;37.71358772;6.351840696;5.663014068;7.203186971
17.91756393;6.981421185;17.81407662;-61.22618128;-7.764021321;-5.560078125;21.38528083;21.70453952;41.93977829;15.53668451;13.53447614;8.02155444;16.42070755;5.185423706;4.763333556;37.39787906;1.054978386;4.319402427;6.969199936
17.06587969;6.429185531;13.38180557;-42.64678672;-1.069584523;0.966941006;21.9739797;-2.94086262;17.71160573;-2.90054907;23.03489349;14.41670169;-1.30979887;11.99609098;5.154380231;27.79351908;-5.366172502;2.728135203;5.947963118
17.77868891;5.455330838;16.05701285;-11.62820236;5.548198107;6.322938814;22.3491325;-34.06793681;-17.52315456;-38.4054983;33.21589387;20.79148362;-21.09011168;13.04807239;4.687636031;15.1015213;-11.77743275;1.966917138;4.714926694
17.24489712;5.096645147;26.23407775;15.77586465;9.86258452;8.103929241;22.11909308;-58.01146577;-46.93974116;-73.6396663;41.18019824;25.96157844;-33.71570589;7.550196;1.249092435;6.73708093;-17.45696932;2.310563159;3.95375476
13.09468177;5.827203701;35.94589013;27.48698375;10.392547;5.651459379;21.49283462;-64.74034536;-58.04196243;-92.40197879;43.32208441;27.94095227;-33.22086941;-0.547197493;-6.303468802;6.421815207;-22.7496687;3.215442914;4.03266781
5.166826655;7.096816451;34.81833867;21.53522503;7.227905423;0.438537411;21.08242211;-53.7298145;-50.30504547;-89.77037424;37.21321439;24.64981057;-20.54688284;-6.274997356;-17.23564307;12.01930002;-28.55158824;3.844653882;4.930048828
-4.062601891;7.82660434;18.94763826;5.059984849;2.414600357;-4.655067775;21.31573652;-33.74751898;-34.21840777;-73.83365291;23.85207768;15.39117036;-3.040407918;-7.715367177;-29.13217943;17.59643776;-35.15109287;3.682878435;6.415567245
-10.794225;7.400146609;-5.111858158;-11.9510139;-0.684455402;-6.854663655;22.01879899;-16.88907108;-23.00273714;-58.46098028;8.091296286;1.821305462;9.925771727;-6.925024607;-39.15585594;18.05177598;-41.61089755;2.829846922;8.185684478
-12.14812603;6.229106948;-24.91286348;-22.91405537;0.940065918;-4.977030595;22.56838172;-11.02261902;-23.4650818;-53.09683063;-3.808878207;-12.59709818;12.39901442;-7.313769213;-45.50682767;12.84557327;-46.35451934;1.870194487;9.810423276
-7.840388023;5.370154347;-31.40318879;-26.61126921;8.109581292;-0.041005192;22.47562233;-15.65937078;-32.55991773;-57.19409147;-8.128384639;-24.42745833;4.915505903;-10.25083787;-48.05787305;6.195942875;-48.44711299;1.503630447;10.66491818
-0.172659753;5.551649526;-25.02258657;-24.71408782;18.72213758;5.353100866;21.85014017;-23.66353341;-41.46404738;-62.71489156;-6.183277684;-32.03851383;-6.597587733;-14.0711363;-47.81652414;3.808474487;-48.36883734;2.188436095;10.12248625
7.61380534;6.513674543;-13.68520094;-18.33411325;28.80580256;8.491242065;21.30181132;-27.09544029;-43.24646316;-61.75635293;-3.242920048;-36.0151984;-15.09025433;-16.12857526;-45.81208238;8.67280445;-47.52890154;3.940624724;8.02662713
13.44636007;7.269667149;-5.034674095;-7.218905871;34.8233374;7.97808015;21.36576572;-22.79056688;-37.92397757;-52.84079796;-4.486938903;-38.02126816;-16.82839531;-15.62072321;-42.40593835;18.92341838;-46.93678439;6.309401224;5.079439117
17.55064369;7.040139761;-0.326270901;7.91060357;35.73907345;4.326861806;21.98934429;-13.83802132;-31.33349207;-41.19820777;-11.05286419;-39.18097487;-13.11313258;-14.3329559;-37.54062938;29.08201075;-46.24042534;8.517684903;2.69321091
21.91149118;5.986810164;4.581878935;22.7737098;33.46852541;-0.523846873;22.56893656;-6.365090087;-29.41810539;-33.59451149;-19.2557792;-39.33684092;-8.448319251;-14.63492134;-31.52957968;33.58573259;-44.02207732;9.761436751;2.220121056
28.56348295;5.064829333;12.57807958;30.12073076;31.4612955;-4.340245495;22.51230885;-4.480255732;-33.01019713;-32.5208793;-23.5746377;-37.67393911;-6.814412898;-16.80454849;-25.4821914;30.11230667;-39.10632331;9.599217184;4.030316345
37.96907372;5.132610818;19.97494486;24.08655249;32.45779027;-5.6511304;21.80547088;-7.350101874;-37.38272946;-34.58045953;-21.01042686;-33.98599684;-8.865971873;-18.40263596;-20.82033228;20.64055807;-31.72307677;8.239517821;7.151517418
48.56922386;6.148412612;18.41537324;5.193222727;36.93464385;-4.221600062;21.0494987;-10.47201639;-36.66265777;-34.04332639;-13.38569117;-29.35665751;-11.94978005;-16.39559492;-18.23794817;9.874821198;-23.50448493;6.491180308;9.837499409
57.69046975;7.201175002;3.022540636;-18.32558068;43.11636078;-0.89603618;20.9208417;-9.832552344;-29.19766593;-28.20913597;-5.891967513;-25.62025603;-12.62068408;-10.02269748;-17.05459379;2.319042065;-16.3384348;5.309327374;10.72571277
63.0697781;7.348215393;-20.60274217;-34.67982238;48.26817784;2.896371485;21.54747369;-5.437502533;-19.33613305;-19.94601189;-3.208219773;-24.06477651;-9.507375835;-1.649435164;-15.64361519;-0.111464527;-11.09756209;5.180166291;9.746759405
63.95910907;6.484291596;-37.7923037;-35.65576519;50.22612003;5.665810161;22.37976934;-1.324909163;-14.15470108;-15.36655576;-6.30693283;-24.47038931;-4.282962806;5.232860237;-12.68988857;1.341234946;-7.324524743;5.786798907;8.095560099
61.21386698;5.438074373;-34.87766584;-21.68618034;48.2498322;6.302920556;22.68344086;-2.068239312;-17.80978016;-18.69772889;-12.25458608;-25.24793826;-0.111022931;8.964862778;-8.269961925;3.589261757;-4.060710519;6.257805439;7.280433369
56.52486343;5.207544118;-10.25748255;-1.193800603;43.00354804;4.455638366;22.20697251;-8.630151259;-28.0453485;-28.60242776;-16.75170316;-24.52232978;1.045437359;10.83127235;-3.84476422;3.903204021;-0.991892046;5.866178143;7.976987308
51.44046039;6.041221117;22.90662818;15.21979056;36.06445792;0.785938079;21.410504;-16.98484775;-37.59193706;-38.87678558;-17.0930356;-21.32022235;0.021900838;13.329592;-1.155360135;1.64807641;1.139730838;4.652875296;9.557583361
46.76664242;7.212074947;45.35616677;21.43440954;29.38110311;-3.104592766;21.04343425;-20.75592365;-39.33021275;-42.87399615;-13.3117288;-16.08736968;-0.324260579;17.37090729;-0.943992612;-1.43503198;1.180587845;3.454480822;10.63
42.50971875;7.688886299;45.42232989;18.67494163;24.74495914;-5.269042167;21.45697567;-15.93444656;-31.28346573;-38.16502484;-7.179329659;-10.38492785;2.39665073;21.22092263;-2.571626178;-2.517154263;-1.3839397;3.266791307;10.13636735
38.1507638;7.082138095;27.01015662;13.07740467;23.13872222;-4.410078125;22.28275785;-4.060410919;-17.84312428;-27.99591809;-0.588272742;-6.168954503;7.942842728;22.24377855;-4.827666774;0.276992777;-5.953003928;4.428771719;8.155636604
32.97856296;5.992902396;5.586472525;10.43167777;24.0733346;-0.75927949;22.77224261;8.60384325;-6.629397326;-18.75139143;5.014445643;-5.113909187;13.3714984;19.67095061;-7.187768636;6.397092496;-11.29852456;6.292688605;5.825871665
26.38864101;5.449485646;-4.450203025;12.26711915;25.43233548;3.796268266;22.48360452;15.30835497;-3.553888939;-15.60633223;7.991755797;-8.126788204;15.1560622;15.50718392;-10.36642565;13.01729563;-16.48813506;7.672712172;4.501151883
18.2053368;5.95929111;-0.747437036;15.8076295;24.33030616;6.613286467;21.68362289;13.27203368;-9.601603027;-19.5590132;6.069195865;-14.97291815;11.85081984;12.50836707;-15.59357796;16.85140736;-21.32845288;7.726517285;4.821260524
9.019369122;7.05295875;6.366996645;17.03341605;18.83066775;5.8167138;21.09617158;5.083730447;-21.14909335;-27.58832612;-2.596263732;-24.05671711;5.243487904;11.22444727;-23.13981287;16.48471409;-25.91390522;6.559394906;6.372624313
0.340037842;7.735380869;3.651675878;13.93761596;9.51140116;1.537232056;21.23190681;-3.797029563;-32.91300275;-35.21107973;-17.20331301;-32.65430713;-0.867718964;9.322732177;-31.31190729;13.53476746;-29.76618582;5.06913888;8.111324333
-5.706756555;7.416837961;-13.26883462;7.564990469;-0.374379548;-3.9816035;21.91899867;-9.285582365;-41.05430097;-39.24225893;-33.01461508;-37.84544243;-3.301573139;4.339679035;-36.85807236;11.60196618;-31.49586706;4.18595866;9.142235479
-7.18833436;6.457425686;-35.83437637;0.70217564;-6.604678504;-7.582579171;22.46723571;-11.30819697;-44.49640202;-38.99030459;-42.92459993;-37.90284034;-1.531181974;-2.580078125;-36.67738148;13.52532613;-29.47971904;4.160364025;9.249098746
-3.352987332;5.823083365;-49.28158077;-4.060982702;-6.656000728;-7.034479233;22.31173028;-12.95540858;-44.30581787;-35.7145331;-41.64709393;-33.35182667;2.313715014;-5.984812442;-29.73736301;18.85802373;-23.11042595;4.48362373;8.8498607
4.777753956;6.178606804;-44.38810036;-5.253536946;-1.540496386;-2.403257447;21.539506;-17.17279144;-42.35896666;-31.41988025;-29.78117692;-26.88762323;5.301539301;-0.124847555;-17.91469541;23.59088844;-13.5866388;4.456103581;8.528185105
14.65118142;7.263604919;-24.62708521;-2.324087808;4.582252558;3.890293133;20.81115887;-23.94;-40.48694059;-28.05571054;-14.4552116;-22.01431283;5.852649504;15.20667737;-5.192009453;22.69468379;-3.511135564;3.855403568;8.571950782
23.23201903;8.13111115;-3.229672399;4.541945115;6.912562767;8.373961159;20.74933857;-30.31831423;-40.26216645;-27.27652166;-5.42840021;-21.18205419;4.552145266;32.42154916;4.294813522;13.9501044;4.49353392;3.09655071;8.852566717
28.33884885;8.025984539;7.072569913;13.77992514;3.012546735;8.426312672;21.35917638;-33.20825405;-42.78579912;-30.20338779;-8.931256243;-24.5943934;3.174929302;40.59209855;8.20856659;0.345207497;9.163706995;2.764108793;9.048423092
29.56762676;7.087047337;3.287798364;21.63380069;-5.698461923;3.694071072;22.01785759;-32.31052665;-48.04137585;-36.80640011;-23.46326272;-30.37236575;2.921726702;33.99726886;6.93291211;-10.93876531;11.01059522;2.98161174;8.953234745
28.33960311;6.221662791;-6.573221837;22.75117899;-14.89354111;-3.733581553;22.0470929;-30.59710747;-54.25304955;-45.30583757;-40.5812672;-35.78109926;3.407391838;17.83319502;3.129724466;-12.64114596;11.59624715;3.231874829;8.607617334
27.09542347;6.269013382;-10.49495066;12.91956721;-19.97863746;-10.42731779;21.34514334;-31.75802859;-58.17576016;-52.42701418;-50.19832979;-38.55969187;3.214446275;5.487343466;0.335810248;-2.077786806;12.33842118;2.817828446;8.19734082
28.08124519;7.226478995;-1.736320472;-7.408720935;-18.61031905;-13.35407348;20.49782365;-36.77354086;-56.68639892;-54.84553421;-46.72771632;-37.56074211;1.481908623;8.332582214;1.367355424;16.76174774;13.74320189;1.547647757;7.864275496
32.31696708;8.253890686;16.61674981;-31.57510555;-11.57038942;-11.33360059;20.26241527;-42.67462132;-48.8509728;-51.08910118;-31.95504528;-32.66017796;-0.861906383;25.63200926;7.216721564;35.16031284;15.47030887;0.000266413;7.610707577
39.18351655;8.450425629;34.46309859;-49.10977613;-1.772111975;-5.518113264;20.88928409;-44.82097309;-36.937947;-42.52322389;-13.05175108;-24.48709968;-1.342878638;43.06236028;16.79228024;44.48527344;16.92197305;-0.90503482;7.352748057
46.75101001;7.68575202;41.81119364;-51.26241773;7.592364032;1.271857995;21.89214281;-40.99217235;-25.40595733;-32.53998595;2.385501315;-14.40832312;2.36245035;42.16927532;27.49553752;40.85030134;17.73151038;-0.677241789;7.03537526
52.6543996;6.718979345;34.68494284;-36.27623544;14.45842226;5.968696013;22.46962278;-33.78950502;-18.37147239;-24.39462729;10.60410139;-4.579682618;10.4208696;14.3438949;36.35514886;26.83654405;17.80153725;0.319109963;6.688151418
55.11370891;6.497752198;16.29869892;-10.76889973;18.22003906;6.721940286;22.1944957;-28.93796372;-17.2528999;-19.21320429;12.65792463;2.518129665;19.95961039;-31.2773534;41.25765313;9.509778548;17.05291168;1.166885597;6.383113422
53.64336514;7.285149995;-5.948250439;13.91468812;19.27999008;3.710166736;21.35580065;-30.39016088;-20.17858121;-15.59674225;12.20561009;5.27676597;26.0481392;-72.5162197;41.76103982;-3.698515526;15.28548608;1.17143116;6.157001828
49.12385683;8.417703589;-24.56904347;28.07151871;18.50616541;-1.060189748;20.66543064;-36.0689014;-23.41622448;-11.01952035;12.45523255;4.241052084;24.13683737;-88.54941938;39.12103395;-8.613414948;12.33880399;0.429294223;5.983283205
43.20205394;8.913773246;-34.60566437;28.62614647;16.96904939;-4.835797294;20.61685305;-38.12548876;-23.63479943;-3.860323497;14.59795184;2.325035712;12.67572655;-73.64646311;35.51348509;-5.540532271;8.351981979;-0.301626339;5.817430727
37.3394489;8.369513066;-34.38649114;19.76393407;15.7952311;-5.518358226;21.08214142;-28.37652243;-19.40639414;5.484788366;18.31766794;3.348549772;-5.497799484;-40.34913792;32.85607257;2.040442018;3.781086784;-0.299257324;5.663291313
32.05052786;7.319957512;-25.45990868;9.337999485;15.81316582;-2.679605574;21.49243949;-5.381866209;-11.21470896;15.11183312;23.14787203;9.589662293;-23.83023361;-10.17776587;31.86571445;9.967798424;-0.917567014;0.485871821;5.591615556
26.79491081;6.740039063;-12.30902736;3.859509101;17.02181054;2.30809295;21.40285976;22.27178142;-0.502271886;23.11971169;29.08308757;20.05870959;-34.65124949;0.854979466;31.85574977;15.42635396;-5.65414044;1.407820271;5.691232406
20.60096764;7.151496886;-1.287085066;5.314180889;18.35223137;7.056305591;20.9021354;39.74551094;11.15517831;28.80980121;35.9960892;30.92204511;-32.65181522;-8.644593685;31.33762175;17.63329517;-10.73225598;1.704796474;5.995219707
13.02216649;8.157327184;1.886257676;11.26756007;18.17323075;9.417669947;20.49543374;35.07203613;22.18104673;32.70713867;42.7905824;37.97478455;-17.66753304;-27.44495417;29.02402094;17.35003906;-16.43831735;1.137066633;6.442774888
4.781031077;8.82389815;-4.679135217;17.36775775;15.42038924;8.550258501;20.59402868;7.697935379;30.81895057;35.63256996;47.49713766;39.43684179;4.683179102;-41.81468312;24.63319332;15.95369352;-22.5173524;0.121031394;6.904027998
-2.367294082;8.548221234;-17.36142623;20.17179078;10.58545119;5.262916442;21.10954116;-29.69531647;35.39920623;37.80933384;48.5092367;36.98713755;25.10546486;-45.23937623;19.06857935;14.69469684;-28.00951205;-0.709668;7.246611134
-6.515816911;7.60796343;-28.72655107;18.70587648;5.718039341;1.517409713;21.53793791;-57.96170201;35.23754801;38.79068817;45.90456234;34.25076142;34.74314205;-40.75787447;13.94168752;14.34024478;-31.6483273;-1.056955498;7.399415876
-6.699874588;6.893901583;-32.11130648;14.45205539;3.245936911;-0.608230526;21.44577974;-62.8227326;31.44582298;38.12405517;41.55207885;33.93092372;29.37180793;-35.66011123;10.75280584;15.10264228;-32.56680574;-1.098883642;7.379559671
-3.524330069;7.082397302;-26.05713633;10.33126145;4.339738757;0.042196882;20.88924705;-43.40037149;26.67736552;35.97343193;37.74124977;35.83688532;11.44580784;-34.26036285;10.16429884;16.72792424;-30.81972459;-1.133799889;7.274118778
1.067945589;8.016636264;-15.22328971;9.291931864;7.980829903;3.15293291;20.36385871;-12.31762318;23.60982905;33.03027013;35.44007813;37.31781882;-11.23110065;-35.00601278;11.6949433;18.70499777;-27.39490349;-1.152506042;7.188761235
4.758663741;8.863005643;-6.889411456;12.81772195;11.44873885;7.102336569;20.33128514;12.59181095;23.14630903;29.79968018;33.70915628;35.66159918;-29.56968637;-33.53837506;13.94712126;20.54605116;-23.7705597;-0.831383937;7.18699754
6.01047684;8.888402523;-5.593105848;19.70423938;11.94034737;9.745085376;20.77286954;19.28582255;23.77977401;26.00355185;30.83152708;30.45121622;-37.71094828;-27.97502552;15.26122468;21.98985177;-21.33214104;0.008969457;7.249960265
4.808184046;8.13514536;-9.987214623;25.81921534;8.237997793;9.450133171;21.19642622;7.931806017;22.77300359;20.76780735;26.19060717;23.96492958;-35.42014704;-21.22033349;14.5225326;22.9688018;-20.91822052;0.960968677;7.283334523
2.629582999;7.374103329;-14.28190247;25.57306623;1.35115795;5.924961708;21.09572699;-11.07920835;18.34390393;13.53139791;21.20195321;19.35538741;-27.13782743;-18.35166742;11.75479368;23.36499644;-22.56397604;1.146545399;7.175868089
1.679808951;7.388798167;-13.01634616;14.95254295;-6.180208977;0.433420341;20.43353377;-25.37890721;11.16459019;4.917065197;18.36998576;18.16399469;-18.60523144;-21.78345316;8.178540345;22.82664383;-25.41848069;-0.075555623;6.877246536
3.744933611;8.257028888;-5.340881778;-5.399061534;-11.73013305;-4.733696092;19.69290384;-28.87503826;3.988936874;-3.213090872;19.17529454;19.2237968;-13.44136927;-28.77559307;5.637658366;20.95285277;-27.90698495;-2.405514086;6.439443431
9.171864183;9.288072222;4.463259184;-29.2510883;-13.8103518;-7.325892324;19.44345108;-24.35056177;-0.268502768;-8.619405457;22.59478126;19.80863617;-11.81845048;-33.51625816;5.645594362;17.85655707;-28.28908658;-4.613205322;5.984374468
16.44752042;9.660276634;10.39406677;-47.25602046;-12.44224256;-6.232592801;19.823036;-19.34278342;-0.443302888;-9.819094749;25.63170303;18.0302641;-11.68400384;-31.8441745;8.574198809;14.68147126;-25.58192804;-5.402493152;5.618052854
22.64128287;9.160514197;9.185562545;-51.84088969;-8.729409015;-2.043962794;20.41578317;-19.22194427;2.449576643;-6.690267721;25.59026275;14.50433223;-11.12128134;-24.46632208;13.48164339;13.47719223;-20.41290507;-4.473477231;5.361278083
24.61664615;8.3468394;2.358752822;-41.59510837;-4.147931092;3.248911883;20.63867921;-23.04796957;6.429633057;-0.264733376;22.32671257;11.96052721;-9.818271737;-16.05934023;18.70329247;16.17718923;-15.11740841;-2.846696089;5.157657778
20.51309383;8.002624757;-5.414411262;-22.19987249;-0.031720121;7.273652831;20.27588902;-25.10312667;10.20192271;7.90239657;18.62078325;13.15922464;-8.624966152;-11.30651985;22.83267144;23.11694907;-12.68949886;-2.069535527;4.949012772
10.75712755;8.407459347;-9.967358833;-3.100942453;2.640371015;8.463540356;19.66456737;-20.31683576;13.80306553;16.20893486;18.25590683;18.79302058;-7.919508902;-11.38737093;25.45791005;32.07042005;-14.98462693;-2.890559612;4.737630943
-2.001006253;9.106606655;-10.32780822;7.98517191;3.346366686;6.764507113;19.36428043;-8.861525359;17.84911708;23.15172225;23.22366475;26.9742243;-6.523559323;-13.69656493;27.20476544;38.69583651;-21.29841328;-4.519292346;4.559367079
-14.08321879;9.380109212;-8.606464013;9.151847243;2.17662032;3.510339377;19.62604702;3.810447818;22.32501543;27.46536023;32.19718401;34.59497999;-2.38017774;-14.57094293;29.13999023;38.50437017;-28.43177741;-5.170939428;4.382410581
-22.49366458;8.952609866;-7.657627848;4.433164617;-0.041781167;0.610235582;20.16276994;11.31139961;26.23455244;28.58847748;41.44891568;39.41497731;5.400784028;-12.35247828;32.01852214;29.44339174;-32.43355209;-3.529317416;4.044512119
-26.16901295;8.264878788;-8.678082362;0.247538715;-1.900611415;-0.437289302;20.4362257;11.3123342;28.51770326;27.26190633;47.48528641;41.29525317;14.85237726;-8.246630358;35.88367167;13.59829426;-30.98153194;0.055139158;3.340149353
-26.06162273;8.049482952;-10.57385101;0.886324276;-1.969614871;0.826953016;20.18586342;7.085796737;29.3119706;25.56318949;49.34468846;41.78674867;21.44986089;-4.709602167;40.16336373;-3.183399326;-24.78014918;3.656500405;2.240541248
-24.10802675;8.615341712;-11.24365403;6.15273163;0.445152708;3.78258259;19.69253695;4.467177609;30.16979075;25.86403004;48.80208013;42.56663644;20.55344932;-3.249102385;43.99385764;-13.8432265;-16.96223132;5.139352938;1.07209471
-21.86461436;9.524817668;-9.450477471;12.41686943;4.789728607;7.143474484;19.51699984;6.869841481;32.74647249;29.09346144;48.4003014;43.98270555;10.43698225;-3.67054574;46.41532909;-13.64372682;-10.90491391;3.729365092;0.447354391
-19.75080661;9.979943822;-5.771773256;15.8250628;9.372611879;9.516396996;19.95045276;12.46938392;36.96611809;33.55940455;48.9590526;44.73473965;-6.236539744;-5.092543306;46.37430504;-2.77592675;-8.036894648;0.54097955;0.905680526
-17.30521792;9.565455454;-2.085735774;15.08026867;12.11656025;9.87011708;20.69618102;15.76115262;40.37285995;35.52351077;48.63767845;42.81422225;-23.61047618;-7.312922749;42.8163366;13.50683746;-7.202116487;-2.328602058;2.474993949
-14.05447302;8.653470325;-0.17005127;11.90655463;11.57754414;7.85156154;21.09805412;12.08221192;39.54391759;31.54326215;44.41051213;36.97882174;-35.76742999;-10.97210566;35.16297906;27.47007813;-5.939371323;-3.366090094;4.497175936
-10.16148974;8.082180795;-0.427726833;9.259249633;7.687568923;3.956551111;20.7256761;1.371429886;32.69873122;21.11785721;34.88860974;27.79136129;-39.76828278;-16.38784304;24.06;32.8745372;-2.576464626;-2.605855466;5.922146456
