Channel 1 - P4;Channel 2 - O2;Channel 3 - P8;Channel 4 - T8;Channel 5 - C4;Channel 6 - Cz;Channel 7 - Fz;Channel 8 - F4;Channel 9 - Fp2;Channel 10 - F8;Channel 11 - Fp1;Channel 12 - F7;Channel 13 - F3;Channel 14 - C3;Channel 15 - T7;Channel 16 - P7;Channel 17 - P3;Channel 18 - O1;Channel 19 - Pz
136.8542912;103.5773829;149.7689551;167.7051366;58.10458674;-12.21920557;-82.35957024;-70.35846181;-84.28952121;-17.32716107;-7.390165261;73.08712285;-71.88347121;-48.51595759;-0.798404594;78.66463187;79.6697775;33.04577296;-10.09063066
93.23267989;109.3084078;128.3360308;122.2394183;39.24961083;-28.23501157;-78.67833045;-66.18951792;-87.408011;-31.41;-20.2969819;47.80066089;-89.09901827;-64.06680353;-15.47046169;57.0190521;45.34467507;-6.835184184;-30.91561772
20.4367654;68.93525571;59.64573451;42.70855593;9.203476849;-31.71707852;-48.14143964;-32.58320543;-55.8760439;-27.26365778;-19.85639977;7.195616725;-66.74064401;-61.58238183;-18.30891029;13.29634816;-1.484462858;-38.37923094;-35.83256875
-34.26788354;7.158770445;-14.79169298;-22.84221248;-13.17589005;-21.73967682;-12.5646583;10.09929506;-9.433043385;-8.08468554;-7.574108433;-25.26110208;-22.02078801;-44.68731797;-8.209140015;-26.36686593;-33.8681387;-43.7811491;-21.57372595
-39.18419824;-39.71831428;-52.15095064;-39.2490447;-16.7377432;-6.278636242;5.832340506;37.47771325;23.02060879;12.38737976;7.505805984;-34.17655114;15.17708159;-25.20927563;6.867727118;-41.00187789;-36.88445038;-23.9952478;2.039591952
-0.678292907;-48.87488881;-37.78549381;-7.68920308;-4.593660207;4.1974699;-0.492806109;38.35600595;24.98784609;21.77969496;15.27410061;-21.20856284;24.57452652;-14.31170955;16.92234497;-28.45491741;-16.14977958;3.482772838;19.40342746
43.48620161;-24.9424525;6.467858159;37.76530507;10.26270929;4.576927824;-21.07936393;21.1430441;3.307134882;18.95614593;11.8180931;-1.038359019;8.546351758;-14.90112932;17.8684564;-4.609796865;8.788107566;18.59536491;20.34091845
54.09774639;6.649203076;40.53192487;56.89878301;15.88374263;-1.820708745;-37.43052371;5.250827509;-19.26133793;13.40936803;1.875508091;11.27428718;-12.99664602;-20.79036164;13.91228584;10.1969527;20.02789121;13.26883038;6.756252901
19.96530036;20.45115217;36.15056364;32.61673064;9.884724573;-7.056389059;-37.65962822;5.135024325;-22.89911047;15.28341653;-5.356333444;11.06524257;-20.13568102;-22.75920208;12.8591083;6.390454035;13.51135417;-4.392055501;-9.889990193
-35.55974631;9.233992371;-4.053616192;-18.82898274;-0.615942244;-5.721148622;-24.34062004;19.87267525;-5.657947877;25.49524838;-3.644598308;5.047723961;-8.101325797;-16.4148477;18.79547891;-9.540039063;-0.789425857;-18.4430491;-17.71991361
-74.58367764;-13.66940981;-51.64750619;-62.652282;-6.407586891;0.648072085;-10.33164009;35.8730656;16.86908852;35.11860704;5.527711456;3.140916529;11.36166918;-5.630574869;28.49372609;-22.58766792;-9.250163291;-18.32203981;-12.85251252
-73.98467627;-27.88798898;-75.62215373;-72.28611059;-4.02407931;5.38558321;-7.168031317;39.35312564;25.70499583;34.53225446;14.5287809;9.023350271;21.79358117;0.931145298;34.37548705;-22.33803649;-6.077025474;-6.221888751;-0.952406058
-40.78641543;-23.1158941;-64.72848889;-47.20878421;2.452248667;2.898058002;-15.98782583;27.75164636;14.21895086;23.65101503;15.97538535;17.45897789;16.01247632;-2.825305488;31.20190312;-10.72698515;3.3335805;6.471411209;8.419346798
-3.046255503;-5.979565339;-32.46118117;-9.679390299;6.346783804;-6.186176992;-27.92558369;11.05412078;-7.212505594;13.23814624;8.66357591;19.97315107;0.843055031;-15.19020746;20.69733809;1.113692518;8.793540318;9.572865989;9.47352808
14.14445749;7.580749535;-3.250268298;14.63190828;5.029686855;-15.27381011;-32.60010177;2.888542418;-20.53780816;15.24730744;-1.700302413;13.20827076;-10.08453358;-27.67632733;10.35527243;3.152677355;4.955192764;2.179731505;3.777186752
7.072769845;6.596005246;7.043376575;15.53728283;2.160168497;-17.15646992;-26.89330945;9.466483978;-14.8985928;30.40604714;-7.340676173;2.373332823;-8.155701696;-31.40735695;7.674360719;-5.296525063;-4.343996927;-7.857793511;-2.402867088
-7.733475417;-6.396630607;0.584679134;2.591911002;3.783653476;-9.907745058;-16.75521809;25.39212047;5.222849448;44.57189334;-4.694689277;-3.125874033;3.976749432;-23.77680322;14.66820904;-15.99259299;-10.25034694;-11.64685092;-3.969981757
-10.88352563;-19.00536928;-8.674567104;-6.327152244;12.11308599;1.528782091;-11.24097537;38.94816373;24.53192652;38.42310273;2.983001928;2.120230636;16.08192454;-10.23182961;26.84969833;-19.64751563;-7.24060177;-6.909214034;-0.909224076
2.572535469;-20.52690294;-9.252637152;-0.849438489;22.77468417;9.220500985;-14.53403558;41.62473911;29.50100874;3.492487608;8.613070946;14.67330962;19.62345478;0.000770705;36.95418963;-13.94383684;1.962424413;0.866245519;2.641730008
20.53060712;-10.89915109;-1.378622063;14.79599708;28.08369177;8.287784082;-22.87084867;33.91316671;18.37746;-48.62070243;7.193794692;24.84072041;14.21986079;0.724141124;40.01057989;-4.886627871;9.026457098;4.08331591;2.685669735
26.6929076;0.276523559;5.713831483;27.72113721;23.53064943;0.25848988;-28.52571257;23.40319686;1.044881347;-92.20628094;-0.282841356;24.42286204;6.389507925;-7.135319003;35.91545292;-0.906326287;7.509142865;-0.036007611;-1.061719585
16.29686395;2.917235899;4.220804411;28.52007813;11.84671224;-8.652700518;-26.82954568;17.89983272;-10.00213988;-104.806124;-7.923968165;13.12592177;2.848128738;-16.96930708;28.28656444;-5.348748255;-1.550459699;-7.400546369;-5.289431059
0.511160839;-4.734600933;-4.468821238;18.69984755;1.127887198;-12.54555978;-19.94245242;19.7871723;-9.383789976;-82.83777625;-9.848490124;-1.468727999;4.914529779;-21.85271904;21.39247454;-13.9313996;-10.72391069;-11.2536181;-6.372886023
-3.932214067;-15.24206464;-11.50478602;7.934953212;-1.423950126;-9.942753622;-14.39613014;25.75107306;-1.509299523;-43.51142228;-4.745144503;-10.00318033;8.644739243;-19.40777199;17.81660172;-18.99088917;-12.73604501;-8.421547987;-3.629540444
9.817535494;-19.17745702;-9.378344299;4.932655614;5.044861455;-4.017791177;-15.02882683;30.83484584;4.869555441;-11.87537199;3.500456038;-8.322081571;9.60759172;-12.62224056;18.00347513;-16.36736359;-6.596060261;-1.905527611;0.290931366
31.94499129;-13.53854593;0.874601362;10.52169394;14.75240536;0.616865808;-20.86123347;32.47217885;4.539153896;-3.350396104;9.237500936;0.120753828;7.231858446;-6.621913138;20.90205923;-8.786914614;1.890724216;2.24995255;1.957538263
43.58728713;-3.95290121;10.67996756;18.45163574;20.12478533;1.491871648;-26.37022762;31.1999559;-0.749360671;-15.03278245;9.402930669;7.771258482;4.758772324;-4.522928448;24.50062173;-3.051078809;5.356116552;0.645386823;0.165132839
32.08411712;0.835006421;11.84693011;21.99122586;17.60579589;-0.605968422;-26.66738993;28.52351563;-5.451409139;-31.34957497;5.24741119;8.99722484;5.446715828;-5.726397753;26.15439754;-3.886473921;1.076425236;-4.503028128;-3.249301679
0.975303666;-3.139523134;3.870224676;19.68569287;9.806342263;-3.302326428;-21.77586108;24.97449203;-6.153188781;-38.07285184;0.429922474;3.730009766;9.168378398;-7.499376971;23.55199598;-10.01325347;-7.14100587;-7.66729706;-5.276316101
-33.06256484;-11.86181501;-5.96886544;15.38887085;2.699733544;-5.022237711;-16.30474114;20.48468065;-4.483536897;-32.80799962;-2.407312558;-3.598661376;12.7459657;-7.828750893;16.55516835;-15.69506449;-12.65950065;-5.268519064;-4.40554156
-52.9402479;-17.36134762;-9.421595433;13.56922257;0.653594037;-5.838054759;-15.09821538;16.15543673;-4.671901874;-24.21740385;-3.464640976;-8.134375657;13.40408863;-6.807395568;8.530277161;-16.04933593;-11.73852259;0.999452072;-1.705572434
-52.68088243;-14.98843979;-4.496327084;15.07935215;3.493833907;-6.389447862;-18.94256969;14.72212305;-8.631775851;-22.24698261;-4.669111443;-8.001901703;11.63646287;-5.609481997;5.190877696;-11.23404187;-6.284539128;5.750257787;0.448783492
-39.08092586;-7.342196399;3.413087503;17.38151818;7.61595316;-6.452002355;-24.11624709;18.42760791;-13.59509914;-28.76350282;-7.05623316;-4.660577688;10.54782327;-4.557920883;10.67890752;-5.930810882;-1.587227107;4.830613192;0.621766623
-23.88594135;-1.570752557;7.080931761;18.29032162;9.577384358;-4.919938002;-25.95220911;26.15585855;-14.62874351;-36.59588346;-9.342143838;-0.80647687;12.43299263;-2.55237191;23.49226362;-4.897021284;-1.47675152;-0.939090006;-0.558434122
-14.39547573;-2.790827774;4.152423505;18.70963801;8.781305006;-1.319293711;-23.02610118;33.14132384;-9.569349281;-36.92964382;-9.078360129;1.780711965;16.22038131;1.431450913;36.07796754;-8.75944675;-5.334282356;-6.549346614;-1.272124233
-10.24834935;-9.650704556;-1.243470883;21.10816971;7.150306675;2.807457116;-18.22384795;34.49308;-1.557201221;-27.72557897;-5.237134175;2.732908016;18.55138589;6.359083942;39.61408836;-13.7411131;-9.349023512;-7.302646882;-0.371456047
-7.431469132;-15.84703015;-3.109752696;25.22;6.627767659;4.403171152;-15.91952189;29.86064936;3.424271584;-15.51574954;0.333540337;2.269103988;17.51237533;9.007719713;31.03498928;-15.30827219;-10.43643644;-2.920304051;1.57137128
-4.057934101;-15.94309581;0.358690568;25.84428271;7.177350097;1.291205767;-17.99029769;24.67253428;1.913292882;-9.333749145;4.139162114;0.596001108;15.12123785;6.389278142;16.54683702;-12.25634487;-8.985641194;2.387699242;2.923548957
-1.959679231;-10.11853226;5.228169362;16.07454296;7.151707496;-5.50253669;-22.28111731;25.81348115;-3.646929151;-12.61363884;4.019802066;-1.634071462;15.61631772;-1.148712394;7.7779311;-7.576172146;-7.984812926;3.82922022;2.598116681
-3.313198095;-3.705830847;6.20309276;-5.986356709;5.434311704;-11.75046742;-24.75703806;34.66925441;-6.725241072;-20.39278073;1.254812493;-2.61326791;20.70402149;-9.08423394;12.49431122;-5.523604272;-9.610058594;0.316227606;1.027471455
-6.786427884;-2.201788792;2.501882418;-33.02701687;3.031463738;-12.77973296;-23.22657243;43.64102917;-2.307582491;-24.08324551;-0.191903894;0.130585776;26.30529828;-11.45007813;26.93;-7.734243624;-12.7132148;-4.689956404;-0.36705265
-7.884661101;-6.416994774;-0.727727167;-51.54863045;2.385346714;-7.016766164;-19.22333565;40.19702581;8.551963877;-19.26333354;3.173018818;7.755425025;24.55575652;-5.357281266;36.56564577;-11.91690644;-13.69652475;-6.413489729;-0.60497048
-3.421086039;-12.05934129;2.839183596;-50.85499916;4.949443699;2.513516569;-16.45080634;16.42036658;19.23692351;-9.482722304;11.37821042;18.1986868;10.2140748;6.302870449;26.05576243;-14.15281909;-9.99898461;-3.070683274;-0.053346218
4.613049356;-13.87986901;14.11349773;-31.23707848;9.333776239;10.06638473;-17.35131196;-23.17239132;22.77574006;-2.914099633;20.64428197;26.44444745;-13.73687629;16.43346814;-8.517744981;-12.53316815;-2.911465425;2.613869858;0.04221033
10.22292841;-10.43676302;26.56;-4.533667441;11.92470729;11.10466281;-20.96814665;-62.32800445;17.36422932;-5.116412241;26.00374749;27.47374236;-36.51360897;18.67306762;-54.59545142;-8.780351981;3.007571471;5.938041591;-1.09858274
9.033108458;-5.181991186;31.12903535;13.90590788;9.67433055;5.332716818;-23.96093524;-82.79932466;7.612144428;-14.40345669;24.78663983;19.95028065;-46.44924209;11.98734285;-89.9864798;-6.487004329;3.561810712;4.421644168;-2.900629078
2.978005753;-3.081573405;24.07402909;15.86306627;2.751477638;-3.35548361;-23.71584615;-76.41258564;0.639409676;-23.66689231;18.25768697;7.650994582;-39.30196795;1.351474842;-97.31947202;-7.73401957;-1.545413091;-0.1026419;-3.867216646
-0.910557119;-6.027946096;10.61955589;5.301987237;-5.239146127;-9.771215243;-20.6563775;-50.47098089;0.479778692;-26.63858992;10.30738106;-2.812838935;-21.33676953;-5.976231094;-75.70309697;-11.23953794;-8.372454709;-3.282626134;-2.936572698
2.952656995;-11.23930477;0.903429972;-5.870699688;-9.743684365;-10.83667156;-17.70965086;-22.3354265;5.468067981;-22.84840455;4.493327539;-6.463733736;-4.603549726;-5.631236716;-41.00106271;-13.66330934;-11.91217324;-2.194687122;-0.494271195
12.86463155;-13.96306757;1.519963663;-7.595983593;-8.481652622;-7.05779699;-17.53740464;-7.260945512;10.48839006;-17.10948625;1.876666076;-3.216276745;1.869721467;1.200931777;-14.61610785;-12.75101677;-10.05059757;2.126581706;1.889990449
20.64590257;-11.85972109;10.0956669;0.954309996;-2.892745796;-1.387961743;-20.13266033;-8.648660993;11.74116448;-14.52385952;1.157574516;2.568742755;-1.993821136;9.420244046;-9.239031833;-9.374926372;-4.984020667;5.757418188;2.746856387
19.05694258;-7.031668415;17.79126068;11.97191802;3.157674733;3.163441742;-22.94325409;-17.74257795;9.743785956;-15.92012049;0.558759034;5.741601419;-8.703944345;14.22451172;-21.94740069;-6.640369682;-1.058892314;5.461811646;1.849563945
9.239792857;-3.949988459;17.56696244;16.39271111;6.165220642;5.185148268;-23.30737782;-22.25099824;8.154786956;-17.85759368;-0.432357522;4.192373013;-10.24630751;14.33858421;-38.97215764;-6.970721485;-1.08104073;1.511506959;0.241783036
0.844438692;-5.310883525;10.76248277;11.50172684;5.024458723;4.846049845;-20.89808996;-16.54253195;9.850815271;-16.81728855;-0.921416607;-0.15208726;-4.665206604;11.91364723;-47.41019181;-9.90321482;-4.29693448;-2.707195404;-0.763274475
3.741678841;-9.653361156;5.870448813;2.557356014;1.009025943;2.862578352;-17.95214001;-5.362544509;14.02201429;-13.26309919;0.104233234;-3.649386232;3.107446811;9.779646481;-44.36033918;-12.59589782;-7.572502751;-3.805009969;-0.62748432
18.14031674;-12.83616393;10.30803656;-2.350154129;-3.766662342;-0.225142104;-17.15190322;1.273573939;16.91345625;-11.51328917;2.490541393;-4.299688517;6.301271875;8.863781218;-36.91492187;-12.50818866;-8.411671537;-1.341791347;0.230227003
32.21978705;-11.89971028;22.43855401;0.657766465;-7.788748011;-3.847779534;-19.16725578;-2.868918042;15.41177005;-15.45750798;4.88464657;-3.205839061;2.436519179;8.048867537;-34.27666122;-9.741354426;-6.975119977;1.980541365;1.11297892
30.47276707;-7.725644297;31.26413727;8.336766818;-10.39175384;-6.853979807;-22.1058092;-14.96154206;10.10777265;-24.20068946;5.885018111;-3.099749843;-4.788029934;6.220078125;-39.37102381;-6.898205462;-5.406304425;2.909916592;1.775263166
6.608895459;-4.117098969;24.75485825;13.635145;-11.126674;-7.636406087;-23.31060129;-25.71146288;5.009899993;-31.93359173;5.173675277;-5.550058594;-9.123777867;4.157587978;-46.91505683;-6.641383688;-5.36139667;0.57195753;2.460267523
-29.71513501;-4.249742204;0.200284007;11.97133572;-9.411757889;-5.218042981;-21.79540112;-27.23258121;4.143447938;-32.50832988;3.538294628;-9.501264837;-7.342859273;4.191962582;-48.85760513;-9.231818695;-6.247801561;-2.888349454;3.323344218
-58.54530676;-7.801689696;-32.13997217;5.018387743;-5.127370308;-0.421035186;-19.08228169;-19.40980689;8.047242398;-24.83468579;1.852653413;-12.39391646;-1.758357719;7.83430947;-41.85966542;-12.30176351;-5.877871179;-4.397915605;4.009778527
-63.74767995;-11.35075762;-55.51179975;-0.930596636;0.44216026;4.131253832;-17.72958837;-9.618285629;13.22879863;-14.29335312;0.120110615;-12.67026194;2.277833988;13.71140008;-30.23211685;-13.03431187;-2.869178928;-2.759915942;3.976287374
-44.52129945;-11.57890856;-58.40696445;-0.237677205;4.583864989;5.551449477;-18.96179277;-6.405952426;15.01132703;-8.744021755;-2.413060006;-11.24047553;1.338528663;18.03541453;-22.13169345;-10.72558941;1.577849099;0.380587084;3.265409158
-15.22361884;-8.285586521;-42.40339883;7.698963323;4.619060514;2.75153497;-21.58697727;-12.62700195;11.29447044;-12.38519862;-6.180962467;-10.54230792;-3.190204349;17.54319365;-22.70252668;-7.396124702;4.342583876;2.172938649;2.792843216
6.037232626;-4.475053268;-20.17138636;18.23768529;-0.048217406;-2.604626254;-23.14988669;-23.58488759;4.088540645;-22.56952203;-10.38292384;-12.11941235;-6.679304715;12.4442263;-30.15315504;-5.933453641;3.026865901;1.175572599;3.556819591
10.56673503;-3.526382621;-5.65444081;25.00600148;-7.038677929;-7.128195206;-22.20509205;-31.28456682;-2.279702589;-32.12224386;-13.26064459;-15.02890024;-5.563359493;6.671608376;-37.81029015;-7.493660326;-1.775222388;-1.472607994;5.304305645
3.583799388;-6.111210949;-4.426149033;23.89832749;-12.29595672;-8.021720486;-19.60777676;-30.88975741;-4.566585918;-35.06333072;-13.45520042;-16.61087812;-0.374512836;4.967484808;-39.9133987;-10.52043379;-6.692732937;-3.304039114;6.003058305
-2.666348323;-9.677317563;-11.47840871;14.65432059;-12.84309571;-4.959894532;-17.67557698;-24.06702196;-2.751097977;-30.94628412;-11.23448631;-14.96371165;5.056802251;9.115655183;-35.98876183;-12.22374171;-8.218004118;-2.908999421;3.032149102
-0.364621071;-10.89442197;-17.22019229;-0.268693648;-8.943584868;-0.167210801;-18.04681397;-16.92388061;0.577485374;-24.48974399;-8.413133759;-10.89198755;7.164988259;16.47037172;-30.36149928;-11.12086294;-5.555373926;-1.184219775;-4.496846394
7.927046463;-8.739298126;-15.92808268;-17.6037123;-3.937921868;3.248483622;-20.2230925;-14.82672884;2.609019319;-21.29916642;-6.965542248;-7.553333576;5.524422376;22.0298171;-27.84;-8.322628077;-1.247068649;-0.325638772;-14.1561434
13.35788156;-5.371299829;-9.620915759;-34.12936821;-1.805431747;3.357452979;-22.10158057;-18.60115694;2.199891333;-23.57080035;-7.563754196;-8.072744239;2.536949564;22.30837416;-29.72620518;-6.443472611;0.949178488;-1.599111891;-21.00327715
10.38130958;-4.044911942;-4.898227994;-46.48987038;-4.284856101;0.385170069;-21.94925039;-24.88874221;-0.144433245;-29.19713758;-9.367278844;-13.15163923;0.623073355;17.79768672;-33.48855776;-7.188056487;-0.87867245;-4.046302751;-20.63939126
2.679322388;-6.046119026;-6.362377082;-51.41462165;-9.708726801;-3.857034885;-19.97140106;-29.63564047;-3.584943275;-34.39475115;-11.21295236;-20.62313792;-0.081032182;12.13104681;-35.78752875;-9.829610091;-5.341090964;-5.359702196;-12.43579819
-0.059981863;-9.500798338;-12.63505108;-47.22828114;-14.32901509;-7.34200034;-18.05158215;-31.25620096;-7.819262048;-36.99306366;-12.98780204;-27.1493582;-1.241443023;8.950652459;-35.58859003;-11.92561441;-8.998431414;-4.093869059;-0.400901958
8.456529587;-11.1327768;-18.05834074;-35.67802737;-15.00055196;-8.855772128;-17.95485851;-30.87095672;-12.53199983;-37.43829316;-15.7396881;-30.47054607;-3.728476818;9.331439933;-34.44942149;-11.55952471;-9.129684962;-1.116641563;9.215576887
24.12760225;-9.316644104;-17.96124516;-22.02294167;-11.18728668;-8.143510256;-19.68874038;-30.04274679;-16.24359035;-37.13869544;-20.28379184;-30.38016939;-5.807578815;11.83583678;-34.11647856;-9.045123826;-5.679870519;1.086295132;11.98538664
34.36321111;-5.596994007;-12.5504132;-12.41800033;-4.98746403;-5.521661452;-21.52967918;-28.7006037;-16.29694267;-36.36714104;-25.61980255;-27.98766087;-4.312979792;14.68733734;-34.24;-6.580866916;-0.937004737;0.635316009;8.074726429
27.64156986;-3.283989108;-6.218138457;-10.07536394;0.508139422;-1.629410607;-21.65656655;-25.44614331;-10.72383559;-34.09709403;-28.88116845;-24.4169841;2.033004173;17.62295869;-32.75601927;-6.236926988;2.499270516;-2.036632724;1.706724448
2.891711982;-4.431597297;-3.374945149;-13.17782997;3.085362058;2.459949053;-19.85391688;-19.83756992;-0.678822144;-29.89010929;-27.27477333;-20.35978013;10.41107366;21.51796005;-28.62647232;-8.141998108;3.5752138;-4.570087891;-2.175799774
-28.92904297;-7.975198829;-4.79161397;-16.43540626;2.237360866;5.193926404;-17.71102751;-14.11472507;8.96747936;-25.62255377;-20.57315252;-16.69853784;15.39724593;26.31512007;-24.02247627;-10.48395796;3.016588548;-4.807739064;-1.4296403
-52.17430292;-10.72042484;-7.519732663;-15.24085466;-1.21031816;5.081812913;-17.15340282;-12.22;12.14639696;-24.80040718;-11.93053159;-15.05302493;13.38969934;29.72306546;-23.29786571;-11.23863729;2.106363208;-2.71862621;2.211799051
-56.79970331;-10.25721518;-7.967267093;-9.127970797;-5.911489985;1.728568179;-18.67769631;-16.54384682;5.871955593;-29.56950117;-5.980388575;-17.05509262;6.181409869;28.57994837;-29.12181393;-9.985493958;1.415623488;-0.369608474;5.085073028
-43.85864497;-7.129187406;-5.006695942;-1.73761852;-10.46809418;-3.445072264;-20.91190003;-25.18547844;-6.927330378;-38.028162;-5.462629305;-22.57107663;0.142512758;22.09218312;-39.12735544;-8.163191865;0.683223505;0.004954866;4.764626054
-22.94156958;-4.296591497;-0.401219054;2.574813335;-13.49028441;-7.636780118;-21.88297393;-32.42713807;-18.56165967;-44.610832;-9.064347061;-28.57714729;1.088804826;13.88331378;-46.48402038;-7.609980262;-0.277083512;-1.953482613;1.849504882
-4.74357582;-4.414995051;3.37265689;2.511940497;-13.76346165;-8.267392994;-20.8069927;-32.51716527;-21.34862743;-43.79603589;-12.38365077;-30.32679225;8.860906532;10.2988762;-44.61816667;-8.80906891;-0.826814577;-4.443183731;-0.900740267
5.086836259;-7.428462221;5.466458759;0.737590405;-10.86254371;-4.740381806;-18.76191842;-23.96676866;-12.75141963;-34.38052544;-11.43943395;-24.59381564;16.36968109;15.60574349;-32.56948969;-10.47499296;0.124112926;-5.214790072;-1.102034311
7.01525901;-10.65577145;6.931447013;1.211217066;-5.838561239;0.974078308;-17.6548861;-10.91748636;2.843365771;-20.79231892;-5.978932832;-12.66447376;14.47121046;27.87441244;-16.51977255;-10.82109378;2.895562632;-3.680565563;1.293569964
4.595662652;-11.25472367;8.994813983;5.391729581;-1.162621015;5.493470088;-18.46361055;-0.366299415;17.04684458;-10.18692268;0.149001708;-0.399595483;-0.803425306;39.4190201;-5.870261391;-9.279420873;6.239298156;-1.463560367;4.179348464
1.112118674;-8.79417803;11.40561847;10.73109708;0.472726001;6.18981073;-20.37230363;2.685154781;22.98921408;-7.48925989;1.990836673;5.285367468;-24.35613139;42.18438384;-6.610322312;-7.055699144;7.967719141;-0.874678235;5.264682086
-1.509067218;-5.600549652;12.66436153;12.86150625;-2.107957039;2.86242795;-21.56958337;-1.524851829;19.51613328;-12.19282457;-2.453624859;1.25664409;-44.77296047;34.14633309;-16.98414548;-6.020304999;6.67922857;-2.718376674;4.01607354
-2.019485127;-4.600299536;11.84884457;9.637097742;-7.565993976;-2.231585806;-20.93949809;-8.21827058;11.26326412;-19.23789533;-10.35564786;-9.313457073;-51.87229825;21.42623933;-28.73416361;-6.990940533;3.110453815;-5.454598665;1.93026795
0.479072735;-6.655234412;10.00854722;3.530029297;-12.71479806;-5.933996904;-19.07598902;-11.93053793;4.908829074;-22.99917653;-15.93162167;-18.86256186;-43.45196594;13.93851954;-32.91014589;-9.006688907;-0.179775517;-6.514156546;1.051940654
5.628336015;-9.815478987;9.501795489;0.202026673;-14.55237968;-6.178582574;-17.70374275;-10.393087;4.54084666;-21.1207046;-14.6859449;-20.60294611;-26.30331613;17.68528674;-25.86795224;-10.24543464;-0.684507946;-4.601922359;2.151537075
11.04723694;-11.13664654;11.78388283;4.216334713;-12.25978585;-3.092485186;-18.06811921;-5.589057955;9.359879605;-15.43812091;-6.793648559;-13.21666895;-11.03539744;29.87600258;-11.23370959;-9.704748851;2.122680293;-0.913667712;4.157411584
13.5101781;-9.371404188;15.84563519;15.18033131;-7.715502188;1.352121322;-19.79233373;-1.580314436;14.91895447;-9.84541167;2.904025955;-1.67030836;-4.87715259;41.07462155;3.094093512;-8.079060675;6.416761763;1.839791731;5.233593359
11.77644704;-6.079758425;18.98714694;27.2696509;-4.162018954;4.668600296;-21.24443834;-1.201422572;16.53147494;-7.308282594;8.193227443;6.3499944;-7.772671482;42.90614532;10.21737601;-7.042900299;9.513300854;1.743801615;4.442262011
8.411854884;-4.176652345;19.31976129;32.50306528;-4.023104441;5.199180029;-21.0529972;-4.272406656;12.27248844;-8.406206033;5.553267675;5.672038373;-14.09398922;35.08554093;7.951781682;-7.644217445;9.949806018;-0.718023335;2.499166081
8.175816187;-5.276280917;17.57362246;25.4685695;-7.433123498;2.758861071;-19.36220658;-8.384626957;3.769784407;-11.990116;-3.887510901;-3.207065917;-17.84003906;25.76266398;-1.030637096;-9.325131227;8.423268842;-3.168337495;1.025788614
13.68795307;-8.261796989;16.33032463;6.43382407;-12.40637631;-1.508917504;-17.67906695;-11.12914634;-5.212157326;-16.65367423;-15.58873588;-14.9972345;-16.89252644;24.4899135;-11.75341911;-10.47596473;6.897444653;-3.463879276;1.059499264
22.22919171;-10.35656495;17.30650029;-18.81970509;-16.32067986;-5.731738564;-17.47457803;-11.72540705;-11.04401029;-21.43060765;-24.73197698;-23.43966988;-13.33232949;33.31751356;-19.77963017;-9.981401185;6.790869249;-1.543349563;2.188540252
27.25281602;-9.680386381;19.38382381;-41.90025918;-17.53118442;-8.030209931;-18.84020661;-10.93200686;-11.91545043;-25.42732208;-28.86282926;-25.11510508;-10.4079803;43.46831675;-22.6373442;-8.292634405;7.882250192;0.613162169;3.045222023
24.10656538;-6.941368548;19.57474799;-55.56040197;-16.06349577;-7.220039063;-20.42920027;-9.81154326;-8.309441567;-27.43698347;-28.47672255;-20.79435122;-9.333368353;40.91831121;-19.86169831;-7.013229715;8.816432081;0.813168753;2.641429201
15.09750055;-4.737736091;16.29780985;-56.50299074;-13.19729305;-3.391173825;-20.71566275;-8.785719377;-2.477001104;-26.52956363;-25.76810687;-14.04697745;-8.689748028;17.13066073;-12.67203049;-7.385294676;8.595312021;-1.400832421;1.296828122
8.72325816;-5.143273859;11.80686718;-46.34389539;-10.54346407;1.894512732;-19.39731844;-7.801498851;2.602787608;-23.28360773;-22.94966652;-8.707972288;-6.520796696;-23.19911635;-3.82513175;-9.096807143;7.574885636;-4.398962846;0.318336344
12.62104305;-7.805174377;10.94640897;-30.66494943;-9.339071714;6.104655452;-17.65566491;-7.11293717;4.428603133;-20.21493579;-21.34875211;-7.061706626;-2.787041815;-63.6143935;2.843744426;-10.53732957;7.025926413;-5.947281793;0.737195389
25.74413363;-10.28717465;16.63145334;-16.55593392;-10.20967407;6.945831944;-17.05384377;-7.532960858;2.0752418;-20.39157184;-21.41716245;-9.450933188;0.25276332;-85.96111772;3.864333044;-10.28248878;7.718487409;-5.138838143;2.261375407
36.96546929;-10.32111438;25.8122606;-9.451256269;-13.15370295;3.727748585;-18.10190586;-9.648690385;-3.239919345;-24.95917574;-23.00324302;-14.77214518;0.072375011;-81.9333786;-1.792317;-8.439124962;8.940584854;-3.053432098;3.412615942
32.56711016;-7.889805833;29.97836284;-10.5769027;-17.46652788;-2.006127786;-19.80532155;-12.73762331;-8.604218871;-31.67183264;-25.38450858;-21.05022351;-3.606780229;-57.88899035;-11.51461525;-6.598584105;8.973579758;-1.638569753;2.771926002
7.459286683;-5.235475289;20.80379035;-16.48034632;-21.68249515;-7.16484116;-20.59113236;-14.67025631;-10.93646063;-36.03733446;-27.2573685;-25.9032534;-8.168990742;-29.7861218;-20.12384293;-6.420538492;6.677039727;-1.914593256;0.274845046
-28.96441801;-4.796912793;-2.968195649;-21.28120749;-23.88879771;-8.845547201;-19.7415709;-13.29720008;-8.875868872;-34.5455038;-27.21319873;-27.25381357;-9.988022221;-12.32269779;-22.9845254;-8.129677304;2.749185712;-3.156517368;-2.575382515
-57.83828346;-6.971037186;-32.95452499;-20.55698315;-22.57164287;-6.062926851;-18.01966222;-8.362853746;-3.804560399;-27.49800323;-24.74779626;-24.39616828;-7.273254408;-10.2312927;-19.0839162;-10.29430995;-0.560196302;-3.74013245;-3.814975373
-63.60101349;-9.74671322;-55.51614498;-14.34348004;-17.61489081;-0.336331887;-16.93640408;-2.247243871;0.862316893;-19.04025621;-21.04916253;-18.77669301;-1.492671979;-17.47433889;-11.70694394;-11.09152018;-1.161554718;-2.788807016;-2.580219791
-44.8866133;-10.54251434;-60.37765938;-6.981681553;-10.71193223;5.254209012;-17.36091675;1.379038207;1.828749748;-14.20582243;-18.62405018;-13.55582882;3.782906757;-23.85131463;-6.047632894;-9.916019131;1.146622366;-1.048566437;0.146281828
-15.0442097;-8.567613059;-47.27962509;-3.708599918;-4.698838128;7.896389989;-18.75842484;0.163592461;-1.893110829;-15.27742791;-19.65284697;-11.77596141;5.62383266;-23.24493335;-5.514033132;-7.887688028;4.415374673;-0.17395345;2.245090291
8.039821334;-5.548418738;-25.77479055;-6.472784356;-2.063621758;6.560801952;-19.73570945;-5.072269594;-8.304193753;-20.36408744;-24.17;-14.24092696;3.847991926;-17.27425503;-9.55500448;-6.821091979;6.009562008;-1.100408057;2.120078125
14.67179128;-4.151651313;-8.429179872;-12.28342721;-3.54833884;2.319284313;-19.35885587;-10.78807905;-13.75644374;-25.23377258;-29.60864798;-18.7931906;0.89310404;-12.36723508;-14.6;-7.608866425;4.6074325;-3.030837094;0.040966262
8.729289648;-5.531781255;-2.580664467;-15.53344269;-7.774654473;-2.539058505;-18.01062876;-13.23143811;-15.35148003;-26.72906768;-32.34578564;-21.80103207;-0.283850004;-13.50864716;-17.17007813;-9.476455865;1.112955854;-4.006879181;-1.897456935
2.124285443;-8.234095184;-6.598829811;-12.50811337;-12.14100716;-5.854390443;-17.00514461;-11.07082615;-12.69759419;-24.88144978;-30.27117494;-20.89614676;1.491060912;-20.04561446;-16.52626854;-10.74636622;-2.201798827;-2.5935669;-1.258932759
3.785456891;-9.466863913;-12.8213278;-4.384617968;-14.37590507;-6.557357461;-17.3398225;-6.120244301;-7.867018017;-22.13624492;-24.42734715;-16.83087891;4.877976184;-26.64349489;-14.77230593;-10.37459707;-3.53391085;0.806440604;2.81208462
12.6775309;-7.617441047;-14.20338925;3.808303345;-13.73573625;-4.865542317;-18.75595643;-1.682416882;-3.76733208;-20.68630097;-18.36360051;-12.88178086;7.272345924;-28.04217065;-14.58314534;-8.848917474;-2.832253294;4.173202198;8.596284123
20.30623466;-3.755961945;-9.30396432;7.407529544;-11.1633873;-1.894811253;-19.97651213;0.048009384;-2.239830202;-20.4658791;-15.60757713;-12.18431176;6.902908694;-23.37677603;-16.7044567;-7.661741943;-1.560447482;5.443581667;12.5179325
19.70411708;-0.764684975;-2.18621124;5.893070342;-8.468312351;0.91865422;-19.8890625;-0.586528638;-3.206897252;-19.55065228;-17.16450401;-15.13574792;4.128638836;-16.60273354;-19.39856188;-7.890544585;-1.29480153;4.097425691;11.2358674
12.43405245;-0.848482847;1.836118196;2.954529291;-7.174564163;2.342065513;-18.57007813;-1.454115955;-5.22186878;-16.3791392;-20.94060374;-19.02037506;1.059502008;-13.00861366;-20.17400522;-9.215405563;-2.421002311;1.447023648;3.841350927
7.256378826;-3.6271872;0.619463169;2.831750044;-7.74349582;1.780917566;-17.20545567;-0.696757759;-6.703717795;-11.53884612;-23.45136036;-20.20244162;-0.043416716;-14.91604943;-18.11914143;-10.26213687;-3.965983556;-0.528185761;-7.237499326
11.70697971;-6.495292447;-3.696209869;6.273283325;-9.493919946;-0.41236282;-16.99086568;1.771775837;-6.816062986;-7.360173709;-22.39132426;-17.08827964;1.698752754;-20.02582532;-14.72397883;-9.915270647;-4.539264829;-0.739390979;-17.27942427
24.18568539;-6.923355075;-7.151256986;9.883476806;-11.08762153;-2.948272558;-18.03674221;4.554698058;-5.503411281;-5.708302015;-18.07380686;-11.40063138;5.393024459;-23.47236136;-12.51503686;-8.359512311;-3.448956961;0.360333005;-21.73916248
33.78420322;-4.660111795;-7.35149956;9.602886602;-11.22957639;-4.131379643;-19.28631246;6.384539593;-3.012635429;-6.118744608;-12.80446641;-6.715531732;9.246496464;-21.66693374;-12.78964946;-6.888350518;-1.060539437;1.449218713;-18.72313315
28.44202143;-1.893155707;-4.842869821;5.182880255;-9.274349339;-2.810382863;-19.51106235;7.42052644;0.436084364;-6.138263199;-8.967133905;-5.504922704;11.89974967;-14.84020857;-14.47925176;-6.681941463;1.732039891;1.599358426;-9.998645296
4.90283776;-1.241071644;-1.765344017;1.300562112;-5.55708075;0.77790143;-18.45356179;8.962135467;4.515357334;-3.672255453;-7.50693006;-7.167373255;13.19668222;-6.543385018;-15.11079022;-7.711000663;4.259915431;0.98608353;0.0808725
-27.62950677;-3.36855727;0.459950594;3.723782596;-1.344032549;4.913355443;-17.06139507;11.85506072;8.476743424;0.782423846;-7.905490201;-8.675548398;13.91093877;-0.883904139;-12.98656748;-8.788590618;6.323871413;0.521637911;7.083913965
-53.1220372;-6.347248699;2.12552511;13.45082571;1.640911064;7.272733953;-16.60409886;15.1584592;11.16954826;4.134802483;-9.299611542;-7.262881939;14.7903949;0.146682398;-8.701721261;-8.708384175;7.830039063;0.892894461;8.901950679
-59.2691548;-7.346353081;4.238915302;24.04351614;2.005083631;6.307253019;-17.49638244;16.48472036;11.56904227;3.092468485;-11.44097955;-2.882499425;15.78099442;-2.647228272;-4.763696399;-7.394045684;8.37775576;1.944189954;6.586640944
-45.06884349;-5.185837446;6.874515594;25.1823404;-0.5458306;2.210092773;-18.91427723;13.92597973;9.454529208;-3.021584678;-14.54700744;1.604141203;16.097164;-7.027207208;-3.702771704;-5.981358565;7.391192875;2.914015855;3.201229294
-20.31003906;-1.512155794;8.727582223;10.35958718;-4.917793482;-3.193363376;-19.55197033;7.97463413;5.677754851;-11.40531623;-18.33143886;2.65079593;15.0789693;-11.19838384;-6.229134673;-5.756802722;4.775527622;3.194090012;1.57495094
1.753581266;0.474178652;8.371847666;-17.17552998;-9.091197537;-7.539306322;-18.81579736;1.697056491;1.783648016;-17.58443668;-21.4030679;-1.153775109;13.07578733;-14.59771412;-10.79425527;-6.944957692;1.445202315;2.840805043;2.534879663
12.61397547;-1.282939098;5.933381486;-45.24010239;-11.16782732;-9.226558569;-17.35747211;-1.183993562;-0.732650703;-18.39026611;-21.90589864;-7.90440184;11.49329797;-17.25257167;-14.69243379;-8.478746822;-0.933898594;2.39489435;4.762728439
12.05582256;-5.816187353;3.41599181;-60.24642296;-10.41714776;-8.081844476;-16.46591503;1.118792272;-1.013939839;-13.77831609;-19.03235803;-13.69528426;11.78607976;-18.73103389;-15.73021593;-8.973177894;-0.978667366;2.273046243;6.195645626
5.817448449;-9.654640415;3.1798801;-56.0902289;-7.680677351;-5.110581556;-16.8877676;7.216094366;1.01464212;-6.328857017;-14.05632162;-15.33426547;14.12523409;-17.97207157;-13.34212263;-8.005277953;1.353420464;2.376771871;5.772547425
0.424453653;-9.359962157;5.857525072;-37.86679582;-4.877109317;-1.737825801;-18.16183637;13.60007813;4.821080428;0.746996201;-9.782187703;-12.40088708;16.93715025;-14.30879904;-8.712703147;-6.516402165;4.561221612;2.281062782;4.158558037
-0.695164203;-4.090842568;9.603872397;-17.80128614;-3.913397271;0.825376704;-19.06688573;17.10971251;9.468306048;5.290923386;-8.638226229;-7.276539364;17.97647084;-8.722584931;-4.176772287;-5.960923659;6.492902052;1.748577922;2.969489559
2.130741475;3.752811249;11.44962567;-6.666643413;-5.648910012;1.796768726;-18.75425812;16.8660702;13.75095059;6.518624768;-10.8828439;-3.374025872;16.32049507;-3.959690253;-2.319154652;-6.978846064;5.712366599;1.000418819;3.246469167
6.500767091;10.18924052;9.685888744;-7.14258142;-9.466175088;0.826583712;-17.51668082;14.33108411;16.45711866;4.462491766;-14.39824369;-2.973257027;13.64169924;-3.00311579;-4.937180391;-8.805434176;2.357559853;0.462793779;4.510796842
9.954861763;12.25325995;5.302692165;-13.65952042;-13.59611669;-1.867633214;-16.4950653;11.7767789;16.91632889;-0.273481567;-16.25561709;-6.040078125;13.33583139;-6.82687044;-11.95541713;-9.951873998;-2.063963795;0.280693014;5.200803516
11.13259161;9.621555344;1.303540559;-18.03704615;-15.94896226;-5.243443447;-16.61053725;10.6679747;15.60938705;-6.030972131;-14.75730743;-10.46451439;17.67124319;-13.16551462;-20.7462843;-9.528054532;-5.678333909;0.14467607;4.103294047
10.11758166;4.304233793;0.478158187;-15.97622962;-15.04562024;-7.484955147;-17.71585129;11.24413408;14.27117672;-9.787796007;-10.29862507;-13.23132449;24.98479249;-17.48084891;-26.65128676;-8.001888727;-7.263744063;-0.353148695;1.535733196
8.318604157;-1.026662912;3.410670146;-9.438794566;-10.71061284;-6.756286998;-18.74389201;13.25848777;15.0774389;-8.21984281;-4.474039718;-11.77909179;29.47549964;-15.74150102;-25.11068298;-6.721185572;-6.651011744;-1.195099502;-0.768914738
7.798609981;-4.651040612;8.190779393;-3.770636445;-4.308522716;-2.449786907;-18.70321336;16.71656232;19.19801605;-0.063697426;1.582040191;-5.090110595;24.55080187;-7.211962808;-14.61394021;-6.663586625;-4.462986077;-1.826764333;-1.03216991
9.908418698;-6.309645079;11.87466666;-2.684279342;1.612171922;3.936529144;-17.59376218;21.62336113;25.68454925;11.98647987;7.989283076;5.67630969;7.873683012;4.726748175;1.43759021;-7.575057196;-1.613328743;-1.646674481;1.063445812
13.88607301;-6.637861492;12.46655512;-5.461585446;4.28296293;9.18969544;-16.40149529;27.00418848;31.6692436;21.92554087;15.29593846;17.24217319;-15.59589736;14.43709569;15.72791972;-8.276543471;1.033234275;-0.650961;4.004512903
16.81992258;-6.337774777;10.02491381;-8.314145346;2.031784502;10.13262013;-16.18782006;30.5153959;34.00927068;23.94802611;22.89162042;25.27437124;-35.40816596;17.4424627;20.93194532;-7.827061676;2.793545163;0.439265106;5.576375642
15.74407963;-5.819349945;6.357839817;-8.146924325;-4.644426087;5.728984102;-17.12045296;29.64260618;31.38962468;16.61380055;28.37983868;26.40124573;-41.76848737;13.17843421;14.34100437;-6.444172781;3.300420495;0.783482918;4.621836827
10.66626814;-5.362852469;3.789271486;-5.196894084;-12.9626502;-1.946503909;-18.33399;23.92616776;25.40050197;4.423912121;28.88497095;20.32280383;-32.02867953;5.278681638;0.054338982;-5.321728123;2.734572313;0.241100024;2.015317446
5.787151692;-5.321078061;3.878669585;-2.411673816;-19.02606797;-8.725055356;-18.73453211;16.28160534;19.71632126;-4.792437284;23.48421882;10.58577079;-12.74812494;-0.752414514;-13.09258164;-5.517685287;1.939059819;-0.402786924;0.035112625
6.978611393;-5.969562381;6.706923647;-2.464548285;-19.83821003;-10.82749058;-17.99601451;11.75924077;17.83284716;-5.069720079;14.69916084;3.039961594;4.564677566;-0.911562726;-16.81527756;-6.949179654;2.102235481;-0.114909384;0.573821811
16.67627674;-7.136706553;10.89292852;-5.236813873;-15.02973211;-7.202822142;-16.83364247;14.08703075;20.87342716;3.691119833;7.462505051;2.476897471;11.26950631;5.058408258;-8.48442234;-8.430313592;4.008541999;1.361347251;3.543632054
30.20580117;-8.10381331;14.27089703;-7.923689955;-7.162323544;-0.152981791;-16.31965682;22.48361408;26.94501293;15.89507543;5.946747;9.478598144;7.33296436;13.85285188;7.354833097;-8.721942905;7.331234591;3.101084829;6.699101927
37.31110726;-8.063285371;15.05544805;-7.488050114;-0.292476179;6.15362127;-16.88994579;31.53415342;32.43269575;24.399038;10.52454321;19.75769975;0.663646492;20.86771706;22.01719363;-7.630775111;10.59075211;3.687091072;7.04792272
28.83561244;-6.849772195;13.06483824;-3.23242245;2.374142393;8.245269417;-17.96113897;34.78766131;34.29636952;25.411508;17.30128712;26.76572426;0.458146024;22.9314388;28.13101923;-6.156439125;11.9857236;2.46220374;2.876937258
3.993006959;-5.286168694;10.2166079;2.639255124;0.255131806;5.301471621;-18.49749643;29.67134659;31.8375861;20.52408269;20.83125517;26.01659575;9.58413887;19.83495098;23.86111313;-5.567047675;10.60328927;0.219538419;-4.975091844
-27.57405039;-4.714112307;9.557935578;6.769024521;-4.526947528;-0.647235188;-17.98402024;19.86801199;26.89402961;14.70566302;18.15964303;18.16875803;21.87859689;13.99783361;13.3295509;-6.26434351;7.127667572;-1.373100245;-13.39912532
-51.18507507;-5.951310273;12.94384788;7.151716821;-8.718123049;-6.180429905;-16.89627226;12.92688412;22.53090437;12.26897713;11.17863339;8.623998784;26.53949869;8.837588693;3.392713731;-7.474859621;3.470982527;-1.194852672;-18.61902024
-56.42136431;-8.459270455;18.75802869;4.461245638;-10.02148853;-8.512617558;-16.23861223;14.5632797;21.19601334;14.10475525;5.424937912;3.835193709;16.33401142;6.996852443;-0.747453893;-8.023112058;1.54734626;0.303053975;-18.12936193
-43.54390834;-10.43113929;21.6744915;1.38902743;-8.305799418;-6.851156743;-16.59372115;23.97233726;23.44721428;18.00245923;6.070997775;6.895230212;-6.618903397;9.303626847;1.749406468;-7.440895455;2.063195164;1.440193894;-11.92785639
-22.37028035;-9.851234925;15.46368829;0.69295485;-5.277315484;-2.503411292;-17.57540397;34.0594203;27.83313162;21.14876088;13.98837149;15.5088278;-31.87718555;14.65533601;7.650532114;-6.373703359;4.17169255;0.798622485;-2.520890269
-4.821758308;-5.848325948;-2.424292115;3.351502593;-3.077019409;2.03514614;-18.19235601;36.81616388;31.80788801;22.33842195;24.77118068;23.71856669;-47.68589976;20.562644;12.18193662;-5.923387273;6.166638517;-1.426314338;6.172189138
2.881780776;0.575052129;-27.65651362;7.848793041;-2.911890884;4.356238569;-17.7780791;29.88434661;33.12045416;22.20569451;31.49;26.06834518;-48.65978654;24.08428053;11.91810592;-6.571622156;6.631548234;-3.462091154;10.47163464
2.638875574;6.940609908;-50.07558392;10.79558657;-4.589602546;3.192212143;-16.61700631;19.03178768;31.02807085;21.87474732;29.28270352;21.23375328;-38.53872265;23.02349945;6.425120835;-7.717463929;5.213363051;-3.442820648;8.481547877
0.580121457;10.58148763;-59.17269291;8.498699431;-7.013217988;-1.060513967;-15.68398378;14.11467313;26.79834978;21.75805281;18.62093537;12.67875091;-26.39715233;17.13804841;-1.858017268;-8.272206511;2.594815621;-1.090548262;0.934898013
1.073257018;10.03828886;-50.73312406;-1.136107671;-9.019676852;-6.461542156;-15.74130922;21.13798241;23.19191245;21.66518062;5.075519162;6.096967763;-19.67214746;8.75838596;-9.054450458;-7.743052881;-0.111089681;1.909072554;-9.042934186
3.87445142;5.768389398;-30.02384171;-17.10497288;-9.90369047;-10.30205766;-16.63363253;36.38198872;23.00358054;21.72007813;-4.159932365;5.579438952;-19.45216555;2.105481715;-11.78311773;-6.758938912;-1.981617131;3.251648824;-17.25888446
6.132094516;-0.175015996;-8.916351178;-35.04185073;-9.450097656;-10.35990011;-17.43458874;47.46915936;27.27922406;22.65248642;-4.609720841;11.10236246;-21.21958603;1.194917334;-8.81888943;-6.505905379;-2.540883853;1.979460194;-20.36069021
6.345182007;-5.249190348;1.439061293;-48.75457168;-7.771836616;-6.134211137;-17.30713082;41.28238191;34.24491576;24.81437826;3.044101034;18.78394103;-19.7364944;7.308693712;-1.839317807;-7.573754443;-1.70812033;-0.637682566;-17.41426113
5.990323457;-7.683176157;-2.544698624;-53.21326403;-5.287156591;0.655173277;-16.27902844;13.43493143;39.84741799;26.92398362;13.74903998;23.43611164;-13.71411619;17.73891716;5.188304886;-9.300947763;0.27295279;-2.130763167;-10.26831276
7.399175473;-7.241835705;-15.25330389;-47.46095825;-2.819412135;6.788766796;-15.21678738;-27.50288797;39.93128393;26.22494143;21.2980136;21.61981191;-6.585607433;27.01788289;7.944410284;-10.27649426;2.788394074;-0.952496633;-2.437661595
10.54787224;-5.139340518;-26.43025952;-35.46467458;-1.49978924;9.267087637;-15.02567196;-64.33490806;32.89747137;20.54946687;21.81418594;13.42060452;-3.224310646;30.20263599;4.201915393;-9.591544145;4.86620618;2.107555753;2.870392424
12.59088912;-3.20180763;-28.45463611;-23.95419671;-2.260214234;7.059308518;-15.81835163;-81.44491087;21.07874276;10.71967203;15.49268882;2.193403273;-5.725994104;26.11906195;-4.63757524;-7.710688525;5.497640469;4.457357491;4.393821149
11.04060266;-2.773093631;-21.04038194;-18.37666023;-5.14447017;1.737817166;-16.81916774;-74.04599693;9.679781113;0.89940686;5.904490351;-7.285591793;-11.79301809;18.20197244;-14.08948485;-6.137648836;4.232014961;3.787449186;3.138167049
7.385934599;-3.996684598;-10.24505295;-19.67370694;-8.995895505;-3.488323272;-17.08665067;-50.35328677;3.735762619;-3.989722186;-2.352206276;-11.16597775;-16.77273849;12.14869181;-19.16420288;-6.128611868;1.632466844;-0.019222244;1.299703203
6.902693456;-5.888983041;-3.085551812;-24.20858164;-11.92144952;-5.744998334;-16.38067717;-25.55392134;5.034065638;-1.989954169;-6.124205338;-8.283408423;-17.33598067;11.97178662;-17.45830276;-7.584938371;-0.871452643;-4.746338555;0.647727813
13.82131126;-7.130626647;-2.225002632;-26.87239681;-12.35408482;-4.165502192;-15.37206598;-12.05007813;11.12529657;4.211305301;-5.017799409;-0.649984544;-13.6975602;17.33127595;-10.67995685;-9.125448243;-1.789488258;-7.583743546;1.515003457
25.86215608;-7.027183698;-4.737099903;-24.92786816;-10.01929589;-0.186629697;-15.00644409;-12.66321447;17.14059882;9.366601406;-1.129328882;7.48775734;-8.841032161;24.1083998;-3.483027736;-9.296696124;-0.533702353;-7.294944498;2.986482015
33.67393771;-5.963668729;-5.434704349;-19.59199733;-6.120915205;3.608320336;-15.61844257;-20.92430281;19.11043745;9.99697231;2.382033635;11.65062915;-5.81768881;27.68140889;-0.371525122;-7.858132542;2.167066584;-5.039389242;3.934038368
26.96597334;-5.032766654;-1.620351887;-14.29104129;-2.616064064;5.175440043;-16.62007813;-27.35161695;16.39179187;7.262220158;3.016844666;9.329807201;-5.563271547;26.27288885;-2.842211518;-6.001032442;4.736934084;-3.243636259;3.967515027
3.080147719;-5.132273552;4.738724578;-11.35484479;-1.099135251;4.054410134;-17.05054111;-26.62749425;11.5355681;5.709977888;0.131622695;1.30286387;-6.84083927;21.78943338;-8.734736258;-5.303610286;5.774827311;-3.545541022;3.578180081
-29.14669409;-6.242758744;8.986047131;-10.18678408;-2.035601863;1.231170121;-16.47391059;-20.56192248;7.916820402;8.824401026;-4.864939642;-8.724977369;-7.884750932;17.73497725;-14.08459228;-6.347498918;4.883065467;-5.542333098;3.502556847
-54.13622263;-7.463755767;7.944338139;-8.490209216;-4.737985768;-1.794234052;-15.38925493;-15.33779397;7.128485587;15.31589803;-9.3357842;-16.08582596;-7.987584409;16.2127481;-15.94254244;-8.217895766;2.740487847;-7.305202842;3.971354438
-59.87507348;-7.779778685;2.6248422;-5.226812484;-7.903689831;-3.887342782;-14.77101999;-15.83643427;8.17068379;19.70681761;-10.85855638;-17.66996365;-7.680777262;16.6452879;-14.06653123;-9.318550279;0.469291156;-7.101239164;4.519027395
-45.93488366;-6.923858634;-2.74387702;-2.283580722;-10.23165661;-4.556244648;-15.16490816;-21.65607071;8.869736387;17.05987952;-8.60521617;-13.52568017;-7.687684747;17.12648898;-10.47112416;-8.766284486;-1.139733032;-4.810918796;4.468791909
-23.02573306;-5.613084714;-4.37864044;-2.977483374;-10.79321776;-3.745320722;-16.17745022;-27.67630879;8.094736611;7.827290821;-3.948288226;-6.58939532;-7.93703499;16.83990702;-7.557849132;-7.130364549;-1.970984194;-1.909385085;3.605818421
-4.716339349;-4.948064895;-2.067430174;-8.574474117;-9.196325682;-1.646835081;-16.83434935;-28.32572731;6.766933184;-1.681124379;0.106908707;-0.794452627;-7.652821183;17.01601752;-6.498008001;-5.884598091;-2.371575771;-0.174052616;2.425201611
1.86249941;-5.476563339;0.909229591;-16.13478011;-5.736325113;1.190144896;-16.47968555;-21.99318827;6.822316922;-4.098211492;0.48236588;1.161039629;-6.312866816;19.38564954;-7.014790212;-6.089846538;-2.720877283;-0.320108597;1.755060241
-0.814861976;-6.718157098;0.929638486;-20.09343571;-1.525878719;3.697579108;-15.38732545;-12.21178591;9.146798493;2.765215056;-4.193752427;-1.007611099;-4.374457588;23.6710398;-8.326349101;-7.488567202;-3.19645103;-1.686223317;2.103955411
-5.185055456;-7.563950719;-2.513673999;-16.6508959;1.684272272;4.546057728;-14.51944995;-4.932804401;12.42931548;13.70152711;-12.60239893;-5.582418287;-2.951227369;26.8643508;-10.05768444;-8.792041663;-3.83540437;-3.066191467;3.284058017
-5.908253307;-7.218332451;-6.098323587;-7.245659907;2.236796846;2.936092687;-14.65150454;-4.170570593;14.06699466;20.18098795;-21.21395404;-10.23959313;-2.732652179;25.54998923;-12.20225522;-8.85949559;-4.65036449;-3.790100053;4.582198788
-3.409414284;-5.879541609;-5.452046813;2.188320252;-0.368747011;-0.593804843;-15.66525663;-9.313086499;12.4207052;17.55303842;-26.09087111;-13.29395471;-3.226132325;19.51794229;-14.34013607;-7.689143649;-5.552131365;-4.069901684;5.282422603
-1.296453885;-4.575462447;0.761933341;5.924773703;-4.798850604;-4.118528708;-16.65679046;-15.89003906;8.467625103;9.220815926;-25.03775948;-14.0578471;-3.098514079;13.18867431;-15.16222363;-6.350705541;-6.145932021;-4.430470885;5.10318425
-1.208664735;-4.297204156;8.836767456;3.217869743;-8.305672026;-5.348941081;-16.75839596;-18.92442292;5.336211959;3.930272393;-18.81965204;-12.47445755;-1.32632955;12.82372389;-13.09115662;-5.968610873;-5.740616863;-4.931594948;4.263110116
-0.702039209;-5.176825017;11.94495048;-1.110259279;-8.270078125;-3.162186736;-15.92085722;-16.24615301;5.980392674;8.174693658;-10.66394667;-8.74778126;1.905047369;21.21147021;-7.678420749;-6.711345991;-3.796013697;-5.019869543;3.232923798
3.741226141;-6.410758423;4.805707181;-1.022196445;-3.983900184;1.463497833;-14.94340819;-9.495189499;10.84100827;20.15513713;-4.31409339;-3.468360261;5.348819557;34.28796384;-0.557591794;-7.698300817;-0.579402576;-4.154770502;2.438954485
11.96550364;-6.977942783;-12.26510702;5.1297586;2.597360332;5.893196446;-14.73133334;-2.477807938;17.39382138;30.74874829;-1.853817785;1.985833541;7.685703797;43.21;5.073612042;-7.869628964;2.560540736;-2.539636902;2.114678921
19.02187627;-6.515274364;-32.92797286;12.81976085;7.833969786;7.451734613;-15.46706884;1.56286699;21.95541674;31.0818489;-2.704858876;5.470690597;8.412205851;41.04155484;6.30248856;-6.986741797;3.746847814;-1.15506895;2.294246073
19.48168203;-5.592900848;-48.42898149;15.29659106;8.624996128;5.117935466;-16.45316435;1.731616832;22.30956746;20.45326508;-4.428384295;4.950369389;7.905228558;28.91584679;2.407545663;-5.838679596;1.764842809;-0.968941603;2.841710175
13.28382651;-5.174028391;-52.79223785;10.01885364;4.441354814;0.135365796;-16.76327531;-0.628690933;19.13110957;7.626617945;-4.711119029;-0.15094455;6.826260647;16.18093004;-4.568463995;-5.484598657;-2.916220339;-2.03026869;3.482685024
7.032169638;-5.759605853;-46.09407462;1.74051675;-2.217452567;-4.819419883;-16.09622761;-3.337276335;15.24904539;3.824534866;-3.065955978;-8.113701991;5.635618708;13.46155681;-10.97619255;-6.253522633;-8.128359588;-3.332141211;3.905052845
8.497049352;-6.97426509;-33.7688853;-1.051966581;-7.283801143;-7.250111073;-15.04808838;-4.712340212;13.53434946;12.8414999;-0.979499216;-15.42358563;4.699853551;23.52255057;-13.59655461;-7.431400677;-11.1663836;-3.653553081;3.953136701
18.6633745;-7.933039308;-22.6979749;6.136950223;-7.550105134;-6.128846799;-14.55802392;-3.980139397;15.14221806;26.55385203;-0.411584934;-18.52585587;4.651314894;37.33136042;-11.2093315;-7.91648005;-10.41267359;-2.671242917;3.780712823
28.78814616;-8.027609578;-16.94096283;18.50688657;-2.508929072;-2.155332864;-15.04330705;-0.963417467;19.28599329;30.1031461;-1.857039615;-15.81333269;6.257851834;39.29039012;-4.893064949;-7.229384978;-6.321466501;-1.328828371;3.762362282
26.20555393;-7.417667227;-15.95725586;24.24660104;5.481052495;2.896545159;-16.01906204;4.148624923;24.30237908;13.23350288;-3.602265458;-8.591730013;9.614023302;18.53998366;2.76;-5.948216202;-1.093996694;-1.071126951;4.14226788
4.917124803;-6.810544151;-16.1905709;13.4601675;12.65278545;7.094596512;-16.54698589;10.5209252;28.80141706;-20.96936896;-2.938455209;-0.412130124;13.44115049;-21.94016543;8.775293387;-5.179531811;2.691964326;-2.560917145;4.703131348
-27.84813165;-6.770708242;-14.47488974;-13.07739161;15.89704413;8.981943982;-16.09501609;16.32076678;31.96649869;-56.97170006;1.484667157;4.806632588;15.55612471;-65.6225315;10.73017198;-5.562175696;3.52924626;-4.989260405;4.839509301
-55.24766026;-7.213374999;-10.59163067;-42.67633483;14.23404731;7.86472599;-15.01813437;19.12647836;33.16245922;-76.94544543;8.048918278;4.759956377;14.59876745;-92.48126758;7.4543124;-6.715796351;1.579510838;-6.612400135;4.118809415
-62.45326232;-7.537347365;-7.170952065;-58.73301265;9.044680714;3.990137205;-14.2256355;17.34307119;31.76342123;-72.63558695;12.81366281;-0.196955738;11.65804485;-91.77932807;-0.382253604;-7.62040422;-1.804516385;-6.104022475;2.903244981
-47.24682959;-7.243092865;-7.237418475;-52.31553037;3.192363827;-1.310718897;-14.34907619;11.76260514;27.76176577;-50.17678736;12.2592091;-7.345879366;10.00240162;-68.42994213;-10.01681902;-7.554590185;-5.101277781;-3.610029297;2.373325954
-21.13779479;-6.435009606;-11.45898095;-28.53397316;-0.362655248;-5.800771133;-15.17744996;5.843610172;22.63827371;-24.69948395;6.215054855;-12.95;12.4721988;-38.60278212;-17.23408808;-6.722800722;-7.41240237;-0.640517494;3.673545978
-0.286289688;-5.731049806;-17.30097157;-2.718416103;0.167401123;-7.162168132;-15.87114974;3.974858971;19.31712688;-9.379009687;-1.361134359;-13.96992626;18.32037769;-18.27429012;-18.15347329;-6.012614841;-8.615512955;1.093314028;6.69032743
6.207220404;-5.670885254;-20.76551025;10.72364941;4.658159378;-4.308056235;-15.74623355;8.563008116;20.60878993;-7.385257642;-4.686415943;-9.452339427;22.37349929;-13.3757233;-11.4864261;-6.137156553;-9.038094146;0.932736514;9.504077421
1.322360345;-6.188384757;-19.38332918;8.271723256;11.08100635;1.61506685;-14.90111037;17.98474968;26.97905107;-12.22738217;-0.167474378;-1.058724444;17.99503303;-18.3504142;0.198970941;-6.975663448;-9.088186962;-0.373793399;9.253328482
-4.788920172;-6.652473923;-14.13752772;-1.363080581;16.32090172;7.451120814;-14.11272507;27.14689669;35.46305613;-15.03105576;10.71695164;7.547775531;2.239478086;-23.04311458;11.4222423;-7.718858401;-9.107235539;-1.418501594;4.092907251
-4.443626787;-6.444612514;-8.783798709;-5.142653465;17.61182434;9.69861205;-14.10798925;30.61753865;41.00602226;-12.12181411;21.92847787;12.35723078;-20.69823197;-21.56807341;16.77634199;-7.662098275;-9.36661248;-1.294024339;-5.088202183
1.808974926;-5.535745224;-7.00910227;3.595688356;14.0209751;6.727945011;-14.88910986;26.30287111;39.68568074;-6.872968348;26.68255959;11.08657755;-40.9167463;-16.02226173;14.20864513;-6.886468647;-9.994367733;-0.216976987;-14.60277745
7.64;-4.523951499;-9.552704712;19.91012707;7.163587972;0.04777568;-15.73375702;17.03315157;31.60278991;-5.146138813;22.01906275;4.620327129;-48.75882743;-12.83811468;6.369968933;-6.183532623;-10.80129351;0.799873443;-19.89292451
8.232030149;-4.096543767;-13.50826203;31.16251907;0.550147482;-6.407127587;-15.86319912;8.793505099;21.18880975;-9.034147094;10.8952678;-3.161216539;-41.21881927;-15.80990885;-1.032125061;-6.296630551;-11.22746066;0.839391549;-18.29667589
5.002758016;-4.416086038;-14.42093732;26.61456753;-2.28500777;-8.660335108;-15.15717675;6.749379382;14.4716511;-14.59337623;0.237469855;-7.367995547;-24.011371;-22.20239981;-2.883294385;-7.196163158;-10.6264875;-0.234684406;-10.76181183
3.469662756;-4.997852771;-9.672984269;5.268321588;0.131489519;-5.218800524;-14.2578983;11.85474748;15.12572815;-15.36948347;-3.744644509;-4.95;-7.590478305;-25.18828295;2.105935035;-8.077214103;-8.794400085;-1.777601738;-1.273566839
6.944659362;-5.184154357;-0.624756288;-23.57590822;6.232415201;1.961302435;-13.97406473;20.41799835;22.09956746;-8.380416065;0.292453283;3.292125946;-0.017523826;-20.17496091;10.72196691;-8.094174396;-6.328668395;-2.905672186;5.625319572
12.80388815;-4.762595234;8.142046683;-46.7465121;12.26875168;8.713818556;-14.53990921;26.83096236;30.47098727;2.777956729;8.09949138;12.92706113;-2.011547097;-9.301402377;17.47203464;-7.156497445;-4.427117227;-3.058169142;7.498547055
15.33724514;-4.14454402;11.97755435;-55.38255552;14.56087404;11.24585611;-15.41097228;27.39499614;34.81716374;10.4096893;12.96187494;18.39722428;-7.736528854;-0.143608999;18.10936068;-6.044179392;-4.156208165;-2.187545291;5.08702078
12.35682673;-3.93968722;9.405602825;-49.17124093;11.73420412;8.345995909;-15.77702066;22.5160447;32.64334498;8.696220624;10.39826676;16.34092734;-10.29484896;0.278343902;12.13565715;-5.723113984;-5.692791501;-0.601652846;1.252265277
8.560471375;-4.337964642;3.06963111;-34.64028691;5.50429558;1.868989783;-15.3111139;15.91367413;25.57383065;-1.755365669;1.138418379;7.642497097;-7.255742819;-8.839214114;2.848917347;-6.476381921;-8.136004556;1.256506129;-1.206163939
11.42819194;-4.898069321;-2.280324864;-19.94747625;-0.463457719;-4.609383964;-14.46232921;11.74123468;17.80462739;-14.38674741;-9.557692498;-3.102736164;-1.825288285;-21.36834402;-4.794786032;-7.640617472;-10.07312253;2.90322412;-1.208050043
22.82505773;-4.960138215;-3.211604429;-10.36741626;-2.823803355;-7.915336588;-14.02765697;11.88419604;13.2461651;-21.61163281;-15.54600831;-10.34845649;0.862458915;-28.8955675;-6.983004556;-8.188477119;-10.49216924;3.85905883;0.486450496
34.46095083;-4.303415917;0.120536575;-7.007600005;-0.471741826;-6.832053601;-14.40545385;15.24647504;13.40623342;-20.17518997;-13.75212044;-10.81085972;-1.270026855;-26.84945508;-2.902257099;-7.631879534;-9.366662852;3.811078344;2.412683191
32.75332538;-3.420287933;4.484728128;-8.259240833;5.024345864;-2.357865536;-15.22253067;19.1125;17.13409087;-12.91653413;-5.806587876;-5.170400894;-5.4584438;-17.34830626;5.112683737;-6.435370721;-7.523086543;2.865990555;3.65567078
10.24012248;-3.12039904;6.354758929;-11.78991169;10.56494799;3.142454871;-15.67680585;21.1787534;21.85671652;-6.009937648;3.443710148;2.620490706;-6.950058594;-6.977999957;12.88928447;-5.579579953;-5.987000565;1.630597411;4.260439489
-26.02114762;-3.80355221;4.75374501;-15.49262685;13.35598314;7.172217556;-15.27596528;20.70752719;25.12445449;-4.243672887;9.200581648;7.774752759;-3.727634522;-1.77985374;16.38916164;-5.683791425;-5.380039063;0.897138358;4.733145503
-57.16444581;-5.06624437;1.983058332;-17.51375328;12.2980855;8.086235344;-14.29101543;18.33677405;25.56926549;-8.002413397;9.445839871;7.270112125;1.323260204;-3.512371041;13.50357994;-6.482899901;-5.799019714;1.065827379;5.323763434
-65.41193972;-6.020330227;1.735641178;-16.40263879;8.274821418;5.585534728;-13.51110142;15.25073272;23.17202573;-13.80628533;5.543392449;1.189338601;2.892731189;-9.606509178;5.024377689;-7.114745033;-7.113852491;1.772966432;5.78916331
-47.25741637;-6.055652036;6.098680584;-11.84241806;3.442018274;0.761462626;-13.53010545;12.64379658;19.16317938;-17.35054;0.749616125;-7.673999144;-1.778583968;-15.9742475;-5.618893237;-6.930956949;-9.249181459;2.125887497;5.73207359
-16.12972882;-5.364400361;13.76301063;-5.26559447;0.097428073;-4.268946594;-14.22098068;11.68160807;15.67764584;-16.396765;-2.04544271;-15.43723545;-9.930019531;-19.86112995;-13.89146468;-6.080019531;-12.10471744;1.449996763;5.053719649
7.895180073;-4.751137579;20.81116479;0.646708206;-0.290524146;-7.150231568;-14.87307703;13.39727933;14.96213848;-11.57328591;-1.864820104;-19.01703406;-15.14977464;-20.65581045;-16.39873683;-5.340259933;-15.21492178;-0.052920506;4.05432659
13.05881599;-4.898427153;23.51685248;3.6262306;2.405105674;-6.364326365;-14.85461911;18.03724734;18.1178894;-5.141368756;0.205375418;-17.44886441;-12.65436032;-18.86607687;-12.72094641;-5.37738619;-17.59658515;-1.351966492;3.168563099
3.45145492;-5.754725119;21.1089629;3.440226511;6.970497184;-2.138918009;-14.18518998;24.22642719;24.02030132;0.766994433;1.979014797;-12.19696519;-3.455902943;-15.01527565;-5.684255707;-6.122307491;-18.12040328;-1.391303962;2.696108468
-6.586523397;-6.600438666;16.47551933;2.064556678;11.32262946;3.426107134;-13.49714142;28.99;29.4403795;5.050130697;1.48995128;-6.400620617;6.260371915;-9.71627551;0.286199294;-6.836758481;-16.24648426;-0.01498647;2.791546957
-5.742586891;-6.727044153;14.22833211;2.135655139;13.35034519;7.317877903;-13.43497532;29.25623575;30.81114645;7.469598353;-1.97369019;-3.336337378;10.11638702;-4.45906646;1.831710296;-6.793118239;-12.54405273;1.803489909;3.570109607
5.00012;-6.100865046;17.36683933;4.888431856;11.87160317;7.267171398;-14.05677949;24.12361068;26.74760432;8.165959123;-7.429030938;-4.709587343;6.652435144;-1.63666909;-1.361164099;-5.935443809;-8.492891124;2.695653868;4.982903332
14.79844455;-5.396375347;24.74776598;9.243926065;7.2741969;3.133726907;-14.78932949;16.11714492;19.46248362;7.544907846;-12.4468113;-9.621672562;0.208065408;-3.107831685;-6.602710838;-4.921603569;-5.618153672;2.026750011;6.414880886
14.21210674;-5.364723368;31.10367313;12.72975488;1.424524723;-2.908460489;-14.96849398;10.04472224;13.68749852;6.460859219;-14.0910239;-14.91124986;-3.107042871;-8.337292788;-10.19653615;-4.525547379;-4.575720369;0.457877279;6.473180957
4.662166991;-6.119359051;29.80350436;13.39545845;-3.225260819;-7.586810563;-14.45598484;9.869236853;13.52530028;6.113334207;-10.35363787;-16.89413343;-0.74421444;-14.01142905;-9.916865601;-4.960533966;-4.878575182;-0.578882499;3.541104265
-2.682775348;-7.003802947;16.86912831;11.16227277;-4.891010995;-8.41759397;-13.76084965;15.80374904;19.43990424;7.362234478;-1.511193475;-13.60246358;4.374694435;-15.97425943;-6.194642958;-5.736336558;-5.449338755;-0.085981878;-2.924144257
2.352382414;-7.175715921;-6.079849261;7.668298502;-3.336468901;-5.082517113;-13.55999707;23.98030472;27.75538576;9.910985915;9.441742992;-6.110609599;7.021992956;-12.22695529;-1.307029444;-6.153579316;-5.520635716;1.631965634;-11.24046317
18.37047543;-6.380803699;-31.8116325;4.962758207;0.155612339;0.529606802;-14.06872902;29.17594435;33.21970438;12.16991942;17.87860475;2.039188265;4.978711105;-4.555581251;2.567894461;-5.951271997;-5.147728989;3.1977728;-17.66894917
31.85402728;-5.207171041;-50.69504087;4.1977162;3.661470188;5.543346367;-14.84439841;28.6109015;32.75724308;12.15255681;19.88870298;7.062344223;1.548789247;2.691304254;4.785196644;-5.502483296;-4.959849074;3.314811506;-18.29143741
27.74332601;-4.578086069;-55.58087609;5.199124147;5.727799854;7.728029066;-15.19793392;23.84999844;27.50756763;8.862646858;14.65346872;7.349141898;2.716150249;5.801811606;6.120503434;-5.396725837;-5.434699292;1.865031033;-11.60821905
2.363232851;-4.935106026;-45.6697809;6.929433329;6.003926055;6.549390098;-14.82424856;19.29377567;21.58671635;3.133258595;5.291011836;4.384580193;11.19007813;4.321341086;7.495445653;-5.828982168;-6.364173213;0.005943375;-0.02361612
-32.35770675;-5.849900692;-27.03893197;8.266025126;5.097959856;3.158894873;-14.06704664;18.52719131;18.67537199;-2.744324577;-2.635659161;1.512393629;22.60048558;1.036280259;8.891562951;-6.388526232;-6.972679171;-0.822824217;11.07414492
-57.13957623;-6.417555464;-9.313147428;8.608772726;3.933929953;-0.454990756;-13.58193065;21.56740404;19.29925853;-6.337367994;-4.270545183;1.462195141;27.59408225;-0.496499366;9.488908318;-6.450907264;-6.559374833;-0.130599355;16.26896889
-59.36290707;-6.075774281;-0.295526815;8.214823918;3.161819777;-2.527436965;-13.72336206;25.2588044;20.99376204;-6.391196426;1.612748176;4.474948542;18.68576873;1.307799845;8.809388965;-5.797801437;-5.092057991;1.21583949;13.20779374
-41.50955476;-5.108219434;-1.770143364;8.256637558;2.978444265;-2.242755551;-14.23161425;26.33440548;20.99593887;-3.3135724;11.82532144;8.376249836;-3.452789321;5.25874831;7.630320428;-4.868715285;-3.258964305;1.756902029;3.772997357
-17.71190196;-4.378182777;-9.101585841;10.3710956;3.29251709;0.071898529;-14.50622004;24.3538196;18.906964;1.30397238;20.71227887;10.42109085;-29.44394095;8.878654351;7.612250259;-4.392367335;-1.982613144;0.719095775;-7.3263001
-2.108199294;-4.538347185;-14.8640875;15.46669381;3.916184049;3.192512282;-14.19858179;21.88907115;16.8770261;5.60179239;23.63248238;9.378386288;-47.12526226;10.54800404;9.808072132;-4.73;-1.850234357;-1.285449902;-15.37290333
0.99040614;-5.436445831;-14.03666932;22.1937328;4.581819654;5.515611184;-13.55822079;21.85726312;17.20909938;8.183703799;19.71428844;6.223501212;-49.5512856;10.34713769;13.3666682;-5.53938047;-2.922334024;-2.726031867;-17.87579942
-2.378042136;-6.254940987;-7.19858487;26.33019138;4.889889125;5.712579638;-13.20211119;24.54969771;19.74698067;8.432009805;12.09934565;3.023152267;-39.08477919;9.130837737;15.73310551;-6.076762618;-4.973724953;-2.379529221;-14.98813616
-3.559687693;-6.253459974;0.441553868;22.34646532;4.437638096;3.359852287;-13.52245952;27.24679427;21.70727463;6.559528774;5.581365819;1.105096339;-24.75790551;7.15509046;14.42455778;-5.865455745;-7.808423216;-0.288163114;-8.452752318
0.571487921;-5.436507496;3.34365847;7.012941965;3.187185419;-0.717957986;-14.29263077;26.92960653;20.35541819;3.571755059;3.310596437;0.143914517;-15.346142;3.901170275;9.067749907;-5.119938634;-11.26679632;2.310530155;-0.403892619
6.193392525;-4.541353833;-0.01409255;-17.09527446;1.791481292;-4.667487813;-14.85003906;23.59732555;16.10732557;1.067942691;4.845459883;-1.076352045;-13.65644827;-0.66251829;2.04300888;-4.539590967;-14.92159929;3.953633665;7.023422262
8.036615098;-4.361920504;-6.011806897;-41.16516319;1.476550391;-6.437468673;-14.69627232;20.87969949;12.92024307;0.700854777;6.863781234;-2.986390647;-16.07322902;-4.834081212;-2.881376932;-4.665964301;-17.85849119;3.975572723;11.53254668
5.583938809;-5.02611593;-8.777727719;-54.1594842;3.365478022;-4.875425703;-13.95979945;22.94869315;15.10644682;3.363867248;5.967052911;-4.266444145;-16.91400116;-5.63;-2.977295905;-5.395850002;-18.94419256;2.783406919;10.95294745
3.673187036;-5.881000331;-4.781005335;-49.38121359;7.621718124;-0.469815577;-13.28794687;30.26662254;23.10486433;8.559240342;1.526723718;-2.646877151;-13.47214491;-1.039393264;1.702305773;-6.092795124;-17.55239541;1.295879445;4.456383236
7.146207409;-6.084675815;4.468979103;-29.22858231;13.05223122;4.770299984;-13.25918582;38.21939691;32.16730546;14.4762508;-3.529149666;3.019479034;-7.657506659;7.74717146;8.446998498;-6.184247052;-14.22086281;0.161768725;-6.107376023
15.21693927;-5.365561564;13.6638074;-4.413891307;17.56719676;8.3136948;-13.85396693;40.50663997;35.76449726;18.88288273;-4.652043898;11.13357767;-3.485282357;16.33486548;13.64595187;-5.685811172;-10.62508257;-0.543242527;-16.26219245
21.54691962;-4.266747667;17.77649891;12.36701525;19.29014658;8.443996941;-14.47265237;34.89160587;31.34210486;20.31880977;0.954090737;17.72519334;-3.198060018;19.8288355;14.86812292;-5.168446267;-8.711578457;-0.991634383;-21.04396533
20.35986467;-3.666569658;15.67063401;14.1888727;17.61904397;5.169165529;-14.48793096;26.26566524;23.45579609;18.81491317;11.9118847;18.87152907;-5.550753663;16.34495525;11.97295477;-5.205583253;-9.496790904;-1.122538305;-18.11712093
12.75845807;-4.017872658;10.43746261;3.694259653;13.55212888;0.198688599;-13.8264919;23.60922589;20.87853676;15.71306975;23.03846914;13.534486;-7.417559416;8.532773946;6.85908296;-5.819815494;-12.36273186;-0.57840657;-9.553231049
6.730553918;-4.986717443;6.435306516;-9.623486996;9.101398261;-3.958170634;-13.04540605;32.42032692;29.15024253;12.82550956;28.45108092;4.700374156;-6.790289712;1.803657915;2.365027404;-6.446937628;-15.38107165;0.848279751;-0.627621586
10.02715509;-5.79205865;5.715348447;-16.39602593;6.218324203;-5.244471712;-12.83076213;48.50785673;44.3338394;11.57774622;25.40574918;-2.172590752;-4.23688232;0.602037597;1.069509586;-6.45347921;-16.48494955;2.739267175;3.766524591
22.00538435;-5.910624282;6.894194172;-13.33980198;5.902797645;-3.011941402;-13.37533323;58.82171605;53.63106407;12.6088331;16.22620022;-2.480063477;-1.679689657;5.584500678;4.376366501;-5.730227972;-14.7207767;4.114786819;2.467647047
32.1664378;-5.499773549;7.2830943;-4.07213439;7.930157565;1.727976167;-14.20256407;49.87618873;43.5709832;15.79815427;6.881767512;4.627143822;-0.046137156;13.69378365;11.91330642;-4.812867653;-10.78013385;4.107771356;-1.45634973
27.65497488;-5.177025165;6.153655599;5.072682003;11.17318393;6.793339094;-14.59549222;18.12425919;10.35134816;20.38606413;3.060956009;15.67988372;1.662100561;20.67916763;21.33694422;-4.415281966;-6.527428407;2.701131872;-3.473310502
4.059546982;-5.397439883;5.959224096;10.26700099;14.19603584;9.802860208;-14.23744178;-25.58966321;-35.45809751;25.03466589;6.387369139;24.98140205;4.913886068;23.79610456;28.89407864;-4.798983238;-3.896167668;0.845213732;-1.362255079
-29.50520385;-6.026990358;10.11031864;12.20580818;15.81632129;9.234858957;-13.48198309;-61.49159784;-74.01572462;28.06322834;13.42198338;27.93653994;9.377472471;22.71782512;30.96668578;-5.549566656;-3.863581029;-0.222204308;3.120731245
-55.70088721;-6.501218035;19.04493145;13.89065748;15.51569419;5.162847915;-13.01330467;-72.97245618;-88.14511732;28.15352417;18.20335238;23.52621026;12.37854012;18.60600406;26.1175901;-5.957008962;-6.057523791;0.075636984;6.051115977
-60.84528272;-6.394820207;28.12803248;16.89486189;13.67159407;-0.669809498;-13.21611609;-56.94273387;-73.92725904;25.34682917;16.57656854;14.55739391;11.02619544;12.87450824;16.39140992;-5.648729752;-9.094919498;1.231596203;5.018027768
-44.1708937;-5.844362208;29.70902839;19.8067013;11.51198145;-5.57054421;-13.83426072;-25.19733932;-42.56729299;21.56686054;9.243076617;5.803303174;5.236688523;6.968498856;6.670689956;-4.904060988;-11.34658746;2.11921827;1.424581623
-17.47840709;-5.418552276;18.31923642;20.11041872;10.64386564;-7.1949944;-14.224664;3.913678369;-12.45147875;19.89791458;1.331416168;1.343805705;-1.306574337;2.881594714;2.044828282;-4.380019531;-11.69176608;1.949378196;-0.708375447
3.991230926;-5.565764598;-4.779589681;17.33831749;12.18764837;-4.824672697;-13.96357611;17.26676828;2.686120895;22.68201224;-1.224812211;2.641177676;-3.596409818;2.985356615;4.692685164;-4.515576994;-9.945980389;0.908475912;1.490850814
11.90315848;-6.175515833;-31.33568719;14.14268168;15.92070462;0.111942079;-13.24208701;13.88151194;1.144359024;29.6052923;4.099709545;8.208865227;0.619519531;8.419330301;12.42995268;-5.160571121;-6.854365361;-0.042965627;6.687286848
8.619336276;-6.682999631;-50.69603635;14.04679636;20.06249407;4.706128512;-12.68840608;2.814969232;-8.353275903;37.32016873;14.64858274;14.75234936;8.653533772;17.20706705;20.10300905;-5.750332872;-3.70899545;-0.003436121;9.847327081
2.660841215;-6.625187343;-56.16304729;17.97556381;22.08750354;6.179402761;-12.78562999;-5.226627874;-14.93901965;41.25540834;24.48407756;18.98816524;14.759366;24.34684035;22.99769804;-5.838709475;-1.753682613;1.134980513;6.209352898
0.80357963;-6.116963484;-48.69090637;23.00899185;20.26481734;3.546595525;-13.4244269;-5.606934045;-13.6949519;38.62449211;28.49938048;19.21387152;14.78286022;24.86519386;19.90396947;-5.485507708;-1.611811545;2.652023236;-4.427964621
3.61082969;-5.777365352;-35.47648006;24.79516389;14.96918241;-1.70503906;-14.00157059;-1.315631281;-7.727522374;30.53597982;25.70657531;15.97545688;9.70964061;17.98790805;13.68649195;-5.152680852;-2.99562791;3.631053521;-16.74756355
7.193049112;-6.149957918;-24.73844235;21.53955624;8.763020182;-6.419368613;-13.97070983;1.661674733;-3.703961959;21.54174624;19.38481976;11.61519749;4.945719083;8.807246611;9.050619021;-5.234337368;-4.865932043;3.665499341;-23.35675985
8.248811902;-7.149532775;-20.58721781;15.8066523;4.983814372;-7.634264503;-13.33806671;0.374154607;-5.421671188;16.74851449;14.20383665;8.930301054;5.730878182;5.209603945;9.235333989;-5.681324265;-5.993229392;3.049284562;-20.10911921
7.156320937;-8.066894419;-21.47353626;12.24932232;5.632621127;-4.381513891;-12.65123824;-2.860381003;-10.88833985;18.44414251;12.68655022;9.558661232;12.50121981;11.72859063;14.0241715;-6.072850193;-5.62914822;2.375849248;-9.157840418
6.625054591;-8.161577551;-22.7826876;13.20837363;9.960463502;1.687723471;-12.49753271;-3.365388653;-14.82342898;24.6175612;13.72219215;12.91596979;20.25991293;25.16780959;20.30081019;-6.0498134;-3.904217453;1.996677791;2.670942539
8.075190563;-7.325043733;-21.09687798;16.33479712;14.78026292;7.235942766;-12.97523232;1.021268464;-13.77521376;30.40541731;14.08667814;16.35843168;22.71150718;36.16131728;24.41803558;-5.678908235;-1.721058154;1.849558732;8.888001195
9.922709434;-6.211835471;-16.75848772;16.749216;16.39365039;9.153796559;-13.61810807;7.676092693;-9.144110978;31.39512096;11.52326094;16.66065541;17.78658952;36.26222292;24.48052061;-5.390039063;-0.224148001;1.744394501;7.790797208
9.607525212;-5.702262524;-13.07013368;12.05262006;12.91173085;6.310139629;-13.83159676;11.44735648;-5.627118713;26.45128276;6.803250415;12.09729501;9.787030878;25.20861684;21.06228246;-5.546983882;-0.180381049;1.728546868;2.978148877
7.079060547;-6.160135384;-13.19769551;5.538667697;5.467081301;0.148342035;-13.43172013;9.268361736;-6.741147819;18.21485089;3.164701982;3.888608107;6.048186268;12.08115359;16.31326841;-6.069897764;-1.623473128;2.101106288;-0.180992506
5.738438827;-7.137815829;-17.43429625;4.140087891;-2.441364639;-6.13606847;-12.79368709;2.990370367;-11.51016534;11.17921199;3.730505024;-4.03631494;10.62243544;8.502023123;12.53511934;-6.48475212;-3.91033795;3.042661282;0.992589391
9.273937593;-7.784189786;-22.8888205;12.22691055;-7.002648592;-9.300497494;-12.48592146;-1.998379204;-15.18513952;8.877695554;9.094931509;-7.063970963;20.18194389;18.62463001;11.27618428;-6.365884311;-6.084589278;4.263987024;4.765065278
17.07945308;-7.586334343;-25.61062184;26.41860151;-6.230658499;-7.694802478;-12.73968613;-1.112833045;-13.27739661;12.06128223;16.98;-2.650048828;25.76738732;33.98396079;13.12041126;-5.75531119;-7.320394908;5.102201141;7.178270637
22.85288915;-6.786320045;-23.37075035;36.33499205;-0.929745308;-2.022985751;-13.24652414;5.813373712;-5.404667714;18.75409379;24.04179603;7.865140357;19.35296151;38.15238992;17.65674482;-5.151781509;-7.263351747;5.059939824;5.976083323
18.50933534;-6.117855618;-17.06247081;31.54867926;5.931896706;5.070936521;-13.46146842;14.53153391;4.238769819;25.70422965;28.15278847;19.61365654;0.234824004;18.60117459;23.29385821;-5.063656281;-6.186352441;4.307045506;2.719085384
0.775766984;-6.12236844;-9.907904736;9.694564238;10.8975092;10.31634492;-13.11843061;19.77174344;10.03517547;30.05962633;29.27386167;26.68163721;-23.76284019;-22.89959166;27.29596135;-5.536858075;-4.926667846;3.627981727;1.239015798
-24.94285204;-6.671578686;-5.251405506;-20.70774685;11.72434888;11.37610184;-12.47424416;19.1081169;9.024497897;30.39788851;28.44659791;25.33286093;-41.29284033;-69.53339731;26.70409491;-6.105188018;-4.573881741;3.77890579;3.842297193
-47.0021496;-7.11730881;-4.522313553;-45.27362615;8.280652673;7.933026641;-12.06015791;14.29302829;2.700710265;26.97853313;26.1646967;16.0788929;-44.96040619;-99.53470933;20.13697878;-6.222125584;-5.938233326;4.789076048;8.68
-54.83295634;-6.908672347;-6.590199469;-53.06532887;2.376165767;1.809817589;-12.18269335;9.389736172;-4.574765714;21.51660808;21.86068629;3.368172284;-35.7559122;-100.118899;9.362009897;-5.778708116;-8.99174345;5.855376245;10.75349699
-45.75260671;-6.097499971;-8.705171577;-43.31288132;-3.208274382;-3.937530425;-12.64555351;7.606050972;-8.88788066;16.66446624;15.06232605;-6.900921264;-21.45595409;-75.25871371;-0.851131986;-5.219408296;-12.62686437;5.988167509;5.932405381
-26.29027956;-5.27283407;-8.295930165;-24.79505963;-5.986156672;-6.52970089;-12.9497548;9.417737078;-9.089306279;15.13175906;7.029041052;-10.55109011;-10.66575409;-41.9491879;-5.085485973;-5.133364053;-15.02104955;4.886755415;-5.26261913
-7.349061011;-5.002420699;-4.559877078;-8.894707264;-4.830353227;-4.834009498;-12.77626076;13.07392427;-6.656732175;18.47322551;1.00784819;-7.148627168;-7.232852272;-18.19468751;-0.581596152;-5.689404968;-14.55654011;3.273077771;-17.30969462
2.900171221;-5.31154334;0.985408857;-1.983899509;-0.460570151;0.11351178;-12.29065075;16.47282825;-3.863951348;26.03795445;0.356334736;0.176687917;-8.963591078;-11.79695427;10.79428018;-6.442430338;-10.81202496;2.349473203;-23.26725608
3.272488818;-5.682563789;5.267909738;-2.689810206;4.856543049;5.713501071;-11.97987923;18.55143752;-2.172259658;34.87362863;5.770568606;6.809998864;-10.87047364;-17.73463102;23.47431083;-6.708716512;-4.967839295;2.80956128;-19.64341334
-1.421819165;-5.564585233;5.394374171;-5.193460229;8.344028516;9.198785023;-12.1749922;19.24997678;-2.028855964;41.00418328;13.96296533;9.255120303;-9.737015596;-24.86636764;31.49182375;-6.184248907;0.732228483;4.246129357;-8.858982407
-4.921974593;-4.906232084;0.482578547;-4.937653204;8.088308469;9.039845443;-12.71311408;18.66101895;-3.613933481;41.55392537;19.25925172;6.739907884;-6.275668343;-25.67794857;31.86966949;-5.244636874;4.19067684;5.481036318;2.536272025
-3.799461259;-4.207929191;-7.462297005;-1.854760338;4.07977857;5.599090891;-13.06521174;16.61406102;-7.214777187;36.41396892;17.30276963;1.074008874;-3.635690794;-21.26289007;25.78792786;-4.641531582;4.564720697;5.550594287;8.49259466
1.263965057;-4.04437975;-14.3162254;0.918064849;-1.695211799;0.747506839;-12.82042392;13.19592867;-12.58928114;28.27999664;8.213696217;-4.860535314;-4.137238838;-18.41241231;17.00064655;-4.854175427;2.539312969;4.505534183;7.456863515
7.16733633;-4.506804599;-16.04077477;0.782074528;-6.257668371;-3.228509814;-12.07998726;9.485763254;-18.08765706;20.96702738;-3.261504614;-8.859099524;-7.254681275;-22.33504102;9.052031962;-5.671789113;-0.379184065;3.337948053;2.889435161
11.0341368;-5.092573598;-11.13145336;-1.883096256;-7.225685431;-4.751247381;-11.39067549;7.408844415;-20.88925935;17.13687121;-10.88922858;-10.31673774;-10.35844382;-31.63985885;3.511319317;-6.380726636;-2.986239378;3.102155661;0.170269247
11.85954451;-5.154671267;-1.749521234;-4.52668089;-4.07683923;-3.533781716;-11.27016232;8.48331735;-18.76759983;16.97686832;-11.15420875;-9.97833061;-11.15976315;-39.61621594;0.244790066;-6.388929835;-5.082790582;3.99446883;2.398621934
10.59326914;-4.500980526;7.350483952;-5.155695612;1.662744996;-0.467071847;-11.75378418;12.46231659;-12.16258021;18.61293471;-5.479015088;-8.997717834;-9.4963323;-40.1777163;-1.151656528;-5.729038096;-7.293572634;5.187727218;8.195382486
9.230830361;-3.588909911;11.57426461;-4.072092373;7.380685351;2.945322054;-12.37406934;17.19270671;-4.637569661;19.74013347;1.084971255;-8.142000491;-7.015235285;-33.04941958;-0.500901739;-4.995110431;-10.24399727;5.55533796;12.91811208
9.637595249;-3.129397868;9.199918455;-3.063058816;10.85011452;5.240078125;-12.58747812;20.02776763;-0.880199358;19.15075838;3.583124793;-7.672622077;-5.376747966;-23.84035226;2.359392071;-4.782149166;-13.8133002;4.647378414;12.14894848
12.48726754;-3.456372635;2.26505599;-3.194470058;11.29528257;5.50197478;-12.25419688;19.72550977;-3.471035553;17.1209486;0.469532247;-7.773338202;-4.843354405;-19.26054679;6.352466202;-5.144715342;-17.05493187;3.071136493;4.836605973
16.6427598;-4.233984456;-4.938279212;-3.670509784;9.478483063;3.665414527;-11.73367212;17.2592195;-10.88976483;14.64929445;-5.821741949;-8.924600908;-4.49806623;-21.76441076;8.945415224;-5.566096477;-18.79013268;1.955239842;-6.01058003
19.5286334;-4.765892129;-8.675078761;-2.945684246;6.917158269;0.585156555;-11.51859154;14.8678252;-18.4539636;12.41024099;-11.15737309;-11.71690832;-3.615083024;-28.02787547;7.674777171;-5.458903358;-18.34915338;1.971717686;-15.29220756
18.79851282;-4.622507432;-7.930656366;-0.821910665;4.860645222;-2.21023292;-11.75764868;14.18296298;-21.61817786;10.31131526;-12.83957089;-16.16440994;-2.607777691;-32.13450295;2.341648926;-4.732681358;-15.88913264;2.761911883;-18.8865564
14.5326605;-4.016299416;-4.534232498;0.830624617;3.682996277;-3.142769067;-12.11608365;15.02616493;-19.16115213;7.836430536;-11.20809731;-21.1416852;-2.526654746;-30.43274104;-4.169877294;-3.905418541;-12.14653359;3.250630568;-15.79519121
10.13913783;-3.590873894;-1.395746066;-0.30058094;2.943991781;-1.428614995;-12.10304663;15.8111708;-13.85959561;4.641525683;-8.791274283;-24.62012909;-3.663021187;-24.0213003;-7.579113205;-3.653862547;-7.96547078;2.568751336;-8.240387371
10.46784907;-3.825958967;-0.338258353;-4.508808948;1.895407926;2.298175491;-11.55579104;15.04841886;-10.24306754;0.778384969;-8.073210838;-24.81484821;-4.823868925;-17.24523454;-5.39064951;-4.208835474;-4.047593563;0.801897045;-0.025321102
17.7510438;-4.604468031;-1.132546189;-9.324069121;0.00750097;6.073763444;-10.8220301;12.55157832;-11.28767254;-3.558174891;-9.824260687;-21.56813894;-4.240029297;-14.02228852;0.923742637;-5.14143147;-1.038187302;-1.044108239;5.59522784
28.34819826;-5.328730721;-2.248022276;-11.49124483;-2.769285616;7.552445331;-10.46217752;9.362117445;-16.58879295;-8.322608057;-13.14957069;-16.92133491;-1.397255224;-15.26220163;6.663023632;-5.730840317;0.346722078;-1.801073786;7.298769552
33.55758169;-5.464922206;-2.459129086;-9.962959346;-6.015704027;5.381291552;-10.74185372;6.670212994;-23.18294952;-13.50267752;-16.80355755;-14.23569056;2.026802657;-19.14054075;7.194103901;-5.581023186;-0.486331974;-0.982639533;5.805619198
25.03537887;-5.008828142;-1.881122817;-7.001151104;-8.981419121;0.170605465;-11.38418123;4.893614565;-28.0171113;-18.65495004;-20.33563511;-16.20666139;3.30372542;-23.25262956;1.342551703;-4.936303673;-3.493580428;0.935900986;2.986998536
1.433190177;-4.45320874;-1.630515368;-6.113458742;-10.75246202;-5.63020787;-11.8145002;3.774029814;-29.92835362;-22.63378559;-24.03595004;-22.99158583;1.137399987;-26.28468152;-7.72845798;-4.426062098;-7.599396088;2.942132879;0.668599185
-28.91893962;-4.306984927;-2.523930041;-8.590874322;-10.47814426;-8.987861639;-11.675615;3.224713858;-29.73342287;-23.98974864;-27.93468727;-31.76475023;-2.707355198;-27.85749214;-14.78923178;-4.484796963;-10.93095465;4.19454597;-0.216529766
-52.0917708;-4.627993588;-4.024549612;-11.95038319;-7.706875233;-7.969033781;-11.14072074;3.863089344;-28.82085606;-21.91593569;-31.04114296;-38.17369717;-4.360559266;-27.34545897;-16.16530703;-4.976394447;-11.74994131;4.449136894;0.190156822
-57.12763103;-5.004550518;-4.40549283;-11.99299715;-2.746893829;-2.848617889;-10.737203;6.496679381;-27.83533269;-17.04131096;-31.75527328;-38.91647913;-0.944881055;-23.52408001;-11.9956288;-5.351470441;-9.537911398;3.972945698;1.081721063
-43.06613773;-4.989087133;-2.071840887;-6.789933258;3.184652508;4.009417706;-10.84637392;10.97462072;-26.65561437;-11.36941709;-29.22196928;-33.84387418;6.669963874;-15.85145462;-5.671257718;-5.176246722;-5.445936992;3.169722423;1.641436943
-19.22813474;-4.559031602;2.983331222;1.117428163;8.249605825;9.395045054;-11.34399924;15.62076895;-25.40163093;-7.27933039;-24.41731061;-26.20176849;13.96818632;-6.173301516;-1.248455471;-4.540530016;-1.697861635;2.311960535;1.536997159
1.406365539;-4.157282874;8.76807513;6.607106315;10.71014837;10.87499498;-11.71621464;18.07017471;-25.12478849;-6.22397052;-19.86364646;-20.76802109;16.03640835;1.235457576;-0.968836182;-3.975675909;-0.279050401;1.557520229;0.996356909
10.6611757;-4.26640526;12.35449316;6.512617374;9.772101753;7.917446318;-11.54471121;17.03056596;-27.17320066;-7.977752437;-17.99389718;-20.97464892;11.54097101;2.095086207;-4.495428253;-3.967375963;-1.770882412;1.095141057;0.493874078
9.250970461;-4.918241052;11.76714485;2.70208414;6.07925626;2.018732976;-10.91107669;13.49249005;-31.64118328;-10.85480381;-19.35808729;-26.77100996;4.138112693;-4.547691632;-9.814578843;-4.513264063;-5.088988499;1.153604995;0.327081615
4.077150318;-5.612033346;7.423758064;0.645457597;1.517142219;-4.099014464;-10.3416595;10.21352256;-36.4310786;-12.64557053;-22.08147845;-34.54874854;-0.121456599;-14.86588346;-14.5578081;-5.123985191;-8.23758609;1.808449764;0.411173865
1.774060303;-5.738660714;2.105620368;4.452921981;-1.651249083;-7.748677242;-10.33684017;9.724927493;-38.14514445;-11.65284679;-23.05736246;-39.19672655;2.380837811;-22.26165789;-16.70894989;-5.256839934;-9.509881034;2.793612123;0.420546928
4.064667738;-5.133614884;-0.620308647;12.79450488;-1.907724698;-7.435510248;-10.91336389;12.41508289;-34.46518603;-7.344434663;-20.04946293;-37.07160296;9.51682514;-21.67697673;-14.77051031;-4.783890441;-8.345983233;3.572640949;0.116537372
8.179335413;-4.249969857;1.413096534;19.64865081;0.731547835;-3.480172232;-11.58043147;16.24916806;-26.2268967;-0.508963549;-13.22726591;-28.13569733;14.3896692;-13.06251703;-8.140121006;-4.079772405;-5.405703861;3.684260344;-0.442623418
10.8432223;-3.78153288;7.563079155;19.61358149;4.710272357;2.115835422;-11.77552097;18.34946277;-17.38992412;6.987991594;-5.121317214;-16.02379163;10.1466177;-1.376748789;2.055815436;-3.670058594;-1.988538819;3.088191912;-0.986881452
11.51295822;-4.066904187;14.69655678;13.1966097;7.762056495;6.551095611;-11.36600323;17.14173289;-12.65546713;12.7935023;0.873874882;-6.020879913;-4.831018561;6.879180458;12.50234664;-3.774240179;0.712947943;2.197005509;-1.309902264
11.98709465;-4.80732483;19.12265678;7.074805188;8.169432638;7.556138298;-10.76227941;13.38207985;-14.34974245;14.98946701;2.403440548;-2.134833901;-25.21393878;7.984355194;18.75268925;-4.152432474;2.099105206;1.546725676;-1.454083961
13.50171954;-5.348193283;18.95135263;8.488682033;5.770811042;4.597284993;-10.54214362;9.404743908;-20.83244897;13.12142586;-0.674480903;-4.945916591;-41.81154954;3.078904494;17.83524284;-4.369518675;2.264352038;1.387416413;-1.620803615
14.92560592;-5.264704806;15.32543862;18.23640994;2.117243819;-0.717536593;-10.92978601;7.410374021;-27.57125055;8.762359988;-6.350486439;-11.44505308;-47.28756586;-3.212790995;10.76135418;-4.208822057;1.827075047;1.549674426;-1.901802822
14.25908034;-4.721904707;11.6343446;28.46949827;-0.37891609;-5.402777387;-11.60120969;8.240608126;-30.05508053;5.003130257;-11.50638739;-16.91792292;-40.52246923;-6.224331291;2.703343862;-3.850922139;1.626343681;1.685466001;-2.11862705
11.82210301;-4.292885739;11.16442054;27.85058049;0.127285297;-6.751844202;-11.98634374;11.40489927;-26.46206943;4.825451838;-13.31112662;-17.75305024;-26.78670019;-4.112659892;0.035538695;-3.672591672;2.343309288;1.632119418;-1.962015185
11.26437174;-4.416011118;14.78487877;10.47712044;3.735003518;-3.976133883;-11.78559178;15.90143096;-18.36558633;9.198491549;-10.41096227;-13.5233316;-13.97107534;1.617117124;5.949513928;-3.878208534;4.109465808;1.539536409;-1.320442636
16.37823194;-4.995488518;20.34048406;-18.49879107;8.620372945;1.216461396;-11.22891098;20.80156081;-9.325551656;16.207732;-3.57102032;-7.125111971;-7.752959521;7.700929393;17.85527095;-4.316252521;6.282583806;1.639610043;-0.470110406
26.1128648;-5.506372647;24.24391207;-45.3276711;12.04332265;5.569964487;-10.84818138;25.11740393;-2.656878237;22.01538042;4.446590971;-2.918289888;-8.915271733;11.22622438;28.77248023;-4.639023066;7.629277598;1.897230189;0.101947758
32.84404008;-5.493851627;24.11354212;-56.65314139;11.97726032;6.243868625;-10.98115393;27.46967549;0.066188479;23.18491271;9.876727838;-4.015952429;-14.11528119;10.84043446;31.96963524;-4.633415048;6.972263563;1.916123587;0.12263984
26.82524516;-4.99564139;20.44812907;-48.32603869;8.363573328;2.566967808;-11.46595317;26.40798673;-0.892242458;18.82631971;9.628861494;-10.38698507;-18.90036836;6.800330024;25.53658996;-4.400685792;3.995369195;1.241986514;-0.184361255
4.240397566;-4.496422104;16.03541953;-27.54311709;3.18910666;-3.550950259;-11.80203826;21.50425813;-4.256865248;11.05623422;2.975806928;-18.9226083;-20.54929484;0.507992197;13.52991095;-4.225841676;-0.349026031;-0.18124768;-0.261350492
-27.71451406;-4.464312689;13.60829779;-7.128536358;-0.676726373;-8.80663475;-11.62081137;14.28334961;-8.582249746;3.484424212;-7.727190661;-25.38107399;-19.00687497;-5.897731307;2.933350506;-4.28337995;-4.230068359;-1.823851054;0.269940884
-53.77129315;-4.908401408;13.74342462;3.253983849;-1.151041749;-10.49363339;-11.02723511;7.842695725;-12.61842066;-1.096625297;-17.97017453;-26.94729755;-15.8977144;-9.979272694;-1.152532327;-4.476462359;-5.99317125;-2.86381288;1.193464873
-60.31272291;-5.372680783;14.83107076;2.345665294;1.929721554;-8.011051854;-10.49942623;5.042909804;-15.37848411;-2.114810191;-23.39803511;-23.79087095;-12.89124328;-9.842486203;1.508889063;-4.56176193;-5.217160579;-2.757109737;1.793825163
-44.77653602;-5.370692738;15.1301474;-4.157267063;6.86488237;-3.005762671;-10.44503074;6.555862178;-16.29728516;-0.843253187;-22.22649796;-18.70330431;-10.72307477;-5.266233972;7.065259521;-4.422178639;-3.029990419;-1.632061305;1.437972199
-17.39481708;-4.851893673;14.93959391;-9.404481244;11.18568653;1.784765826;-10.82843769;10.45464719;-15.51310787;1.154692524;-16.21247262;-15.1625194;-9.268310965;1.712257894;11.0033906;-4.202628511;-1.421931545;-0.199367401;0.163510417
6.178967212;-4.260583015;16.58148322;-10.30869185;13.01556878;4.124198287;-11.21241495;13.86772589;-13.888644;3.309227451;-9.447523249;-15.14797057;-8.161027564;7.597828107;11.28594886;-4.164455517;-2.002517135;0.726863334;-1.259828559
15.59059422;-4.128790921;21.74033054;-8.082400053;11.87589371;3.32138457;-11.17110923;15.41362524;-12.46156829;6.053188558;-5.690233153;-18.07734422;-7.247209018;9.493755725;8.974369804;-4.401953374;-5.036662601;0.702482289;-1.897308
11.63072263;-4.580876541;28.32380683;-5.196983802;8.620758405;0.276902209;-10.68864361;16.32427508;-11.57485614;9.820829778;-5.995552235;-21.38925966;-6.582142725;7.101771235;6.513030116;-4.713115051;-9.369575174;-0.213157283;-1.392628414
3.293917529;-5.212781814;30.05240459;-2.419911406;4.788570123;-3.228356858;-10.17443578;19.20580851;-10.41330347;14.19938556;-8.228665931;-22.206638;-6.177470211;3.104572754;5.687186485;-4.773124987;-13.20084646;-1.662396608;-0.256007508
-0.589102239;-5.4622412;20.17952785;1.286187029;1.907266062;-5.426038844;-10.08362996;25.45709015;-7.505176058;18.1227218;-8.745302202;-18.9443065;-5.828951781;1.458114034;7.024676397;-4.457371263;-15.10994469;-3.253725158;0.55932462
2.193603381;-5.12874474;-2.777168655;6.518916028;1.080528975;-5.201069634;-10.49576504;33.62614288;-1.97546244;20.86686987;-5.022692878;-11.98165116;-5.150019531;4.734430022;10.59334664;-3.996594757;-14.6729106;-4.638841765;0.434517946
7.540886168;-4.559070188;-31.77166624;11.71679588;2.807656032;-2.390159441;-11.04048005;40.22800717;5.38274008;22.74723785;2.57265629;-3.281728041;-3.730538137;12.43251153;16.68023754;-3.791092024;-12.41866829;-5.433864416;-0.450265804
10.58757463;-4.321033225;-53.80704617;14.06906246;6.837114995;2.169549831;-11.23588938;42.37342067;12.13584804;24.68619757;10.99413661;4.535287421;-1.335656568;21.42447402;25.17706839;-4.037395524;-9.3612884;-5.227765403;-1.351952658
10.61186999;-4.663379975;-57.54667164;12.24342215;12.03718512;6.824097943;-10.92463702;39.90946131;15.44355612;26.97834945;16.39784819;9.076239711;1.861797825;28.05200395;34.22451965;-4.518197249;-6.521743335;-3.826860477;-1.665590049
10.80193533;-5.264068883;-40.98024401;8.075771931;16.53245551;9.615975265;-10.40602894;35.1921758;13.66201721;28.49722574;16.33271105;8.783479368;5.079363421;30.22712063;39.92839371;-4.773788175;-4.661525796;-1.569193092;-1.444704196
13.83396341;-5.510533423;-13.46856996;5.261875797;18.34327178;9.120540589;-10.14703726;30.77544496;7.204246735;27.31187444;10.87530705;3.365527351;6.992089922;28.13984323;38.29404334;-4.520421033;-4.166508705;0.654435334;-1.271961767
18.34123136;-5.067582506;9.792497646;6.058957086;16.38581668;5.282744439;-10.34453192;27.23958041;-1.837241537;22.38673145;2.262530024;-5.885061795;6.315639244;23.48264318;28.36860862;-3.935293432;-4.946704742;1.859852086;-1.616790278
20.20971059;-4.217703273;17.31835106;9.11171424;11.24911475;-0.294103729;-10.74553675;23.25518471;-10.84592009;14.91171114;-6.404564853;-16.11694913;2.784569121;18.22799696;13.96579056;-3.530019531;-6.385743852;1.65466226;-2.299289551
17.44414414;-3.654874106;8.236055799;10.62569893;5.108742316;-4.977606187;-10.88995988;17.81735135;-17.69039051;7.962207707;-12.43698088;-23.64997848;-2.124296432;13.98999908;2.01437701;-3.705137784;-7.529474619;0.594577869;-2.591867569
13.31543314;-3.901350436;-8.236696213;7.976110328;0.631989305;-6.456230286;-10.54798814;12.37360395;-21.03595895;4.578052383;-14.2458853;-25.4328611;-5.514045888;12.05830595;-1.768848809;-4.380261365;-7.595354181;-0.168394742;-1.901227403
13.80439602;-4.856282834;-20.01452226;2.429620771;-0.54010995;-4.051316649;-9.94521822;10.46173717;-20.18628147;5.75591785;-11.49879626;-20.61302605;-4.619945278;13.38926921;3.243177832;-5.042388682;-6.554582023;0.242110826;-0.416654453
21.02585628;-5.870039063;-20.48875684;-1.667084018;1.242893887;0.852997818;-9.566085735;14.75041391;-15.08071502;9.972607147;-5.071679035;-11.22259927;1.261924947;18.02787223;12.23999192;-5.183381894;-5.314593078;1.708917325;0.897339525
28.94899428;-6.274651707;-11.94574054;-0.646027428;3.901851636;5.582404353;-9.715491739;24.03154859;-6.706411289;14.54515381;3.094173257;-1.322493133;9.921561357;24.3820217;18.552069;-4.741475808;-5.208907133;3.177526077;1.018790876
26.52988122;-5.906157609;-2.166119871;5.161773927;4.967114391;7.684478966;-10.24018269;33.19312755;2.551446101;17.56805385;10.44528889;5.096221586;17.36955954;29.3913881;18.40725761;-4.14947852;-7.027014504;3.499195205;-0.29206362
6.862134637;-5.178248569;2.369668417;11.63355652;3.115832;6.24406956;-10.66348511;36.7876743;9.396016018;18.78558038;14.7499878;6.243218736;20.40474923;30.10018698;13.19640044;-3.943310033;-10.26781311;2.400900398;-2.258368399
-25.14317578;-4.675024118;1.027301416;14.48029158;-1.077259096;2.240014648;-10.60878278;33.47675366;11.14476919;18.89291634;15.216971;3.345699089;18.78930483;25.79672393;7.697229747;-4.282746555;-13.24456347;0.771740063;-3.680354199
-53.85790677;-4.649513355;-1.881832841;13.01378556;-5.583576508;-2.157143682;-10.1271516;27.42705621;7.468600129;18.29840222;13.06095379;-0.371685699;15.29100858;19.00094381;6.039600683;-4.817281738;-14.07415135;-0.006815726;-3.869014613
-63.18960132;-4.870464706;-1.868075663;10.60741442;-8.16798214;-4.804250569;-9.638088467;25.03211741;0.97862317;16.80066667;10.89507571;-1.840730595;13.4295016;14.17763379;8.869717978;-5.016436074;-11.89349078;0.837335168;-3.138865625
-48.38155315;-4.919666053;1.671211402;11.43656053;-7.609779565;-4.588899231;-9.54757747;29.39443769;-4.116996775;14.50368344;11.0832505;0.001572866;14.65777965;14.82064555;13.80639475;-4.660195264;-7.431767029;2.837141033;-2.461803589
-19.8082049;-4.62974203;5.498250624;16.53231398;-4.234160534;-1.782335747;-9.895865654;37.28623138;-4.659889928;12.75329667;14.04504135;3.822788419;17.31035189;21.01320284;18.21722213;-4.039518653;-2.532312666;4.655955598;-2.603730003
4.614310732;-4.244498547;6.117014415;22.82095645;0.373262953;2.234668886;-10.34785219;41.5536482;-0.73138295;13.5935117;17.73887917;7.052725289;18.29188022;29.36466455;21.40323873;-3.683787179;0.997514988;5.155486191;-3.491309378
12.49147713;-4.164985835;3.194653117;26.02147053;4.144782676;5.590339567;-10.51713911;37.32798497;4.255707223;17.71402248;18.85378333;7.648931363;16.15158095;35.40253054;24.19192159;-3.867317572;2.358684826;4.280225774;-4.326744047
5.075273322;-4.539875139;-0.40319335;24.63266641;5.378298053;6.62906458;-10.3129363;26.82;5.798180061;22.76670594;15.05087017;5.266115728;12.83502149;36.56095557;26.73518606;-4.350428359;1.917298092;3.037535543;-4.305394668
-5.748443187;-5.098300467;-1.753902088;21.19728192;3.38937069;4.568860919;-9.992791111;18.19737934;1.424713488;24.23508142;6.787317144;1.222355698;12.31477384;33.51234576;27.23454146;-4.594360927;0.597536075;2.616700736;-3.287978233
-8.457129141;-5.38520188;-0.899133875;19.62393696;-1.154608134;-0.035806187;-9.889366405;18.83235244;-7.443643582;19.00965395;-2.542157147;-2.445520716;16.90748095;29.06043096;23.41872019;-4.252562329;-0.866913246;3.403811527;-1.865084831
-1.254488668;-5.175669137;-0.621010519;21.17767996;-6.341967426;-5.281077273;-10.08317505;28.21538814;-16.19452315;9.006988162;-8.314652704;-4.047645066;24.28071167;25.82924875;15.64502363;-3.486431445;-2.212876103;4.709108011;-0.817779537
7.915789823;-4.677814259;-3.105181309;23.15532155;-9.692920916;-8.583600942;-10.33282868;36.71185628;-19.82633686;1.269335428;-7.1972711;-2.820988282;27.98174251;24.76709492;8.35860771;-2.816744916;-3.379268856;5.395280491;-0.496452525
9.977505104;-4.335645644;-6.853046853;21.7705111;-9.319245461;-7.937520343;-10.32069664;31.99994778;-15.99371716;3.364045727;1.04810775;1.031998086;21.68;25.42957642;7.640257504;-2.651813245;-4.142426752;4.833624423;-0.655441389
3.72458811;-4.419387742;-7.242071591;16.60061234;-5.076362146;-3.171309194;-9.970439163;8.753866984;-6.363150636;17.01684747;13.46569191;6.5319232;4.204416864;27.21513829;16.14637262;-2.931747623;-4.151298834;3.372454157;-0.816527833
-3.037243711;-4.786516076;-0.749284553;12.05989568;1.045051141;3.623886387;-9.528811912;-25.93536666;4.452817432;35.24105553;25.4118278;12.11097815;-18.55728288;29.95417863;29.72050432;-3.217819547;-3.393404486;1.963754465;-0.747603319
-1.170260989;-5.031951421;10.8962889;13.7948681;5.785328286;8.983089142;-9.333898455;-56.04593623;11.56155231;46.24740393;32.69032501;15.90184129;-36.72739356;33.21554662;39.3151863;-3.138443014;-2.606925019;1.331414807;-0.58501699
10.37420985;-4.879331695;20.86211582;22.69624974;6.463971414;9.945178989;-9.49355218;-66.91695427;12.38073457;42.11859043;33.1955571;16.35029944;-42.57875775;35.35905783;37.63291448;-2.766904321;-3.099287283;1.428263762;-0.526368682
22.12675556;-4.442299305;22.33032017;32.02785468;2.741027337;5.842198978;-9.783664817;-54.91758606;7.749327581;25.75084906;27.45114392;13.08503912;-35.39249297;33.93489872;25.47458192;-2.565984163;-5.925309241;1.622694883;-0.467941159
21.25981998;-4.111988377;14.59810575;31.12700036;-2.929317232;-1.163094111;-9.865148581;-29.43055934;1.17894011;9.959148934;18.10439549;7.531418538;-21.50532517;27.74690236;12.18851499;-2.939496297;-10.99166721;1.381319114;-0.015581261
2.471779544;-4.181110531;4.668548337;13.62370244;-6.627810181;-7.225438299;-9.612673729;-5.896691186;-3.115698255;8.290975848;8.818352113;2.642656981;-9.575576573;18.89930017;8.896546437;-3.806354808;-16.82690893;0.785377354;1.092806248
-26.63835384;-4.561988749;2.202946777;-16.19253314;-5.35339458;-9.000514301;-9.239122482;4.664901087;-2.304986899;23.90042151;3.006838062;1.588691348;-4.649108535;12.5072049;19.17952871;-4.606864653;-21.29711859;0.407088392;2.565015254
-50.35766878;-4.865108368;11.37074957;-44.43340729;1.06012028;-5.529553765;-9.092685985;1.924538346;3.795614586;45.2334238;2.715789996;6.013233504;-5.390101941;13.45407172;34.64657795;-4.760957606;-22.81812551;0.685345123;3.601395019
-56.000354;-4.764099167;26.25959948;-56.08195644;9.767067906;1.30759217;-9.316719799;-5.77068277;12.74381149;52.80103477;7.903196571;14.93194308;-6.273933068;22.36479365;39.63839512;-4.178215534;-21.22037536;1.41054632;3.463639637
-42.52904543;-4.303707569;34.14098693;-44.92847277;16.59146842;7.970381305;-9.698108939;-9.235549793;20.67249476;32.96241578;16.39945512;25.06379712;-2.682899124;34.25881369;22.35247368;-3.357490221;-17.68776197;1.830359433;2.10957114
-20.20799496;-3.861353904;24.67028448;-17.6665308;18.45029242;11.26305052;-9.856091537;-5.518067632;24.1367775;-11.18426633;24.72841586;32.49589705;5.256692462;41.60974093;-15.64636758;-2.973614703;-13.88943147;1.316228233;0.324651555
-2.328467526;-3.797942984;-1.912904286;10.7782808;14.97178359;9.955643221;-9.600972572;1.078991966;21.79133712;-60.18678982;29.60417357;34.70530726;13.01920207;39.89280526;-58.86147205;-3.307774723;-10.98165804;0.004309433;-0.805437893
3.922615541;-4.124012945;-34.06668546;27.03500476;8.405007908;5.186704249;-9.125161182;3.994772723;15.08598859;-90.21788174;29.45316157;31.73479334;15.65410735;31.23859;-87.13782095;-4.020337707;-9.152653963;-1.18147166;-0.659160423
0.611487277;-4.491668324;-56.47091984;27.01293667;2.098027222;-0.379823015;-8.83898363;0.614081063;7.559162173;-88.36875266;25.12415016;25.89212323;11.97026555;22.93782258;-88.37422694;-4.46028479;-7.883710663;-1.194237769;0.553430159
-4.976965979;-4.517532375;-60.14848608;16.51584465;-1.338405758;-4.010097656;-8.994917601;-5.598523892;3.01630625;-60.45590921;19.30424718;20.28120076;5.508241167;21.67175692;-65.75518063;-4.229327233;-6.563058814;0.30644796;2.09725014
-6.996743606;-4.134214135;-47.64422738;5.402599758;-1.096313596;-4.171565208;-9.44708468;-8.448769724;3.547698227;-26.07030622;14.92063941;17.12025158;1.626118253;28.1028588;-34.72477616;-3.500986105;-4.939080518;2.634875973;3.36703126
-4.640685283;-3.644860272;-29.80107643;0.481978803;1.899742603;-1.100295916;-9.774267842;-4.575066915;8.506741798;-4.927939421;13.4759161;16.77778919;3.201779595;36.46930633;-12.42803723;-2.827656154;-3.175418303;4.529539305;4.272974754
-0.730672866;-3.436089442;-17.27653244;2.313201537;5.807095461;3.44165614;-9.65987676;3.647901898;15.03383281;-4.585745687;14.33923746;17.89459359;8.48516815;39.74503105;-7.43054543;-2.633803653;-1.646107517;5.016026279;5.032056871
2.061357982;-3.623531776;-13.66356815;7.165118867;8.776697559;7.024420518;-9.181088422;10.16847833;19.76467294;-17.87730918;15.39906225;18.32220861;12.76657012;36.03701528;-16.54366998;-2.865384775;-0.737213527;4.020068359;5.641105313
3.403170929;-3.962179686;-15.09400665;11.26349601;9.57586408;7.67865289;-8.73862334;10.28851388;20.64;-30.69084574;14.58730769;16.2892487;12.3761218;30.47344061;-29.74471207;-3.102236169;-0.756283849;2.305361466;5.640874841
4.463116876;-4.09882732;-15.51889018;13.45234458;7.905012946;4.868240521;-8.688773461;4.336589886;17.7463599;-33.17718125;11.23724213;11.27098997;7.687916005;30.43813622;-38.32156787;-3.001963627;-1.846776512;0.857391944;4.506250629
5.897724873;-3.918782001;-12.42587302;14.7288994;4.494633724;-0.137178633;-9.015971791;-2.929183481;12.8388159;-25.81718285;6.413351706;4.283318804;2.714264321;37.85243648;-39.90290923;-2.640695824;-3.819847021;0.227852954;2.350701631
7.254916056;-3.651606833;-8.143302545;16.14881412;0.91837389;-4.780372506;-9.349392073;-6.385672155;8.0811915;-16.73074792;2.098096777;-2.459203265;1.71683268;45.30975259;-37.52778885;-2.426327979;-6.02965986;0.302852594;0.227338181
8.210560472;-3.633376535;-6.341025021;17.56658393;-1.01955028;-6.513905766;-9.310058594;-4.506677341;4.933756739;-13.72045022;-0.114386185;-6.424265423;5.680019531;40.25026306;-34.99791857;-2.674101501;-7.551037197;0.566835598;-0.425301535
9.679830721;-3.954906333;-7.675619903;18.15533901;-0.228220254;-4.262504772;-8.867880615;-0.047749281;3.805972425;-18.07230862;0.086394569;-5.907994654;11.54961042;14.79860957;-33.21198059;-3.260261746;-7.737152225;0.56334522;1.115498886
12.98439698;-4.340446847;-8.933355863;17.59990501;2.889090943;0.815721201;-8.376026467;2.750535621;4.402675385;-24.71651297;1.764213186;-0.972062816;14.84602694;-26.29657974;-30.40438451;-3.699239284;-6.836530505;0.188086125;4.104948721
17.74714175;-4.386805302;-6.394000876;16.41532293;6.443055245;5.846427201;-8.247609609;1.778256243;6.221980406;-27.58917304;3.541405277;6.365292108;13.50499683;-66.45449862;-25.25677657;-3.587710635;-6.115701069;-0.328340958;6.66755321
21.16130618;-3.948155874;0.002794927;15.19736417;8.069004918;7.854473672;-8.571551691;-1.567059522;8.745207105;-24.96155053;4.52905385;12.95790102;9.783480202;-87.15377369;-19.3496875;-3.002429666;-7.178757763;-0.63010663;7.110767579
20.25538296;-3.303008161;5.905954779;14.01326568;6.414482904;5.544554903;-9.024379775;-4.118210686;11.32092571;-20.24794559;4.763120266;16.09069127;8.581353042;-80.07884276;-16.3799587;-2.466504284;-10.79766818;-0.441262899;5.243133561
15.45426132;-2.932875361;6.203360376;12.9101163;2.105879035;0.122796354;-9.163283078;-3.964784876;13.10620108;-18.20446004;4.959683091;14.94436279;13.35676771;-52.56091441;-18.82100602;-2.492872889;-16.07348194;0.32589423;2.605437676
11.57211063;-3.102491209;-0.159503198;12.9034297;-2.54563306;-5.394069876;-8.832907521;-2.036334973;13.35265239;-20.39673168;5.877621419;11.05567029;22.75446076;-22.22491521;-25.18110952;-3.112034774;-20.65621839;1.531186436;1.314292475
14.10644719;-3.623309018;-8.696649676;15.75178586;-4.967682374;-7.95978185;-8.310361044;-1.004076731;11.91419362;-24.02527484;7.765669614;7.394477519;30.64;-4.879937299;-30.5428569;-3.820889854;-22.0376809;2.805741924;2.325099293
23.28627072;-4.021759486;-12.82954714;21.84124093;-3.920726512;-6.245028745;-8.051979262;-2.684204902;9.526830764;-24.8435363;10.20711781;6.541212977;29.77308873;-4.670518434;-30.17619871;-4.014558721;-19.11196444;3.636891971;4.455612245
31.45464151;-3.96415775;-9.383769877;27.86582878;-0.182870538;-1.286590461;-8.272903549;-6.339804394;7.5051063;-21.2198468;12.35382796;9.065894931;16.69256192;-13.45061996;-23.31688884;-3.52194638;-12.92979774;3.593791786;5.012520283
27.46490551;-3.551814955;-1.289083996;27.19255808;4.064796741;4.263787419;-8.747205473;-9.344491728;6.957345331;-15.61941536;13.32103006;13.13223513;-5.542715506;-19.01256219;-14.01111063;-2.763689798;-6.10428868;2.622038089;1.685253336
5.762396052;-3.216094868;4.970407951;14.05344146;6.602638916;7.700243182;-9.015455368;-9.541531914;8.047353215;-12.35467622;12.51506659;15.59963497;-28.68092893;-15.12037788;-8.317735221;-2.386454183;-1.27076358;1.189144047;-5.595678286
-27.13559285;-3.310439432;4.959762757;-10.94644606;6.294948789;7.633491497;-8.811147442;-7.198147626;9.847904276;-13.84313237;9.810619083;13.96292331;-43.85491275;-5.484399334;-10.03984993;-2.698485659;0.357598579;0.086419175;-14.16767972
-55.03957418;-3.777059449;0.017747187;-38.74716657;3.336005162;4.457036139;-8.312901466;-4.881095252;10.91452503;-18.76297312;5.615193118;7.961814863;-46.46336858;0.789676667;-18.1711089;-3.409801676;-0.566370288;-0.06256871;-19.92554201
-62.74118582;-4.199113956;-4.165134742;-56.1070885;-1.242126563;-0.133584444;-7.986155268;-5.387943835;10.19162375;-23.55413578;0.857215642;-0.089302493;-38.30418115;-2.220009766;-27.73683778;-3.903641674;-2.222769186;0.745391547;-19.61817028
-47.06702758;-4.193342137;-2.778695926;-54.1505302;-6.173721541;-4.081662514;-8.154545873;-9.469018882;7.646761858;-25.6330133;-3.149384956;-6.436551255;-25.80929698;-12.01253384;-33.10798566;-3.786069859;-2.841405845;1.85756693;-12.75093506
-19.3857096;-3.780029297;3.81421673;-34.98308332;-10.22271478;-5.811848201;-8.692368526;-15.17321424;4.248744826;-25.31247215;-5.051920607;-7.854909483;-15.7806226;-19.86739431;-31.28862632;-3.214837985;-1.601957255;2.435270582;-1.989903087
2.843154108;-3.381927867;10.60300374;-10.83512947;-12.21802806;-4.701748639;-9.123421089;-19.28036696;1.354738919;-24.86666106;-4.015083628;-3.403051785;-11.51329765;-18.2309659;-23.14812254;-2.71865635;1.207332961;2.100241404;8.100406842
8.921297887;-3.441745909;12.74992604;4.276318675;-11.29927972;-1.206649217;-9.042915724;-19.6502562;-0.088735755;-25.94334382;-0.297266216;4.931764117;-11.70085953;-6.94;-12.35247697;-2.688243539;4.59912907;1.242831722;13.23206065
1.867078213;-4.001410172;10.21857781;4.276285328;-7.529754713;3.273765161;-8.483714654;-16.71508891;-0.087451192;-27.97806534;4.489501702;13.02700011;-12.48760205;6.709952621;-3.236692752;-3.018227405;7.406883738;0.717964081;11.34078423
-5.921003812;-4.630384564;7.829053036;-5.394201481;-2.42022154;6.80203532;-7.895779054;-13.1159167;0.359098611;-29.1176999;7.734577527;16.49961736;-10.90637084;13.73746076;0.96312098;-3.231952928;8.626392097;1.150155142;3.410541524
-4.173231585;-4.781049332;10.5326589;-13.14259286;1.363212607;7.620078125;-7.755622507;-11.88911044;-0.291930183;-28.60311322;6.829539229;12.79453243;-7.152666012;10.13101674;-1.059614393;-2.96738262;7.625029346;2.406080129;-7.101798722
6.642692214;-4.264692923;18.21903699;-11.06560692;1.345574787;5.012424275;-8.154678346;-14.53997187;-3.370821218;-28.07354166;0.456470045;2.481693955;-4.168236915;-0.831444656;-8.557083802;-2.362006806;4.379418397;3.671634169;-15.88692374
16.88528695;-3.429650364;25.07424756;-1.140270087;-3.060106101;-0.125297976;-8.73134425;-20.22192934;-9.225435586;-30.26993209;-10.48282422;-10.92547572;-5.047790379;-11.87060237;-18.98701475;-1.963867955;-0.297477085;4.076711376;-19.68712659
17.62718937;-2.884338067;24.56363184;7.234526117;-9.775733087;-5.487415985;-8.999476417;-26.35434466;-16.788261;-36.1814057;-22.91088881;-22.62592003;-10.35829204;-17.33134491;-28.71637536;-2.234562909;-4.82034798;3.358607694;-17.63703313
9.610858599;-3.006565;15.88542828;5.986206006;-15.03252048;-8.427929716;-8.771815832;-30.10941866;-23.78939141;-43.36105182;-32.78124824;-28.87586363;-17.44829982;-16.50746829;-34.33463036;-3.09520987;-7.408644364;2.030431276;-11.44393927
2.89888293;-3.66020904;5.933494725;-4.280019531;-15.67920758;-7.404085137;-8.300417268;-29.84463485;-27.68402965;-47.2807298;-36.98487586;-28.79;-22.26565245;-12.5886508;-34.24815502;-3.941043356;-7.001767694;0.943667207;-4.337810051
7.287330201;-4.346873302;4.297112669;-14.70801494;-11.29566805;-2.93267573;-8.021137909;-25.79179192;-26.94653151;-44.88352171;-34.97822915;-24.58585151;-22.27671938;-9.036110263;-29.62029244;-4.132205595;-3.941985598;0.636728728;0.662114273
22.07353769;-4.635879075;14.8623901;-15.95246226;-4.55978883;2.601662461;-8.148565802;-19.80494577;-22.02789096;-37.36148846;-29.14619351;-20.11766961;-18.24552981;-6.960106326;-23.79483895;-3.535294379;0.127311348;1.012088295;2.226928201
34.73167648;-4.48765228;31.00293047;-6.416632059;0.494103167;6.250986559;-8.493685168;-14.38952569;-15.30336683;-29.62336424;-23.53321776;-18.57222022;-13.52264052;-5.486810813;-20.30495617;-2.636522258;3.192484826;1.566591226;1.126582995
30.43809683;-4.207768724;38.99231529;6.29406967;1.147039413;6.159870266;-8.660684443;-11.47222029;-9.870712899;-26.64625481;-21.54193547;-20.72429868;-11.42548938;-3.994740425;-20.71188621;-2.124333136;4.050048828;1.908784265;-0.612946793
4.790972424;-4.114164634;27.78692293;11.99003906;-2.278367371;2.570457251;-8.4273536;-11.45495999;-7.821495659;-29.59330836;-23.9256002;-24.78181032;-12.76224126;-3.470803643;-23.79927892;-2.308606896;2.937375648;2.071954109;-1.196932374
-31.08623935;-4.24633114;-2.057120527;6.768532618;-6.813769196;-2.406486354;-7.951106576;-13.02229136;-9.059213631;-34.8798667;-28.35393321;-27.80191927;-15.40518925;-5.458654703;-26.69633466;-2.884107095;1.206776105;2.359462044;-0.186643954
-57.72321353;-4.376379882;-37.35466834;-3.665083617;-8.985030245;-6.057601315;-7.61438677;-13.87830058;-11.4791044;-36.98940617;-30.92641277;-27.64826638;-16.17381459;-9.761937533;-27.03678136;-3.234511183;0.337071332;2.914522818;1.450272134
-61.21721097;-4.279969027;-60.35314485;-9.130782689;-7.109212695;-6.56774675;-7.663041741;-12.10771398;-12.45340502;-32.78969497;-28.7535206;-24.19359223;-13.45813997;-13.51895257;-24.50658586;-2.993528233;1.0219416;3.464688342;2.281982808
-42.79904832;-3.982857263;-60.21110381;-4.00710786;-2.187761934;-3.897978529;-7.981057153;-7.423579021;-10.66550539;-23.93934535;-21.95614071;-19.11241906;-8.470482041;-13.04799394;-20.7284504;-2.361448562;2.924891389;3.517363706;1.561627775
-16.73418103;-3.739842253;-39.68415012;7.8280595;3.016257846;0.355550628;-8.211088058;-1.51400508;-7.061633881;-15.61263565;-13.73294104;-14.63729833;-4.184355152;-7.125518715;-17.83588937;-1.907450664;5.113908822;2.843819228;-0.285096898
1.087945724;-3.775474236;-12.51020058;16.50497194;5.825907912;3.905393744;-8.102106573;2.824743147;-4.262775349;-12.74049874;-8.393598363;-12.28382819;-2.923760584;1.275529352;-17.06690443;-2.052116446;6.696426672;1.796211507;-2.120945224
4.270397246;-4.051043271;6.112977152;14.97982199;5.066278865;4.932048618;-7.752079866;3.323319482;-4.809604031;-16.76913553;-8.634542726;-12.35637324;-4.622771372;6.664675547;-18.44359593;-2.700708993;7.1597708;1.130503862;-3.033021272
-1.782724697;-4.293887973;8.852550033;5.312183736;1.286256508;2.89252562;-7.513946359;-0.338056651;-9.380525144;-25.20607933;-13.87145772;-14.28465545;-7.122958567;5.073343254;-21.44010409;-3.34554681;6.322922833;1.445764127;-2.945770206
-6.896336177;-4.264558666;-0.875691435;-3.192596443;-3.963482111;-1.305286054;-7.651892135;-6.212849429;-16.11691508;-33.79861537;-20.72354499;-17.20408085;-8.104432013;-2.764561443;-25.63047365;-3.525880912;4.194877624;2.701345682;-2.461785508
-5.377458464;-3.999972464;-13.40912572;-2.333320242;-8.992051137;-5.738389481;-8.072749452;-11.09221699;-21.4624523;-39.24290281;-25.25415295;-20.20023391;-6.893456305;-11.73848738;-30.51742011;-3.220798811;1.038144813;4.220179833;-2.171000013
0.486850535;-3.788413268;-20.35922781;7.588894164;-12.41588656;-8.298965552;-8.390861695;-12.22922525;-22.0035239;-40.39074753;-25.37727814;-22.19571844;-4.614708872;-15.9912053;-34.82427855;-2.830664741;-2.41621615;5.17633157;-2.097731896
4.629069307;-3.890531027;-19.42974384;17.96669104;-13.27852203;-7.618792602;-8.274720835;-8.77218224;-16.26964464;-37.64149779;-21.80504452;-21.96632509;-2.724757384;-12.98040632;-36.3524134;-2.787462519;-4.9679511;5.163391445;-1.772067499
4.018899416;-4.271426864;-13.86704157;19.58784668;-11.25162962;-3.750503228;-7.758345588;-2.127162165;-5.560913382;-31.81887362;-17.04255376;-18.69543185;-1.446946611;-4.872889023;-33.1405398;-3.164462925;-5.433899415;4.396524729;-0.810930263
1.332693376;-4.608145151;-8.338171289;11.03145669;-7.031050033;1.711135569;-7.227441032;4.864018777;6.56454065;-23.888733;-13.36421007;-12.84817117;0.328574626;3.517085557;-25.33258738;-3.635262679;-3.430327427;3.436686178;0.573720646
1.408205204;-4.579099051;-5.234790867;0.205777998;-2.504398149;6.22893766;-7.086773494;9.396974915;15.8623542;-15.53819517;-11.35169171;-6.574724274;3.564183523;8.266876664;-16.11016324;-3.796160813;0.143917326;2.726947205;1.642922696
5.655933828;-4.169545124;-4.042079563;-2.568139926;-0.146133893;7.486111294;-7.4080652;10.03059932;19.3142073;-9.412715126;-9.987333084;-2.96316448;7.504015209;8.505655248;-10.41322413;-3.534983912;3.434527008;2.344220719;1.737581348
10.38786128;-3.701934364;-3.264611593;5.95078756;-1.655778782;4.599288659;-7.876839845;7.248339056;16.5354146;-8.017575594;-7.997771624;-4.303927726;9.73236381;5.90286458;-11.87444397;-3.106330926;4.697526268;2.120816265;0.881348088
10.84755316;-3.552514218;-2.405533449;18.17295272;-6.654935653;-1.279958738;-8.084091501;3.073660329;10.00979366;-11.77320818;-5.191447713;-10.45357179;8.118775069;2.591934099;-20.06498436;-2.864455033;3.409999835;1.936502259;-0.176497549
6.800244522;-3.811762543;-2.119758033;21.21407772;-12.52133047;-7.402742634;-7.894921602;-0.005768016;3.936680306;-17.97192552;-2.668343982;-18.56844399;3.029507376;-0.314127731;-30.27631794;-2.926268153;0.614393688;1.857163244;-0.544875985
3.70415535;-4.205129033;-2.86251041;7.360019531;-15.77476787;-10.77418358;-7.558920568;-0.280852638;2.117893599;-22.028935;-1.826822778;-24.63549929;-2.33607853;-2.52163817;-36.33459769;-3.087152102;-1.783851043;1.997190673;0.085148195
7.625765306;-4.350957857;-3.844253661;-19.14803369;-14.26213645;-9.733490043;-7.46607233;2.341768802;5.899334058;-20.55691848;-3.130235561;-25.92124383;-4.146184039;-3.498652168;-34.63109638;-3.055195439;-2.269685341;2.289504288;1.189947786
18.32138451;-4.115549917;-3.565513777;-44.61386319;-8.653055932;-4.879792342;-7.776155846;6.3093448;13.33597533;-14.02116677;-5.744802978;-22.69559022;-1.038570736;-2.207198942;-26.51200715;-2.759881594;-0.628460828;2.44722352;1.843616973
27.27924051;-3.730277703;-1.391134841;-55.64540337;-2.121724621;1.212473601;-8.261879179;9.248479416;20.21329562;-6.730585125;-8.324826097;-18.00696938;4.562905446;1.779270053;-17.30122205;-2.426656062;2.089026592;2.196397;1.458488367
23.49291558;-3.557321697;1.55253897;-48.3703494;1.646838247;5.365020284;-8.506483214;9.274474622;22.49574626;-3.885845249;-10.16333402;-15.62634499;8.297991799;6.951988124;-12.68901895;-2.346016157;4.418249365;1.559825063;0.218910623
2.745576466;-3.725115107;3.243504804;-30.1053528;0.775070227;5.503690584;-8.272041521;6.118951722;18.80497018;-7.783040252;-11.59780365;-17.55663209;7.557901838;10.11113201;-15.09567705;-2.570433957;5.450792281;0.887637929;-1.124655083
-27.4527272;-3.986092253;2.698822114;-12.88055328;-3.740564313;1.757428302;-7.703505192;1.439492887;11.36698882;-16.05279458;-13.26665447;-22.77851428;3.901043068;8.606785532;-22.4887293;-2.84670427;5.241440206;0.561900155;-1.885474083
-51.94342918;-3.946720561;1.131768027;-4.628899415;-8.862518867;-3.649645768;-7.190371186;-1.92698162;4.75081609;-23.28771553;-14.92928941;-28.00078002;1.933674043;2.908337584;-30.1963963;-2.861111125;4.495629762;0.633797677;-1.945629491
-58.25251491;-3.465590652;1.115181889;-5.004042814;-11.54277486;-7.63424591;-7.022730491;-1.425136158;3.141011553;-24.79787707;-15.07098225;-29.8055628;5.348434366;-2.940264515;-34.11326159;-2.562244665;3.929172152;0.751760496;-1.738919467
-45.14282442;-2.841464457;4.377197461;-8.198888331;-10.5021568;-7.926819901;-7.159517774;3.8138351;7.871693093;-19.66191983;-11.89905178;-26.72771072;13.41487503;-3.904477421;-32.97104435;-2.23753456;3.827465649;0.4857023;-1.786030413
-22.77763719;-2.591711706;10.17177607;-9.16842395;-6.661125376;-4.275681516;-7.311460947;12.40003906;16.773164;-10.94016056;-5.074924345;-20.01452309;21.10739323;2.137166371;-28.41232734;-2.249178214;4.024606523;-0.231723841;-2.222487808
-4.738052213;-2.998005531;15.70437175;-7.465152434;-2.194081412;1.445494772;-7.243682109;21.28624676;25.64494352;-3.212757625;3.28695616;-12.79541713;23.10211261;12.30993075;-23.38241519;-2.669568689;4.127415255;-0.972262743;-2.717846334
1.476967789;-3.82492771;18.26633844;-5.919881282;0.914044749;6.257648389;-7.003209601;27.24985949;30.75949689;0.437861215;9.412330772;-8.367945651;18.45401597;20.40047958;-20.35751901;-3.172251426;3.695071457;-1.156239341;-2.808942015
-1.807115653;-4.479307977;17.22520665;-6.431185464;1.818824862;7.66399873;-6.858045192;28.48697936;30.73047842;-0.211601756;10.12530774;-8.644776903;11.85924259;21.19556476;-20.53153005;-3.307987432;2.293101023;-0.596165131;-2.316165324
-6.474414634;-4.488653862;14.20735058;-7.483109291;0.887053112;4.963573032;-7.014502131;25.48430026;26.70467594;-3.394285449;4.995924879;-13.45668314;10.0184669;14.20070934;-23.93521392;-2.928876629;-0.418674141;0.26064903;-1.481473875
-6.101414719;-3.886396333;11.48405945;-5.815874365;-0.808601896;-0.392097658;-7.391300444;20.70703854;21.10323255;-7.205767015;-3.246561032;-20.80440266;15.75342202;3.879385556;-29.74175368;-2.363174894;-4.428880379;0.658532762;-0.749529364
-0.470873646;-3.167341734;10.15091136;-0.339751761;-2.046771483;-5.573610569;-7.67315951;17.2570465;16.05076932;-10.71835396;-10.40468186;-27.75651397;24.73030906;-3.66220106;-36.29998885;-2.154319231;-9.089369369;0.190673602;-0.426029984
5.874520218;-2.855653423;9.718909474;5.866356891;-1.82642323;-7.862545199;-7.59823546;17.20713572;12.56301177;-13.70783571;-13.40210569;-31.61541152;27.87878928;-4.842714784;-41.22896662;-2.578495661;-13.15329886;-0.781078245;-0.513480925
8.639492551;-3.069616754;9.25072372;7.739071218;0.338407898;-6.068915193;-7.208150736;20.5165935;10.72225309;-15.7895402;-11.92999048;-31.0177639;18.08772775;-0.463479069;-42.20361858;-3.376134512;-15.33448261;-1.34866788;-0.819746485
7.420956485;-3.463449839;8.654292505;2.754873761;4.076606729;-1.137735792;-6.820907939;25.1423964;10.25481005;-16.2002959;-8.109548184;-26.60961216;-3.875744866;5.784508253;-38.41236818;-3.957240516;-15.1274772;-0.786798126;-1.179817914
5.168616933;-3.581376536;8.685247193;-6.417421232;7.962127533;4.36027203;-6.746785356;28.29222132;10.80645128;-14.58238703;-4.682015607;-20.91143397;-28.97357588;10.45175341;-31.67321727;-3.914383985;-13.27210044;0.801353284;-1.563867429
4.839665531;-3.288120632;9.669508424;-13.73254395;9.862905737;7.570440854;-7.010422701;28.07621403;11.77294435;-11.8943114;-3.260677031;-17.20519098;-45.61795906;12.3755135;-25.95622521;-3.386346582;-11.3848779;2.472428458;-1.998761208
6.85551316;-2.880227186;10.46812954;-14.57321556;7.982706494;6.819050357;-7.338472267;24.54390507;12.15300647;-10.26275044;-3.883339431;-17.80698675;-47.33584312;12.33644755;-25.08284023;-2.93480467;-10.89189189;3.101603184;-2.428523214
9.498384354;-2.785069699;9.164994557;-9.329327051;2.126342904;2.450493929;-7.423336152;19.47456957;10.92360532;-11.54761815;-5.83943326;-22.63330917;-36.67628389;11.36225584;-29.9596239;-3.031105252;-12.00574571;2.19423185;-2.685325594
11.1616068;-3.137788998;5.228544771;-2.659692672;-5.712094143;-3.365566033;-7.213186101;15.12574195;7.857113536;-15.71374599;-8.67045496;-29.03;-22.60260515;9.740426644;-37.4612945;-3.611039938;-13.54965059;0.213824569;-2.611070718
11.76517861;-3.636879706;1.077955975;0.755629349;-12.08899147;-7.724450956;-6.952893713;12.86391224;4.087822223;-20.49478073;-12.28737054;-33.17646067;-13.65366276;7.670710071;-42.14259567;-4.108876698;-13.82477773;-1.79896661;-2.21167945
12.05310035;-3.816356802;0.985301644;0.09312945;-13.95085207;-8.406751111;-6.936138033;12.64641068;1.739106519;-22.84288275;-16.20291769;-32.33958144;-12.25668521;6.475730518;-39.86722158;-3.957666959;-11.89771995;-2.964147745;-1.700941409
12.08909417;-3.481581765;7.434618661;-1.462488797;-10.47075501;-4.933864716;-7.205312314;13.61585634;2.633487101;-21.11851945;-18.90364076;-26.57514452;-14.32868122;8.509660565;-30.81716115;-3.11691549;-8.32648117;-3.05755026;-1.404824348
11.12246833;-2.900459308;17.68965322;-0.129453543;-3.632276495;1.224928681;-7.490912867;15.14874641;6.94175252;-16.26913483;-18.37317086;-18.73231074;-13.88433911;15.22751109;-19.58805925;-2.14852028;-4.765932444;-2.436267586;-1.614323346
9.175783543;-2.567014116;23.92254836;4.853221676;2.908274827;7.36042188;-7.459319039;17.34285578;12.82753085;-11.03992903;-13.67554008;-12.71797353;-8.466777638;25.03062207;-12.14826885;-1.754143386;-2.772308401;-1.584580785;-2.475400242
8.278430141;-2.752089532;17.86055251;10.71445993;5.978621626;10.79450371;-7.042837163;20.48513336;17.46384398;-7.887370798;-6.310633208;-11.15839628;-0.943941493;33.26245834;-11.79862917;-2.168324636;-2.747304344;-0.757854182;-3.916510241
11.121137;-3.256588229;-2.846153166;13.96601932;4.667449745;10.1194792;-6.536926771;24.06675514;18.75195879;-7.313705043;0.071118549;-13.9908471;3.432826523;35.09019136;-17.06414092;-2.941218871;-3.819676261;-0.020459652;-5.573698904
17.59754568;-3.597981401;-31.35224514;13.63557741;0.617042268;5.83341101;-6.356900019;26.4715686;16.51634739;-7.910213882;1.796548436;-18.83215484;1.808484768;29.29108381;-23.01513231;-3.311740904;-4.68517624;0.469499328;-6.754504921
