Channel 1 - P4;Channel 2 - O2;Channel 3 - P8;Channel 4 - T8;Channel 5 - C4;Channel 6 - Cz;Channel 7 - Fz;Channel 8 - F4;Channel 9 - Fp2;Channel 10 - F8;Channel 11 - Fp1;Channel 12 - F7;Channel 13 - F3;Channel 14 - C3;Channel 15 - T7;Channel 16 - P7;Channel 17 - P3;Channel 18 - O1;Channel 19 - Pz
-103.9937843;83.69766815;-22.1519026;-74.17587612;-20.15316001;-18.12302408;-6.021233777;-14.90744085;-22.56207026;-39.77103899;-8.445875926;-39.14622841;-54.41509387;-13.71534778;-22.29924626;-69.1825589;-26.40707271;-110.9116185;-103.8147561
-108.6473121;71.23453592;-15.49563939;-53.0028761;-13.6599477;-14.79135094;-5.795530471;19.29586907;-1.706897321;-25.47991611;-2.230378328;-31.63075798;-32.38281411;4.364205847;-6.039007569;-57.56531628;-17.46129245;-93.96697719;-87.94212353
-83.42125046;37.70932878;-11.07794775;-20.88994452;-6.493373922;-9.063696035;-3.720900506;44.82639025;14.87250874;-6.886194511;2.741153515;-19.64582728;-3.79624959;22.62020757;6.912216672;-28.46597723;-4.582510895;-50.38258268;-46.35458187
-45.16506194;1.20474073;-8.28395665;1.298043766;0.06767396;-2.825864928;-0.789613409;56.52550598;24.89435367;9.496009712;7.707582055;-7.507965682;22.282932;35.31065286;14.07414192;2.521089455;6.131567194;-4.492456512;-1.475556054
-13.78999635;-20.65982629;-4.891234688;0.191144204;5.038535495;2.082746904;1.449894746;57.01614976;29.50570408;19.40171522;13.43279824;0.893557935;38.18667827;40.19196897;15.88039929;20.87428869;11.02193889;21.45644553;25.26645997
-1.247279966;-21.47573958;-0.36370806;-21.36940742;7.666278047;4.478109756;1.969784979;53.49699975;31.25138963;22.18686303;18.85531012;4.122635917;41.70047658;38.75213938;14.39798721;21.73876532;10.23978183;20.74597745;26.35983103
-7.548892146;-8.410735083;2.737489513;-47.0336575;7.594428793;4.138518779;0.935806427;52.17837501;31.7971646;20.11514043;21.66499804;3.544170446;36.72853063;34.42360152;11.74260255;11.32554065;6.503071147;3.924581331;10.73309254
-24.62122885;4.713237622;0.834992499;-58.73143508;5.191828222;1.775235398;-0.522649688;54.56945289;31.26188503;16.47716615;20.38412506;1.931512247;30.20967432;30.33905591;9.287395567;0.889985544;2.669169237;-11.22196588;-4.898680953
-43.25440087;7.813818602;-6.772834114;-48.84144135;1.688932544;-1.267969925;-1.228894683;57.97884255;29.4009283;13.89831498;16.12296794;1.500830531;27.57099818;28.07737655;7.799128369;-1.664054709;0.09451358;-13.06419516;-8.59532487
-57.59379642;0.659703392;-15.8423237;-24.31027729;-1.188644538;-3.494313253;-0.818000467;59.14194375;27.18432445;13.63627753;12.32081471;2.779643272;29.88886245;27.76628445;7.809032098;3.627578278;-1.30361136;-2.922507772;-0.316711755
-65.26299028;-9.078534455;-19.34181016;-0.596210372;-2.022405592;-3.802445313;0.119933573;57.59991729;26.99743518;15.7522252;12.40369656;4.877656977;34.42512672;28.86636588;9.526624891;10.67542731;-1.931908311;8.701464774;10.70355385
-65.40807652;-13.21387537;-12.70974845;9.394408798;-0.476605791;-1.942680783;0.660885191;56.02049167;31.00650407;19.53358549;17.08159217;6.593141009;37.59459944;30.7376728;12.32099483;13.26612071;-1.710382497;12.06177376;14.91621161
-57.95244732;-9.510485861;1.808463238;3.285094954;2.482401628;1.321827437;0.364005768;57.43289047;39.0054511;23.73176253;23.47717;7.296364773;37.78662732;32.66210501;14.46550951;9.946180742;-0.313195048;5.79293741;10.03412924
-44.82537396;-2.430868279;15.49077965;-10.87231929;5.110560018;4.494181385;-0.401010656;61.99179376;47.72452283;26.69887782;26.97284073;6.98487784;35.98881527;33.68887263;13.77804201;4.315223521;1.990962603;-3.34094348;1.626682028
-30.92409133;1.556296006;18.46533604;-21.55139329;5.845423805;6.016522435;-0.847083962;66.24767966;52.51688707;26.77884414;24.56314354;5.777276093;34.2103659;32.83102039;9.001808228;1.25553081;3.967398169;-7.224783319;-2.674364111
-22.35010917;-0.422111342;6.453501072;-21.80733826;4.117783811;5.050442012;-0.495145568;65.74838498;50.40458194;23.06467497;17.25443034;3.580460361;33.46751601;29.69100427;0.969354283;2.740981712;4.083800274;-3.329351655;0.209269355
-22.32124315;-5.793568953;-15.93010423;-12.83600546;0.569827075;1.956900164;0.411806062;58.93167457;42.26668895;16.13901719;9.670491637;0.356283125;33.16400837;25.02862524;-7.45710806;6.678577234;1.716473565;3.889149984;6.859692735
-28.17979596;-9.461454571;-37.76947358;-1.456582867;-3.356402596;-1.819515904;1.144421529;49.04883869;32.49492385;8.182015293;7.059155939;-3.30603868;32.20462974;20.67292406;-12.83924183;9.291995759;-2.206225552;7.607032445;11.08660257
-32.81908244;-8.468319015;-48.53413356;5.621985531;-6.137868927;-4.444769244;1.133828781;42.30880989;26.30370695;2.141516363;11.80236954;-6.012286752;30.55823234;18.64539088;-13.10561963;8.574589201;-5.777308592;4.721425343;9.520499739
-30.25981197;-4.277152016;-44.23299659;6.227531711;-6.797544335;-4.620231215;0.449459444;43.43208985;26.58810448;0.311116305;21.86976468;-6.176488588;29.66363979;20.00278262;-8.656290475;5.767550939;-7.480270532;-1.864611905;4.162067129
-21.10937324;-1.007487181;-29.04282583;3.103268463;-5.216477894;-2.248338292;-0.295859505;51.97653002;32.46589919;3.138880244;32.20471143;-3.083845988;31.23713911;24.17507379;-1.899889969;3.854892809;-7.2214863;-6.291843161;0.072717742
-13.0418365;-1.565292974;-11.8365872;0.829987278;-2.124943084;1.514618546;-0.500219675;62.37607686;40.31161235;9.004702931;37.93395934;2.42586141;35.5668609;29.24906995;4.353451805;4.718726751;-6.191057642;-5.012238037;0.689752337
-15.21274393;-5.206667888;-0.510736671;2.136897994;1.14683571;4.841407698;-0.079958879;67.86095519;46.29671702;15.10402384;37.12473068;8.26408917;40.8845361;33.00287683;8.434767818;7.564072015;-5.741057927;0.411456757;5.01567151
-30.68378492;-8.506410843;1.974908637;6.275948725;3.10519578;6.14406489;0.508429455;65.40157782;48.55863757;18.89026464;31.36341353;12.24416933;44.4708057;34.03178414;10.27040896;9.855057853;-6.289689017;5.113975859;8.912391978
-53.00489424;-8.587124486;-2.223248159;10.16753585;2.660751016;4.848753973;0.721038862;57.90117352;47.67714829;19.22735226;24.14027323;13.28168461;44.63824559;32.33157003;10.67337137;9.703890223;-7.157111962;5.360193248;8.995551479
-70.0627316;-5.606393957;-8.577924737;10.9940245;-0.340989925;1.658369887;0.42401928;51.85468233;45.53208668;16.65451275;18.51551569;11.83657982;41.97711172;29.12449667;10.29614448;7.487429129;-7.350504835;1.568099743;5.520175138
-72.49299276;-2.392701752;-13.31827476;8.206641061;-4.91546865;-1.812833543;-0.01380173;52.16397727;43.69893195;12.75102585;15.74094572;9.392079469;38.86958703;26.16573845;9.19182649;5.338629126;-6.481085113;-2.523929059;1.841231382
-60.18654468;-1.771109833;-14.92007813;3.697359201;-9.291057477;-3.846845885;-0.099818888;58.11260128;42.57592839;9.105023997;15.45568005;7.45861554;37.70155031;24.95590724;7.243637425;5.13576642;-4.967378657;-3.448034432;1.213056955
-41.89192532;-4.09259708;-13.75819334;0.322569622;-11.74307711;-3.478207388;0.295916248;63.79163043;41.6147194;6.537568247;16.76991182;6.824956562;39.20498213;26.18497798;4.880808813;6.877744626;-3.437189469;-0.980679048;3.943559448
-28.44034015;-7.112941195;-11.08512151;-0.005408967;-11.47081638;-0.97707224;0.801560221;62.91455641;40.14816598;4.981175236;19.06699566;7.442342441;42.15605354;29.53332073;3.251104396;8.842114141;-2.034776962;2.027506714;7.362559434
-25.10877753;-8.152342902;-8.425227643;2.631899745;-8.962148645;2.29498012;0.882943907;54.41970207;38.04565777;3.964810616;21.94740164;8.789323822;44.50161191;33.83136628;3.562027336;9.244407721;-0.405519976;2.519251905;8.405343496
-29.00691194;-6.473846826;-7.437653956;6.523667127;-5.583434662;4.606380587;0.353041128;44.29559995;35.80969856;3.292232527;24.72450274;10.29631942;44.90534187;37.53660697;6.122524795;7.817960532;1.589939898;0.019826256;6.336676317
-32.9763836;-3.776035002;-9.575736991;9.691625265;-2.664709769;4.79641441;-0.415864192;41.6380719;34.26395791;3.411041341;26.31371223;11.56;43.54254442;39.41633719;9.962440788;5.926435126;3.184358629;-3.124420094;3.210683755
-32.15364868;-2.504682024;-15.20230776;11.22601071;-0.72013819;2.929033998;-0.781302772;51.34932384;34.1880967;5.188149163;25.87388113;12.39436453;41.72777347;39.18083052;13.45237545;5.224693992;2.875213239;-4.068096979;1.840769076
-27.53348574;-3.631291012;-22.7618241;11.6665757;0.657950172;0.273833704;-0.377271376;68.85677263;36.07441204;9.206208036;23.67742601;12.88726737;40.88861421;37.70859465;15.47916784;6.168342265;-0.467527592;-2.077119176;3.267474833
-23.89476828;-5.902243328;-29.0409893;12.21698287;2.208748063;-1.411521553;0.558020377;81.32947319;39.94074652;15.04594644;21.28600245;13.46800148;41.73660991;36.61882891;16.21361879;7.709141831;-6.42286828;0.93695313;6.004050218
-24.49168641;-7.121717448;-30.84650154;13.45866129;4.222819715;-0.911188254;1.36225233;75.4289384;45.13616462;21.09597785;20.62038412;14.7832699;44.09133524;37.3101574;16.80891414;8.358719304;-12.85903806;2.298133679;7.5883436
-27.57794546;-6.186965481;-27.13117273;14.65133252;6.199503768;1.703998252;1.486044341;46.70521485;50.28280745;25.14463081;22.51077065;17.24171035;47.18588317;39.99038511;18.25744535;7.567656773;-17.1151023;1.011944065;6.874423959
-27.95544889;-4.008773457;-19.93601643;14.29891518;7.191396837;5.070009766;0.930778222;4.013166243;53.60130864;25.49572051;25.89135849;20.43301216;50.01592218;43.34570861;20.36403466;6.159049705;-17.71071863;-1.460765634;4.949413299
-22.13739448;-2.565390534;-13.23601813;11.63305477;6.527364364;7.281367594;0.222973176;-34.6672305;53.65060991;21.93869823;28.38957227;22.92955996;51.52684411;45.17037218;21.737199;5.492143165;-15.25787517;-2.690372455;3.947598261
-12.46093285;-3.056267371;-10.39155103;7.782502628;4.326121909;6.962202894;-0.038109945;-52.75702701;50.1146483;15.91136442;27.9498514;22.86076659;50.79189744;43.66420321;20.88132894;6.197461583;-11.84139598;-1.53904489;4.985401222
-6.336332219;-4.87097322;-12.06050214;5.444346322;1.423641245;4.028593747;0.333680011;-45.11072498;44.07646316;9.681901147;24.25445676;19.08876382;47.37756486;38.62124094;17.55317717;7.656385023;-9.363457571;0.897159329;7.163351174
-10.93632487;-6.25382493;-16.09189118;6.988748185;-1.166596789;-0.285115616;0.994458773;-20.80795382;37.49086952;5.049393977;18.82753803;12.22830153;41.77515389;31.74150308;13.27883939;8.64804769;-8.17990846;2.434255482;8.493263923
-27.44850504;-5.965192055;-19.34182957;12.33309565;-2.794035908;-4.108919858;1.393698839;3.161084941;32.14170561;2.432685558;13.76391551;4.678738639;35.48035912;25.82625924;10.53948004;8.498638303;-7.090436291;1.860570764;7.798212695
-49.38631372;-4.378694986;-19.85841096;18.4233444;-3.324815509;-5.895610373;1.237550205;12.92040113;28.78029797;0.970736265;10.1414266;-0.558412908;30.42077448;23.31763564;11.14721715;7.649807213;-4.613205751;-0.027293543;5.785370982
-66.24519669;-3.048866408;-17.73709604;21.13686408;-2.916790386;-5.114293266;0.698092156;5.898777487;27.02016461;-0.473256069;7.416425825;-1.615433421;27.94448117;25.04310969;14.95771835;7.157862978;-0.437681349;-1.303862212;4.333913576
-69.78190852;-3.223239993;-14.23471414;18.47851173;-1.752783942;-2.361855259;0.220793698;-9.133261847;25.98371359;-2.196407386;4.257961176;1.097800175;28.03884497;29.86824274;19.83357646;7.646797987;4.137227676;-0.790633639;4.724946942
-58.56824762;-4.71017575;-10.27593292;12.60196882;-0.033835434;1.056894635;0.133681942;-19.57858284;25.13036073;-3.318904326;0.054320821;5.151212998;29.38609408;35.38101146;22.88414667;8.718275099;7.081132444;0.866339215;6.488769877
-38.18404691;-6.121520856;-5.90620966;8.713949454;1.808399904;3.769364727;0.407949936;-18.23617263;24.60631306;-2.511192015;-4.244634999;7.613349619;30.26590704;39.13459137;22.14453492;9.353528809;7.050539918;1.889212963;7.915457187
-17.69;-6.204695731;-1.181860505;11.17830515;3.018553083;4.864079543;0.751235753;-7.607588053;24.90190609;0.787307213;-6.721783692;6.824264398;29.66375038;39.73618051;17.63010382;8.897223842;4.211087881;1.112141012;7.70310671
-5.157286377;-4.991321438;2.559118498;19.50976123;2.821279426;4.138345127;0.905470116;3.279853973;26.19099202;5.664256289;-6.06933915;3.268271382;27.79246001;37.27749844;11.20446832;7.682816617;-0.077703481;-0.903730066;6.180513907
-4.737151358;-3.709022206;2.66060254;27.48684369;1.007527603;2.07338517;0.856330607;6.445989747;27.96369938;10.18259601;-2.834253167;-0.944635266;25.71575612;33.04530293;5.490710944;6.719402567;-4.289696943;-2.424442769;4.975531474
-15.952856;-3.58270454;-3.078835435;26.62983721;-1.674778613;-0.379221366;0.776290392;0.879317529;29.27452334;12.70386567;0.747835181;-3.521889871;24.46370275;28.81054414;2.563158032;6.750019531;-7.556831403;-2.208438261;5.465598064
-34.47575863;-4.674992957;-14.03896062;12.05895784;-3.770148257;-2.134542669;0.79117931;-7.462968074;29.38812833;13.06802537;2.269918994;-3.337073713;24.36311885;26.08910823;3.110511038;7.571751791;-9.724601102;-0.682660412;7.468209374
-53.60028445;-5.846760331;-25.95440779;-13.31981168;-3.985221098;-2.384382359;0.822633586;-10.99667159;28.28101547;12.65924069;0.852114838;-0.867289286;25.02501732;25.63884631;6.3334558;8.248307567;-10.85050433;0.49079107;9.383628353
-66.30554165;-5.85281496;-32.85433856;-39.54145498;-2.12384587;-0.976046326;0.669447907;-6.60337397;26.59964044;13.23122136;-2.316731055;2.375493222;25.83200083;27.28;10.42062555;8.005907126;-10.81717236;0.045556837;9.645672746
-67.89835776;-4.532637129;-30.81308246;-55.15385227;0.614693953;1.422824867;0.245499632;2.277844708;25.13063429;15.36618523;-5.020369542;4.852159163;26.39707547;30.0283477;13.29221357;6.970449406;-9.482109924;-1.612481429;8.136716329
-58.38726545;-2.983562765;-20.87847715;-54.08827096;2.273850063;3.542218958;-0.26966452;8.802722952;24.21366048;17.80073137;-5.811222837;5.729090989;26.6173486;32.50103507;13.36965482;6.060993575;-7.132617243;-2.715999861;6.275856991
-42.94489748;-2.560397007;-8.831993794;-39.20700314;1.347242631;4.107442298;-0.534219668;8.206110992;23.53815624;18.24847118;-5.139650791;4.994723827;26.41908542;33.50920326;10.21301235;6.142253408;-4.63510979;-1.785718552;5.721095645
-29.39105027;-3.631672744;-1.634299215;-20.11499837;-2.233956421;2.557644466;-0.325586257;1.200075684;22.45039035;15.21095979;-4.922906592;3.134009044;25.60266701;32.63795263;4.843553353;7.222619682;-2.951444479;0.897634171;6.888543451
-23.65022864;-5.238345405;-2.895230436;-6.78322302;-6.981299681;-0.529648032;0.253091457;-7.054687972;20.53546144;9.457339866;-6.878694723;0.778143877;24.05088697;30.52532109;-0.471347334;8.43642849;-2.368105227;3.389070819;8.632351505
-26.0606557;-5.962041007;-10.54186868;-3.402834098;-10.65789741;-3.624954352;0.837140309;-11.07191349;18.08555247;4.003969186;-10.90298132;-1.406111853;22.12347731;28.61233123;-3.066241743;8.823777617;-2.174077871;3.71706273;9.34374421
-31.35045578;-5.201435651;-18.34197004;-6.609345538;-11.48799789;-5.022923182;1.088372548;-8.732846486;16.16647979;2.455074103;-14.74551046;-2.66027286;20.77727386;28.39740687;-1.114617444;8.191605534;-1.204060782;1.621635837;8.431237082
-32.65543005;-3.693835803;-20.18479233;-9.019051986;-9.051849118;-3.807023518;0.95593003;-1.892103799;16.2183155;6.733818004;-15.28320667;-2.179406118;21.12968106;30.55832829;5.336400009;7.272509771;1.118510603;-1.170073242;6.82231616
-26.85065802;-2.821775987;-14.0922348;-5.248064185;-4.428624867;-0.437841455;0.682471431;5.909161551;19.33313183;15.69945261;-10.54761309;0.578412776;23.68559055;34.46531889;14.17092289;7.044601639;4.133647593;-2.401610916;6.052117694
-17.23782092;-3.353510077;-3.243036634;4.04576441;0.375267336;3.415647509;0.559056657;12.18303965;25.50033705;25.58677678;-1.152393893;5.448885023;27.8175789;38.43611805;22.09220471;7.837632045;6.334067585;-1.205129066;6.807573771
-11.44724625;-4.76642324;6.466833742;12.93235851;3.34330368;5.745219875;0.65866951;16.40147529;33.198826;32.02550634;9.800791583;11.33087783;31.97010286;40.64264759;26.2;9.034787198;6.562446104;1.203017273;8.279784157
-15.97960173;-5.75135471;10.37014765;15.00689279;3.292936532;5.294343114;0.792638601;18.87717312;39.68633519;32.41065738;18.25686923;16.45953343;34.52350393;40.14864472;25.40646596;9.629654835;5.045294168;2.644503818;8.915605202
-31.34245846;-5.414519551;7.678377356;8.495570097;0.359131803;2.250457053;0.72349563;19.35159226;42.08349623;27.22872291;21.23821479;19.16664118;34.74242172;37.44338903;20.89583318;9.124668084;3.354863364;1.910019531;7.867519711
-51.25290962;-4.073474957;1.258038059;-2.184065548;-4.026773201;-1.85481536;0.426654793;17.02535285;38.87799392;19.63767355;18.22553117;18.75760185;33.16423558;34.13966937;15.3959588;7.962129187;3.251154322;-0.203294662;5.805579203
-66.3317941;-2.93664339;-4.844752529;-9.552813106;-7.696270529;-4.975801134;0.145140772;12.0064283;31.03161549;13.6443352;11.22390964;15.97817401;31.19742805;32.03219283;11.72109029;7.115818433;5.302982819;-1.633739669;4.3466246
-69.55958141;-2.98383098;-8.051952837;-8.516135267;-8.716190561;-5.642691582;0.173142119;6.453512826;21.8527229;11.96549527;3.621870469;12.71310975;30.2478397;32.10841023;11.42727232;7.229151213;8.408000886;-0.884620802;4.619908416
-59.87099503;-4.082131464;-8.256756528;-0.033382162;-6.407691635;-3.712432924;0.561167882;3.778157891;15.40712807;14.72334689;-1.460262166;10.98505909;30.95287734;34.10159701;14.26624277;8.076568595;10.61944213;1.682064326;6.268169191
-42.02829303;-5.134448336;-6.912910925;9.737374138;-1.860763686;-0.391866958;1.020828015;6.127856731;14.2165108;19.58126327;-2.493960918;11.77297481;32.9377071;36.79389498;18.59148144;8.810058594;10.62809908;4.196363909;7.77882842
-23.62425452;-5.102760723;-5.406097685;14.15449514;2.492981874;2.445526526;1.137256109;12.25402043;17.66456603;23.14713387;0.026589444;14.36358125;35.11990875;38.7964919;22.33899141;8.737925532;8.72407455;4.915575079;7.833431307
-11.55244807;-3.957280748;-4.15965041;11.07662485;4.190802951;3.256032583;0.720401858;17.90772769;22.28983437;22.86543577;4.131340387;16.71679442;36.30137506;39.28560222;23.9938538;7.921571658;6.502522443;3.680145956;6.455204541
-9.751188763;-2.689826842;-2.959974153;4.30473537;2.248035743;1.604207966;-0.008621317;18.87989066;23.98448841;18.42790072;7.535889754;16.73699423;35.74584776;38.29362967;23.11248656;7.072035187;5.599096977;1.940958106;4.937298031
-18.49791359;-2.397228214;-1.789511491;0.378607497;-2.103970557;-1.659322416;-0.567999026;14.41663703;20.76831041;11.99019236;8.810421586;13.72196681;33.54822773;36.50595221;20.30381161;6.87710639;6.490179292;1.403587036;4.645558385
-34.61281317;-3.284965295;-1.103164345;3.242421965;-6.046541668;-4.87259136;-0.587209886;8.149235111;14.26320442;7.062040046;7.990743106;9.030794121;30.68805838;34.8125682;16.83089746;7.392139482;8.272625771;2.533876887;5.794037858
-52.22888048;-4.497146278;-1.212949948;11.03301643;-6.885811853;-6.413458223;-0.093634145;5.545824478;8.758939962;6.604808124;6.37157987;5.408548523;28.69252826;33.91526224;14.06522903;8.036348328;9.494948774;4.227807173;7.289835624
-64.461461;-4.911917688;-1.497024124;17.65833783;-3.777696251;-5.489258478;0.52161359;9.736453046;8.388353198;11.3247779;5.652470088;5.262358505;28.93;34.12633847;12.97085075;8.161575538;9.280078125;4.868343395;7.759037964
-66.1467831;-4.163590576;-0.484389335;18.02572968;1.692495381;-2.491910302;0.822304236;18.98592667;14.28213811;19.12841322;6.940884386;8.96086999;31.78612236;35.31198211;13.73972105;7.64403146;7.835609593;3.772255092;6.801830962
-56.65121251;-2.961591872;2.891219153;12.68770434;6.493612352;1.220029297;0.658411586;27.84412845;23.64874058;26.13656477;10.16405356;14.34783692;36.2034947;36.90088567;15.69113995;6.958044185;6.048422241;1.744195661;5.337922773
-40.78280185;-2.430681466;7.784825774;7.855670208;8.045110329;3.976602993;0.240156144;31.08769729;31.42939646;28.77982305;14.17003906;17.9377117;40.02201151;37.98462259;17.52577583;6.693634729;4.643056152;0.304286801;4.74278834
-26.45237862;-3.087068625;11.14026274;10.28834601;5.755736392;4.56786932;-0.085152124;27.38353129;33.4230174;25.81018809;17.38346983;17.11857666;41.11445706;37.61248069;17.90803271;6.995164363;3.675490303;0.335047828;5.568843067
-19.9602292;-4.381402319;9.313504874;20.85363991;1.217465717;2.782770533;-0.140927311;19.92402375;28.80787428;19.03073609;18.58881429;11.91793533;38.70793968;35.28482574;16.15522921;7.451135757;2.74171726;1.355036798;7.010822947
-21.94791992;-5.208883652;0.782535182;32.12650469;-2.966402712;-0.512739933;-0.044279731;13.76858509;20.46581894;12.26530207;17.42016001;5.091470468;33.99541708;31.41750843;12.6722587;7.522874832;1.603364853;2.011072508;7.599423736
-27.11793381;-4.906872337;-12.013287;32.67675174;-4.818970863;-3.782286906;-0.05327763;12.17162335;13.04342851;9.162394532;14.3856752;0.402154814;29.50321005;27.40476833;8.834492947;7.088630006;0.584376175;1.293009999;6.511244545
-28.30319807;-3.832720553;-23.33421205;15.52289626;-3.979870359;-5.530078125;-0.29549921;14.73403868;10.14649471;11.16568216;10.54352182;0.214784855;27.52434314;25.05427246;6.310742972;6.578146797;0.350251432;-0.608589385;4.343555686
-22.12332586;-3.013517645;-27.24446746;-15.44460005;-1.522849273;-5.004167728;-0.632193025;18.48883074;12.47345971;16.87864767;7.06987209;4.029593625;28.64671959;25.58311587;6.173344103;6.567446821;1.273504932;-2.493988899;2.68045326
-11.99657039;-3.205270573;-21.26020072;-46.33477624;1.046143139;-2.568447399;-0.780155684;20.62;17.88638523;23.1493731;4.895977415;8.933849384;31.41116413;28.76394587;8.319965182;7.217116253;2.971857417;-3.143651415;2.827720937
-6.057740365;-4.219635869;-8.06569437;-61.50851544;2.767933673;0.452918052;-0.577296546;20.44283042;23.08349203;27.1002977;4.468072812;11.61494409;33.36;32.85119374;11.58036445;8.087735276;4.454700448;-2.218647306;4.788217278
-11.32763331;-5.113040942;5.961764398;-53.66635292;3.546868371;2.422834359;-0.149964122;19.26066633;25.62478663;27.76781938;5.637415092;10.51853247;32.73864224;35.48271006;14.46783295;8.515257769;4.788471636;-0.372516556;7.305188623
-28.34939695;-5.044884242;14.49930537;-28.54503636;3.794384943;2.241200166;0.170206864;18.68636978;25.08320808;26.35795027;7.722394988;6.705260667;29.64788458;35.09175938;16.11650791;8.206739696;3.762562901;1.372450887;8.872607183
-50.19069706;-4.021116567;14.8222879;-0.778996549;3.883235721;-0.036052844;0.110341761;19.17388723;22.84712683;25.096239;9.787065033;2.938084427;25.87446607;31.94435924;16.80184403;7.508945908;2.055956526;2.340004883;8.828421915
-66.48028327;-2.869008367;8.875200668;16.01415413;3.894189407;-3.172733644;-0.324361385;19.97438284;20.95679789;25.56112327;11.06651694;1.760968637;23.59836951;28.07748498;17.68390853;7.10045132;0.81587752;2.427349081;7.661313403
-69.55969575;-2.496846915;1.395278997;17.63340685;3.742269041;-5.395547218;-0.858754662;20.20734443;20.78656399;27.63375136;11.30836713;3.917405999;23.94691562;26.09494747;19.90385828;7.384984594;0.98998712;1.830538597;6.397843029
-58.60140321;-3.123256662;-3.355581498;10.24725042;3.400745608;-5.395952108;-1.168767481;19.74301429;22.27669794;29.67336274;10.7715259;8.056321224;26.36956278;27.53571492;23.59847362;8.134621355;2.863311318;0.715763524;5.706317517
-39.37749986;-4.153291189;-3.916555638;3.852785785;2.926198518;-3.132352534;-1.124875865;18.99872961;24.01307128;29.66851368;9.834638964;11.69499083;29.12340614;31.84276726;27.49611263;8.700495721;6.015032153;-0.784989973;5.498279518
-20.54457141;-4.767054976;-1.636885074;3.929925484;2.28240727;0.063738734;-0.861227366;18.02731037;24.03998048;26.53118016;8.499484968;12.63278318;30.37840883;36.60393971;29.44038593;8.592338968;9.589368816;-2.337098245;5.270039063
-9.308535766;-4.648229214;1.156983926;8.008649986;1.228760326;2.195438458;-0.631758694;16.07829045;21.00634525;20.73481492;6.24317729;9.941511552;29.16242535;38.94150284;27.62850037;7.900256281;12.6412083;-3.335628652;4.746676601
-8.919685385;-4.191111131;3.094714736;9.458301618;-0.503825303;1.750335627;-0.592368938;12.32232071;15.09879959;14.02272882;2.467615365;4.178174396;25.67998042;37.21667331;21.87701022;7.187140875;14.41238052;-3.247929812;4.181891758
-18.50565105;-4.039592899;4.290238333;4.673314436;-2.838954208;-1.375579796;-0.69447272;7.138331731;8.237631291;8.499748498;-2.693678079;-2.972132547;21.06867538;32.03764089;14.13120197;6.967289163;14.53912507;-2.116781618;4.066182937
-34.19838468;-4.432663657;5.366777992;-2.919866751;-5.136509378;-5.744534233;-0.762593635;2.588622509;3.286217369;5.688474243;-7.849599689;-9.25520583;16.9276275;25.9979798;7.801532073;7.256080461;13.20643745;-0.693588385;4.579693436
-50.47643394;-4.984634176;6.206801822;-5.706193272;-6.417537724;-9.138472194;-0.667075597;1.299693721;2.54478902;6.003087714;-10.68320371;-12.45660564;14.83480545;22.32012507;6.161213505;7.594241337;11.16434311;0.058238694;5.346626043
-61.58332477;-5.091892525;5.785999973;0.826351162;-5.953309697;-9.782336525;-0.434152637;4.455076272;6.324823475;8.768258222;-9.157096204;-11.1108834;15.84259659;23.17365321;10.61407151;7.504060362;9.480113829;-0.255505059;5.730450911
-63.38240576;-4.55753047;3.330273229;12.81416437;-3.796758381;-7.320039063;-0.208300157;10.59905325;12.53531692;12.64392897;-2.921589291;-5.242601024;19.94519342;28.56304788;19.79682351;6.940994194;9.043722918;-1.088529099;5.387967806
-55.35970727;-3.82514673;-0.314664392;19.76487158;-0.834306477;-2.99141753;-0.118419439;16.43590456;17.71738835;16.21881331;6.032359088;3.257217618;25.76564149;36.32401487;30.08666434;6.321955483;10.0808775;-1.391605013;4.570391622
-41.45429341;-3.591003532;-2.571850392;12.46031433;1.704203675;1.059629201;-0.175320613;19.14427555;19.04479698;18.55064928;14.05333672;11.11978891;30.87373203;43.17658257;37.32705291;6.115004879;12.01829548;-0.537318801;3.912698505
-28.41503766;-4.15522147;-0.7509007;-9.211390715;2.925270914;2.919228552;-0.284412346;18.36739523;16.07329085;19.46944567;17.59291752;15.13499594;32.88155598;46.27634278;38.87962917;6.384132214;13.84232103;1.076128781;3.923035935
-21.97893251;-5.121420811;5.68488552;-35.01812537;2.671900647;1.842443007;-0.346242695;16.23884049;11.06062039;19.51506635;15.08607365;13.8812366;30.8453935;44.50495953;34.8818032;6.719440862;14.71973103;2.316002392;4.6276426
-23.18854252;-5.731396403;14.05715359;-51.11587047;1.437922956;-1.47034935;-0.343998225;15.44669471;7.568270165;19.51117467;7.866073231;8.647729247;26.04136454;38.90156991;28.00774888;6.619256054;14.42634978;2.287608687;5.642564737
-27.68798906;-5.53258407;19.73566055;-49.71533555;-0.019977342;-5.32261428;-0.341731793;17.00707326;8.220580229;19.98461775;-0.415902656;2.787074199;21.39336172;32.06101479;21.88092686;5.968261053;13.27800947;1.137479605;6.539880761
-28.97416446;-4.769811557;19.09444936;-34.24908179;-1.01997325;-7.885835499;-0.406599204;19.63791763;13.09633789;20.7935296;-5.55054618;-0.251018854;19.71676538;26.82057552;19.07045089;5.166054339;11.67909455;-0.048728317;7.143761529
-23.53371908;-4.14958474;12.12630313;-16.19059735;-1.061364053;-8.022541931;-0.535300839;21.19279032;19.79729297;21.25553345;-4.781779259;1.016454238;21.87962922;24.90094214;19.83491747;4.783378523;9.732930584;-0.191779048;7.523461452
-14.03445993;-4.201870382;2.765421464;-6.284000616;0.180043335;-5.716896507;-0.651873639;20.79628036;25.07256055;20.73678266;1.920432866;5.315529909;26.19212055;26.18605987;22.297474;5.057756315;7.288046819;0.826266057;7.777202814
-7.913957513;-4.82619432;-3.460510154;-7.169986791;2.740693704;-1.995814014;-0.672054998;19.72855001;26.82861126;19.27922694;11.88042234;9.614063863;29.54217521;28.9880197;23.83954084;5.686218467;4.367750501;2.065133967;7.884526526
-12.11659107;-5.42673906;-2.926108497;-12.89931757;6.121189516;1.559941231;-0.570515674;20.25701028;25.17906636;17.73057636;20.95358583;11.17119762;29.53339419;31.10765451;22.76251107;6.099521583;1.528998642;2.392252422;7.779645483
-27.7462667;-5.491767107;3.791591763;-15.04133324;9.179851724;3.492362418;-0.392967946;23.47380597;21.97081034;17.16435032;25.38815847;9.191571023;26.11347341;31.06632154;19.16588355;5.964588206;-0.291304302;1.534789324;7.523441424
-48.59540221;-5.068172536;12.31021304;-9.907560248;10.49057285;3.074174084;-0.211951935;28.1054914;19.32814538;17.95024138;23.49206276;5.007261552;21.53230943;28.81524692;14.57975083;5.461164596;-0.428357121;0.349151483;7.331083286
-64.67888523;-4.692534355;17.19180125;-1.001106476;9.147212745;0.619162618;-0.074264364;31.40867887;18.34989747;19.21102273;16.37436105;0.844170933;18.69660138;25.57555922;10.75080159;5.093156002;0.88633786;0.035623474;7.37658876
-68.2612408;-4.854875151;15.19720096;4.788624619;5.527008679;-2.646945972;0.014511405;31.41554354;18.79415713;19.219766;7.402326752;-1.768302546;19.15482643;23.00208201;8.511560988;5.220959792;2.539840575;0.996881612;7.567748933
-58.22712499;-5.507688642;7.033898823;3.448512095;1.369840624;-5.138444196;0.066807387;28.59031852;19.7249734;16.60628444;0.576544523;-2.767145763;22.1633479;22.2419675;7.504512124;5.746092141;3.322154511;2.398516009;7.563358109
-40.13021445;-6.086828477;-3.275392731;-2.938480716;-1.081734861;-5.668305885;0.086536096;25.46175725;20.40199085;11.54839798;-1.419835669;-3.107755845;25.41641381;23.4386059;6.831997964;6.225317929;2.930611592;2.884255895;7.080614048
-22.48046559;-6.029739352;-10.76013156;-8.466125043;-0.4380746;-4.053740721;0.06922758;24.55033279;20.67878176;5.997610655;1.510309395;-3.683523148;26.77902664;25.86526233;6.000625338;6.290229943;2.354758037;1.848588944;6.224290735
-12.19248692;-5.309992213;-12.09338045;-8.730253017;2.891975892;-1.234536828;0.022648426;26.36406785;20.74715305;2.613225921;7.015775944;-4.586878905;25.70379254;28.45552503;5.355170761;5.974240219;3.208540787;0.119889948;5.491696697
-11.99614968;-4.488019266;-7.065855213;-4.341347771;6.880165082;1.201040836;-0.023337071;29.13440076;20.66566505;3.04260687;11.79687;-5.23765162;23.38615807;30.32688259;5.667164807;5.650235762;6.4077514;-0.620368682;5.38351528
-20.56402066;-4.222759579;1.561060084;0.272483877;9.137103797;1.859897881;-0.035898548;30.43225081;20.22532974;6.755003175;13.58541229;-5.089471234;21.73224293;31.04057924;7.269409169;5.65457681;11.18500276;0.750026855;5.940889764
-34.13722916;-4.685724185;9.494216901;1.300048828;8.426827834;0.303274343;-0.01028739;29.21163224;19.28955323;11.32322207;12.37861302;-4.173404496;22.03719503;30.61606917;9.520654195;5.964026648;15.27530792;3.751160299;6.650919926
-48.08079033;-5.41017226;12.89;-1.035773416;5.41394491;-2.707676141;0.021703447;26.54633325;18.22326328;14.02411463;10.15251424;-2.999085549;24.30823028;29.46060582;11.12066127;6.232131084;16.26359484;6.560776134;6.862270277
-57.88907203;-5.711504347;10.08509402;-3.138903922;2.156942825;-5.625193312;0.019032304;24.53497752;17.88937028;13.64232111;9.285612901;-2.001945156;27.51541805;28.28977588;11.08059007;6.143465281;13.19210027;7.411863873;6.378382881
-60.2018836;-5.296241903;2.404885687;-1.922465865;0.734645932;-6.956685776;-0.030940842;24.43242302;19.06466154;11.17613008;10.80148651;-1.154972555;30.33894067;27.95051821;9.567957213;5.740019531;7.280615203;5.979530246;5.689560862
-54.19165724;-4.510347346;-6.386144152;1.930673026;1.956399194;-6.065609142;-0.103671144;25.63923053;21.67736862;8.936783544;13.65264774;-0.166343141;31.77309602;29.04446001;7.883587489;5.401300383;1.22552694;3.59951074;5.589287147
-42.55414329;-4.011075051;-11.94772818;4.519864952;4.974487628;-3.498751672;-0.168244962;26.3207729;24.5064083;8.726654903;15.51440268;0.930271774;31.29612131;31.4555235;7.491672236;5.491531479;-2.439821838;2.14307271;6.467910996
-30.73519794;-4.17031696;-11.76947133;2.642713636;7.941844325;-0.683317303;-0.225260501;24.98186335;25.68884212;10.47221316;14.47821579;1.421533688;28.79031289;34.12550877;8.802512529;6.009520073;-2.784984016;2.503125921;7.896909818
-24.00322058;-4.752857128;-6.758544246;-2.624173614;9.171818857;0.821729029;-0.307484618;21.58992046;23.78550464;12.33926517;10.41897705;0.256316379;24.53687593;35.41182365;10.67270354;6.58099864;-0.76842521;3.954252517;8.898731811
-23.95284342;-5.151470015;-0.789918198;-6.224891086;8.034342825;0.120630791;-0.435411405;17.3932543;18.72644757;12.22966493;5.097776856;-3.091886818;19.34627819;34.00373302;11.09709945;6.811899881;1.724324645;4.882465498;8.709999954
-27.15674969;-4.949697575;1.883637786;-3.365302698;5.134454226;-2.571510719;-0.570672554;13.81093926;12.02110918;9.511336719;1.00600943;-7.942679144;14.56136511;29.89472654;8.671913147;6.672953038;3.309042208;4.213856694;7.404377713
-27.5605995;-4.292362116;-0.090029297;5.943639645;1.841388386;-6.030039063;-0.622069393;11.51373248;6.103115434;5.664197474;-0.16741379;-12.53154455;11.66990599;24.71164082;3.790741759;6.54298562;3.960204077;2.309332806;5.846556268
-21.35775243;-3.733330713;-3.511664211;16.22090001;-0.432147142;-8.609174285;-0.513143699;10.44769715;3.211391864;3.350629821;1.60995381;-14.92983162;11.6187444;21.0244489;-1.322570087;6.850345437;4.760537228;0.596029563;5.018382426
-10.7455113;-3.716238538;-2.203479119;20.6827675;-0.817535151;-9.039703766;-0.256396296;10.52474139;4.425197377;4.596297959;5.001191353;-14.10802706;14.28382641;20.93831042;-3.834076412;7.635072916;6.839546256;0.308900837;5.291122231
-3.30917414;-4.175803938;8.717119893;16.94316185;0.72241071;-7.067545801;0.038713442;12.05765272;9.287646063;9.401432097;8.342397661;-10.38817392;18.53256117;24.81771983;-1.990043945;8.449022967;10.33967673;1.454733537;6.242954226
-6.89739971;-4.624038762;28.53746021;9.385803911;3.404584633;-3.625160669;0.243761478;15.3679602;16.07720453;15.74365981;10.6029145;-5.052447035;22.88120742;30.97762028;3.810863351;8.716038514;14.1477628;2.86972485;7.123426952
-23.46197382;-4.629143025;49.81740585;5.930442647;5.90672979;-0.424975974;0.314387385;19.96017554;22.50076293;20.89947678;11.64943568;0.453781742;26.27016993;36.57038272;11.20151963;8.24900344;16.53081828;3.269445332;7.502139476
-46.52;-4.231283107;61.83212791;11.54526295;6.897080228;0.86763682;0.325373665;24.24406755;26.51124027;23.10605618;11.83266608;5.054255222;28.39419636;39.12190544;17.09061796;7.455149191;16.1940056;2.350513951;7.516058836
-64.50673126;-3.903085215;56.90431784;23.66438967;5.691201384;-0.504719404;0.398644656;26.36645297;27.01807634;22.45352924;11.4162594;8.022358603;29.42665615;37.77747791;19.16597697;7.019645567;13.05707809;1.006438175;7.54512336
-67.98933661;-4.090223239;35.66536726;33.29477719;2.733908718;-3.945387536;0.58224373;25.63726868;24.31544443;20.54990272;10.3747608;8.726842996;29.51183702;33.56763497;16.84703398;7.321144711;8.307007214;0.519317595;7.697881398
-55.76392603;-4.761128654;7.578884989;31.15832274;-0.457069462;-7.746681127;0.79018036;23.32197103;20.06007813;19.3657332;8.671962823;6.689583029;28.5765318;28.67470395;11.3506764;8.088005252;3.775808298;1.460438513;7.654886168
-35.54165717;-5.39126296;-14.04967156;14.31760985;-2.018621992;-9.941769235;0.865890323;21.95491847;16.68479327;20.09577964;6.682209771;2.119129179;26.66007813;25.26730881;5.058113481;8.612470352;1.062585881;3.232758189;7.043015801
-18.76985286;-5.41061751;-19.71651463;-11.55501997;-0.826136316;-9.334361105;0.721691677;23.54241497;16.33840996;22.65481759;5.294694802;-3.554264292;24.39935102;24.59061653;0.59061567;8.358726623;0.873894695;4.591659071;5.960866712
-13.25800748;-4.717432297;-9.263998445;-35.71673015;2.723946338;-6.143341033;0.431466899;28.01911273;19.75564203;25.87244808;5.506622968;-7.865718445;23.06572002;26.66959288;-0.089229147;7.448810848;2.846899769;4.647047588;5.084744976
-18.67556723;-3.795045841;8.203619268;-48.90757265;6.808204179;-1.891559156;0.186759768;33.20015613;25.66301077;28.06764334;7.730341629;-8.476303801;23.8967054;30.5420875;3.618859591;6.600996878;5.83696559;3.498354921;5.162486593
-27.76387278;-3.321100184;19.98692133;-48.28952279;9.191885032;1.409402724;0.144706004;36.30242784;31.19427955;27.69508343;11.29769682;-4.691125317;27.12708095;34.72911707;10.6134705;6.55717563;8.46158141;2.036050523;6.310132088
-32.03760715;-3.608740845;17.45;-37.82800234;8.577296343;2.322462908;0.296224476;35.87300314;33.28493853;23.96592589;14.57348038;1.793357555;31.51590663;37.73222837;18.35695108;7.472259343;9.646234245;1.168369516;7.783177071
-27.81146067;-4.363566345;0.91839958;-24.68447511;5.427366888;0.702982083;0.471859531;32.69;30.39470555;17.40359422;15.74152783;7.665938741;34.89425401;38.50896353;23.87345562;8.773691057;8.973321717;1.159145732;8.519652222
-18.50299621;-4.955059774;-21.01755998;-14.69217096;1.725624554;-2.308814371;0.484914354;29.07462368;23.57597053;10.09698986;13.90258405;9.977876612;35.4878324;36.88762113;25.19484902;9.604068491;6.734399082;1.573006688;8.051236386
-11.96236935;-4.949993985;-37.00310361;-9.864760099;-0.172270447;-4.975281928;0.289391045;27.28818757;16.15152569;5.238716884;9.853630707;8.031571357;33.11142315;33.74305109;22.50059683;9.475430525;3.697754151;1.758913642;6.986894448
-14.9224347;-4.441195993;-39.54504402;-8.792947433;1.136813368;-5.90876167;0.014442481;28.25819953;12.02471691;5.762329375;5.975398087;3.834481013;29.34467535;30.69221039;18.12933942;8.601246982;0.709961553;1.389841512;6.582617455
-28.32459016;-3.907317424;-28.72920915;-8.708185873;5.400227126;-4.752546455;-0.154649655;31.40538281;13.49769904;12.55274981;5.079739765;0.74005127;26.51075083;29.27936043;15.22071219;7.659170265;-1.680520404;0.635869334;7.690507557
-46.42370361;-3.760975738;-11.18538838;-7.420775444;10.9717812;-2.265791871;-0.141380911;35.37039313;19.87535042;23.32541701;8.707250107;1.193122691;26.15357816;30.02648501;15.69316945;7.216482646;-3.399678615;-0.058598738;9.956160208
-60.05635869;-4.001245136;4.454728792;-4.183490094;15.76925512;0.165210226;-0.038867001;38.85166354;27.76769969;33.21359321;15.86516934;5.140973974;28.07245588;31.98253224;18.88195266;7.310665118;-4.748980788;-0.303051054;11.97713613
-61.96224997;-4.263249272;12.43007813;0.38714106;18.30630696;1.276390427;-0.010555341;40.98118321;33.02200766;37.15623243;23.15756344;10.17381236;30.553788;33.20616102;21.87636349;7.512441255;-6.106210826;0.076080318;12.34770585
-50.97323416;-4.185246704;12.17935515;4.83243895;18.26538874;0.538637388;-0.122243524;41.30858563;33.18792189;32.87340797;26.53308052;13.20650554;31.57621109;32.00313648;21.47815544;7.371456217;-7.612816407;1.051114207;10.75866685
-32.65130133;-3.739415143;7.286021008;7.585110223;16.44554068;-1.638004844;-0.26377602;39.8188769;29.00814271;22.530663;23.79060869;12.4580348;30.11613071;28.14029096;16.51340385;6.832056373;-9.037628443;2.423235275;8.251543342
-16.01851154;-3.234775624;2.406386785;7.863584051;14.25999362;-4.152349545;-0.240925824;37.1506043;23.95666384;11.79771941;16.26222352;8.389671013;26.69959786;23.16934888;8.878410971;6.265574006;-9.898337582;3.784757758;6.416849276
-8.266885949;-3.019681168;0.4880035;6.385690887;13.08232352;-5.753231287;0.037886188;34.67540751;22.04731751;6.649263487;8.378903913;3.124621973;22.95099077;19.55647467;2.520830671;6.120787356;-9.767828223;4.537789405;6.194760832
-10.5849926;-3.17995125;1.868859611;5.232665284;13.68056268;-5.615371729;0.448576485;33.99091487;25.26304502;9.835330145;5.122446599;-1.030647602;20.57444926;19.15203733;0.996401554;6.522328707;-8.582496594;4.137730473;7.247767948
-17.73012178;-3.505786757;5.246791133;6.531207015;15.88767217;-3.706382541;0.723125107;35.89199344;32.25266451;19.29259283;8.87732126;-2.841418462;20.47546814;22.0244605;5.245790061;7.168887049;-6.763604359;2.504484103;8.374070792
-21.80516191;-3.72816181;9.263631577;10.6497017;18.6164442;-0.800886185;0.655470892;39.55118183;39.15675869;29.53908989;17.79689906;-2.436423141;22.47683511;26.43881088;13.06066454;7.60154672;-5.061249771;0.266141879;8.558330248
-17.98385785;-3.774016156;13.35129219;15.41577834;20.27935433;1.858985826;0.268124752;42.73271706;42.0354777;35.11056778;26.90325175;-0.737821109;25.60259778;29.95888167;20.50135587;7.590534343;-4.182427522;-1.495126968;7.758371621
-8.378135242;-3.79396238;17.39679553;17.42898739;19.52585514;3.114144772;-0.205958605;43.14406656;39.30561006;33.76017411;31.26248994;1.293324855;28.59748411;30.8921033;24.20943253;7.305222628;-4.393795323;-1.946092331;6.80630913
-1.126238063;-3.956689811;20.85994122;14.86895863;15.98827649;2.413277625;-0.51363565;40.04626402;32.59941643;27.4021212;29.06558813;3.012826499;30.38273584;29.13319505;23.08642848;7.140986512;-5.32651806;-1.153535513;6.586684177
-4.868499859;-4.23689155;22.37718561;9.601679181;10.60804894;0.074618997;-0.581244816;34.88943573;25.55142271;20.41140047;22.48174994;4.018509925;30.36528271;25.97074414;18.44211272;7.375653465;-6.122251136;-0.104675075;7.251028502
-22.15098569;-4.421776354;20.37753614;6.450542897;5.268327203;-2.844365739;-0.552469067;30.41403247;21.4396851;16.67938756;15.78408626;4.043975362;28.64250763;23.16392106;12.8566546;7.954586844;-5.875480294;0.027527607;8.139909499
-46.48435683;-4.333190367;14.30682685;9.561100902;1.862457169;-5.021048391;-0.635534732;28.85354242;21.34086827;17.49148367;12.26062749;3.135058304;26.07218634;22.00216457;8.743195569;8.564764712;-4.1423464;-1.151819111;8.426109547
-65.59797407;-4.037705255;5.476831774;18.37024661;1.320793147;-5.473120561;-0.899100166;30.58281056;23.98331515;21.45489136;12.25278033;1.956527784;24.05450483;22.8845319;7.473311307;8.899116222;-1.218453806;-2.864243568;7.866381131
-69.11371347;-3.820257273;-3.224093396;26.568954;3.191560122;-4.016339757;-1.201068374;34.16304156;27.17541041;26.11258047;13.65535814;1.745912091;23.92963401;25.44270395;9.234967391;8.867808084;1.995618969;-3.723499104;6.993965847
-55.46779609;-3.928103011;-8.692522006;25.56700881;6.028529784;-1.360837287;-1.315670762;37.58296821;29.54925554;29.77630978;14.19380287;3.634414058;26.18011419;28.86030452;13.24160555;8.595155921;4.472734707;-2.861234254;6.613235831
-33.09801294;-4.325748504;-9.188810627;10.53089821;8.305415253;1.203297163;-1.146511562;39.58855942;31.25258565;32.25;13.4234547;7.672433367;29.92155389;32.09012751;17.94818089;8.251341876;5.587707304;-0.699413766;7.075569858
-14.82758446;-4.70565821;-5.124410926;-15.25913789;9.243615382;2.396260165;-0.834438889;40.0934407;33.19096743;34.2214348;12.79110777;12.36554068;33.1539591;33.99645607;21.35590649;7.905361059;5.365332917;1.302413075;7.978378875
-9.289530931;-4.761438865;1.38049922;-41.19692134;9.050938194;1.556218519;-0.659402395;39.60854042;35.65873001;36.18139825;13.88633949;15.33304891;33.81993006;33.65659588;21.70879809;7.533923376;4.311970778;1.763102341;8.524035485
-15.47976611;-4.47415749;7.765965177;-55.2204516;8.524316879;-1.009752905;-0.815502621;38.50600206;37.68341779;37.93132285;16.62410423;14.87573212;31.1203561;30.89285119;18.54602245;7.147871393;2.989319661;0.462964881;8.192687615
-24.30794642;-4.137504266;12.23919671;-51.01730962;8.406884058;-4.109153419;-1.249859529;36.93023673;37.74700361;39.01279506;19.12362502;11.40097715;26.22387659;26.71953392;13.45815127;6.877341373;1.663214421;-1.4995903;7.141666442
-25.89670407;-4.086845166;14.2174;-31.76359384;8.982142895;-6.181400682;-1.70161319;35.34346962;35.29539761;39.4726405;19.45573376;7.536305702;21.78007813;23.19691249;9.694082329;6.90224619;0.275448702;-2.610982062;6.027324725
-17.1807648;-4.380009766;13.95340916;-7.974825832;10.10602549;-6.047558995;-1.906361964;34.90253733;31.67147285;40.08813989;17.64062072;6.589935755;20.39855606;22.47748415;10.39908693;7.275994634;-1.292427577;-2.154871999;5.461995394
-4.234847278;-4.73397905;11.8691676;8.924521824;11.49532219;-3.549180615;-1.793681942;36.9396692;29.49667125;41.73631216;15.92943229;10.25339268;22.99442685;25.46605621;16.38545146;7.80963702;-2.939240893;-0.730565301;5.597619691
2.237749118;-4.788896514;8.208489192;12.97591277;12.93662784;0.266285161;-1.51863246;41.74688588;30.80413292;44.45053682;16.88935521;17.14996437;28.08893962;30.98445324;25.01849164;8.145661798;-4.326259581;0.330951191;6.14913942
-5.220714544;-4.461380562;3.219906606;6.07335047;14.25353098;3.573855069;-1.315324354;47.75339283;35.34580724;47.07154521;20.86927532;23.39726719;32.60400583;36.17387779;31.31188079;7.988231686;-5.150848171;0.128274199;6.743552923
-25.35457242;-4.052808903;-2.425531234;-4.586634222;15.17149009;4.663901961;-1.309065745;52.10075219;40.49502721;47.93;25.18982616;24.99234971;33.72960516;38.08811356;30.84017375;7.316172828;-5.454929066;-1.068495471;7.216687524
-48.86982324;-3.995714407;-7.471845363;-11.69573266;15.34566073;2.865236679;-1.445393109;52.49488784;42.97781569;46.10159069;26.06744231;20.49119224;30.70679928;35.55400082;22.65349406;6.411019114;-5.646249471;-2.105106353;7.601243192
-64.39331808;-4.457080649;-10.42933561;-12.07687729;14.64103687;-1.016297789;-1.578541164;48.99223029;41.20961232;42.2339262;21.88524784;12.13501893;25.36930292;30.06881968;10.16869376;5.677748008;-6.145142734;-1.972584506;7.898313393
-65.26896832;-5.160990131;-10.2749441;-7.596725759;13.44493577;-5.042898376;-1.619281697;44.20275837;36.46720624;38.2432435;15.03863148;4.564568906;21.05284884;25.05445711;-0.702416822;5.394327224;-6.91781135;-0.666731972;7.939618024
-52.69192802;-5.604149594;-7.073209673;-2.840786508;12.6579859;-7.146012458;-1.600923363;41.5496729;31.96493198;36.06517823;10.53651306;1.902987892;20.52771336;23.85531155;-5.024985353;5.568358327;-7.312811052;0.854805296;7.52427824
-33.80355053;-5.482472848;-2.147818433;-1.571201944;13.21546102;-6.25703873;-1.612791946;42.81083053;30.49862925;36.39469533;12.18364139;5.128751092;24.25118621;27.71486517;-1.635750565;5.982065516;-6.416979857;1.543592805;6.69432753
-16.96107542;-4.949680933;2.298597885;-4.307725392;15.39314212;-2.92443564;-1.68160894;46.83025435;32.42347761;38.34087725;19.32890593;11.4885046;30.04660975;34.99999506;6.511704659;6.362970442;-3.727146868;1.169269667;5.833929922
-7.748417365;-4.474724449;3.969986561;-8.285582435;18.40977492;0.95986357;-1.728330538;50.41246558;35.47550395;40.18881291;26.94222388;16.32790232;34.41138114;42.14037035;14.49307819;6.544188809;0.363710934;0.471686315;5.430688605
-7.806780819;-4.425453653;1.406176182;-9.506019641;20.70258665;3.192907072;-1.649124986;50.68811834;36.53579894;40.61936585;29.21578882;16.10209746;34.62457081;45.66765402;18.44159439;6.517741411;4.676635498;0.452248715;5.678783256
-15.94232221;-4.753614142;-5.243780824;-5.497707319;20.78916897;2.472707948;-1.441887617;47.09613873;33.97611322;39.46202441;24.00848733;10.57877944;30.33393865;44.0971569;17.45731871;6.381760303;7.928706225;1.460183401;6.291737613
-29.53480927;-5.063329426;-13.94330352;2.859780984;18.18161907;-0.898576523;-1.247161839;41.5083914;28.83405268;37.51750324;14.64784598;2.849392848;23.66151275;38.57632013;13.42364802;6.249865754;9.517406414;2.888796033;6.725862683
-44.96070043;-4.994837152;-21.29814176;11.56550235;13.73737702;-5.210264466;-1.247385021;36.57463754;24.00409472;35.74851908;7.603890716;-2.742982744;17.82671228;32.04392735;9.293462717;6.187391582;9.842383627;3.732218057;6.637002549
-57.49510457;-4.567338168;-23.94490115;15.7957351;9.192584676;-8.306334245;-1.503426447;33.7586155;22.12727211;34.56162848;7.78046638;-3.313815586;15.21049663;27.52673724;7.271678799;6.193612906;9.939737593;3.483150932;6.162387384
-62.08443265;-4.163681349;-20.31750505;13.03978024;6.169914539;-8.756826004;-1.876174896;32.62649356;23.76539188;33.69610412;15.02641069;0.961766915;16.07959323;26.60464018;8.005425066;6.215603553;10.71499405;2.563830925;5.767759294
-55.55998625;-4.170540648;-11.80969781;5.091385609;5.292372794;-6.5884446;-2.115289813;31.7521686;27.12844418;32.65747569;24.46379822;7.250568923;18.69659933;28.83419908;10.87661847;6.178941997;12.34127029;1.919386112;5.801102004
-39.11699439;-4.607383954;-2.375867023;-2.691162686;5.939750539;-3.203400516;-2.051527023;30.22994505;29.4237275;31.21894061;30.21497104;12.01296733;20.62354598;32.28286128;14.71623517;6.03035068;14.22828747;2.159033738;6.173059311
-18.95547594;-5.091430134;3.584874403;-4.815660071;6.747353153;-0.575697346;-1.732926773;28.42030624;28.77140939;29.58418131;29.54463671;13.14018896;20.30444354;34.72503437;18.2843373;5.779728809;15.51396271;3.025387235;6.469319505
-3.90198003;-5.179075271;3.999223079;0.258548706;6.486681684;-0.18768227;-1.386917092;27.41957836;25.37668029;28.20980605;24.33370435;10.97418648;17.93497717;34.80313492;20.44371824;5.510622253;15.65765381;3.660812963;6.389211852
-0.986959919;-4.776643458;0.726756612;8.311043002;4.782510669;-2.26818456;-1.236617857;27.95638153;21.31675201;27.59062426;19.1034873;7.772660632;15.18179915;32.60616131;20.39003906;5.333172164;14.70688447;3.413904622;6.082871838
-11.61047017;-4.243697528;-1.355094684;11.56844621;2.284899945;-5.699307644;-1.323711162;29.84684495;19.2725698;28.23114976;17.51036431;6.179139096;14.07164331;29.48954927;18.13660385;5.29788514;13.13246249;2.445314752;6.040731835
-30.73058074;-4.086570981;2.457697612;3.904401381;0.267383734;-8.604232299;-1.484236292;32.45214143;21.09143698;30.69092709;20.1394367;7.735001698;15.81863344;27.32272579;14.91470647;5.338698627;11.47622281;1.580723654;6.612752223
-49.58249413;-4.510257191;13.19046142;-14.41808225;-0.077966043;-9.300782558;-1.493352587;35.509242;26.94260965;35.39717588;24.98292323;12.22964946;20.25761385;27.55710369;12.89271755;5.312024385;10.13529505;1.543573183;7.607619477
-60.22490477;-5.227168873;26.8378281;-36.00543375;1.720819882;-7.149967208;-1.253886831;39.32248538;35.30695158;42.12343644;29.62768824;18.03491919;26.06503126;30.52555355;14.03145437;5.12507466;9.385342501;2.263909771;8.380527212
-59.25643759;-5.693427932;36.35886587;-50.51859619;5.121614495;-2.895803333;-0.871872715;43.99228179;43.59745096;49.47682557;32.97059419;23.01352453;31.46801005;35.25493582;18.69522618;4.855182696;9.466593633;2.898179212;8.376688372
-48.82598782;-5.563807462;35.92264183;-51.1447968;8.720783375;1.662156375;-0.563357405;48.44310126;49.07563815;54.96774093;35.12681034;25.43904821;34.97220219;39.85784454;25.07483026;4.740842603;10.5026151;2.563848541;7.653943676
-34.8026348;-4.967170208;24.63830682;-38.90491133;10.78553885;4.509772057;-0.479269905;50.40369399;49.79409817;55.94;36.11965655;24.56763937;35.79820467;42.33583872;30.04504054;5.014815698;12.24554772;1.152870456;6.884881206
-23.44116576;-4.371732639;7.250157307;-21.78986666;9.972525902;4.375101681;-0.596660707;47.72755743;45.32940574;50.97302395;35.07981682;20.78779943;33.9865982;41.45164621;31.02400293;5.689523621;13.91471899;-0.495182948;6.787373905
-18.34451981;-4.176491444;-8.658767017;-9.423154148;5.960334456;1.340808178;-0.758204929;40.16393294;37.02767273;40.87168694;31.01421426;15.42487585;30.28299125;37.28723142;27.57473629;6.473708849;14.42197833;-1.232625464;7.463115728
-19.07189414;-4.398246788;-17.02020497;-7.105215554;-0.282671751;-3.190029297;-0.812415718;30.08465994;27.54007813;28.50403588;24.44617508;10.28424751;25.89424297;31.23203233;21.61291564;6.920242671;12.97941508;-0.528388963;8.247600027
-21.87903072;-4.718455831;-16.29943276;-13.31114044;-6.76730092;-7.16321538;-0.728744267;21.3750064;19.72660514;17.49446669;18.12243204;7.020781771;22.1383115;25.39797878;16.10680662;6.724793156;9.700797705;1.096951266;8.251676001
-22.19029106;-4.81768975;-9.425019283;-21.92277563;-11.24092807;-8.848837711;-0.596541918;17.17149836;15.42919563;10.57725805;15.65819158;6.512814339;20.02826514;21.7212489;13.25949393;5.958039776;5.69546077;2.48845046;7.159107101
-17.63313361;-4.671217924;-1.159309598;-26.97410942;-12.13417358;-7.639514829;-0.524703444;18.11074682;14.81007813;8.629985796;18.89713091;8.522177782;19.93174597;21.15596638;13.4606449;5.043369424;2.468813493;2.776505045;5.584758808
-9.999658781;-4.535679356;4.910165572;-26.21072262;-9.258596983;-4.283551467;-0.540396961;22.36576867;16.65580438;10.86443716;26.1487498;11.87321432;21.4955988;23.31923547;15.58165228;4.478537171;0.975730967;2.042080236;4.646139538
-4.732873422;-4.660078125;7.73489208;-21.25598895;-3.897815605;-0.46064855;-0.573342793;27.30129777;19.4018174;15.79420551;32.97865893;15.1191363;23.91023924;26.73369943;18.10986244;4.499882878;0.993603214;1.199170895;5.073772285
-7.746380734;-5.014345857;8.128003605;-15.12864549;1.779817576;2.059312988;-0.527359397;31.31442568;22.11963656;22.11606177;35.17628126;17.33173811;26.36203716;29.53857221;20.09003906;4.938042988;1.29977042;1.217968056;6.600487174
-21.17629216;-5.302941122;7.264911147;-9.719988721;5.714158449;2.242495345;-0.365651284;34.41523776;24.76696673;28.8992881;31.65450281;18.51815123;28.37614519;30.332984;21.24591698;5.369417117;0.559085229;2.333897281;8.154219634
-40.86044823;-5.249966996;5.872693014;-5.239837146;6.867488372;0.211209611;-0.135472452;37.3077113;27.61997337;35.20375214;25.00127179;19.39108209;29.8394219;28.76800964;21.52767964;5.441754222;-1.710078125;3.863231064;8.706285626
-57.75151919;-4.87653432;4.535024366;-1.446537347;5.616198145;-2.903654035;0.07754497;40.05401282;30.48503745;39.78265044;19.28992396;20.67294397;30.7633432;25.6306297;20.82420901;5.124960815;-4.793742142;4.731405142;8.072549524
-63.02030368;-4.495104617;4.251874046;1.151262157;3.444763223;-5.558759049;0.212087068;41.67508324;32.44962815;41.39666209;16.97637051;22.46200704;31.06716885;22.40128191;19.24419149;4.706971967;-7.305286173;4.263940888;7.006543178
-53.78992756;-4.416394459;6.169843922;1.569778211;2.117876776;-6.534153618;0.253865305;41.06044035;32.42973292;39.60303975;17.38102851;24.14346527;30.62136165;20.50716526;17.59150258;4.556679351;-8.174972493;2.634699411;6.525197521
-35.45049402;-4.645135789;10.42414856;-0.250235348;2.760365268;-5.47207255;0.212071148;38.26511729;30.03649827;35.30593404;17.82806828;24.90290481;29.51;20.62795617;17.2634605;4.846385562;-7.38052484;0.690078125;7.050858022
-18.48323285;-4.861942788;15.24553024;-2.616617372;5.310298414;-2.998551621;0.091502679;34.86501614;25.96785324;30.42370586;16.25650689;24.41975046;28.20632725;22.37929442;19.26946084;5.436694424;-5.917342969;-0.640331297;8.089287226
-11.5849233;-4.723423304;17.58801272;-3.045845599;8.61700904;-0.397563967;-0.101295496;32.89998227;21.52864968;26.73788665;12.97595506;23.17093501;27.37877842;24.51810087;23.02819259;5.985811579;-5.086222572;-0.87879879;8.688263574
-15.83187621;-4.207038187;15.25748764;-0.380150842;11.12653575;1.007493609;-0.327359638;33.26777172;17.66032512;24.74245611;10.14505525;22.08971157;27.37942941;25.56747568;26.12169334;6.178558723;-5.652420396;-0.146709921;8.256706433
-24.22466885;-3.671064114;8.964956149;3.92784662;11.78899227;0.489823957;-0.507085147;35.00857276;14.32921431;23.43055341;9.628790461;21.85381346;27.82677976;24.56196067;25.62885905;5.906666632;-7.454561006;1.061782769;7.041447812
-27.18517436;-3.554872801;2.407492876;6.798043842;10.69069004;-1.718153876;-0.564423981;36.18442422;10.84252115;21.26997033;11.27484595;22.38821529;27.72732981;21.55592311;20.34617242;5.29947549;-9.643846884;2.218282201;5.882900765
-20.09957628;-3.980561806;-0.093246701;6.144331985;9.041103579;-4.52099328;-0.495287467;35.6449659;6.846118999;17.65021279;13.14802948;22.99656576;26.18449797;17.64344183;12.22118674;4.624458181;-11.26611864;2.968787745;5.498671944
-7.258070416;-4.621246098;3.225635419;2.851345942;8.487293448;-6.496780181;-0.392641438;34.14128729;3.110232313;13.63353994;13.39705634;23.01262364;23.21269279;14.460315;5.630058594;4.148115457;-11.72855333;3.165265352;5.925547942
0.949158797;-4.969337456;10.10821362;0.21870826;10.11554844;-6.631310387;-0.387410071;33.76332876;1.315038;11.32391448;11.92884778;22.41747043;19.9746339;13.38313014;4.663673296;4.033659736;-10.90310427;2.825687627;6.573131239
-4.299640911;-4.775258246;15.88207757;1.19597123;13.71;-4.877406602;-0.54046859;36.11022156;2.861110241;12.24248209;10.29333184;21.87790593;18.12874696;14.80243901;10.21193571;4.297028928;-8.97172006;2.115052737;6.791044144
-23.35288748;-4.264796041;16.984058;5.780265891;17.72685111;-2.223880289;-0.776885975;40.71883945;7.586657157;15.92558922;9.905922229;22.13603852;18.67370839;17.84840628;19.01766344;4.81095438;-6.287722273;1.327457743;6.422687027
-47.13200958;-3.935402881;13.58395842;10.90912164;20.04774651;-0.201287145;-0.93033726;45.1054119;13.44820452;19.86979859;10.35290349;23.24038615;21.14931483;20.76438702;25.58053198;5.353538908;-3.390997054;0.79391231;5.873748596
-62.94916104;-4.109250962;9.111726208;12.99810564;19.12116567;-0.062182299;-0.874509235;46.45927549;17.5387887;20.97951737;9.521882406;24.28797305;23.86725272;21.81075339;25.72727026;5.704849117;-1.046399819;0.713395209;5.682572016
-62.91268008;-4.642402872;7.042571764;10.89141686;14.85682125;-2.073594168;-0.636802257;43.68044931;17.80709904;17.55653823;5.631319853;23.97374112;25.08644654;20.27192021;19.38563608;5.766520393;-0.068824507;1.021212167;6.014876213
-48.88174203;-5.051706265;7.665155572;6.611428668;8.767281641;-5.31935103;-0.393833298;38.18941998;14.29898929;10.45277617;-0.610549287;21.59430699;24.28895826;17.00721198;10.61064196;5.633826663;-0.886003073;1.426134583;6.537740684
-30.57662521;-4.945991319;7.687896661;3.313702743;3.272764547;-8.139045748;-0.341993784;32.93506268;9.082638042;2.593721697;-5.805867894;17.74221929;22.57342227;14.15347359;4.854961487;5.547295767;-3.109232914;1.62196022;6.756313772
-18.50751936;-4.374494189;3.197485539;2.445690176;0.546236318;-8.980219065;-0.542688702;30.4185803;4.953107239;-2.782833208;-6.130484812;14.09965517;21.81742385;14.02544209;5.406697424;5.725221939;-5.517166742;1.518907575;6.477316994
-17.007649;-3.781133845;-6.432225938;2.843847591;1.505167496;-7.212939529;-0.868308647;31.20868988;3.817349418;-3.980684727;-0.397568614;12.391635;23.20277273;17.75509276;11.42443717;6.18401169;-6.628359698;1.303556971;5.972103668
-22.23598327;-3.609577172;-17.08670097;2.625807324;5.44185557;-3.478998942;-1.095360726;33.90267986;5.772025689;-1.621357608;8.599840643;13.20363294;26.21441075;24.45610797;18.77254582;6.692959496;-5.582964154;1.271691717;5.709273775
-26.10160497;-3.917498461;-22.44565333;1.937414915;10.42579424;0.600098877;-1.07113696;36.33064449;9.314744806;2.024732979;15.72772168;15.51288375;28.8951078;31.48544233;22.87734612;6.92553789;-2.73858052;1.571425116;5.922243935
-22.77197869;-4.345260971;-18.7399337;3.563721277;14.2306156;3.199685722;-0.821435512;36.98149041;12.37735096;4.565149706;17.00980356;17.3032763;29.20204333;35.76305688;21.548692;6.71093904;0.496841267;2.070404599;6.409941811
-12.92057063;-4.458533455;-7.962483291;10.26985496;15.32615457;3.162075039;-0.518423353;35.70728295;13.4731613;4.837009565;12.33616938;16.87331557;26.48322966;35.44889635;15.97037102;6.188938739;2.559449292;2.451440221;6.735736257
-2.972002767;-4.144640537;3.198010471;20.96518504;13.49621368;0.54131255;-0.343974956;33.48563239;12.36839591;3.326218442;5.332670287;13.95618563;22.00277511;30.99570105;9.502932541;5.728569972;2.774540543;2.446396504;6.623065842
-0.403141669;-3.698682652;8.097175697;29.40832553;9.837447268;-3.42580409;-0.364789207;31.67735763;10.07820024;1.586141601;0.575037773;9.900186669;18.15007813;24.92194531;5.412646903;5.656646215;1.82441829;2.013641262;6.184491984
-8.721282525;-3.525889855;4.977654038;27.45774086;6.161261841;-6.898759019;-0.514864087;31.32913265;8.311692605;1.167942895;0.36327339;6.805264732;16.91943957;20.41302795;5.126033082;6.006426013;1.289681469;1.335022659;5.796325761
-25.41974869;-3.743294438;-1.83440221;11.02970313;4.068426664;-8.291281258;-0.682204106;32.75701937;8.622382319;2.721413164;3.482208131;6.212177264;18.72983662;19.58085769;7.947405496;6.493864049;2.562067629;0.674665393;5.761831407
-43.70503243;-4.058012922;-5.330849552;-15.78734845;4.122368997;-7.013783322;-0.80981141;35.37434836;11.56550845;5.680759221;6.682322997;8.212131587;22.34614094;22.41566836;12.03818556;6.748644385;5.873374101;0.24288687;6.08106355
-56.26535898;-4.043305206;-1.215058388;-42.07985873;5.541511844;-3.752622724;-0.920617086;37.76606061;16.22636483;8.583612984;7.47725542;11.52424951;25.84331156;27.0106059;15.71698148;6.614621508;10.10439315;0.159761762;6.51664867
-58.56772976;-3.561332762;8.824403218;-56.46657697;6.618893337;-0.140519752;-1.056115596;38.16821057;20.47608786;9.81041682;5.991456288;14.42594203;27.86081024;30.83429883;18.2084338;6.271274245;13.49193596;0.48363689;6.853987043
-50.22115764;-2.936138355;18.38003906;-54.05335151;5.705489109;2.045078552;-1.201421768;35.40274285;22.04367318;8.420276761;4.571250562;15.87890708;28.30081708;32.2069712;19.59262607;6.074307414;14.73825382;1.205879867;7.08447154
-34.52771678;-2.699698004;21.06068762;-38.99730683;2.237990582;1.776641466;-1.278671451;29.87138577;19.96056691;4.734836276;5.73830963;16.11654216;28.11873061;31.09394729;20.30348038;6.249565605;13.77820603;2.183099762;7.343220171
-17.11822736;-3.122775975;15.0854717;-21.02551257;-2.811038121;-0.690891561;-1.220174044;23.8416659;15.47665454;0.364706437;10.24659958;16.35795478;28.50364523;28.84678384;20.6885783;6.698834247;11.72920202;3.09993121;7.69245717
-4.282704036;-3.947858655;4.42367754;-8.789999809;-7.400245209;-3.948905069;-1.050795806;20.4826872;11.63650756;-2.451171819;16.6582944;17.89169762;30.07610137;27.20405146;20.89565987;7.080575467;10.11810773;3.579522206;7.996491197
-1.063026324;-4.573109949;-4.107563233;-5.033719675;-9.590204406;-6.188251607;-0.89400626;21.97104353;11.49310105;-1.984810317;22.47279134;21.14724495;32.5797466;27.24976587;21.0043885;7.094160101;9.937642269;3.428752326;8.033926659
-9.239385766;-4.540187871;-5.447600078;-6.659171073;-8.720587658;-6.190697268;-0.883651394;27.86589093;15.9758227;1.92976547;25.68811577;25.33061128;35.12440675;28.91665738;21.1596788;6.724670458;11.13533963;2.833640818;7.741386396
-25.99807821;-3.90777529;0.690087891;-8.718667419;-5.834681316;-4.01392654;-1.052513521;35.03118276;22.9125717;7.600906125;25.62978722;28.81113433;36.70090988;31.17964594;21.54023509;6.24416399;12.7928608;2.29289988;7.334043615
-44.44822433;-3.189543528;10.17892595;-8.540122626;-3.045242476;-0.971501924;-1.296689972;39.40871811;28.10506539;12.25958623;22.76326125;29.98346867;36.63080854;32.66983121;22.17913669;5.978168965;13.78953151;2.265937791;7.155477244
-56.46385145;-2.914666893;17.47975783;-6.801214018;-2.229042628;1.101394967;-1.453571329;38.56565513;27.95191325;13.56975647;18.07265788;28.07877061;34.77553508;32.30886843;22.78704046;6.04566244;13.47947911;2.777822458;7.374843124
-56.75971614;-3.194568773;18.9484529;-5.470941414;-3.894343302;0.89159096;-1.432954484;33.25043741;21.89975735;10.97313562;12.68490614;23.48559571;31.51313702;29.70750571;22.74767349;6.29374918;11.98351689;3.322516668;7.814928139
-45.85300981;-3.665206174;14.41527618;-5.21551524;-6.950714962;-1.633337332;-1.292058267;26.82353853;12.96066381;5.98334979;7.832239007;17.47086185;27.56528223;25.2837443;21.37299386;6.468193071;9.998618004;3.208459251;8.090612843
-29.82949432;-3.837998067;6.570611864;-4.844902244;-9.492790892;-5.188296074;-1.189829725;22.96584545;5.819980696;1.194342155;4.71541286;11.53717216;23.74269076;20.15087695;18.356422;6.451668575;8.326045362;2.127017797;7.950544925
-16.73929386;-3.536623024;-0.878341778;-2.999073601;-10.02754988;-7.877602233;-1.256485071;23.32536329;3.789581099;-1.355808997;3.951720964;6.807928104;20.66713073;15.7980946;14.19571606;6.349733169;7.434029213;0.497144229;7.513586546
-11.75799123;-3.034736027;-4.970529248;0.010723332;-8.315884331;-8.241169911;-1.484943442;26.75074988;6.738145125;-1.35911373;4.922068015;3.733932629;18.56017643;13.57381634;10.26690072;6.352901282;7.280411534;-0.732019421;7.173479875
-14.2502568;-2.787669111;-4.457105904;2.305968294;-5.332248166;-6.050617817;-1.73225198;30.50148002;11.44788838;-0.164040137;5.749512975;2.168724142;17.20611388;14.08844071;8.335624624;6.514063228;7.432823887;-0.72562936;7.24557893
-18.71309033;-3.013736732;0.035164656;2.451857249;-2.497019582;-2.423312666;-1.828475443;32.34109649;14.08144982;0.430774041;4.296501308;1.647585583;16.12937786;16.81510577;9.621588318;6.660823507;7.368876248;0.61292582;7.673761402
-18.97584964;-3.504418111;6.409859397;1.246783998;-0.807832121;0.783945253;-1.704797878;31.88219672;12.91542493;-0.419329221;-0.330521657;1.656490003;14.8946715;20.19719298;13.91898744;6.538263369;6.781445258;2.522691861;8.071762558
-12.80203485;-3.825335435;11.96147993;1.244686973;-0.458125575;1.94735916;-1.441423036;30.31791909;9.359747516;-2.054798084;-6.908648237;1.783910107;13.34863482;22.34687446;19.41223337;6.06117024;5.743956464;3.880937578;8.07169886
-3.746934892;-3.715579834;14.56463471;4.203193985;-1.067313834;0.487884216;-1.203959645;29.0331323;6.618678593;-2.988864684;-12.68453813;1.787059721;11.66657148;22.03494589;23.49732905;5.443123414;4.667168832;3.951891352;7.666093833
1.022613879;-3.321371956;13.74108445;8.876764899;-2.165245432;-2.882391589;-1.12427335;28.39908276;7.116537946;-2.232038789;-15.14131934;1.64661781;10.2175337;19.40458998;24.24889961;5.067823233;4.071972788;2.835124277;7.225510917
-4.467039172;-3.058589124;10.89862175;11.53385358;-3.459985946;-6.562723187;-1.217675838;27.71547823;10.66420444;-0.19376959;-13.67630949;1.607611049;9.382761081;15.93257009;21.62098676;5.192986118;4.2907401;1.304399938;7.164775559
-20.70885976;-3.235906421;8.360432499;9.129172456;-4.723249769;-8.868743596;-1.390236059;26.17007813;14.67837217;1.559030851;-9.916379107;2.109615363;9.446402087;13.6024754;17.51266476;5.731074417;5.259439571;0.204462877;7.556184869
-41.7298546;-3.780100909;7.6829347;2.417771707;-5.544756785;-8.823174142;-1.516772678;23.82555468;16.16150752;1.494772964;-6.443943984;3.526551094;10.55218668;13.76226497;14.54549359;6.296190778;6.531965578;-0.10610534;8.047889864
-58.06766359;-4.30455268;8.486728375;-3.985793043;-5.347869685;-6.564814825;-1.523215589;21.71814486;13.86673788;-0.687030788;-4.955692674;5.793686378;12.63054787;16.35469261;14.32409301;6.486964591;7.526350756;0.137877445;8.176016811
-61.90893495;-4.450603274;8.81993476;-5.04819341;-3.79467273;-3.221507836;-1.417865761;21.01031314;9.050686815;-3.812199122;-5.289026439;8.17526233;15.26140329;19.97477875;16.38256978;6.179018933;7.858265947;0.45855829;7.797650556
-51.34266112;-4.192970095;6.90283732;0.500890536;-1.278914861;-0.347598119;-1.265037427;21.97473204;4.383052623;-6.147699437;-5.99047609;9.437747307;17.59934454;22.68579306;18.57546599;5.594748778;7.539591223;0.587412874;7.247505898
-31.32926522;-3.843681787;2.874281591;8.917785919;0.989862991;0.793595739;-1.135665371;23.69039247;1.970539097;-6.766361301;-5.820408258;8.463665185;18.56557668;23.07440305;18.63727363;5.10488548;6.897979462;0.630158804;7.056151417
-11.00382506;-3.764649468;-1.002522334;14.41789529;1.557099673;-0.220424473;-1.073069365;24.68293928;2.013022395;-6.280118537;-4.867634068;4.997575529;17.36348673;20.93526171;15.78178734;4.934314449;6.274915224;0.851213295;7.461039087
0.980233776;-4.053461057;-2.019489154;13.96899855;-0.330299232;-2.818287232;-1.086265452;23.96216386;3.00350859;-6.331888737;-4.364374732;0.023900271;14.0718422;17.26275463;11.20151309;5.011275028;5.740233548;1.331275998;8.143163658
0.428733259;-4.476533747;0.701901396;9.770900167;-4.056574377;-5.728320951;-1.158562334;21.66039277;3.170733154;-8.191832959;-5.447754331;-4.568592086;9.871785541;13.65727924;7.167647372;5.066615346;5.065963846;1.8426579;8.444185171
-11.07457038;-4.692199261;5.277997207;7.184315137;-7.798114481;-7.577802952;-1.256482153;18.88620485;1.990491451;-11.51775372;-8.003312937;-6.933542598;6.603590755;11.53728913;5.463180296;4.879666815;4.001374138;2.058132458;7.907057255
-27.78558093;-4.550983185;8.396228374;9.849481924;-9.514752704;-7.527559035;-1.337358295;17.03539002;0.648930343;-14.26708693;-10.61132362;-6.283121434;5.796923753;11.55402369;6.307781363;4.458536023;2.627202378;1.883221091;6.693242206
-43.00070181;-4.208014515;7.930604708;16.30591074;-8.175873089;-5.655093548;-1.362445275;17.09721951;1.178407833;-13.93240722;-11.64007813;-3.332025315;7.755729667;13.41190592;8.461821519;4.016960003;1.460594135;1.580837643;5.516604217
-51.89512597;-3.966607831;4.678463748;21.22488318;-4.423192112;-2.907308953;-1.315148157;19.30511914;4.92786196;-9.303979404;-10.55263248;0.128590719;11.33580846;16.08047164;10.26060929;3.789573753;1.150575754;1.55003418;5.129259312
-52.71759283;-4.013525658;1.699013571;20.31931999;-0.221551649;-0.637351053;-1.21124202;23.1160538;11.42995967;-1.53933137;-8.332714024;2.264274237;14.62556089;18.26015382;10.69885725;3.853322316;1.943125895;1.948925666;5.764547831
-46.36374003;-4.286381975;1.738117325;14.60652258;2.293805729;0.062175761;-1.08797298;27.35653342;18.4062395;6.255760551;-6.686542712;2.192474914;16.11231933;18.9291403;9.817138649;4.096061928;3.337094862;2.51325098;6.976632112
-35.30394453;-4.572687119;4.902312698;10.02469534;2.055923435;-1.090966033;-0.976164294;30.51134631;22.91567867;10.75064812;-6.672914693;0.357769136;15.56013483;17.78983527;8.327264314;4.334189348;4.272780445;2.763000351;7.991675448
-22.81526212;-4.72224206;8.608903244;12.32732403;-0.356188163;-3.413984356;-0.877786811;31.26244429;22.98939503;10.36327704;-7.837377305;-1.85355615;14.02515092;15.43390207;7.008023861;4.460203101;3.811207162;2.443007605;8.278529673
-12.6501965;-4.764118046;9.923443931;21.40764615;-3.111026556;-5.592471773;-0.770320123;29.22588861;18.84261925;6.242909044;-8.483151305;-2.920136064;13.05007813;13.1060852;6.418475542;4.497827096;1.851060194;1.815696057;7.89169864
-8.509718917;-4.830019531;8.30075037;30.05283725;-4.211319583;-6.349689281;-0.636061113;25.47222567;12.97608338;1.627418791;-6.827568286;-1.893055623;13.64424662;12.11277801;6.99488574;4.542077986;-0.671418421;1.523497721;7.347437997
-12.75966909;-4.980230052;6.29749942;28.70524322;-2.627875437;-5.118024223;-0.489859379;22.27216228;9.027736649;-0.059817631;-2.189798989;1.321966515;15.7492651;13.13694158;9.149378667;4.662070108;-2.323183715;2.092775646;7.173708784
-24.75824905;-5.117570264;7.487713778;12.85706408;1.131929079;-2.362175629;-0.377310325;21.90718447;9.875166842;2.75845455;4.557940919;6.083697957;18.47194458;15.83725078;13.02650776;4.857009517;-2.131241437;3.464545401;7.509763378
-40.10343359;-5.078898099;13.23152527;-12.670862;5.280630497;0.628045576;-0.341201858;25.14048309;15.94854975;8.862179917;11.44825321;11.30596889;20.78865277;18.99862114;18.04346597;5.084525083;-0.279019953;4.941919908;8.049205948
-52.02917177;-4.81196678;21.05860584;-36.09268388;7.657805827;2.383566324;-0.384318735;30.42899138;24.73673895;14.93173788;16.37943712;15.74747554;22.14446921;21.18767274;22.73941014;5.306635342;1.995033833;5.627105879;8.321412245
-54.8085276;-4.457137313;26.2159687;-46.11874131;6.819390064;2.012691227;-0.462598363;34.63507322;31.93463137;17.49554035;18.00157523;18.30595814;22.56352517;21.54314212;25.33373807;5.49543618;3.27210367;5.035893058;8.052778887
-47.26727974;-4.243433486;25.33202087;-39.10482399;2.786134432;-0.327180771;-0.516796298;34.96345347;33.76373216;14.99754979;16.16717184;18.37946561;22.34016778;20.2285159;24.78866728;5.60242862;2.996307979;3.434683413;7.333419965
-33.86575952;-4.289121676;19.30619991;-20.834031;-2.904032575;-3.495095511;-0.515991876;30.86049684;29.19629906;8.776934321;11.89489072;16.21151838;21.6919216;18.28003906;21.62324545;5.549300137;1.926169598;1.65615326;6.510296138
-22.11690385;-4.493662684;13.01035287;-2.019122245;-7.884617433;-5.940279787;-0.474874063;24.49914453;20.69685943;2.371387728;6.956619;12.95426194;20.68755229;16.96384969;17.77401418;5.281427848;1.639364769;0.542609133;5.942608975
-17.69598535;-4.626589331;11.85380251;8.830444941;-10.09173668;-6.487202868;-0.430313883;19.42118023;12.88597948;-0.47636388;3.222250322;10.22011609;19.42954572;17.04916482;15.47445376;4.851660452;3.4170032;0.431303881;5.817014509
-20.56559443;-4.535443145;17.75185711;10.03889565;-8.798127489;-4.926105692;-0.400108764;18.24453142;9.83223397;2.034944614;1.934647555;9.221355215;18.20485689;18.42114604;15.89331425;4.448119638;7.288959464;1.036828063;6.116164416
-25.08593408;-4.28240259;27.55579433;6.155088233;-5.005479459;-2.109723151;-0.363213057;21.03799083;12.63950461;8.718781285;3.189598525;9.988914042;17.36536057;20.20794184;18.48232667;4.309414001;11.91324475;1.767179572;6.692461018
-24.3570137;-4.083965171;35.1492134;3.433741386;-0.939195746;0.483172375;-0.280448915;25.46780213;18.89220947;16.07722254;5.923414543;11.2527297;16.99999586;21.28273188;21.45046907;4.567305982;15.37223534;2.192188919;7.349240656
-15.81784567;-4.109663883;35.6685061;5.233519743;1.131861399;1.486127912;-0.136206116;28.51455913;24.32870592;20.30563712;8.504179344;11.188432;16.71752565;20.82999137;22.94942846;5.134257189;16.33352252;2.305296975;7.887792721
-3.899694359;-4.324828729;28.78971907;10.48020868;0.118056939;0.312983181;0.038897415;28.45660205;25.61541074;19.43369737;9.636084983;8.613915763;15.81686677;18.7096623;22.10582745;5.734745664;14.80003906;2.418146807;8.14921928
2.549771133;-4.519656336;18.82104339;15.53775236;-3.326499961;-2.565434549;0.187221075;25.73849698;22.35353708;14.33117827;9.014540312;3.832378908;13.80037024;15.51807588;19.29291235;6.071737768;11.99945705;2.824040788;8.079007458
-3.474786019;-4.494187218;11.71341617;17.37590924;-7.23430984;-5.853466224;0.268683285;22.2779604;17.01818343;8.011972017;7.295160825;-1.489214049;10.86088155;12.38261475;15.69864469;6.01169885;9.566861149;3.525503964;7.779462271
-21.64334555;-4.228024043;11.20069902;15.55189604;-9.487883037;-8.044752876;0.289742585;19.92260106;13.00335885;3.725764431;5.432482529;-5.345709246;7.934722962;10.57198262;12.70320512;5.655324199;8.611407255;4.236185397;7.478404355
-43.69317783;-3.883899371;16.64275924;12.00628365;-9.004244427;-8.122776634;0.289806364;19.26003906;12.24964397;3.060606961;3.927451024;-6.611610941;6.209496511;11.00647361;11.4752622;5.2505326;9.240251193;4.628985135;7.39439637
-58.40629297;-3.652222627;23.7384963;9.421188858;-6.235136173;-6.026809571;0.298208235;19.52912389;14.1225253;5.217767494;2.578832091;-5.616427607;6.378499782;13.79418008;12.7534986;5.022967177;10.72206309;4.609462381;7.581384023
-58.76928757;-3.588573201;27.32531824;9.544587918;-2.741877125;-2.677701406;0.303542588;19.45757073;16.19623671;7.814460179;0.890401916;-3.744659314;8.131044208;17.99790976;16.53869618;5.049909499;12.03875654;4.390251874;7.882846215
-46.29104623;-3.59318585;24.36946252;12.36817985;-0.203643465;0.444011615;0.266523669;18.23395348;16.18796758;8.570806269;-1.285614023;-2.450884751;10.21966479;21.84865679;21.67636391;5.252497777;12.40954809;4.313719731;8.05223338
-29.51083687;-3.538698552;15.49901842;16.24376175;0.463814046;1.978009408;0.166243543;15.91887542;13.54331342;6.71761587;-3.483455781;-2.451062965;11.07690088;23.45966883;25.78079002;5.48256002;11.52852403;4.570416337;7.954188787
-17.93220781;-3.409845738;4.533556309;18.6809616;-0.631087663;1.314859588;0.035788822;13.18675126;9.591662661;3.248674878;-4.989213275;-3.601117277;9.632511446;21.78907884;26.03853983;5.620862864;9.535054085;5.035622054;7.679102777
-15.8171842;-3.313232775;-3.468399007;17.60950952;-2.731745926;-1.117309827;-0.050660525;10.79657945;6.353538701;-0.006283389;-5.492548397;-5.358072609;5.897935768;17.34092892;20.83337677;5.623034974;6.886701648;5.348455207;7.467369391
-20.14158161;-3.349721114;-4.61855129;12.76756993;-5.030730526;-4.058546172;-0.034354017;9.236382805;5.04660269;-1.717644821;-5.400108813;-7.283496339;1.037248774;12.11416018;11.25075819;5.512030836;4.244827359;5.172250769;7.50282626
-23.78845142;-3.483426631;1.944818538;6.449655217;-7.016944513;-6.035973086;0.074432647;8.665022824;5.402444342;-1.84230802;-5.493405173;-9.149695155;-3.104291203;8.680129102;1.180159639;5.354388559;2.340227224;4.443259012;7.753387884
-21.27576875;-3.54974059;13.49619888;2.692262778;-8.416894193;-6.106871595;0.194384437;8.978501139;6.136716311;-1.400048828;-6.237804663;-10.70352602;-4.823588555;8.806896618;-4.539265846;5.24213973;1.744674136;3.429044414;7.999882479
-12.76933351;-3.408685468;24.78581593;4.746022423;-8.962664309;-4.353096847;0.229873433;9.829529491;6.011892581;-1.546936768;-7.405882035;-11.52964202;-3.406289511;12.40391633;-3.052083577;5.266136699;2.588733194;2.559186164;8.029268166
-3.753053729;-3.099741356;30.42808418;12.16199037;-8.342798624;-1.85627097;0.143372174;10.64383736;4.609455717;-2.710265985;-8.408015253;-11.34256612;0.383469417;17.45874104;4.429176561;5.463371836;4.410515172;2.151776252;7.821777385
-1.029592944;-2.838668649;27.58025076;19.77727714;-6.45955615;-0.139390477;-0.014838129;10.800352;2.342422766;-4.396491454;-9.04397496;-10.51876551;4.479182159;21.08873541;13.0251094;5.761631186;6.316417809;2.226015267;7.566142251
-8.141967961;-2.8388042;17.47172984;20.10357817;-3.752723682;-0.346961542;-0.144540343;9.998771527;-0.069321847;-5.700787374;-9.92720262;-10.26943278;6.41429876;21.1540098;17.09694869;5.981691115;7.437130187;2.522533518;7.49038837
-23.24354212;-3.109572318;4.766461322;8.216294895;-1.201303102;-2.595707598;-0.171403139;8.57010258;-2.085255467;-6.021635079;-12.0582406;-12.01676523;4.616635929;17.50221169;13.85227545;5.933769486;7.417252756;2.70360112;7.660142336
-40.34583898;-3.420736635;-5.023369027;-14.0635952;0.15795456;-5.859973146;-0.101089161;7.40464815;-3.434991203;-5.40940353;-15.79416107;-16.22661089;-0.580638727;12.09722106;5.194051955;5.56299114;6.603127489;2.583050358;7.923849182
-52.59506714;-3.480246024;-8.545443367;-38.04124883;-0.076333121;-8.480867972;-0.010590872;7.424874742;-3.94492148;-4.357807577;-20.10722474;-21.59185063;-6.891636517;7.928859383;-3.52528082;5.030250564;5.782020942;2.224980127;8.050931877
-55.38830614;-3.179621453;-6.136982458;-52.83414008;-1.301426637;-9.047663595;0.013747006;8.926630122;-3.484040086;-3.325258371;-22.92674317;-25.41991092;-11.20504899;7.320802233;-7.048392568;4.638332533;5.646137036;1.854316897;7.936416668
-47.92318916;-2.691866487;-0.958702791;-52.04396846;-2.236811185;-7.182408703;-0.058483303;11.28664498;-2.201923446;-2.449102149;-22.51260955;-25.24615319;-11.35636751;10.61096585;-3.651614362;4.630408886;6.354845632;1.662496382;7.689372817
-33.09542248;-2.331128879;3.488845256;-37.80563076;-1.805574809;-3.792403337;-0.182443501;13.2966551;-0.805851023;-1.673364475;-18.8883263;-20.66302894;-7.487924127;15.95935319;3.835520763;5.006709881;7.485883988;1.664492827;7.530608467
-16.35219461;-2.292806915;5.57547549;-19.24840092;0.038605249;-0.631510573;-0.275848586;13.91273379;-0.444102378;-1.093310011;-14.1629949;-13.98041954;-2.065644141;20.3806585;10.03551534;5.513344491;8.36856637;1.715974368;7.596380035
-3.962054473;-2.499111957;5.952351478;-6.408099494;2.185170407;0.614931456;-0.282005678;12.89762254;-2.053154452;-1.105849555;-11.33171525;-9.028118737;1.576125854;21.39862451;10.59483282;5.829204827;8.520439929;1.668447283;7.824191164
-0.870912111;-2.681236343;6.182211715;-3.949266479;3.116918156;-0.760606145;-0.211041016;10.93922887;-5.551351063;-2.130824083;-12.30303894;-8.745340707;1.302664638;18.3843863;4.905762955;5.810325679;7.874693786;1.527026263;8.016541033
-8.55378561;-2.619275176;7.034529784;-9.084372999;2.058544575;-4.077590473;-0.132387358;9.238823331;-9.532064374;-4.078978347;-16.54332691;-13.17791173;-2.47433983;12.85115056;-3.704172516;5.591350703;6.695276055;1.469786413;8.017133978
-23.87292525;-2.324278344;7.998176837;-14.79036579;-0.30132175;-7.591557048;-0.127598431;8.914653852;-11.83320142;-6.029535745;-21.32580679;-19.32959196;-7.079730542;7.588863222;-10.21600164;5.454669132;5.335095331;1.69785633;7.83958938
-40.04500197;-2.005444423;8.295384766;-15.44273216;-2.093436346;-9.395670775;-0.237285742;10.58625407;-10.72015229;-6.486917948;-23.42641553;-23.05198177;-9.318191711;5.167723379;-10.97258933;5.574784561;4.079176819;2.228128714;7.641691442
-49.80757603;-1.863446855;8.202688396;-10.44827108;-1.445480377;-8.426961831;-0.435582906;14.24594601;-5.930019531;-4.169527647;-21.09794562;-21.71501117;-7.521078514;6.651553301;-5.621820142;5.859430053;3.173932814;2.802011194;7.58184182
-49.25144893;-1.906243717;9.16521169;-3.451892921;2.205953192;-5.039213248;-0.645491173;19.28608412;1.108640058;1.135576142;-15.02551494;-15.84680401;-2.545687851;11.1862122;3.027992443;6.032658459;2.925713756;3.008697922;7.693192416
-39.89889896;-1.955919826;12.3615528;1.573821287;7.56632617;-0.830765179;-0.784135289;24.56301005;7.994917073;8.216625576;-7.755834263;-8.676062812;2.886608637;16.59861154;10.84344025;5.894756398;3.669198011;2.560078125;7.879357594
-27.47865992;-1.833198277;16.98844366;3.696971826;12.1108975;2.185042412;-0.811245796;28.57213132;12.50786149;14.84794932;-2.144488637;-3.98746729;5.991720331;20.58568409;14.61436008;5.529454323;5.539740748;1.527933214;8.013949235
-18.09822983;-1.540396853;20.06130932;5.057058851;13.52773605;2.623481433;-0.752577585;29.89916959;13.48826063;18.76344284;0.100918199;-3.818250635;5.6169792;21.80601037;13.46248941;5.260838096;8.209512473;0.362489307;8.035511685
-14.46836418;-1.267088174;18.35317735;7.915117808;11.07773074;0.428272315;-0.682588352;27.91610987;11.063149;18.66694658;-1.019709035;-7.501703134;2.749826858;20.32982898;8.850347513;5.374733752;10.84875144;-0.343521027;7.952577321
-14.84997007;-1.210823754;11.14603202;11.72278246;6.030532422;-3.138472737;-0.673672441;23.34751498;6.331542902;14.77173218;-4.205436176;-12.50222624;-0.35475382;17.32564336;3.440306741;5.834502756;12.43850288;-0.203697389;7.777904956
-15.31197297;-1.380828137;1.474220334;13.09422901;0.929036547;-6.191684614;-0.742652836;18.20568326;0.890877938;8.656448509;-7.726174626;-16.23750176;-1.699862112;14.28550093;-0.448290723;6.248379019;12.2871351;0.724935945;7.4856072
-13.30884792;-1.572103285;-5.485180205;8.874998458;-1.843958726;-7.210815687;-0.833493321;14.91091919;-3.551005403;2.573237517;-10.20209965;-17.55267539;-0.672051574;12.2748782;-1.973893708;6.148404057;10.41719729;1.968730064;7.053176119
-9.612677105;-1.542194501;-5.94108625;-0.375769196;-1.337828638;-5.785431286;-0.856384512;15.00549341;-5.529788259;-1.451416082;-11.04193149;-16.98016928;1.864953578;11.57479076;-1.972489016;5.377131088;7.554593225;2.906563935;6.54668
-7.104416696;-1.235629783;-0.293978236;-9.727216854;1.555797504;-2.743669637;-0.763130514;18.26319398;-4.291000624;-2.368587818;-10.5679924;-15.90149649;4.367966645;11.79193601;-2.176235975;4.270357868;4.725982001;3.107525969;6.14240647
-7.644008582;-0.85371873;7.04890805;-13.00420147;4.706559392;0.357386416;-0.604111556;22.81704834;-0.286132477;-0.459051758;-9.87318125;-15.4329202;5.627559918;12.25389322;-3.917659016;3.470895252;2.739306998;2.53343801;6.027204453
-9.915684285;-0.70322976;10.84225672;-7.449253133;5.944861855;2.061464316;-0.514680244;26.25467267;4.688223363;2.831450279;-10.34908194;-15.82924587;5.342556166;12.41910966;-7.108063334;3.496651661;1.879941201;1.504399099;6.243064523
-10.33140165;-0.952575894;8.78084764;3.796806578;4.175762668;1.708940808;-0.626651167;26.9652342;8.08793728;5.538862089;-12.88768056;-16.61675024;4.045873458;12.11246955;-10.17850646;4.382643447;1.969270662;0.479096709;6.617864442
-6.411715561;-1.502603157;3.000989989;13.57754398;-0.140942458;-0.33407321;-0.96297087;24.88061125;7.884289107;6.091989194;-17.06897003;-17.09483186;2.629976852;11.54103531;-11.09876629;5.661422849;2.663500804;-0.197389614;6.868121997
0.214925243;-2.073752725;-1.784039723;15.79635743;-5.307435046;-2.96595438;-1.399355794;21.23275434;3.827348762;4.101005917;-20.92234939;-16.72482242;1.869632503;11.1454686;-8.836757613;6.686354048;3.729022316;-0.432437452;6.80988682
3.980426199;-2.422258134;-1.94961945;9.970990725;-9.269332487;-4.946874467;-1.735684106;17.64918848;-2.172005422;0.601735138;-21.70427603;-15.22828943;2.171263498;11.37049404;-4.220119385;7.048170763;5.106368516;-0.357954456;6.50552166
-0.955321548;-2.496673284;2.489159979;1.800324875;-10.60610705;-5.478829853;-1.835465811;15.28;-6.974918294;-2.456650616;-17.49508289;-12.56314837;3.529945338;12.43132784;0.501957804;6.78559569;6.776715469;-0.188770207;6.214325026
-16.0812845;-2.417170993;8.332765196;-0.861611257;-9.174921143;-4.510840246;-1.729495809;14.45768374;-8.019425862;-3.282689437;-8.698470754;-8.992821271;5.576385187;14.15460377;3.167987486;6.270397301;8.595760176;-0.075052347;6.178676908
-36.46020421;-2.327941677;12.0519252;6.119608935;-6.131003103;-2.681827312;-1.596537127;14.8828257;-4.879595865;-1.293561489;1.65472136;-5.220239866;7.671452734;15.97574286;3.197847534;5.897409862;10.25076891;-0.037364999;6.422806296
-52.9524518;-2.277936945;12.55373216;19.58348717;-3.322240989;-0.979276007;-1.625682226;15.97659699;0.47;2.501705922;9.253363383;-2.333632734;9.098910019;17.13743124;1.910935179;5.830110538;11.36628473;-0.005212454;6.735897195
-57.39433707;-2.23513668;11.6253882;30.43465538;-2.335437631;-0.284160841;-1.862584894;17.09968808;4.908989048;6.077303422;10.84813399;-1.384069589;9.37199909;17.03732327;1.369972493;5.966027846;11.66339344;0.089153743;6.85446219
-47.32915354;-2.193358257;11.90346739;29.23865669;-3.654603189;-0.984850543;-2.163069776;17.65135978;6.149738034;7.617593686;6.152500457;-2.75220273;8.527385283;15.56448169;2.627205965;6.09125886;11.06324396;0.239711693;6.686696468
-27.3371138;-2.236440388;14.30345613;12.48451383;-6.377369277;-2.802141121;-2.298018927;17.24688624;4.154001288;6.643932139;-1.956802641;-5.745688697;7.192408578;13.2302151;4.789921308;6.061456096;9.701555641;0.372417497;6.386077388
-6.433864377;-2.474611472;17.18095263;-14.56767874;-8.683972708;-4.896562349;-2.132187021;16.02408771;1.088512617;4.319420349;-9.120596535;-8.801402146;6.308677006;10.98969041;5.724428256;5.871569943;7.89253669;0.420481517;6.214192444
6.530781357;-2.909582368;17.87455088;-40.40025188;-8.851619346;-6.233703397;-1.735669838;14.82544225;-0.099954861;2.723765758;-11.99894013;-10.25874155;6.63111615;9.822950236;3.896794877;5.605455317;6.078283318;0.404041646;6.315688061
6.737795979;-3.373636313;15.16792794;-53.67356327;-6.267944012;-6.074745852;-1.336589182;14.91664689;2.470731601;3.5537001;-10.00974414;-9.245348116;8.30348022;10.28453946;-0.140075989;5.356208697;4.746262263;0.437797924;6.600251816
-5.162499131;-3.629154051;10.44360304;-49.65561398;-1.847281502;-4.377117829;-1.15031121;17.21611646;8.510195083;7.068693314;-5.276927087;-6.125601294;10.77397522;12.24435934;-3.910687504;5.195865898;4.276801241;0.641865328;6.827654257
-24.02011083;-3.559347699;6.50776304;-32.68632555;2.430244781;-1.892064765;-1.221001618;21.49235046;15.78137439;11.9252622;-0.97866105;-2.274781721;13.07817606;14.92782081;-4.842311255;5.185816025;4.743784265;1.015222456;6.814268242
-42.51687646;-3.279136105;5.148318033;-13.18423635;4.616238302;0.135866396;-1.401371173;26.1798765;21.38878147;15.96007813;0.704351109;0.608158019;14.27457674;17.21089216;-2.382147548;5.363763469;5.787514183;1.381780886;6.581022831
-53.83274104;-3.052967375;5.612380198;-1.148858922;3.886922596;0.563845509;-1.483082336;29.11301212;23.27813165;17.39634661;-0.289268847;1.205519295;13.76563261;18.0348295;1.302460879;5.681833979;6.701999173;1.482214145;6.324329418
-54.03577591;-3.079057165;5.37930088;-0.346193753;0.982103736;-1.04039975;-1.367572791;28.7976496;21.12081523;15.7379609;-2.283191858;-1.016684265;11.39499849;16.8028575;2.721446131;5.957707196;6.768512405;1.170432963;6.248988321
-43.65651435;-3.327733714;2.576289793;-6.886698853;-2.254800392;-4.100864728;-1.137306946;25.3758751;16.25043536;11.8796396;-3.284090802;-5.732818648;7.412803218;13.65452149;-0.385410665;5.930732493;5.681633223;0.565779569;6.411651407
-27.67693156;-3.580356286;-2.093650784;-12.93781419;-3.926932296;-7.237316854;-0.974250419;20.59328469;10.87403943;7.472856065;-2.384135382;-11.86212393;2.451163872;9.525544844;-7.228817316;5.434519153;3.798596085;0.011363948;6.695274303
-13.36764642;-3.635378089;-5.674226436;-12.79706713;-3.079578272;-8.907536304;-1.000634219;16.76566304;7.057109968;3.998544478;-0.267499158;-17.78254479;-2.482430795;5.904863072;-14.28266507;4.56983547;2.011314341;-0.175581134;6.909736725
-6.51931031;-3.493308544;-5.373696736;-6.936576483;-0.087819604;-8.184783179;-1.178066902;15.43691015;5.922287099;2.078094554;1.348138352;-21.73855093;-6.144195911;4.270850701;-17.56948284;3.715115184;1.270783935;0.007827089;6.914375141
-8.055056991;-3.348942179;-1.082717905;-1.151900729;3.691993722;-5.275964226;-1.345684104;16.59837815;7.286765958;1.328245379;0.822580633;-22.50195746;-7.455328921;5.365847148;-15.31865426;3.315682127;2.031554817;0.169520609;6.669027297
-13.43125594;-3.39700779;4.189464963;-1.60485756;6.692176323;-1.497077327;-1.357624953;18.89919403;9.788699816;0.734141668;-2.47782366;-20.07506434;-6.061054105;8.667646298;-9.148226914;3.578072382;3.957031191;-0.226060705;6.211743062
-15.76814153;-3.633862389;6.481937458;-9.665830338;7.842544456;1.315588552;-1.199606628;20.59394662;11.46106489;-0.718081962;-7.894035445;-15.95695222;-2.689509905;12.4547923;-3.001204559;4.303014192;6.075789884;-1.409630435;5.629399446
-10.98823402;-3.846655648;4.02045549;-20.6213693;6.901365569;1.695508219;-0.990068359;20.56131622;10.61219679;-3.464926294;-13.82418666;-12.57035699;1.052919422;14.60757144;-0.62616689;5.009364971;7.30436581;-2.996013491;5.063869352
-1.374793646;-3.809015519;-1.177227783;-27.28517621;4.399076209;-0.69349189;-0.875139288;18.81744996;6.706574907;-7.08775597;-18.39056448;-11.95789337;3.480630565;13.81873373;-3.297657558;5.278605874;7.034903494;-4.100019531;4.71797107
5.363466667;-3.505640502;-4.593476834;-25.62859177;1.376804373;-4.820987682;-0.914376575;16.36163868;0.801917917;-10.447706;-20.08939856;-14.47576953;3.790544533;10.5085152;-9.168575749;5.063214246;5.459569918;-3.874123715;4.792174581
1.346383452;-3.172182795;-2.510222995;-17.86312009;-0.927624331;-8.737168335;-1.05156406;14.56686077;-4.820009766;-12.19829201;-18.25567828;-18.41373242;2.534186345;6.775091078;-14.4899346;4.714262726;3.467279595;-2.122885179;5.348116142
-15.4097107;-3.101370482;5.156492018;-10.41921302;-1.428219454;-10.52447478;-1.181178527;14.45446515;-7.803440962;-11.47854146;-13.31278325;-20.97164029;1.203000391;5.245179863;-15.80308368;4.697145924;2.186704787;0.462532571;6.199946053
-38.55356001;-3.384065291;14.63143016;-8.446313562;0.403182717;-9.293284528;-1.237730508;16.13491364;-7.098699375;-8.457514516;-6.777800265;-20.09;1.13634461;7.427282787;-11.80225001;5.212228213;2.42340753;2.669415576;6.961054058
-56.64329171;-3.822392213;20.84614635;-11.40462981;4.176930548;-5.692272814;-1.226644239;18.62376286;-3.727247487;-4.39611525;-0.929458494;-15.93522735;2.490710967;12.60294481;-3.955779296;6.017032517;4.270849462;3.514009178;7.266182937
-60.06588292;-4.101536322;20.90848398;-13.5103228;8.530998211;-1.617074995;-1.182865633;20.19019987;-0.322533555;-1.090770031;1.924986824;-10.95420821;4.040068359;18.05578169;4.269609044;6.590266292;7.074072971;2.859720065;7.026048757
-46.94579067;-4.069970783;15.97333941;-8.77880519;11.60395736;0.781057383;-1.116476207;19.23974909;0.438241234;0.083803944;0.445736094;-8.340078125;4.034004852;20.61679108;9.105440836;6.510655679;9.75445183;1.460263557;6.506731943
-24.1055917;-3.872502684;10.25449177;3.517496936;11.94967639;0.275071735;-1.011041758;15.40065659;-2.383315261;-0.989991448;-4.89435482;-9.865263159;1.578589263;18.61925683;8.32446392;5.760384349;11.33803039;0.400265466;6.142742916
-2.712167264;-3.809165144;8.014971245;17.64509195;9.418986184;-2.735196768;-0.876029076;10.15778808;-7.161597672;-3.003012596;-11.6520294;-14.53634786;-2.426696457;13.02304127;2.440747379;4.73101848;11.43077966;0.349768792;6.210730332
8.129155195;-4.04391537;10.75051611;25.63526456;5.399093751;-6.43252241;-0.786895232;6.416531936;-10.50737139;-3.911881399;-16.26625843;-19.02179719;-5.527217474;6.951813478;-5.325849421;3.946096892;10.39592049;1.176736125;6.622566155
5.573984098;-4.431354448;16.48805443;23.5170622;2.118705706;-8.621731814;-0.848335612;6.962715108;-9.331672852;-2.14984169;-15.71888792;-19.634641;-5.086231638;3.891333842;-10.47870676;3.723974762;9.123743038;2.172287371;7.012843108
-7.0911066;-4.629795727;21.48781484;14.35504671;1.344519544;-8.00981657;-1.0927094;12.62303544;-2.919503212;2.367391637;-9.238343493;-14.6279789;0.032374111;5.6551299;-9.562462758;4.024953552;8.498792296;2.667308314;7.053063746
-23.72243882;-4.409124875;22.93387267;5.543392115;3.278368674;-4.964912412;-1.404695178;21.37609459;6.356990339;8.094900283;0.936285358;-5.373346464;8.550527302;11.36251975;-2.232981797;4.559124307;8.856724172;2.534673017;6.728622448
-38.74125531;-3.876789569;20.64261541;2.70531014;6.415752779;-1.288790048;-1.561915853;29.2240273;14.25122813;12.70929377;10.34901137;4.270876115;17.25101763;18.0134797;8.192961816;5.027369905;9.761378044;2.198432465;6.341911028
-48.55475725;-3.408324783;16.70985221;5.471428605;8.515884291;0.862881474;-1.387681964;32.46912966;17.10773096;14.45492255;14.46229428;9.970795214;22.59362576;22.24376185;16.30233219;5.293573342;10.26772126;2.192932514;6.240427913
-51.16378996;-3.330697114;13.5980765;8.750211785;8.064991449;0.25182653;-0.903885795;29.96104299;14.05515444;13.15095408;11.07142729;9.111819862;22.52444409;22.16331226;17.59690256;5.383211937;9.54336021;2.677256179;6.509678323
-45.69294855;-3.634229932;12.24958489;8.210682391;5.247635719;-2.751800757;-0.3507366;23.76207803;7.529520587;10.23670627;1.629611162;1.997108239;17.44159693;18.22676746;11.21995494;5.367143811;7.478782247;3.318967257;6.902287191
-33.03650234;-3.97330568;11.65688355;4.842299626;1.76549324;-6.453388384;-0.036527487;17.72195816;1.782758475;7.854001719;-9.371685397;-8.457316666;9.828162123;12.75617562;0.631809733;5.271293819;4.893281733;3.623561632;7.064912373
-16.952613;-3.964421285;10.12112596;4.147066482;-0.356447127;-8.873362951;-0.12071439;14.94059841;0.321249448;7.576733576;-16.72282519;-18.20726085;2.862996803;8.545715659;-8.345012696;5.093810004;3.174168783;3.399199919;6.858026404
-3.777241696;-3.523964141;7.110679612;10.33958592;-0.135155094;-8.875134419;-0.49747346;15.90291918;3.889374633;9.590097656;-17.23814807;-23.91247679;-1.138120885;7.419365433;-10.98469826;4.884167595;3.53356493;2.939899797;6.479926344
0.21415659;-2.946977485;4.16632141;20.7284739;1.770419846;-6.712329559;-0.874164499;18.5529274;10.22573403;12.78225412;-11.34458695;-24.27040158;-1.611698192;9.489382636;-6.447033431;4.771874912;6.307154379;2.767073307;6.283146377
-7.449096479;-2.653571408;4.016255915;25.85792593;3.594631271;-3.738769011;-0.985462492;20.12057996;15.65269727;15.59389794;-2.612226496;-20.35240486;0.38589752;13.35996983;1.882843958;4.887730498;10.69848531;3.159589548;6.450841573
-23.34128962;-2.823817987;8.436971416;16.30595609;3.706427628;-1.550443561;-0.776640752;19.24888554;17.40574241;17.00651702;4.43741717;-14.90301395;3.078501176;17.00365635;8.673640963;5.239439485;15.110345;3.887006569;6.82908527
-39.68389825;-3.242743072;16.42439352;-8.927623444;1.677752017;-1.121529201;-0.418446618;16.85527753;15.22022286;17.0354438;6.887624644;-10.95777687;5.026181718;18.78450033;10.00332432;5.666260288;17.87409527;4.382906453;7.06948046
-48.85503325;-3.492559755;24.15360108;-39.55792019;-1.504115424;-2.405065335;-0.155472238;15.23336869;11.27341113;16.4964188;4.835927037;-10.38776392;5.767583158;18.15669116;5.617070488;5.938031645;17.98904032;4.213359647;6.951959111
-47.81637179;-3.322108257;27.0136921;-59.82756042;-4.117298722;-4.516199327;-0.120953647;16.25707284;8.67697508;16.31813253;0.930981213;-13.03219487;5.809686938;15.79771285;-1.243727973;5.932546493;15.51350542;3.440927592;6.590204672
-39.34986498;-2.866630423;22.51285334;-59.17473492;-4.725367113;-6.274449531;-0.264990533;20.11498431;9.574655322;16.92453464;-1.511276233;-16.86803314;6.100920678;13.18761385;-6.115796518;5.742776711;11.45677877;2.574673062;6.327768363
-29.39791092;-2.524300476;12.1174281;-39.70597984;-2.85953857;-6.75931874;-0.435382197;25.40982193;14.00055186;18.07069215;-0.56112858;-19.18884089;7.343235554;11.84358818;-6.071997286;5.612591963;7.26921504;2.14995743;6.417944246
-22.72801222;-2.600630199;0.686698124;-14.61179886;0.952567491;-5.641355284;-0.520192639;30.2969459;20.03466599;19.1376803;3.310655814;-18.20323265;9.5074325;12.54619699;-1.233867365;5.741512059;4.192819346;2.293299968;6.783541352
-20.21973264;-3.036699355;-6.262344767;1.32826666;5.627575454;-3.239474126;-0.521937214;33.60365808;24.95820902;19.5792081;7.709648724;-14.14545697;11.7752347;14.92407215;5.691101399;6.114106517;2.766015071;2.633932904;7.08360501
-19.4984204;-3.46065697;-5.747505633;1.839631254;10.01275586;-0.369941168;-0.511639698;35.10876934;26.62143385;19.18163341;9.829542377;-9.190335635;12.93273788;17.64376506;11.27728223;6.496410939;2.689629703;2.626881044;7.031455579
-17.84089519;-3.513897462;1.080641749;-7.752813857;13.14281975;1.942066007;-0.527526915;35.03975137;24.31640148;18.02702322;8.050019531;-6.151284293;12.04614989;19.16774148;13.35873563;6.608272683;3.099924906;2.01069556;6.670665148
-14.62968745;-3.161174597;9.922023539;-16.25551374;14.31606384;2.839495726;-0.528564222;33.51965686;18.89665638;16.31668833;2.792734207;-6.718348067;9.10587392;18.70471231;12.00771713;6.337974585;3.110425372;1.023573778;6.346010054
-11.40796248;-2.712005372;16.14240691;-15.97701124;13.20813263;2.014525546;-0.449210632;30.59020326;12.3147447;14.29398467;-3.675849378;-10.33578736;5.286016964;16.79356953;9.183017641;5.83213324;2.343717688;0.216440427;6.384672708
-9.919567694;-2.539798036;17.48645293;-8.057783696;10.10884482;-0.069645815;-0.294480898;26.73054417;6.903790106;12.34857163;-8.275528424;-14.44941935;2.593993777;15.10783215;7.483774994;5.394937324;1.154875817;0.035892787;6.777271909
-10.25626425;-2.752112842;14.94343691;0.041656592;6.090712205;-2.294480504;-0.16930854;23.20539132;4.646417897;11.14530491;-8.466839381;-15.98472988;2.97760838;15.51451115;8.779964499;5.279897318;0.39499942;0.519931896;7.162416077
-10.88800275;-3.103563898;11.40580492;1.949289786;2.80286634;-3.381617426;-0.198349647;21.68238845;6.560078125;11.52623276;-3.380732596;-13.12893759;7.292755096;18.90980989;13.3659616;5.532787042;0.829531407;1.326880867;7.149043917
-10.38376064;-3.222421343;9.302065789;-2.091290463;1.795595493;-2.568501419;-0.403171909;23.25298302;12.32124858;14.08988434;5.709643594;-6.322985928;14.70297426;24.54765911;19.92306567;5.991773351;2.562077612;2.028779106;6.696420191
-8.957376703;-2.943458985;8.97041298;-6.190270827;3.678190728;-0.086389937;-0.655799245;27.61057305;20.29529129;18.64994171;15.79949613;2.075905903;22.91973241;30.3093935;26.20637328;6.422681686;4.849624869;2.400570201;6.20114375
-8.175405173;-2.451126139;8.813919009;-4.891995372;7.658119891;2.885040834;-0.766289657;33.0919656;28.07352711;23.97214992;23.35702207;9.133046961;29.23445976;33.78365541;30.09683985;6.672356761;6.468986142;2.483406761;6.189009639
-9.035031352;-2.112634851;6.878799173;1.479239369;11.85447402;4.818941697;-0.639445581;37.60157883;33.38268134;28.09706623;25.85636361;12.77672313;31.80157532;33.51655161;30.52271786;6.731221209;6.432392548;2.426562532;6.862928328
-10.36642325;-2.157599924;2.51570337;7.129200183;14.28834372;4.675483418;-0.364836473;39.72808378;34.96744158;29.20151047;22.91278526;12.52154042;30.44198866;29.69935434;27.81294405;6.68563711;4.599472511;2.301553445;7.899771398
-9.418014484;-2.490720873;-3.095128624;6.373270177;13.9737356;2.477750841;-0.154669745;39.25869254;32.99080917;26.56584422;16.38912743;9.252037584;26.51425096;23.94197653;23.33241713;6.626730771;1.785088358;2.07130318;8.684626571
-4.511262522;-2.795602585;-7.769203519;-0.740647463;11.42723322;-0.713262757;-0.175272927;36.86259794;28.75409491;21.07478294;9.359383786;4.467262834;21.98848855;18.36053754;18.66174589;6.596073159;-0.70326415;1.717613649;8.794028659
2.458938996;-2.823585194;-9.693728015;-8.02490399;8.277200757;-3.395710424;-0.413462969;33.41;23.9527608;14.90597806;4.496209651;-0.403749243;18.3585256;14.58447618;14.86380539;6.593380524;-1.783632835;1.364588739;8.321467405
6.173757285;-2.601732859;-8.310058594;-8.462009618;6.23475678;-4.425195229;-0.691387204;29.58486532;19.94611648;10.52367509;2.832094976;-4.278814668;16.08262139;13.22940319;12.28830305;6.60971825;-1.107908139;1.241744797;7.773205804
1.194510702;-2.3786138;-4.254505153;-0.498793317;6.085015036;-3.554898271;-0.815026863;26.00543582;17.42595571;9.502594803;3.608709913;-6.399685448;14.81250273;13.98208757;10.92458612;6.639187466;0.921441014;1.496443897;7.63285722
-13.75076006;-2.371316969;1.275429189;10.38721241;7.30818565;-1.458235346;-0.726453789;23.46605149;16.51109541;11.8053492;5.19344746;-6.336195204;14.07889288;16.03408214;10.8564598;6.663006813;3.54312261;2.027247172;7.973535323
-33.77127152;-2.556086071;7.042771399;16.37135818;8.507159247;0.699858035;-0.531024511;22.77184434;16.98397646;15.87520247;6.326087299;-4.186039849;13.80196129;18.47706502;12.30360011;6.641329289;6.095089242;2.509648548;8.442478647
-49.89770167;-2.697231419;11.86294379;14.11046579;8.315266539;1.850651512;-0.386027722;24.11288689;18.38399173;19.45873783;6.798294979;-0.799067546;14.21395314;20.47298695;15.15600052;6.542694689;8.229827332;2.618941093;8.608664839
-54.08752938;-2.583366019;14.54598767;7.605135755;6.210738168;1.46625723;-0.361250819;26.54256067;19.95336217;20.7077512;7.181489618;2.31921546;15.33187195;21.30704554;18.4762989;6.393393765;9.841121558;2.273765588;8.349828253
-43.88621741;-2.246312044;14.16844265;4.46183589;2.789947955;-0.288076975;-0.401373802;28.23332656;20.6984782;19.01296821;7.988134902;3.590541373;16.53985035;20.53761016;20.62282507;6.291277197;10.90258927;1.695242489;7.937740764
-23.79540275;-1.953563794;10.74631037;8.844740015;-0.586209549;-2.675864265;-0.418281103;27.58266729;19.78824535;15.20323862;9.056536134;2.196467685;16.77019908;18.2832559;20.18589539;6.347331317;11.43431933;1.229209344;7.765269889
-2.749794734;-1.974078254;5.776234468;17.49167534;-2.513284575;-4.690436659;-0.414039303;24.42421722;17.15698053;11.06760289;9.676200602;-1.36391746;15.24978734;15.41230416;17.15440695;6.585256202;11.60865285;1.078441076;7.981205279
10.41783104;-2.327305276;1.947499615;22.56771474;-2.229771807;-5.442918593;-0.503002;20.33018016;13.8337982;8.455271212;9.277491941;-5.427989626;12.23401903;13.31664996;13.31975174;6.883421595;11.79723407;1.163304057;8.368463262
10.80553309;-2.744969118;1.859825417;19.02423071;0.049623567;-4.546631333;-0.79761894;17.60701838;11.55679595;8.370383421;8.00521318;-8.037954356;9.060475932;13.20032943;11.33965317;7.026699307;12.37286691;1.214842365;8.564197977
-1.103474713;-2.886469135;6.421352591;9.890578497;3.266803724;-2.365924194;-1.259803393;17.64057097;11.7201685;10.47275183;6.617901813;-8.04465678;7.340405639;15.23765158;12.90967768;6.850078125;13.32711305;1.009398963;8.402898276
-20.31132077;-2.622418534;14.02921454;4.415203855;6.025689215;0.033202654;-1.668218155;19.85444257;14.29816021;13.23639751;5.787689046;-5.780231873;7.809687474;18.20384442;17.32955117;6.370290052;14.02486055;0.547970388;8.059307589
-39.47229086;-2.139836785;21.22989166;10.09873619;7.239989173;1.315953921;-1.758850963;22.14457708;17.57825748;14.74161526;5.450206872;-2.87442891;9.710127558;19.98833662;21.65559814;5.793803826;13.41963823;0.048107646;7.866827208
-51.44654995;-1.779819452;24.57307839;25.20754729;6.644699496;0.571649314;-1.438710309;22.51593174;19.07264475;13.76127836;4.845100194;-1.303332076;11.24463937;18.82934708;22.55038625;5.379000622;10.73253426;-0.220128366;7.995854196
-51.78612296;-1.75202688;22.54488593;38.44164492;4.937422702;-2.08199207;-0.891860308;20.6823911;17.13555661;10.58595035;3.281723269;-2.219143605;10.85561638;14.54250277;18.64203576;5.248522612;6.181172987;-0.108988313;8.303045067
-40.64635126;-1.973086562;16.40771817;36.75440607;3.456611809;-5.385570141;-0.472690034;18.38980614;12.2179929;7.07152455;0.984252799;-5.240631324;8.416928821;8.894218221;11.7040975;5.299361133;1.187248235;0.342415964;8.49
-23.15080221;-2.161239284;9.497001468;15.51706368;3.513796553;-7.494376925;-0.455788838;18.19527182;6.834437729;5.750589183;-0.773983191;-8.622811914;5.435619813;4.747511349;5.71462542;5.290507741;-2.224805923;0.95858616;8.406250173
-7.304956421;-2.094239824;5.470353009;-17.01449289;5.690536911;-6.975866309;-0.836880798;21.6070485;4.15461857;8.390956415;-0.484579407;-10.2322393;4.058870688;4.406791978;4.344995141;5.04894961;-2.563057368;1.511408385;8.189266008
0.180668392;-1.801905801;6.524874186;-44.68330296;9.471190505;-3.690039063;-1.344574059;27.94266114;6.085661955;14.80003906;2.401358417;-8.802721283;5.563508857;8.169015982;8.567287459;4.633641716;0.168974327;1.77319869;8.095861033
-2.037692816;-1.532693676;12.4486495;-54.24548131;13.44014725;1.006908916;-1.653546772;34.68447961;12.08523392;22.65059988;6.843175897;-4.770812761;9.403740018;14.02640969;16.00653794;4.31973593;4.344613752;1.555230868;8.190571044
-8.908590368;-1.536212503;20.81012363;-43.905542;15.97663354;4.923435673;-1.627444089;39.00866648;19.4672486;28.56660868;10.7011226;-0.184776437;13.50275276;18.76506772;22.45338571;4.401089864;7.564562364;0.784734781;8.218457909
-12.38610265;-1.857664114;28.05553237;-23.40386781;16.09355032;6.216303209;-1.400161763;39.39964617;24.97329252;29.9377525;12.04700811;2.338420968;15.58606037;19.81396964;24.48832667;4.954598356;7.98643393;-0.386450658;7.82930376
-7.455762883;-2.315383806;31.02072341;-6.137546502;13.96700803;4.413256521;-1.241447628;36.35042414;26.58487965;26.41275756;10.36124419;1.095713722;14.62797622;16.71271912;21.48899433;5.749023518;5.319913665;-1.542304481;6.974806056
3.464568116;-2.662842325;28.31067196;0.272048846;10.86258204;0.668422684;-1.328625804;31.89269729;24.47459137;20.14277099;6.776184298;-3.60086344;11.43851115;11.30908628;15.80926868;6.377941364;0.901110989;-2.141679274;6.094947448
11.42865907;-2.780203265;21.01869869;-2.062494984;8.494493076;-2.898676144;-1.613619219;28.45051758;20.62892931;14.57830776;3.252834498;-9.398128561;8.05427283;6.60398671;11.17525937;6.527182167;-3.144791967;-1.820291315;5.859208246
7.181864529;-2.732960336;12.37104846;-5.021185097;8.160790739;-4.384104283;-1.883026545;27.74908703;17.52754108;12.51990775;1.342124249;-13.08827067;6.4180117;4.995062799;10.42759396;6.182263502;-5.095234281;-0.670966374;6.624218577
-11.49987501;-2.669717567;6.24621197;-2.04448643;10.10650252;-3.112319439;-1.944134895;30.22902599;16.75462212;14.59204063;1.393584528;-12.42813285;7.248089656;6.994528035;13.98374153;5.623770594;-4.467762825;0.732482647;8.060432116
-36.91931023;-2.675315516;5.138662308;6.754347245;13.42832791;0.077425108;-1.773541075;35.00451611;18.30143452;19.03290528;2.629997145;-7.554218616;9.768542178;11.1351334;19.78919829;5.217480354;-2.089796833;1.649895538;9.304789031
-55.68240911;-2.718957896;8.671859651;15.52654052;16.54255123;3.382146847;-1.512527906;40.21328007;20.79080293;22.8542752;3.834124757;-1.088915867;12.33582191;15.00777374;24.59800347;5.159155035;0.518607769;1.648566438;9.568051408
-57.45113273;-2.729706158;13.70376454;18.0967545;17.95837863;5.059928616;-1.332566577;43.64688643;22.32990424;23.58893511;4.049430541;3.246153037;13.44975643;16.71166815;25.76367038;5.363152588;2.007415237;0.898322059;8.725439479
-42.01487716;-2.704822448;16.20555851;12.98906534;16.9696071;4.339323863;-1.299365988;43.57579506;21.47370244;20.55315176;2.887455993;2.777446092;12.51793233;15.83987646;22.60130819;5.567883876;1.819604952;0.048077895;7.40478403
-19.43187383;-2.731603219;13.87381235;4.187383955;13.94324776;1.746464386;-1.348558236;39.53607408;17.87083716;14.95680987;0.482347495;-2.482173306;10.03022071;13.5029423;16.70218857;5.562096648;0.312941847;-0.250916906;6.489863419
-3.005994986;-2.898272139;7.749124665;-2.36460001;10.09344134;-1.260639669;-1.375625014;32.66522934;12.38915375;8.967210195;-2.620191387;-9.744554044;7.196885127;11.50740162;11.09277138;5.347267324;-1.582067062;0.170326067;6.442613341
-0.184040222;-3.18629334;1.61781967;-3.213929689;6.876174541;-3.095348412;-1.342960826;25.25859632;6.721713241;4.434421276;-5.501806947;-15.03755301;5.328320964;11.25470362;8.631823502;5.111460826;-2.927553506;0.875868768;6.998329581
-7.994905038;-3.459374085;-0.532446518;0.694043865;5.313166848;-2.842647225;-1.30489348;19.66022255;2.629092489;2.05752512;-7.011640163;-15.56282186;5.231074146;12.98257174;10.40413246;5.047993404;-3.276998329;1.166676947;7.468335105
-16.20227692;-3.571282854;2.713530328;5.572213213;5.57583246;-0.671391691;-1.339019908;17.11441129;1.115925015;1.357902948;-6.245538477;-11.39664434;6.802012442;15.68614387;14.96016739;5.178871063;-2.8859795;0.63160869;7.367738616
-15.56282382;-3.496376674;9.179404504;7.948765063;7.020573568;2.299748012;-1.461046309;17.32588473;1.936123485;1.285106879;-3.269152021;-5.483691;8.953912434;17.66417773;18.9318633;5.335145182;-2.546200827;-0.514579093;6.818301026
-4.900764581;-3.358814704;14.60548064;6.82846761;8.628795895;4.575527736;-1.608169737;19.01259112;3.750048828;0.978133787;0.446277482;-1.911395224;9.980775542;17.36280593;18.85075436;5.311198065;-3.115151035;-1.568361753;6.388225024
8.146196705;-3.32775601;15.61601349;3.71037763;9.590078125;5.004654259;-1.7020252;20.99719247;4.942303125;0.257472164;2.457505982;-3.501955882;8.346043184;14.12418886;13.22951666;5.060039063;-4.96582166;-1.847388441;6.533051641
12.93724103;-3.471101911;11.99974352;1.210779033;9.69648723;3.313963662;-1.722638621;22.9716632;4.673605339;-0.319629543;0.695920471;-10.15948439;3.612519661;8.543021886;3.653270594;4.758081099;-7.655699834;-1.185849873;7.152046712
3.617273776;-3.700952723;6.687319731;1.6660226;9.337948207;0.223208267;-1.717123052;25.35579822;3.488738159;0.223103649;-5.015019713;-18.92489349;-3.008005919;2.299914982;-5.903266855;4.67506813;-10.03887771;-0.042120001;7.665215902
-16.79828746;-3.86036395;3.547234958;6.305305036;9.135712739;-2.899903722;-1.735858045;28.44258095;2.994315677;2.752351661;-12.385319;-25.6498065;-8.962454174;-2.47882814;-11.24702569;4.950938388;-10.81613604;0.856680532;7.546186538
-38.58666344;-3.870393859;4.720847292;14.6646396;9.469569499;-4.680019531;-1.764502796;31.63570498;4.714998671;7.468014963;-17.67265773;-27.26428151;-11.5601999;-4.111448923;-10.34928418;5.465488717;-9.247556064;1.060299226;6.833004247
-51.60577116;-3.800594435;9.449024273;24.0116848;10.20517814;-4.373803764;-1.726740926;33.50763909;8.849887756;13.53033264;-17.85130091;-23.33821133;-9.498167965;-2.145060696;-4.466820243;5.915610506;-5.618649847;0.723141714;6.149644697
-51.00869568;-3.797418833;15.07802373;29.42969055;10.7799221;-2.213374988;-1.562505803;32.69714385;13.81145217;19.10795987;-12.58532389;-16.13473774;-3.78479014;2.339565162;2.679064839;6.042927953;-1.169071739;0.476599506;6.198455184
-38.84494506;-3.937552956;19.22507134;25.54259908;10.56532926;0.706050674;-1.307603144;28.93026084;16.95654514;21.98503529;-4.640426372;-9.262653634;2.611809185;7.115147004;7.09270419;5.826187023;2.491017835;0.945330255;7.152335344
-21.49476054;-4.143985736;21.30011026;9.76954552;9.257372126;2.942428602;-1.09145791;23.32274268;16.10652674;20.58232495;1.648144016;-5.785325105;6.303378146;9.783794061;6.654927609;5.479127653;4.142014513;2.258637825;8.472522368
-5.690669449;-4.245893025;22.28704886;-14.80531357;7.058243613;3.386788403;-1.042891899;17.71178805;10.88176137;14.9086007;2.917915913;-6.828892217;5.333798046;8.913175737;1.973934016;5.258315427;3.46557779;3.901358222;9.31654093
4.005365661;-4.131138908;23.22450089;-39.53651928;4.575216224;1.790165546;-1.182470189;13.55767158;2.976068588;6.83687889;-1.30201225;-11.3263103;0.21983887;4.765818452;-4.366496783;5.249155521;1.059113002;5.005748786;9.195776243
5.503546761;-3.853814024;23.88749894;-54.26234144;2.541706024;-1.108718295;-1.399421466;11.27056765;-4.790701823;-0.611032983;-8.499830182;-16.84997006;-6.447496388;-0.781435077;-9.442465847;5.318742142;-1.974709044;4.889147483;8.332072479
-1.419852584;-3.597678137;22.90178489;-53.22619421;1.537001667;-3.918796974;-1.539343254;10.40251211;-9.995172821;-4.692678764;-14.87614863;-20.94150936;-11.55128975;-5.124788417;-11.41561071;5.277096963;-4.565960456;3.491402817;7.426735154
-15.12167718;-3.524409745;19.20082956;-38.83386656;1.820765115;-5.247435315;-1.529169034;10.38739111;-11.73597246;-4.294828869;-17.62352792;-22.2084076;-13.14871399;-6.195801762;-10.06509947;5.096659769;-6.047970768;1.443982453;7.058979846
-31.50894179;-3.637346707;13.50807414;-20.25057333;3.288901551;-4.371219965;-1.429899386;11.08566753;-10.75010509;-0.389227126;-16.31894371;-20.71699554;-11.30208952;-3.460842215;-6.470019531;4.97420048;-6.249853148;-0.261589506;7.235779052
-44.35023316;-3.776774892;8.431391968;-7.471179787;5.502113748;-1.611207347;-1.370545279;12.65232724;-8.639523254;4.678452288;-12.70112519;-17.65184323;-7.661637319;1.844038411;-2.327613501;5.149629413;-5.39502319;-0.80201337;7.463197022
-47.63746509;-3.747820485;6.873293455;-4.972803981;7.767039738;1.781606046;-1.423231853;14.93111474;-6.86981929;8.579764993;-9.249458706;-14.56570364;-4.242136861;7.345124638;0.679537362;5.621749309;-3.950245924;0.056723128;7.244274689
-39.16906395;-3.471043259;9.87054694;-9.515770885;9.299460655;4.204691019;-1.53291179;17.05108384;-6.194080164;10.15989436;-7.683793479;-12.65282125;-2.267268115;10.69205258;1.371336609;6.025620394;-2.493767653;1.870460261;6.542632822
-22.73713503;-3.034878843;15.53437073;-13.56079691;9.485547852;4.491381237;-1.566065114;17.73431201;-6.690294627;9.669352448;-8.329759526;-12.3495707;-1.75537786;10.66003906;-0.534845378;5.834006289;-1.5758133;3.787073387;5.80023168
-6.626248964;-2.62055537;20.01558223;-11.49474167;8.166994559;2.523907299;-1.434648489;16.1716724;-8.111491664;8.088905512;-10.49719114;-13.33106431;-1.916020974;7.661200252;-4.215985824;4.778840048;-1.541599959;5.003255859;5.508013315
1.29153062;-2.376275399;19.94286518;-3.808275364;5.7894961;-0.658081696;-1.182276147;12.77486623;-10.12099737;6.211571332;-13.28081502;-14.7827699;-1.895923039;3.445115584;-7.983421234;3.172191746;-2.373308205;5.144760166;5.730058594
-1.295859634;-2.345029228;14.69270846;3.833427097;3.27415712;-3.348027068;-0.95256994;9.156392161;-12.25507371;4.235177183;-16.05493082;-15.76506901;-1.306433328;0.173648787;-10.08501828;1.834398168;-3.67496965;4.371674267;6.020569574
-9.603172102;-2.484943685;6.934951062;5.553742181;1.620488865;-4.041013081;-0.865764066;7.285698888;-13.8151492;2.104095247;-18.39910793;-15.53827661;-0.269138838;-0.650834391;-9.727304285;1.615377753;-4.872778226;3.187695817;5.818322105
-15.30293881;-2.733577501;1.059888776;0.095602348;1.432822178;-2.233342324;-0.913364001;8.403546805;-13.99225207;0.158150112;-19.78132712;-13.79425938;0.875627131;1.12992957;-7.622304386;2.818846882;-5.548487931;2.11122103;4.973556274
-12.84562041;-3.041634986;0.485966284;-8.272386182;2.636480305;1.286499025;-0.966102972;12.42278249;-12.28507788;-0.629517462;-19.51659055;-10.77545009;1.862763346;4.355238446;-5.547197469;4.947916016;-5.694022521;1.431159248;3.935586754
-3.916342451;-3.353589707;5.535786009;-13.2118499;4.545769498;4.833311801;-0.890109302;18.12137664;-8.931949354;0.818594469;-17.18248686;-7.244970106;2.581403676;7.234291998;-5.109006164;6.980482455;-5.698735247;1.180012207;3.419832714
3.460155531;-3.581155989;13.16520686;-11.10660672;6.230617116;6.70376474;-0.669649488;23.84377662;-4.9686947;4.735509398;-13.15058442;-4.25977445;2.976869227;8.311868655;-6.587913001;8.000762783;-6.061396074;1.279614489;3.824929294
0.767444646;-3.626340461;18.67580727;-3.380437115;6.957758618;6.056888557;-0.428098296;28.16564552;-1.769844899;9.939192894;-8.679816562;-2.756138033;2.963678715;7.191527878;-8.764439172;7.749492502;-7.022685905;1.687920739;4.892689073
-14.35964401;-3.452583572;18.38565203;5.162284656;6.472386816;3.313494037;-0.327590536;30.19580429;-0.331612819;14.23708228;-5.329633622;-3.083363309;2.47675411;4.648998951;-9.898381333;6.71529322;-8.37703844;2.400467096;5.903645379
-35.61417886;-3.137521023;11.73175035;10.21477281;5.022810098;-0.127841139;-0.433191242;29.59825733;-0.77222873;15.67391991;-4.033765833;-4.731161655;1.611227586;2.120799322;-9.088885527;5.728835401;-9.591528581;3.317013675;6.250834422
-51.64672606;-2.8414683;1.643892473;10.8161109;3.190256325;-2.668615376;-0.656998121;26.6002057;-2.373594477;13.79815779;-4.524383283;-6.472994846;0.690823939;0.899331008;-6.911187026;5.378581331;-10.13741284;4.135512148;5.91768692
-53.43159878;-2.699395852;-6.997162092;9.203346257;1.649640289;-3.328615955;-0.827316587;22.07122165;-4.093318436;10.02243929;-5.584707392;-6.947740427;0.158515745;1.499333571;-4.825623095;5.671719026;-9.799755627;4.438072384;5.467717707
-40.22625978;-2.722332755;-9.961671246;8.362878348;0.942489689;-2.166382731;-0.821603164;17.46677651;-5.158959167;6.754902567;-5.975618858;-5.418146936;0.340341374;3.510925486;-3.905247234;6.149434435;-8.771096346;3.96599303;5.559910361
-19.95700999;-2.797298508;-5.906579831;9.646015925;1.280498555;-0.126587828;-0.652076303;14.39299061;-5.357539856;5.84754376;-5.335033468;-2.268171185;1.247118112;5.936373724;-4.017374268;6.314201951;-7.505852997;2.87964147;6.391281629
-3.812870134;-2.792018883;2.979026105;12.26112644;2.40655761;1.532563318;-0.439475721;13.86544414;-4.919534607;7.403264297;-4.348977784;1.109579318;2.553783433;7.740132918;-4.180599897;6.015337445;-6.467802045;1.752800809;7.518938987
1.122026382;-2.674895464;12.2537175;14.51570018;3.606458184;1.884738465;-0.307820195;15.71438385;-4.207690789;9.741146407;-4.067096173;3.040327789;3.76388031;8.288783695;-3.742286082;5.515922149;-5.932354244;1.23313161;8.197070401
-3.904246232;-2.54270019;17.66199242;15.27274661;3.978408565;0.733806361;-0.294497846;18.62840317;-3.506049193;10.52196149;-4.933115699;2.514084403;4.443146063;7.513227093;-3.238850451;5.240533656;-5.917843497;1.583256884;7.949853681
-11.00125274;-2.529668768;17.29408271;14.35943812;2.938185007;-1.37;-0.345957225;20.91186112;-3.030290172;8.259666945;-6.349680275;-0.21817351;4.383006114;5.833824254;-4.045563332;5.442516193;-6.217694148;2.460454429;6.926149162
-11.84037507;-2.680136169;12.23132338;12.04719687;0.714597677;-3.43157945;-0.388034047;21.47261769;-3.038278528;3.22608801;-7.171746508;-3.781996334;3.62833633;3.98329739;-7.023482667;6.050242252;-6.476595963;3.146515697;5.7732259
-3.904400281;-2.901913771;5.422197961;8.651421484;-1.539349997;-4.459193142;-0.397526356;20.34074607;-3.836887401;-2.788925684;-6.749130809;-6.480734412;2.39668895;2.804597297;-11.36265866;6.768676793;-6.293996067;3.089993738;5.152127252
7.568971052;-3.044364445;-0.333894174;4.857366074;-2.253172063;-3.886059637;-0.410899022;18.36291954;-5.616985463;-7.625898469;-5.647931734;-7.269288911;0.957541788;3.002801427;-14.77882917;7.303296065;-5.369465644;2.34803012;5.281945453
13.21148026;-3.029681017;-3.90766447;2.183188022;-0.400969451;-1.834523751;-0.471462885;16.35876107;-8.253761747;-10.02335218;-5.397307215;-6.305368516;-0.476086186;4.832996196;-15.10606744;7.51234581;-3.668939582;1.559243042;5.847578809
6.141208984;-2.915724209;-5.944376178;2.49718888;3.642640687;0.868903107;-0.57343366;14.43679132;-11.27736247;-10.21911867;-7.38620994;-4.767147203;-1.819988419;7.833237413;-12.07028723;7.404318364;-1.51937174;1.437454029;6.302412447
-12.96937652;-2.832331612;-7.715773006;6.436964751;7.988662751;2.974377397;-0.658525731;12.00995033;-14.0798561;-9.594064486;-11.75085733;-4.097947172;-3.136087549;10.82984486;-7.743362885;7.051646184;0.475837953;2.172534745;6.298882617
-35.7776418;-2.852306043;-9.764982169;12.07017317;10.10807981;3.339371813;-0.665912887;8.464705099;-16.20897805;-9.679629681;-17.14622958;-5.174346785;-4.568444626;12.38045121;-5.178606364;6.540972901;1.712882238;3.227236133;5.913135902
-51.15757134;-2.9212455;-11.4130024;15.51617408;8.288953296;1.521258473;-0.584929144;3.915031439;-17.51244338;-11.1897141;-21.61016053;-7.881499504;-6.193275536;11.54624219;-6.213622517;5.996230958;1.916157728;3.720078125;5.521525124
-51.86961516;-2.915687205;-11.39738836;13.75151231;2.799314112;-1.867140907;-0.460136182;-0.570582782;-18.02719748;-13.64071084;-23.84908695;-11.2639373;-7.842345329;8.57592195;-10.14154659;5.599720958;1.303684305;3.109873425;5.463864686
-38.73194043;-2.775786294;-8.986294192;7.576855804;-4.040718312;-5.302541694;-0.346809605;-3.445904089;-17.74258484;-15.71536664;-23.93021866;-14.05334565;-9.021482282;5.007826041;-14.27138818;5.525463238;0.459163985;1.635095426;5.773482305
-19.74466203;-2.582997304;-4.6149368;1.902789335;-9.03329471;-7.031142924;-0.262484517;-3.517029823;-16.49033821;-16.08771825;-22.86260803;-15.2114833;-9.035977806;2.985584001;-15.88313885;5.804662355;-0.017542135;0.141460845;6.173828397
-4.911498426;-2.499768801;0.386218515;2.303343566;-9.875755015;-5.992039004;-0.181390986;-0.571067304;-14.10550147;-14.2031826;-21.49071475;-14.23496956;-7.323791537;4.090295513;-14.00754347;6.252158952;0.152794568;-0.578063634;6.320793984
