Channel 1 - P4;Channel 2 - O2;Channel 3 - P8;Channel 4 - T8;Channel 5 - C4;Channel 6 - Cz;Channel 7 - Fz;Channel 8 - F4;Channel 9 - Fp2;Channel 10 - F8;Channel 11 - Fp1;Channel 12 - F7;Channel 13 - F3;Channel 14 - C3;Channel 15 - T7;Channel 16 - P7;Channel 17 - P3;Channel 18 - O1;Channel 19 - Pz
-59.83833687;-108.4654534;-83.41779486;-76.49901093;23.19946225;58.23719523;51.70810624;106.2603695;109.701204;77.89871419;56.72451746;9.218441033;88.2719959;80.40984069;74.23405434;-44.71982945;-0.900056152;-8.814748181;1.922708444
-43.36786128;-93.54656046;-97.29246115;-65.32078698;10.21941867;47.26201045;61.79421519;83.60583773;92.23503446;45.83204942;49.60892556;8.288409927;75.61444796;75.0729172;66.01231827;-46.5733168;-7.823415747;-11.46065045;15.354323
-11.9164136;-51.48520473;-75.45599416;-28.09021819;-2.024497279;22.56991877;54.20811768;42.50176535;59.13459817;5.033493848;36.80654079;10.02849564;45.78599723;58.7741152;45.32800318;-30.87;-10.61160109;-9.707117145;26.363511
17.80400169;-4.088943709;-31.11596228;15.24226431;-7.006131269;-2.242889919;35.15056769;2.828750683;27.72681555;-25.58792333;27.60176777;15.66641092;11.70054643;44.63832465;24.27780122;-3.687022334;-5.93231067;-4.454476805;30.36325703
31.87778028;26.59337435;10.70185479;42.13517647;-2.903316998;-15.20890114;16.74942024;-18.57761137;11.46087527;-35.16370124;26.64118185;22.40224955;-13.62931587;37.06857379;12.65871443;21.44322808;4.429761735;1.066790854;26.95824776
27.73331948;31.39092884;29.02229077;42.69490349;6.633156392;-12.99438604;8.873937377;-17.23822824;12.75875081;-26.33031775;31.72550406;25.84779789;-22.95560278;28.85402494;13.06268824;32.69418535;14.99587869;3.618193018;20.0620453
14.73651182;17.56691777;19.08207593;25.64578856;15.32558454;-1.663875767;13.11157467;-1.685166561;23.56808234;-11.61245315;36.38719903;23.75110234;-17.56995579;9.113787424;21.17825343;27.70458925;20.42997594;2.208798592;15
6.54;1.290686078;-7.107670723;10.53429354;18.49052647;8.68124677;23.00386082;13.94624918;32.22905324;-4.15902719;34.85424599;17.82747765;-5.547142196;-24.92796049;29.90035694;14.30152032;18.81798463;-1.395505112;14.78696509
10.73684724;-4.563226808;-30.94764277;12.11229257;15.63522154;11.05284748;29.79649572;19.45325683;31.30839965;-9.637663616;25.76299032;12.20771863;3.453848237;-62.70716975;33.76761423;4.026437878;12.19470476;-4.19490852;18.32881711
23.30467764;1.768997042;-39.93675781;28.84595511;9.894279959;5.434975337;28.97551047;13.71201697;21.25772287;-24.33217899;12.44478287;9.920697577;3.744288171;-86.56123666;31.08289736;3.703925855;4.444949795;-4.232579229;21.74506615
31.87223522;12.34780201;-33.91414974;44.31734943;5.192948839;-2.757764609;22.73562676;2.941235728;8.386903303;-39.50402582;0.303001328;10.46852949;-3.736862234;-84.71778579;23.45965361;11.41357317;-1.413156768;-1.855239426;21.60408687
25.38836359;17.65986452;-21.7741587;40.33846647;3.509692463;-7.610293675;17.08909844;-5.289194141;-0.35080119;-47.88031095;-6.414721142;10.56003906;-13.05067451;-60.53576789;14.21814575;19.39756023;-4.518150234;0.893781661;17.50545588
3.009805693;14.34601334;-12.88653896;11.60860216;4.151428226;-6.919647607;16.53316573;-7.307279125;-1.714947133;-47.57308229;-6.350977995;7.32869795;-17.81281276;-30.44755343;6.958040905;20.93565927;-5.536857039;2.078043209;12.13174168
-24.47365793;6.73546282;-10.53979143;-29.32087845;5.130937914;-2.821491145;20.72127949;-4.477593127;2.876565283;-41.55312503;-0.777530243;1.226332961;-15.49507694;-12.19454854;4.536931175;15.4670232;-5.254058316;1.325262074;8.973092301
-41.84612886;2.001623925;-11.79790235;-60.43458463;5.125883098;0.860315716;25.47543642;-0.559961957;9.500688876;-34.29689043;7.706292556;-3.938372449;-8.635606719;-12.66350885;8.093001576;8.197053274;-3.855703942;-0.169700199;9.685193862
-40.0089715;3.782281532;-12.32946063;-65.4608033;4.336608319;1.828097139;26.75141307;1.758615708;14.72876247;-28.71106428;16.30802783;-3.924749432;-2.386763314;-24.62835277;16.24235759;5.166576358;-1.357100688;-0.911893919;13.12352758
-22.04390339;9.655859162;-11.04938479;-44.48143893;3.78103896;0.497861168;23.96335434;2.396386886;17.31893854;-25.28949837;22.58357568;2.449394229;-0.422828416;-34.23169004;25.30210161;8.261028884;1.629333488;-0.434252961;16.57817468
-0.38839309;14.01620801;-10.50931795;-12.51248441;3.984615215;-1.275651677;20.01883103;2.937632363;17.97665464;-23.19553519;24.76336488;12.13080661;-2.302522635;-32.48248938;31.11709421;14.19413044;3.875062966;0.449995789;17.96139911
12.51045942;13.25554276;-13.33984662;11.98988515;4.418447318;-2.254894519;18.42671494;4.734637624;18.0408797;-21.63324024;22.26903562;19.93693312;-4.181228271;-21.40819495;31.68810127;17.83184408;4.477221188;0.578761445;17.11688455
12.7988732;8.622296252;-18.6160596;19.46592552;4.175888928;-2.655724396;20.23600269;7.845862529;18.35738465;-20.28748299;16.20869076;22.24180437;-2.202399963;-10.58758626;28.61622803;16.62497355;3.867473373;-0.378428236;15.37808447
6.623856136;4.604018093;-21.81539866;13.49325368;3.130971829;-3.254135962;23.41380013;11.34074515;18.98238477;-18.94386819;9.188739977;19.31788848;4.121447935;-7.957812908;25.8554278;12.35093781;3.774018056;-1.585166429;14.05948745
3.755750588;4.701941244;-18.56189136;5.053950204;2.344647455;-3.999284596;24.9403566;14.16945828;19.51492539;-17.21281176;4.116503177;14.59063013;11.20007813;-13.11969986;26.4014866;9.018412565;5.933185617;-1.828122364;13.36003906
9.034598845;8.486617242;-8.846022665;2.705260794;3.189290632;-3.748719844;23.5535763;15.59751401;19.49311877;-14.91867986;2.567272759;11.59065961;13.94643102;-18.54872931;29.57709791;9.144415126;10.54820667;-0.68263087;12.59144318
18.76746575;12.34036021;2.089318006;6.82390878;5.891637142;-1.506068871;20.70825913;15.03911379;18.51464276;-12.75059842;3.885212185;11.16138725;9.739774078;-17.00183506;31.46451819;11.77375009;15.85156932;1.024708437;11.32783364
24.82930888;12.89608562;7.20091813;11.64791219;8.832121521;2.06164984;19.07125806;11.91654725;16.17105243;-12.29342258;5.806130908;11.1144269;0.753074816;-8.250420417;28.49271578;13.77924224;19.26719586;1.892006254;10.22880169
22.60602313;9.949793453;2.819369076;11.95777811;9.393568463;4.477391242;20.06946121;6.073988414;12.09913132;-15.06732348;6.235056672;8.444312219;-7.233025478;0.71819913;21.22162371;12.98194141;19.3172154;1.166352353;10.6452222
15.6248798;6.366867173;-8.4858258;7.856310827;5.865455145;3.151740194;22.71264357;-1.523533331;6.323797606;-21.19073975;4.839229389;2.187093815;-8.845932355;1.954004274;14.71491789;10.15119341;16.75466176;-0.569824272;13.30767994
12.57781261;5.323459907;-19.54766486;3.715347075;-1.035107701;-2.33199574;24.63019157;-8.630155957;-0.248387267;-28.77645159;3.202812915;-5.37141737;-3.172551324;-6.36;14.50893458;8.158740557;14.00985081;-1.8703218;17.31433139
19.10773537;7.510461855;-23.48318758;3.127343033;-8.266917865;-9.316738036;24.25198415;-12.57538429;-5.585250761;-34.68632617;3.428133048;-10.00821426;5.07523356;-18.06290135;21.11887514;9.215876844;13.39597062;-1.662106296;20.44338768
31.53578925;10.74082873;-18.22391959;5.24720904;-12.23813532;-13.5349606;22.13407843;-11.67425954;-6.95340871;-36.22341683;6.336496541;-8.315810819;8.254652234;-23.83770246;27.86486242;12.78827304;15.48185152;-0.183149;20.67819675
38.42738095;12.10298135;-7.572641267;6.156356184;-11.04958433;-12.01395122;20.31877198;-6.145760344;-2.1283252;-32.62661092;10.75312622;0.120119678;0.672729321;-18.51847805;24.62063407;16.04883705;18.83367406;1.193200082;17.75166382
29.39288694;10.56459645;1.676766044;3.69889461;-5.673086043;-5.273019931;20.42484995;2.128352261;9.04400726;-25.41251976;14.46289227;12.48921305;-17.52873666;-4.903221412;5.328708114;16.37870155;21.19030302;1.110957466;13.44016784
4.180800184;7.705573485;4.301709231;0.622849856;0.682721636;2.865888474;22.23950281;10.69391094;23.68025368;-17.460668;16.03857203;24.34585059;-40.03176503;8.694171982;-26.35499241;13.62471153;21.05676874;-0.60617011;10.3368277
-25.60755406;6.090545148;-0.243442258;2.313473059;4.509148883;7.74620943;24.02682411;17.5370354;36.46039297;-11.53627843;16.0241866;31.78988592;-57.78740806;14.7409985;-58.02703125;10.13398013;18.53181232;-2.756673238;10.05841131
-44.11684212;6.913966633;-8.021908658;10.70313604;3.939591215;6.847503012;24.17119451;21.41400187;42.01422689;-9.128374624;16.4937204;32.98627744;-64.07900949;11.47554602;-75.97691463;8.631504654;14.94749335;-3.6902049;12.26392336
-42.49168507;9.068795464;-13.64163999;20.16042465;-0.43078977;1.21070749;22.61246829;21.74670307;38.0351162;-10.07391789;19.34029119;28.53429294;-58.08;3.088475682;-73.8918484;9.895187922;11.84630818;-2.595328119;15.16188049
-24.98687289;10.35879882;-13.92585915;20.1283836;-6.119734033;-5.496350152;20.80741029;18.74656529;27.13247946;-12.90076474;24.67251059;20.93349038;-44.83288775;-4.216249246;-56.47839701;12.25790729;10.16290781;-0.104821555;16.98196161
-5.162869411;9.602542118;-9.8490105;3.484325388;-10.16013804;-9.400387163;20.33875496;13.90792848;15.78870193;-15.55782497;30.57894258;13.59075232;-31.87497965;-6.596021596;-35.4860123;13.25558386;10.05688813;2.234007733;17.19122544
4.650409813;7.660657743;-5.592962863;-26.00645263;-10.47584314;-8.601744943;21.493025;10.12449492;10.56568612;-16.23579911;34.40176799;9.629443882;-24.7796052;-4.13656629;-21.40140646;11.84413192;11.18480409;3.146445185;16.57153826
2.116777475;6.518470377;-5.391177896;-53.9899524;-6.649194695;-3.848261244;23.08181831;10.54631746;13.8361807;-14.07386665;34.48370897;10.68396098;-24.40092119;0.695231509;-17.18725041;9.20706601;12.94215793;2.504653581;16.28058982
-4.919264209;7.373600334;-10.21484119;-64.53320351;0.050639424;2.340578811;23.59734218;16.37479708;22.10049645;-9.535751519;31.06599425;16.07975226;-27.35185859;5.491755596;-18.43793046;7.540272298;14.49755999;1.240768231;16.80879725
-6.379453661;9.533124338;-16.57359764;-51.47034914;7.231367881;7.197500537;22.59067968;25.22633371;28.43041418;-4.226181257;25.79184561;22.9761552;-29.08310832;8.980019531;-18.98954552;8.025607524;14.86097483;0.470978541;17.69333003
1.086641095;11.09723253;-18.54239296;-23.20057067;12.31991072;8.901028505;21.01932852;31.93901019;27.56848106;-0.106161207;20.40670278;27.72791083;-27.28758678;10.46043038;-16.79819033;9.847676265;13.26729536;0.615596045;18.09671817
11.76962009;10.73153485;-12.07443201;3.169061704;13.62982624;7.040135175;20.30365673;32.04057513;19.95162032;1.555335445;15.79320738;27.9109143;-23.28654102;9.102718192;-15.17679988;11.06423814;9.755508105;1.219497724;17.61615908
16.8789675;8.866864932;1.133501544;14.03449751;11.17630303;2.519987102;21.01157056;25.62275855;11.42164821;0.879609393;12.03657928;23.77865098;-20.57201344;4.425079923;-18.7966786;10.43458902;5.430657212;1.526862005;16.58771565
13.23346885;7.254138268;13.19011214;8.417964145;6.790019531;-2.808203982;22.38438539;18.28530792;8.5961863;-0.745428179;9.233135197;18.07640476;-21.73197197;-2.422728319;-28.4083873;8.50307036;1.997879782;1.230832886;15.69510758
6.722681926;7.34;14.05804956;-2.948511103;3.297056664;-6.728429496;23.09866297;17.53392939;13.44282313;-1.539534874;8.105044744;14.21743687;-26.13534981;-8.244943389;-39.16729645;7.001864709;0.755383038;0.729477473;15.33012288
7.198133657;8.981294601;-1.91253002;-7.368537116;3.055093641;-7.49337131;22.51651485;26.62702174;21.55341179;-0.344567588;9.712788398;14.05727328;-30.17188916;-9.351192371;-44.11903002;7.206584623;1.790014648;0.704197263;15.30734527
19.0397505;10.64854746;-31.21051702;-0.459090499;6.642109233;-4.715916532;21.25943124;40.52475372;25.8539613;2.908735018;14.4361555;16.8676006;-29.91585949;-4.216071712;-39.81597647;8.794208676;4.060078125;1.440598348;15.13096654
35.6852485;10.87328728;-61.85700978;11.44229269;12.5364732;0.205105748;20.59973814;47.77484131;22.96513077;7.50320329;21.14535725;20.22553017;-24.20916372;4.993657547;-29.18067895;10.21919719;6.340294642;2.513305454;14.48355359
43.36669574;9.575893655;-79.85479428;18.22861824;18.05577028;4.612766512;21.26192354;37.96957206;16.83440257;12.61579249;27.44291821;22.05377648;-15.76119207;13.59509896;-19.13440687;10.19179517;8.23916422;3.111495798;13.45896949
31.63893236;8.074595853;-77.5483652;15.78870258;20.98105912;5.999409551;22.7496704;9.84690646;16.02975743;17.75558248;31.02856167;22.17079573;-9.311299771;17.58584842;-15.00843986;8.854088047;10.39007813;2.718386147;12.38753162
2.409890942;7.82142019;-58.27814561;9.755600157;20.80768649;3.510451241;23.80502483;-26.09195932;26.17666997;22.67025393;31.28393168;22.16680416;-8.156638663;16.3665325;-16.45297589;7.585914745;13.6194127;1.564594077;11.52930446
-29.96182889;9.066266342;-33.95183937;9.825417295;18.82972773;-1.471041123;23.55772196;-53.05670809;43.44950993;26.98658081;29.86932566;23.82978076;-11.68208253;12.81476588;-18.19972746;7.673466994;17.82371678;0.481372072;10.99858555
-47.98908934;10.6696083;-17.08059099;19.69412199;17.10132577;-6.13415137;22.30381013;-58.26847291;54.9619708;30.0924437;29.74723562;27.5188813;-15.84046656;10.75089346;-14.8837943;9.111435848;21.60775594;0.283117929;10.96037665
-42.88969022;11.19260073;-12.87029644;31.81789223;17.08638718;-7.953986719;21.21392942;-41.03982107;46.91452309;31.47332982;33.16170998;31.8433844;-16.27306182;11.98293298;-5.781951573;10.64268133;23.11686186;1.177613877;11.77329601
-20.11863828;10.22423337;-16.96330009;32.32461034;18.92731096;-6.170364042;21.25894284;-12.94541196;15.09317046;31.1874006;39.89763063;34.82418532;-11.66989573;15.31378209;4.436166607;10.96106731;21.4449702;2.650058594;13.76310923
5.237363969;8.725536885;-20.21478894;12.64407269;21.68596836;-2.077505188;22.34242318;9.97320883;-30.21347367;29.93948727;47.03793952;35.44075635;-4.735009693;18.04641617;9.376255463;9.928457782;17.43562828;3.871297802;16.72856041
19.31892967;8.1097695;-16.59206037;-21.76493825;24.14905463;1.957358012;23.41778938;17.34057844;-69.24938727;28.54935531;50.48867219;34.20345081;0.001810171;18.37032813;5.798579822;8.672772532;13.1448413;4.284569443;19.68775835
18.36814569;8.941044526;-7.997835235;-53.39283603;25.4718205;3.961094619;23.45865047;9.852298225;-84.89940966;27.21128504;47.39067628;32.33430703;-0.240446636;16.48044699;-4.262171028;8.497466255;10.34805628;3.934025426;21.30025367
9.51421494;10.45317851;-2.353647428;-64.60236196;25.26526704;3.311024842;22.38493706;-3.309633246;-73.53348801;25.23263484;37.94594416;30.41839112;-4.423949597;13.71670886;-15.5399865;9.637961785;9.298763675;3.340048828;20.81713251
3.852355325;11.30141811;-6.652944071;-50.45349633;23.34195692;0.71383511;21.11246622;-12.3265552;-46.88942617;21.59891731;25.5303591;27.84935816;-8.778071894;10.94022686;-23.63639842;11.02672985;8.758466478;3.073553271;18.82051326
7.725018027;10.81785747;-20.6539116;-22.31933684;19.63250553;-2.498166573;20.70729514;-13.5960848;-23.70784866;15.99939714;15.00608751;23.62910524;-10.0724199;7.933115022;-27.63573396;11.27865836;7.257566905;3.361814932;17.01572064
18.64114456;9.601640096;-36.3047982;0.650906295;14.49983798;-5.093317199;21.43254354;-10.76368972;-17.21435017;9.482665156;10.21923332;17.78791363;-8.277014121;4.361974919;-29.38102747;9.97744267;4.510145025;3.976241732;17.05117187
28.03218388;8.919587313;-43.3952667;5.560283698;9.112057861;-6.268178234;22.54709553;-10.05156778;-27.32979362;4.127504181;12.11520453;12.0445126;-6.335939586;1.09764674;-30.64307893;8.076366719;1.775472379;4.422088561;19.21284917
27.86422406;9.501368694;-37.02296963;-5.606608787;5.27850876;-5.658649373;23.01039618;-14.35352724;-42.68099706;1.859225909;18.48351679;8.93145679;-7.266454601;0.217932723;-31.10756073;7.054015007;0.84592104;4.263279154;22.08896764
15.96787994;10.85747999;-21.14055837;-19.12787201;4.531206983;-3.363742834;22.42604779;-20.98565766;-50.14567567;3.209670841;25.35399367;9.961671283;-11.14653763;3.336075223;-29.02340631;7.608496747;2.492720113;3.378810996;23.61119176
-3.167247053;11.74281994;-5.634044255;-21.37926273;6.969032972;-0.099974192;21.36480998;-24.49909092;-44.4344843;6.876582479;29.13527183;14.32498944;-14.72118172;9.716205355;-23.66887018;9.078837737;5.653107031;2.031441676;22.74715661
-21.666451;11.32120886;0.605830983;-9.614139101;10.8070757;2.777794167;20.79892529;-21.7;-30.86531173;10.36892169;28.26723847;19.25990957;-14.1173403;16.12711529;-17.03697994;10.0930768;8.035758371;0.741047245;20.48816491
-32.69492329;9.947716118;-4.670947349;6.679449525;13.21716208;3.736659309;21.19475599;-14.47389881;-20.11859945;11.30602265;23.58914456;21.90875525;-8.383556443;18.95035511;-12.8928778;9.814244178;7.684787229;0.033042994;19.23943938
-33.32324944;8.852544422;-16.59234234;14.24841383;12.0899903;1.968586589;22.10365805;-8.185950881;-19.75696243;8.600979281;17.46347384;21.25432843;-0.691509161;16.96151301;-13.85153247;8.632509117;4.316146112;0.173583872;20.97369238
-24.97480143;9.026887777;-27.51334143;6.953208937;7.536380245;-1.834087686;22.61096416;-7.244430012;-29.11308599;2.954017823;12.37427626;18.66575146;4.067790928;12.41627962;-19.04090495;7.700368332;-0.52358166;1.01783744;25.55068813
-12.15116349;10.33563296;-32.37665601;-9.753890209;1.981067423;-5.539737998;22.20780649;-11.62139013;-40.84007813;-3.462889229;9.838054348;16.69569238;3.413152853;9.41212912;-24.50382961;7.796557608;-4.490377373;2.067815724;30.55535108
-0.424938051;11.65837699;-31.13865438;-23.79375069;-1.350563582;-6.689160925;21.27240705;-17.0780861;-47.04077676;-7.902292419;10.05449286;17.13109362;-0.435722551;10.81398825;-26.13270621;8.612959572;-5.843607048;2.739031941;32.85808229
5.724348107;11.91156807;-27.21579263;-26.12872222;-0.574405284;-4.064054135;20.72098432;-18.66663143;-44.78086326;-8.178087998;12.17710319;19.7989692;-2.299619401;16.24689812;-22.7406054;9.129858154;-4.275594486;2.699813199;30.75734573
4.767213552;11.00929961;-24.1074959;-17.05479941;3.564055113;1.350053711;21.15673165;-14.52813789;-37.04646982;-3.685968573;14.82163684;22.92276573;1.41314405;22.68153184;-16.77372295;8.695407967;-0.807121591;2.067815735;25.108725
-1.134217474;9.898175333;-23.22513735;-4.521097351;8.158165112;6.761969392;22.30078688;-7.053354278;-29.27866848;4.099928067;16.56193864;24.57182708;9.18337425;26.88583443;-12.19798254;7.748284367;2.923455688;1.314090984;18.64202182
-7.295663103;9.661917152;-24.17235587;3.219309794;10.02892053;9.177864427;23.22365691;-0.797967716;-24.94872021;12.04386541;16.42608523;23.99459552;15.14552866;27.54812743;-11.42631869;7.45711653;5.399149449;0.922040914;14.06446172
-9.367159649;10.53388879;-26.26731115;3.978820598;7.723532184;7.202449315;23.16375606;0.943083641;-23.72135379;16.75502104;14.44310789;21.91255584;13.92096238;25.466645;-13.78601507;8.584880796;5.667252068;1.039475274;12.41751768
-6.18201066;11.71556137;-29.28263943;1.965897477;2.307823408;1.878915021;22.19297922;-1.731208518;-23.02586733;16.44072678;12.02286326;19.80354536;5.69725975;22.15851158;-16.52826903;10.64872485;3.531694405;1.385307554;12.83280295
-0.435531249;12.14149919;-32.72635834;2.671927229;-3.451166133;-3.939790712;21.13880985;-5.781133308;-20.96185869;12.13389218;11.69346194;18.94471268;-2.893741553;18.61747293;-17.19545087;12.20892639;-0.370157555;1.487037202;13.64745131
3.568599793;11.46626978;-34.9053492;7.47481305;-6.814296865;-7.232343095;20.84861097;-7.519839547;-17.80616605;7.329081843;15.89732623;19.94180279;-3.42201135;15.44233935;-15.2219677;12.08535162;-4.66678393;1.065921724;13.80317274
3.468899787;10.36586857;-33.44866444;12.7853282;-6.525272614;-6.41905549;21.46433794;-4.913143895;-15.14746416;5.971361444;25.23431903;22.83170935;7.373461375;13.7889368;-11.64444974;10.41776095;-7.723024288;0.265218514;13.39180327
0.755870751;9.895187156;-27.42179563;14.03678496;-3.19248987;-2.039073515;22.34542251;1.514323459;-13.96178024;9.932103477;37.26271159;27.30495953;23.75776269;15.49403093;-7.649363805;8.585475874;-8.466516082;-0.458555023;13.0858628
-0.693095093;10.51179389;-19.17629703;10.4063463;1.360362572;3.733525785;22.6797395;9.334975028;-13.67144274;17.66221576;47.01315925;32.66109684;33.76020621;21.56090751;-3.62110931;8.016018135;-7.127882061;-0.687812558;13.18436332
1.727981716;11.66720508;-13.74820641;5.765782239;5.128790372;8.288445461;22.21058834;15.68834038;-12.96728848;25.06825536;49.42471791;37.63436836;27.05855638;30.23549127;0.420875693;8.928115864;-5.26670251;-0.351196122;13.25040752
6.774596681;12.32792304;-15.54117976;5.088493476;6.711495349;9.787981591;21.42926095;18.7;-11.33305156;28.14970228;42.48;40.58965222;2.483342049;36.97835626;3.718843178;10.13978594;-4.836469061;0.2545453;12.65957604
10.34439935;11.93056179;-24.61814519;9.798659075;5.646308235;7.868910963;21.08829899;18.32782343;-9.589229452;25.64938129;28.97654386;40.33512013;-30.34536057;37.31347902;4.528647953;10.13111825;-6.794697786;0.722597827;11.46418017
9.348112704;10.8887151;-35.7709548;16.44259516;2.467085166;3.679454078;21.50447157;16.39;-8.873302804;19.90416457;15.44972067;37.11407166;-56.59224289;30.71534876;1.405070451;8.422995865;-10.26452539;0.839564961;10.6566642
4.964693355;10.19668947;-41.62547824;19.89550887;-1.368826105;-0.65046664;22.28770632;15.66593466;-9.130836226;15.33224363;8.584900356;32.90063389;-65.18288005;22.04560383;-4.989939315;6.037508301;-12.98540587;0.684106511;11.47355408
2.059036285;10.50937511;-37.78784151;18.09836672;-3.794755081;-2.906627371;22.72052548;18.27011995;-8.762860911;15.63073803;11.28479339;30.4602866;-55.06919155;18.5349267;-11.4214522;4.619317983;-12.85551657;0.471318849;14.30101129
4.909270375;11.54861402;-26.17184437;13.93214711;-2.890899925;-1.789307561;22.41632913;24.09245172;-5.997502212;21.56769649;20.99997503;31.58621021;-34.82755646;24.09684941;-13.88;4.995443901;-9.479760293;0.321733887;18.17579918
12.95027956;12.37216956;-13.85188619;12.50266652;2.035632962;2.361665898;21.64953867;30.47276563;-0.846783834;30.69642118;31.49573362;35.71562141;-16.45395741;35.60650891;-10.54184583;6.457835494;-4.547920521;0.181914875;21.40721044
20.63624807;12.24449589;-8.190975844;16.34209824;9.657171776;7.533336195;21.07410779;33.7605402;4.207632185;38.92555919;36.86722266;40.03734816;-8.036463437;44.79296556;-3.498654543;7.410289416;-0.71417917;-0.044375321;22.8699017
22.07104516;11.3051406;-11.85652844;22.95413367;16.8696094;10.90411365;21.11359845;32.00498722;5.670396026;42.74509814;35.05152302;41.1927283;-10.14007813;44.87221945;2.405721691;6.802470316;0.208809592;-0.31278451;22.89199489
16.61158691;10.43039403;-21.34398739;26.99680387;20.29873844;10.32726829;21.59198498;26.76017329;1.653162177;40.78409791;28.51462421;37.48980174;-17.51499663;36.63335215;3.015143506;5.070428071;-1.596644113;-0.415956645;22.95411997
10.26797877;10.42921521;-29.83438884;25.15871146;18.35911479;5.664774173;21.93074209;22.19146578;-6.403076976;34.11529291;21.9038629;30.1209074;-23.8789732;28.43343458;-1.988934005;3.744246199;-4.271114241;-0.171797872;24.3985932
10.99687211;11.31583046;-31.94931263;19.29115631;12.53029132;-0.88814053;21.70702162;21.62214949;-14.33872253;25.55653001;18.63547519;22.544957;-25.90842465;29.2480409;-8.715218276;4.073128816;-5.744793625;0.353359213;27.19509165
21.36998962;12.31545103;-26.83731668;14.88061055;6.80402835;-5.847624761;21.04505738;24.01206977;-17.84638819;18.52322129;18.96884976;18.45854274;-24.01638186;39.99211737;-11.83431286;5.892617069;-5.188009754;0.826047529;29.79716624
34.90859271;12.58022319;-17.73815991;16.13475463;5.404970711;-6.368369742;20.48576004;23.52246534;-15.15337862;15.79274003;20.72105123;19.69097815;-20.39472933;50.56287528;-8.407311897;7.740192818;-3.389143523;0.895125846;30.2517359
39.84850495;11.95057997;-9.06989143;22.057741;10.13126268;-1.935713055;20.47200651;13.29833004;-7.982974207;18.35607229;21.5999995;25.29514694;-16.68808664;46.07349803;0.102091634;8.115021359;-1.919930747;0.510570651;27.70957848
28.02574856;11.0739582;-3.702586558;27.10644761;19.06464089;5.233810991;20.9368312;-8.841510483;-0.331283252;24.68721534;20.97673191;32.21960876;-13.27627298;18.33808412;9.020799574;6.767542591;-1.883342118;0.012864563;23.15812824
1.990657051;10.79323822;-2.283760609;26.00083128;27.58424356;11.37435934;21.37224992;-37.19296018;3.882002999;31.00945776;19.67502062;36.96317589;-10.22562592;-26.17047087;13.76658578;4.888771691;-3.244802026;-0.128717343;18.81152269
-25.58690547;11.37993009;-4.306193228;18.54042396;31.10113188;13.24769791;21.30296922;-60.5;2.716605723;32.9215777;18.29172121;37.20227271;-8.4033499;-68.6503038;12.69427131;4.049552478;-5.133446678;0.263754768;16.63324315
-40.19580465;12.30947388;-9.173575782;10.1526606;27.77263528;9.888295422;20.71920652;-68.82190962;-3.237007394;27.88484518;15.93844854;32.6630971;-9.329416999;-89.66158988;7.563193582;4.837020807;-6.663075774;0.861736321;17.09992618
-35.27362921;12.76293286;-16.03406153;7.528461911;19.48085849;3.032882132;20.07378507;-60.18397361;-11.50618374;17.13895524;10.87963719;25.07997575;-13.77448738;-81.86944238;1.731615652;6.380851253;-7.488231656;1.039527963;19.07192911
-16.10914897;12.37564214;-22.88836021;12.96671141;10.54;-3.91997165;19.86062547;-42.00630727;-18.8888777;5.542085895;2.683639738;17.46268723;-20.459877;-54.44342027;-2.16580375;7.156903383;-7.702252504;0.372437123;20.76321068
4.817808565;11.54638164;-26.56764446;22.26251316;5.08200628;-7.727478725;20.17441042;-26.03118504;-22.59084745;-0.990361206;-6.135350413;12.96101708;-26.24860019;-25.97140072;-3.304817875;6.332070726;-7.367229503;-0.976338316;21.01414635
16.99935503;11.04394364;-24.43853373;28.05977639;4.827315586;-6.859738249;20.65320903;-20.40347351;-21.20556807;0.96785164;-10.87994907;13.5916727;-27.95491512;-11.447986;-2.17503431;4.466065894;-6.283820011;-2.314860637;19.94863412
18.31896343;11.29592694;-16.78687022;25.99436831;8.523856145;-2.046892272;20.83781293;-24.76379657;-15.41903492;10.1820585;-7.789808483;19.20837652;-24.48827152;-13.15056539;0.455305936;2.986695618;-4.290068359;-2.906260869;18.65387154
14.29269635;12.01938327;-7.653128845;18.54294484;13.13161583;4.294380177;20.59582582;-31.84097514;-8.033702327;21.55504994;2.709876471;27.26056682;-17.69543977;-21.73542622;3.916248397;2.943959088;-1.765932119;-2.503309008;18.25742858
11.85045346;12.51607702;-2.774734641;13.27767315;15.75358393;9.308992341;20.21348402;-33.92969509;-2.873640183;29.43130075;15.36588166;33.75985401;-11.23121242;-25.65382758;7.20500109;4.152636579;0.269672372;-1.511211101;19.12996797
13.53205495;12.33483817;-5.681736372;16.73033703;15.05969777;10.97568305;20.08524513;-28.92281379;-2.75172049;31.1168606;23.01081916;35.26812164;-8.249574353;-20.72756615;8.671970602;5.441036243;0.744226442;-0.656922307;20.72550447
16.79261614;11.67754505;-14.83938807;28.62252531;11.54304452;8.886454198;20.31377866;-21.22228059;-7.598170164;28.17679765;21.21365612;30.9271407;-9.515939425;-12.3349379;6.719446857;5.721197423;-0.593866331;-0.4417848;22.04776262
18.04796539;11.18376599;-24.27967991;41.01087278;6.811119717;4.30119397;20.60985002;-17.24848468;-14.17307312;24.75194762;11.31513441;23.21129605;-13.15478632;-9.270847764;1.272943809;4.893616647;-2.775912093;-0.816558939;22.33025777
16.89851241;11.31598231;-27.5743214;43.18586154;2.600819139;-0.482278396;20.58596233;-19.69063807;-17.93470017;24.33399889;-0.469301333;16.66444794;-16.06486254;-15.23904694;-5.321523097;3.805353361;-4.143469772;-1.314206843;21.47911214
16.34331752;11.93100468;-22.3218876;28.90926278;0.088601673;-3.189999254;20.15531117;-25.42733563;-16.049148;27.44130087;-7.302968305;15.16450352;-15.96474095;-25.44172228;-9.206306726;3.369684539;-3.501473694;-1.488829212;20.07382794
19.09335746;12.43299678;-11.7905367;0.969737826;-0.368866067;-2.650713641;19.64366393;-28.66524483;-9.454309873;31.73488304;-6.242544578;19.38372443;-12.75871386;-30.91981679;-7.532839615;3.702613317;-1.023014559;-1.271252565;19.00789115
24.06945164;12.34989852;-2.49037585;-29.94143044;0.771440299;0.593234431;19.49545504;-26.29351404;-2.356453014;34.14146305;0.243340679;26.18315178;-8.47261629;-26.53321183;-0.839896785;4.070884294;1.824679803;-0.955941116;19.00191234
26.99209847;11.78142428;0.43629582;-51.12057741;2.382452154;4.504592587;19.84726658;-20.64751888;0.636804412;33.13697999;6.683122664;30.49954706;-5.917187399;-15.53314681;6.718396085;3.664580686;3.308943416;-0.872503668;20.22665252
24.80526099;11.2972043;-3.480816487;-54.65816465;3.00936295;6.596801571;20.37870439;-17.28813693;-2.273615934;29.52909233;8.893283641;28.59914812;-6.926346344;-6.856788903;9.845994954;2.440808611;2.63925662;-1.063646622;22.2051891
19.55197075;11.38747304;-10.37003906;-41.15014388;1.489101224;5.329371478;20.59753849;-19.84171556;-8.874113513;25.50147675;6.804339009;20.57614785;-11.18160267;-7.599548986;5.729950174;1.232961559;0.447858913;-1.260732264;24.05894811
17.35766802;11.99042432;-15.40236813;-18.58615173;-2.333232288;1.080717349;20.30552596;-26.51614192;-14.59617014;23.02194344;3.809492623;10.41784006;-16.28003906;-17.11608195;-3.782671638;1.012930094;-1.773829638;-1.161329383;25.00851967
22.65059208;12.54589883;-16.37202531;2.398536712;-7.258292328;-3.932771126;19.80883567;-31.40662173;-15.73304163;22.89997685;3.450968761;3.569648595;-19.03777842;-27.60944433;-13.13845771;1.982283204;-2.788770838;-0.737288096;24.86589751
32.6404617;12.52772319;-14.73115089;13.96563854;-11.17730346;-6.846324695;19.66049295;-29.49832948;-11.80155291;24.87966654;6.297021018;3.592440678;-17.33861412;-30.49129434;-16.60625692;3.329900736;-2.407721033;-0.283221174;24.18319328
37.66061441;11.95451118;-13.59863603;14.36337056;-12.24535205;-5.809443228;20.15288687;-21.05417794;-5.428581946;28.17945328;9.540873368;10.06322225;-11.47250121;-23.09800841;-11.96739879;3.889029866;-1.421782216;-0.16116959;23.88181181
28.24088808;11.39454308;-14.71470767;7.699815697;-10.12017247;-1.135999861;21.01997573;-11.61987614;-0.133725816;31.75260806;9.535439661;18.98055129;-4.111127907;-10.3841861;-1.871695623;3.115575818;-0.849059469;-0.477250394;24.54370487
3.619219895;11.44990934;-16.97361885;0.743775236;-6.394736518;4.783937343;21.63272212;-7.654819955;2.080146501;34.21037681;5.095037851;25.26940993;1.165403608;-0.649647284;7.940019531;1.527952319;-1.166097589;-0.985648639;25.85847675
-25.6391577;12.19162774;-17.63836408;-1.261232475;-3.795444395;8.796828941;21.53;-11.49500857;1.524287406;33.97227341;-1.160039063;25.69912792;1.950309152;0.795315973;12.19743066;0.240492055;-2.098622887;-1.30525186;26.69641122
-43.94148202;13.06895704;-15.02186088;2.614229165;-4.557349591;8.75545525;20.81967719;-19.80726098;-0.269510723;30.03930456;-4.514924828;20.43966308;-1.607075935;-5.107890968;9.057571507;0.028716997;-3.00821625;-1.25018247;25.85350766
-41.576767;13.38411618;-10.24912238;9.126617629;-9.010039063;4.699977132;20.09034741;-26.61434767;-2.253440452;22.97258995;-1.605312729;12.515087;-7.0222802;-13.04083051;0.743480801;0.755502189;-3.430681589;-0.976081532;22.9737296
-21.76187702;12.90613511;-6.573034111;13.6851135;-15.3187403;-1.221032852;19.90776594;-28.11441955;-4.60605689;15.10289193;7.013684457;5.765174184;-11.13029997;-17.99798762;-8.157824764;1.626226107;-3.292111619;-0.815998013;18.94057159
1.881124112;12.07007813;-6.789384871;13.85774714;-20.55783344;-5.987517487;20.33491198;-25.20714189;-8.028145417;9.418994323;17.01981653;2.69876243;-12.01061772;-18.57693983;-13.36043323;1.979337571;-2.713895129;-0.962789242;15.37561337
15.50184216;11.58570956;-10.85387811;11.01743259;-22.40128919;-7.332115822;20.89495732;-21.86862152;-12.49417763;7.73183353;22.96032382;3.437191585;-9.873666994;-16.55504288;-12.88806288;1.85796002;-1.72410161;-1.290806212;13.56300198
14.76927414;11.81360893;-15.63524556;8.87630727;-20.34333141;-4.824144896;21.00231668;-21.18476424;-16.7893605;9.518382127;21.42101721;6.102050579;-6.436314549;-14.03272296;-7.593655283;1.85443784;-0.245107326;-1.477389943;13.59738679
6.587847015;12.47108222;-17.06070221;10.05378828;-15.75468229;0.109664371;20.47704062;-22.71183895;-19.3215317;12.44582076;12.65866603;8.145525977;-3.471016109;-11.34535008;-0.367406948;2.422399308;1.59759413;-1.30813859;14.41240246
1.92217107;12.92032964;-13.08143034;13.53467707;-10.90014301;5.094522094;19.6932004;-23.37281257;-19.44093149;14.19700496;-0.020497702;7.751739742;-1.749199425;-7.658888344;5.270365272;3.347887089;3.176205651;-0.882142448;14.66578532
6.178933686;12.76129754;-5.28146521;15.35055112;-7.670740774;8.033998758;19.24351561;-20.78827491;-18.01225996;14.07743715;-12.25854043;4.623446022;-1.093369406;-3.191555002;6.56803761;3.905302253;3.463775301;-0.526075464;13.77684395
15.31024771;12.18388509;2.051592316;12.19730242;-6.806074114;7.991242661;19.42796368;-15.80740254;-16.68616192;13.07245718;-20.52220204;-0.065434504;-1.187609429;-0.315498868;2.584158674;3.560333015;1.608212728;-0.493165189;12.29721542
20.57294785;11.76863162;4.774041425;5.005462182;-7.890270002;5.386610475;20.01552294;-11.88869084;-16.5228557;12.43778718;-22.9606085;-4.357250164;-2.147592619;-1.973157857;-5.361516498;2.547065072;-2.386118204;-0.721130384;11.35151868
17.29063145;11.93607511;1.706619941;-0.888231817;-9.857426692;1.593670792;20.470405;-11.95503036;-17.20141521;12.2650625;-19.39518693;-6.44598683;-4.208368574;-8.671994276;-14.07007813;1.744308258;-7.394104589;-0.872680146;11.65063351
9.577455967;12.56011374;-4.507564248;0.302768522;-11.55153857;-1.737111436;20.41986546;-15.65458143;-17.48673747;11.46709394;-11.10363137;-5.463764498;-6.89739827;-17.01056994;-19.75685798;1.922352696;-11.58948909;-0.629057504;12.91380157
6.673458044;13.0962948;-9.1655817;9.664670624;-12.08942021;-3.306538997;19.94282361;-19.54180543;-16.47029072;9.213769804;-0.71829579;-1.826683693;-8.72547234;-21.54269706;-19.86064669;3.030354015;-13.33554838;0.020523727;14.16027167
14.05510022;13.09361284;-8.841510267;21.70945614;-11.06885192;-2.578664766;19.4426616;-20.01324707;-14.42698055;6.333380399;8.090856264;2.979001848;-8.037432775;-18.79198486;-14.47782359;4.187505491;-12.00423831;0.749155816;14.57760595
27.27043144;12.60808038;-4.169895393;27.97431047;-8.732477303;0.064970941;19.25133436;-16.36700178;-12.53789234;5.078356484;11.63980775;7.064439306;-4.504592454;-10.13417992;-6.502991449;4.420760276;-8.238870135;1.149953458;14.19440016
34.31715074;12.13760298;-0.150571673;23.73445675;-6.020302896;3.442297216;19.34179833;-11.30528617;-11.80121865;7.174747193;7.866625892;8.94;0.098624008;-1.034486101;-0.215383468;3.513711015;-3.55170028;1.058899727;13.78655143
25.10784061;12.14826641;-3.472035194;12.39404198;-4.291875331;5.977191955;19.40217464;-8.529298808;-12.17565485;11.86897139;-2.311036581;8.05465083;2.805877523;2.861643806;0.970841533;2.211689647;0.448289169;0.668891062;14.13640433
0.353345765;12.63960661;-18.22429678;3.433452231;-4.638374666;6.343540812;19.17703013;-9.623134218;-12.71740719;15.98902959;-14.99688719;4.824805072;1.605672341;-0.325996186;-3.720424822;1.585118129;2.739783752;0.348569298;15.32691327
-27.63450279;13.15304223;-42.58620917;4.862371325;-7.091045492;4.132826861;18.73697224;-12.92067617;-12.4917773;16.36866322;-25.00759358;0.221791243;-2.868841289;-7.785784911;-12.17053712;2.096197406;3.164668588;0.335011318;16.69553726
-43.24616198;13.21;-68.77263001;15.96352713;-10.31003906;0.19739571;18.41839559;-15.15838032;-11.32063289;12.73229681;-28.41178124;-4.743136359;-7.64599847;-14.56125533;-20.68979654;3.182452593;2.257751695;0.566932688;17.46054963
-38.61562913;12.76665877;-86.69549643;26.52013728;-12.16174988;-3.620087891;18.49528943;-14.24875985;-9.65384852;8.409162549;-24.40645857;-9.283720164;-9.663398422;-17.2178189;-26.01275966;3.724001848;0.820318253;0.785992127;17.42510361
-18.83380933;12.25980191;-89.42788694;23.92992782;-10.98471342;-5.360273694;18.90007813;-10.69444888;-7.785344692;7.909948128;-15.4287335;-12.7709439;-8.165270088;-15.66537481;-26.76821253;2.992880907;-0.508621207;0.791525516;17.10898614
2.497891761;12.20282645;-77.18999595;3.216864016;-6.75067396;-4.020153289;19.26360166;-6.615333903;-5.337713732;13.15834034;-5.587639815;-14.5810497;-5.154982825;-12.10498059;-23.74885543;1.267635105;-1.498770568;0.608182271;17.1973662
13.53409497;12.70791192;-57.26832191;-27.8282274;-1.261552372;-0.207678031;19.24287057;-3.60393138;-1.687964193;21.57545878;1.447263446;-14.19894175;-3.376887353;-8.627500717;-19.14896885;-0.406271854;-2.324421143;0.422994591;17.83258225
12.10575028;13.37823034;-39.77975775;-52.79485278;2.865909344;4.077939168;18.83456767;-1.546376657;2.9952163;27.85593388;3.81962635;-11.64878062;-3.512942418;-5.853939248;-15.44801364;-1.088724218;-3.346889639;0.370205902;18.42444048
5.48681306;13.66876764;-31.9104559;-57.44891493;3.80619107;6.503632149;18.38209706;0.615060171;7.209378272;28.16130788;1.612446959;-7.901610341;-3.190422398;-3.567542603;-14.51946315;-0.694428889;-4.801534851;0.381261351;18.17716639
3.022833607;13.38117749;-34.28855283;-39.33713308;1.634551871;5.730039063;18.26693963;3.211564573;8.897773124;23.26906348;-3.816936596;-4.729255685;0.962717367;-2.122380303;-17.11199418;0.006826368;-6.554430663;0.248435525;16.86189098
8.193388736;12.83701419;-41.67530363;-9.19547946;-1.819912527;2.225884563;18.56561797;5.170483966;7.177843497;17.96425564;-10.47659917;-3.788471694;9.63805922;-2.692091041;-22.58185277;0.104657397;-8.076149119;-0.157428757;15.11772094
16.56740333;12.57384968;-47.17293395;16.61724409;-4.24489694;-1.946509768;18.98494552;5.135297828;3.587145093;17.12089963;-15.98480916;-5.375582079;18.69414917;-5.817885412;-28.87379749;-0.662820258;-8.675419786;-0.725657984;13.97644255
20.7697778;12.84917931;-46.80640282;26.79223457;-4.32398968;-4.284169538;19.13229691;3.244256111;1.543309272;21.77827658;-17.76623363;-7.777369073;20.84247153;-9.776804377;-33.00280578;-1.717703527;-7.880388683;-1.164382478;14.01013684
17.67528029;13.41015269;-41.35086467;21.11405946;-2.424458958;-3.27762367;18.87133319;1.601170213;4.079259972;28.52723748;-13.77107546;-7.966931984;10.5171836;-10.8670873;-32.23479438;-2.177774891;-5.747061504;-1.239769967;14.85807494
11.44246765;13.73637159;-34.56646565;8.256452555;-0.136942505;0.705210576;18.43802435;2.650196161;11.43332063;32.61541765;-3.743908339;-3.52;-11.50404823;-6.053027849;-25.65344471;-1.622692623;-2.90145393;-0.984778108;15.56598492
9.789583577;13.52443407;-29.73257382;-1.813825903;0.855589932;5.591769599;18.21417807;6.776147636;20.42105395;31.9160626;9.766632208;5.387085397;-37.39933177;4.014638396;-15.20789583;-0.42880682;-0.280408168;-0.684739511;15.44814691
16.7402416;12.96342199;-27.40958689;-4.417422314;-0.274997877;8.72659279;18.37;11.44038654;26.28392946;28.22366364;21.75657392;15.39154444;-56.486973;14.43042948;-5.281835089;0.580242334;1.281193011;-0.642278724;14.7089654
28.07775024;12.55022423;-25.98302191;-1.197689968;-3.283304053;8.305807654;18.70550148;12.95965026;25.81734539;24.88659541;26.8699292;21.52705201;-61.6014663;18.97958625;-0.596092826;0.821967471;1.391181066;-0.921851806;14.26735287
33.57717895;12.62306522;-24.03040663;3.752070339;-7.252375215;4.342805181;18.83631238;9.633254546;19.54344059;23.24590036;22.34974991;20.26091477;-53.21888397;14.65346519;-3.44952399;0.376844917;0.214992386;-1.296724519;14.93595313
24.61231925;13.05088573;-22.06350046;8.228017394;-11.09913113;-1.328188691;18.55386917;3.524640802;11.36726677;21.48669582;10.0210772;12.06767283;-38.48090383;4.184386911;-12.03319578;-0.184349906;-1.640669532;-1.446706315;16.68471841
1.378178433;13.36662963;-21.9625027;12.85623138;-13.80373521;-5.97853894;18.03017265;-0.812948395;6.014394799;17.16045511;-4.202830995;1.648699337;-26.00720761;-5.606537454;-21.13127244;-0.358759523;-3.375152702;-1.236902031;18.645043
-25.89671603;13.2161983;-24.68609868;18.64735904;-14.44552154;-7.343919197;17.67830861;0.220845752;6.127685914;10.90607526;-13.32036427;-4.669790839;-20.38860395;-8.553616383;-25.06089563;-0.135634078;-4.266771996;-0.837652598;19.85018257
-42.9545691;12.70032863;-28.55295376;24.46738245;-12.40270517;-4.734504736;17.79028025;6.476767139;11.00217063;7.351477442;-13.08575344;-2.881126278;-20.23533723;-3.377220645;-21.14283414;0.065086743;-3.915499854;-0.583864006;20.05202733
-40.64947528;12.28721355;-29.98300386;27.4199236;-7.857559953;0.631964054;18.27285805;14.22979308;17.58221467;11.54694537;-4.342592764;5.991030819;-20.74033169;5.793754794;-11.46762825;-0.169177702;-2.41836726;-0.695807191;19.8913991
-20.88895104;12.37475897;-26.376514;25.81122164;-2.248936647;6.219121725;18.71325671;19.13773572;22.69017345;23.66188637;7.63916273;16.34760467;-18.28134943;12.81509668;-1.707853633;-0.86070162;-0.40502406;-1.098668255;20.28282067
4.680078125;12.90974124;-18.73971885;21.46722326;1.935907144;9.396023819;18.71434898;19.4723549;24.78311555;37.01484726;16.40677514;21.49683217;-13.30469375;13.99794876;2.361088362;-1.654300222;1.158116571;-1.488658183;21.57696213
22.26061133;13.42156011;-11.62041564;18.62888274;2.282540801;8.712875756;18.20763902;17.0010107;24.21728268;42.23846868;18.07736685;17.92401918;-9.452790064;10.21439094;-1.577709747;-2.176036125;1.40216562;-1.582183884;23.25251366
24.5828244;13.44595383;-10.04731436;20.07264921;-2.027388692;4.610206323;17.4833361;15.03801559;22.29944986;35.0093008;13.24916715;7.487348028;-10.05547936;5.383821411;-11.03992915;-2.37377976;0.057503424;-1.335472074;24.39944316
14.91141784;12.95216623;-15.71338899;24.13043257;-9.336748014;-0.800935879;16.93254617;15.60927659;20.19956231;20.90754432;5.999841241;-3.94304227;-15.10303046;3.061108197;-20.45421638;-2.519933971;-2.283551748;-0.958123371;24.53720976
3.909621495;12.38014686;-25.4231024;25.81356531;-16.08887209;-4.79943997;16.74157271;18.22673809;18.55666285;12.41458984;0.84386934;-10.43354312;-21.1613302;4.082529784;-24.74533504;-2.896293569;-4.386466246;-0.724816168;24.01771735
1.702020913;12.2496852;-33.1145266;21.4763161;-18.72332458;-5.428856559;16.79808915;21.06525505;17.74775626;19.23915212;-0.203643966;-9.77140979;-24.10946122;6.872968504;-22.39876544;-3.484448769;-5.037205265;-0.754074083;23.65571551
10.61564119;12.69478831;-33.95314932;12.85291912;-15.76846603;-2.471991681;16.86036851;23.05893089;18.18355963;39.19755271;1.461334938;-4.513119628;-22.30086868;9.52262869;-16.05659095;-3.969833373;-3.780636439;-0.935085739;23.94330884
23.52769875;13.34520169;-27.39749954;6.421942286;-8.756851368;2.494376391;16.8045465;24.72909009;20.14980048;57.45889293;2.555591096;0.265340745;-17.58754972;11.40309153;-10.42888101;-4.058298233;-1.250369002;-1.045332059;24.58351386
28.9222201;13.66063975;-17.04863733;8.109698647;-1.323406817;6.986039578;16.71470381;27.01274461;23.35420347;55.99276924;0.592016167;0.721891902;-13.56728464;12.95884108;-9.099899282;-3.798929034;1.170646222;-0.942184484;24.77501967
19.19081386;13.41237408;-7.697942806;17.7914677;2.940671859;8.934875626;16.74907778;29.49178391;26.76007813;26.92415537;-4.249647284;-3.259649217;-12.69341405;14.330128;-12.42328361;-3.592931172;2.180929283;-0.66606577;23.97893941
-3.551213047;12.87641489;-2.088961636;28.69307251;2.493696024;7.709261868;16.93412969;30.10728481;29.05803425;-20.22389901;-9.319717732;-8.512330262;-14.64336319;14.60073416;-17.77082768;-3.85732776;1.359139707;-0.386760423;22.44850874
-28.24147676;12.56898213;0.167615987;32.71631891;-1.512932557;4.294425473;17.10056469;26.96966215;29.48934522;-63.38608025;-11.47649007;-11.36721874;-17.08748436;12.66491129;-21.67191766;-4.635373395;-0.586502719;-0.262195928;21.02264409
-41.84152351;12.77181359;1.11166381;27.34630534;-6.203249518;0.607515389;17.030163;20.65253186;28.33423904;-81.9363762;-9.327781172;-10.48220007;-17.93345413;8.855357496;-22.13448173;-5.505910187;-2.270677872;-0.338143061;20.37224454
-37.75825741;13.28121352;2.096278191;18.02295753;-8.769514305;-1.586552313;16.67384558;14.59213834;26.62044115;-69.87056218;-4.147496252;-7.570221305;-17.01374201;5.479111148;-19.53325281;-5.886782151;-2.474100004;-0.558115988;20.40518099
-19.87876822;13.60423511;2.739208345;13.56230257;-7.919386233;-1.524716301;16.22889212;12.78387177;25.27746105;-38.81741124;1.063150815;-5.663313042;-15.86824155;5.330844155;-15.70981511;-5.484839835;-0.83038351;-0.844150087;20.39569756
0.546885669;13.41530017;1.84301871;18.3671227;-4.243241881;0.346332304;15.99311371;16.5124442;24.43585819;-9.153758311;3.55149012;-6.50952165;-16.02729916;9.2585195;-12.31211604;-4.52044422;2.047377658;-1.155327808;19.7275503
12.80721671;12.85316979;-0.924506895;28.30618585;0.429235989;2.785269246;16.12137693;22.98122667;23.4213447;3.769416376;2.362887054;-9.283453603;-17.46019588;14.99625268;-9.833591039;-3.550740827;5.010609401;-1.473527493;18.55282325
13.60856655;12.39107371;-4.373756608;34.21469408;4.072882152;4.449990751;16.50031279;27.23954823;21.38061838;-1.782300403;-1.528856142;-11.58901507;-18.58802228;18.55841265;-8.018768998;-3.052574331;7.047412846;-1.7519894;17.72512151
8.024519913;12.40612837;-6.781040094;30.2595037;5.31654776;4.480942579;16.84838326;25.95579125;17.97432604;-15.899873;-6.356100341;-11.78076789;-17.79553769;17.24774324;-7.005104669;-3.109388496;7.757510641;-1.902596983;18.0318187
4.241824096;12.84520005;-7.448997553;19.775027;3.870068359;2.770659118;16.94516861;19.9119196;13.61485999;-26.59200009;-10.89373491;-10.54390632;-15.03859866;11.80512145;-7.889961982;-3.432246473;7.401852874;-1.854182399;19.41845695
6.630674555;13.28815489;-7.205802582;12.94361492;0.593232125;-0.066215759;16.78490691;13.16693283;9.206075084;-28.6848356;-14.93359802;-10.32989585;-12.07713022;5.866986023;-11.94326707;-3.653073652;6.594675146;-1.633403622;20.94163127
12.80920205;13.34068403;-7.308631769;17.69189711;-2.726989133;-2.920712016;16.53095191;9.731558255;5.751300559;-25.48188968;-18.67085161;-13.08246691;-11.07858633;3.183101803;-18.99647943;-3.619456114;5.890162707;-1.384412362;21.54078935
16.87718883;12.98974538;-7.884835459;31.46367525;-3.95247902;-4.552396239;16.3363807;10.70258205;4.149404355;-23.25519992;-21.73173175;-18.17885351;-12.75773102;4.941956652;-26.49681904;-3.459982459;5.503350139;-1.291063045;20.96066692
15.68717197;12.59751071;-7.608543615;41.44798376;-1.532328453;-4.05886939;16.21182633;14.21518643;5.114146002;-24.43713352;-22.86625728;-22.41526856;-15.63607347;9.355270363;-30.42237683;-3.412938446;5.263698971;-1.452806601;19.98571179
12.35122138;12.54886607;-5.134534678;34.03935561;4.509141259;-1.35080992;16.06007813;17.86849625;8.913616209;-25.6664912;-20.73861299;-22.24191741;-17.08831046;13.57906266;-27.81947345;-3.605120553;4.759464201;-1.811312373;19.74572769
13.53239423;12.88630334;-0.961274434;6.3269918;12.15438866;2.599772847;15.82476502;21.01951843;14.86202296;-21.88905821;-15.26442066;-16.6035883;-15.37724633;16.02317761;-19.24961945;-3.97131196;3.569818408;-2.186573331;20.69376687
22.60741793;13.27169342;2.304820133;-29.89334341;18.05745088;5.994479714;15.58763424;24.66396634;20.99673139;-12.17082184;-8.372012741;-8.156541115;-11.07019536;16.97251578;-9.165701311;-4.346329449;1.489666765;-2.393351772;22.17635988
34.80581885;13.30663439;2.007423055;-55.44811838;19.18312458;6.980666806;15.50490787;29.20482062;24.55975198;-1.57125578;-3.382566412;-1.794279032;-6.713108686;17.25777402;-3.545146617;-4.607546068;-1.321588851;-2.348924092;23.00237942
39.2682983;12.90999732;-1.734607551;-57.17923034;14.56215948;4.65848318;15.64080035;32.71454516;23.40986411;2.773442258;-3.195559501;-1.428958786;-4.99512318;16.67928931;-6.114572076;-4.733396789;-4.317374177;-2.099722777;22.51571721
27.26267483;12.40056579;-5.139736651;-37.05180896;6.034254916;-0.241534298;15.86954058;31.9694578;17.61270973;-2.11888059;-8.395308476;-7.294312113;-6.781254689;14.07753098;-15.69845746;-4.757418792;-6.691722283;-1.765733599;21.20290164
0.212378754;12.20799629;-3.250347578;-9.933616529;-2.620308606;-5.502050972;15.9602238;25.72534767;9.975431973;-12.11290584;-16.56789176;-15.67534255;-10.4588369;9.14938596;-26.63166578;-4.704933328;-7.631179041;-1.460711923;20.2666704
-29.37943955;12.47950635;5.637457297;7.954420215;-7.725250699;-8.443068624;15.78142249;17.07893216;4.794473564;-18.97575874;-23.39432178;-21.24019635;-13.03870396;4.084084047;-32.12939242;-4.593255608;-6.604563287;-1.246428549;20.52943923
-45.70249198;12.94480715;17.10739134;10.58369524;-7.685348453;-7.339155226;15.4348897;12.05594376;5.35163179;-16.89204472;-24.95836529;-20.35963766;-12.18186524;2.910184381;-28.45647952;-4.479147829;-3.576799893;-1.133055062;21.65744767
-40.61474355;13.16243307;22.14801928;4.708435;-3.679289061;-2.442016957;15.17920745;14.88638255;11.77132133;-7.011160262;-19.9288146;-13.22212175;-7.72514802;8.48162143;-17.16745165;-4.467503696;0.937510138;-1.097988865;22.43338577
-19.36851174;12.91991526;12.70663323;2.183812392;1.287144639;4.011388529;15.19619658;23.87343068;20.80521567;3.686482444;-10.33515653;-3.49435314;-1.721301965;19.48745972;-4.009207619;-4.635984764;5.998809116;-1.098000164;21.86549509
3.500009766;12.42140255;-12.37835758;9.095674134;4.252333988;8.868933556;15.40876801;31.94295272;27.83898292;8.086254566;-0.482373718;4.049474115;2.921025159;30.36266901;4.673637382;-4.939115333;10.50463982;-1.079969137;20.14307054
14.96110414;12.09457552;-45.41587251;20.9721318;3.863282677;9.663596399;15.52703437;32.21303783;29.81922301;4.373208625;5.383230832;6.298736696;4.216395383;34.78460089;5.613726022;-5.207948554;13.51924829;-1.009349797;18.54933368
12.48910717;12.19852528;-73.60218178;27.70674673;0.758560558;5.892898107;15.298398;24.25742007;27.09839544;-3.138332798;5.358691589;3.318979247;2.173497252;30.31707137;0.098135699;-5.284677527;14.58637177;-0.910952803;18.36125069
4.348254176;12.59332922;-86.15820173;23.35852089;-3.218940474;-0.700575303;14.74575058;15.40729321;22.95475108;-8.070078125;0.865833142;-2.078562588;-1.383895041;20.48240167;-7.40627958;-5.188898032;13.91924566;-0.881414625;19.69372722
1.443904531;12.87856809;-80.16300014;11.95382474;-6.243868558;-6.991617897;14.1745448;15.11468969;21.20147859;-7.213881105;-4.209184683;-6.19940558;-3.969327791;12.40020372;-12.26801815;-5.149719305;12.35190873;-1.035804796;21.33906667
7.881380843;12.76714753;-61.40674348;4.113791066;-7.34662562;-10.03003906;13.92703487;26.36678375;23.60943162;-2.581190382;-5.761503195;-6.569648314;-3.784093979;11.69076394;-12.30224386;-5.438089488;10.99299319;-1.406085492;21.796275
18.17113714;12.34750364;-40.15953568;7.430773969;-6.536594719;-8.502044564;14.08924194;41.31384699;28.88597352;1.044917922;-1.874639811;-3.169275327;-0.537975048;18.59246486;-8.530600395;-6.121005631;10.67414874;-1.870629267;20.61799865
23.11416511;11.99526034;-25.1147916;19.01096233;-4.44717466;-3.362820548;14.40848296;45.54797554;33.74891943;0.501142649;5.970631464;1.721769686;4.562299865;28.23554421;-4.028587074;-6.958054432;11.46235259;-2.194305445;18.87827929
18.85292836;12.02100807;-19.50186474;26.83084764;-1.937876116;2.675396438;14.5032841;28.63028425;35.17666749;-3.335552318;13.63584836;4.873969575;9.501716108;34.60037357;-1.919172945;-7.560158103;12.56298605;-2.178092879;18.29817492
10.85685029;12.38222644;-21.23950247;19.11050973;0.13268169;6.546944471;14.19310445;-6.998118815;32.25984003;-6.919238231;16.67557732;3.93556063;12.41912207;34.79607117;-3.773508419;-7.701423346;12.76968308;-1.815340522;19.73858028
9.085882848;12.72408223;-25.95486476;-5.862694589;1.065159902;6.419087104;13.66552895;-45.96737752;26.56975549;-7.557966145;12.97549797;-1.195883701;12.42402138;30.35086169;-9.094017102;-7.520393805;11.26988312;-1.32282428;22.3541584
18.41676987;12.708105;-30.09950986;-37.46443365;0.573335485;2.636608874;13.33233469;-69.48052679;21.0657831;-5.725738785;4.085105458;-8.21673946;9.961967786;25.00520597;-15.80422706;-7.419796978;8.315906004;-1.000382368;24.16952518
32.8424668;12.32348475;-32.16306517;-59.88476886;-0.933326235;-2.493295273;13.48948912;-67.64596525;18.41966936;-4.183401678;-5.635957397;-13.66464664;6.58278257;21.44875641;-21.27282996;-7.72819651;5.269053493;-1.01351427;23.63268306
39.03307141;11.89503969;-32.03514295;-63.0579555;-2.341028997;-5.987498171;14.06284984;-45.61579626;19.74235403;-4.971437868;-11.59529869;-14.96756713;4.172486242;19.94404605;-23.41336615;-8.405100371;3.885269337;-1.269561388;20.86090812
26.92116888;11.78347226;-29.98220801;-48.98704515;-2.328849497;-5.855745006;14.64925677;-19.20748133;24.21439688;-7.231974751;-11.6681502;-12.1002338;3.961417162;19.57900436;-21.54620374;-9.052489324;5.226275514;-1.494292042;17.54924882
-1.252814207;12.05577334;-26.44918137;-29.08676771;-0.212952562;-2.215094427;14.81669723;-3.650894171;29.56131855;-7.937336059;-7.290979913;-7.729278375;5.815654658;20.23767809;-16.763608;-9.24173779;8.887704252;-1.45425105;15.64025386
-31.14766243;12.42781376;-22.55834458;-15.32807834;3.407159614;2.799460945;14.41855791;-4.007083375;33.04181011;-4.866877808;-2.26787431;-5.595113781;8.27694447;22.86155076;-11.56754935;-8.888690843;13.08613852;-1.144626105;15.87921245
-46.11095325;12.52852006;-20.23989028;-12.37329218;6.748788761;6.286365389;13.67794339;-13.92602873;32.59732261;0.901410849;-0.161197811;-8.070617851;9.443826208;27.64245621;-8.765033628;-8.35455615;15.60894205;-0.784941282;17.42661506
-39.04819614;12.24054108;-21.30348168;-16.29023172;7.781085813;6.256668436;12.9966179;-22.57257495;27.81465076;5.31207202;-2.093501344;-14.51519058;8.23583667;32.30867362;-10.03601246;-8.173597052;15.06327881;-0.624645728;18.75529405
-17.10103801;11.80578775;-25.99353916;-19.67788348;5.47639939;2.749154043;12.6624492;-23.43681401;20.30019184;4.33829028;-6.429237104;-21.61206367;5.22550443;32.96954549;-14.94368134;-8.624731919;11.65820635;-0.724973358;18.96921996
4.360570465;11.60291071;-32.3605526;-18.14580209;0.572468215;-2.258170785;12.68760789;-18.11076482;13.13553575;-2.76621499;-10.38065989;-25.52814473;2.394791087;27.51625764;-21.05807288;-9.501743141;7.055847136;-0.908556519;18.39151438
13.39683789;11.80348681;-37.26622252;-12.87055376;-4.688187065;-6.03871097;12.87517581;-12.97191495;9.468115567;-12.61017116;-12.16745735;-24.4143541;1.863455152;18.6084191;-25.23838217;-10.2747885;3.418783727;-0.926074991;17.99680154
9.501095882;12.21994153;-38.43242085;-7.994039831;-7.727623295;-6.657169325;13.01705179;-12.63939848;10.86749931;-19.86495907;-12.04357775;-19.48937996;4.405804265;12.87521677;-25.35637282;-10.51035539;2.255427573;-0.697767158;18.32086115
2.011852508;12.47824291;-35.93937531;-6.073553501;-7.027456709;-3.953730192;13.04048406;-16.14385582;16.40815681;-20.78301596;-11.52101563;-13.98789501;8.823870883;16.00006104;-21.41981546;-10.20401;3.72542261;-0.413612191;18.91202123
1.01836473;12.35210394;-31.9439984;-5.906007422;-2.949675604;0.523714838;13.00080269;-18.67268658;23.13593354;-15.43676138;-11.63426044;-10.84238759;12.70088363;27.38799904;-15.44846699;-9.75844204;6.72192979;-0.389984384;18.8280049
8.773800791;11.95476105;-28.85352413;-4.326614732;2.447557281;4.476772094;12.97037128;-16.62442528;27.72053042;-7.285727936;-11.85568686;-10.87271078;14.04918055;39.33827955;-10.28099627;-9.637168286;9.5707919;-0.791075152;17.67007813
18.67530537;11.62277806;-27.4754404;0.172496624;6.458557056;6.072142396;12.95347052;-11.07558513;28.27750678;-0.751120521;-10.65680747;-12.76369291;12.64968941;42.40701582;-8.124545818;-9.987111963;10.89104195;-1.45057968;16.12630203
22.10893138;11.60968704;-26.64163456;5.581045718;7.081080839;4.760654947;12.90301196;-6.64455811;25.20897706;1.303215242;-7.230975267;-14.6261543;10.06535397;33.27263783;-9.658058016;-10.53439935;10.18011637;-1.958486299;15.44897572
16.76025104;11.87332068;-24.50543156;7.950307833;4.017432034;1.386687232;12.7976096;-7.094776815;20.61020759;-1.328144951;-2.808327126;-15.68146478;8.325314555;18.54341949;-13.96855888;-10.82018144;7.924199635;-1.961522921;16.30192717
8.973888977;12.14236509;-20.29234271;4.880772008;-1.125701296;-2.313391594;12.67890434;-11.84270638;16.79859957;-6.692117924;-0.252617288;-16.61712984;8.345477444;10.5168765;-19.05300002;-10.56713042;5.289635293;-1.442956646;18.04383474
8.08329805;12.18457569;-14.98463017;-2.216798035;-5.54361067;-4.500068359;12.60243046;-16.46896582;15.05929106;-11.95374693;-2.055967174;-18.40612866;9.382507581;17.33200225;-22.49287921;-9.881333126;3.590068359;-0.75380355;19.16741132
17.64712485;12.01871811;-10.4506522;-8.971563968;-6.581140006;-3.987423591;12.55790806;-16.60032619;15.3745055;-14.59846409;-8.260394001;-20.79010415;9.959273296;35.07891426;-22.16566076;-9.152896385;3.743178327;-0.362655188;18.57871757
31.25599737;11.87755602;-7.921230835;-11.1574877;-3.148905192;-0.748484035;12.45595659;-11.60948513;17.0356642;-13.27732643;-16.02769213;-21.96977462;9.420166101;48.70390398;-17.0646149;-8.768848594;5.898156417;-0.516735896;16.60564146
36.78084402;11.97039562;-7.212160756;-7.459214923;3.497504407;3.980782743;12.21228912;-4.974085379;19.38016635;-8.359303111;-21.34351177;-19.99691376;8.67094099;42.04146008;-8.114751349;-8.879758597;9.369382886;-1.077573584;14.80377402
25.87813781;12.27977205;-7.292716649;0.090236185;10.14020118;8.100256215;11.85318198;-1.249708355;21.97438869;-2.062200365;-21.66333021;-14.79475539;9.324590174;9.975996025;1.549831968;-9.377774221;12.928585;-1.653533521;14.65470961
1.144823236;12.58511113;-7.497184117;7.882559815;13.13286679;9.512285836;11.52918327;-2.500345374;24.23747327;2.235472349;-17.55541875;-9.005483121;11.92279643;-36.45894262;7.490588383;-10.04723164;15.36474972;-1.915274315;16.23649431
-24.87659572;12.68254078;-8.105225539;12.98952274;10.38798805;7.164511034;11.40301771;-7.186265121;25.10933975;1.614029454;-12.17734587;-6.665555581;14.88308516;-76.26590736;6.095518;-10.72132069;16.06355829;-1.841094498;18.01751202
-38.18257774;12.581301;-9.706819913;14.29692753;2.702119636;1.745596287;11.50226716;-12.05365207;23.3434637;-4.551159673;-9.084175318;-10.45300305;15.3732381;-91.75794903;-3.058379262;-11.31764651;15.29865705;-1.705533997;18.00188698
-32.80404939;12.48345748;-12.04985528;12.27560926;-6.46983507;-4.45634792;11.67580628;-14.93311708;18.37934348;-13.84074286;-10.05412471;-19.52180053;11.66959104;-79.43175856;-16.23419256;-11.77010149;14.04881116;-1.835317641;15.32069178
-14.24888999;12.56770163;-13.69296893;8.247956243;-12.81641768;-8.620218393;11.70951444;-15.90230756;11.1072682;-21.99204375;-14.41780979;-29.65759899;5.073551217;-50.90062575;-27.05;-11.97589828;13.41900307;-2.337261434;10.98550358
5.28294704;12.79271019;-13.09039658;3.914465569;-13.56254978;-8.887421836;11.51086602;-16.16502907;3.784194313;-25.52690628;-20.05945247;-35.81346266;-0.471569091;-23.90682648;-29.99223564;-11.84393362;13.98989716;-3.011652783;7.210893925
15.80398128;12.92155022;-10.29828959;1.063912064;-9.006828146;-5.426325595;11.19859017;-16.23548646;-1.025569417;-24.02951304;-24.99108752;-35.30033;-1.144710675;-10.58879353;-23.86027503;-11.40844355;15.47803995;-3.505750689;5.870266643
15.71872938;12.75578847;-7.654844368;0.968385048;-2.232011907;-0.376017164;11.0077978;-15.44379132;-1.838640602;-20.33864761;-28.21391982;-29.40128886;3.643331248;-11.46622018;-12.7775726;-10.88704426;16.90857014;-3.572591121;7.299685529
11.10018515;12.35804286;-8.442461865;3.499420995;2.827060489;3.359748582;11.08349556;-13.14694275;0.960193342;-18.41041751;-29.49361894;-22.33331239;10.43404377;-18.44190909;-3.827147191;-10.59860285;17.19618829;-3.231453423;10.29948241
9.491540217;12.03846142;-14.26486612;6.809038747;3.712721493;3.766202677;11.34125971;-10.11014886;5.43289007;-20.42145694;-28.74607578;-18.38885475;14.19306344;-23.02240239;-2.657946364;-10.77868705;15.79372389;-2.721372668;13.17279316
13.65706503;12.09530188;-23.20475783;8.363175152;0.701568601;0.820457685;11.52314232;-8.295912557;9.231538956;-25.31079652;-25.95258719;-19.30439516;12.34234625;-22.63200616;-9.918633428;-11.42411085;13.04058885;-2.307816566;14.8666962
20.1503581;12.53589191;-30.50686573;6.933282883;-3.712236948;-3.600275566;11.40868399;-8.994542001;10.78886741;-29.8256295;-21.75384474;-23.57466399;7.088638967;-20.55538584;-20.93168759;-12.28007813;10.02460846;-2.105716538;15.35708561
23.2804027;13.03831083;-31.63899619;3.918529364;-6.609522205;-6.887525703;11.00230488;-11.12320676;9.871514985;-31.1481357;-17.93316762;-27.92249997;3.906050124;-20.89520502;-28.84397406;-12.97533181;8.038945901;-2.046727764;15.18119318
20.67733578;13.20567868;-25.58362925;2.510130867;-6.439720897;-7.184551032;10.53406811;-11.63744098;7.339980397;-28.97990432;-16.88480413;-29.6503761;7.116194316;-23.84905681;-29.10604196;-13.20914261;7.921958911;-1.989479763;14.74
15.61828523;12.8991582;-15.79174259;4.969163815;-3.695385129;-4.308144793;10.27025889;-8.082079759;4.455497393;-25.51887034;-20.07483019;-28.19950218;16.08192851;-25.56403667;-22.25359341;-12.87991475;9.619214491;-1.86166623;14.05241228
14.16493639;12.35640626;-7.877432264;10.23327996;-0.236275792;0.326959645;10.29473357;-1.13112826;2.212004035;-23.5516827;-26.61932011;-25.05819033;25.3168678;-22.23170637;-13.20915212;-12.10691395;12.1945635;-1.715476001;13.07707453
19.50802544;11.9869789;-5.647488262;14.25295646;2.053734488;4.58276612;10.44715333;5.33;0.988234863;-24.35552328;-33.31935326;-22.41761383;28.73974228;-14.23899317;-7.759949212;-11.16815559;14.29701869;-1.66455265;12.12612473
28.25312021;12.02220381;-8.45386224;13.3243696;2.300126916;6.677475186;10.46803729;6.998718951;0.571656144;-27.05547805;-36.45777564;-21.7021341;24.76062037;-6.384103291;-8.737318854;-10.39791461;14.85592745;-1.770189551;11.83655943
31.95325509;12.32676068;-11.9409907;7.856569904;0.816896207;5.911613204;10.2227723;2.650102735;0.479313411;-29.68263451;-34.18364663;-22.90230646;17.87825354;-3.934868936;-14.44615468;-10.06928048;13.63819366;-1.977294486;12.66188664
23.14857756;12.53471833;-11.65538782;3.066488104;-1.406278101;2.812345831;9.812231216;-4.625280506;0.445275918;-30.74545171;-27.68461108;-24.87585387;15.07597441;-8.094695922;-20.17913288;-10.28032924;11.34745456;-2.150860949;14.37389188
1.588457398;12.38382601;-6.7;5.255492418;-3.346056358;-1.205638681;9.480039063;-9.576667135;0.84343741;-29.91287491;-20.20909671;-26.14756016;19.60580472;-14.89927428;-21.52482464;-10.88859643;9.186178006;-2.180972232;16.09746154
-24.12490558;11.94843253;-0.490208075;16.10341446;-4.291645698;-4.43248179;9.402922473;-8.617246783;2.710058594;-27.4795129;-14.70152306;-25.63971897;27.23149364;-18.46019849;-17.13738259;-11.5576368;8.124729448;-2.07483272;16.9081735
-41.14231377;11.56780657;2.103962276;29.64371571;-3.893520461;-5.511282358;9.54619471;-2.221792675;7.132877645;-23.52752475;-11.93174754;-23.0687016;28.42242931;-15.69671085;-9.265827167;-11.93519771;8.325473617;-1.968212772;16.48693047
-40.4349021;11.54246697;-0.967020339;35.05783732;-2.174345711;-3.989197006;9.70241274;5.891402342;14.1982746;-17.90497767;-10.56036978;-19.03695697;15.36681221;-8.569256456;-2.008421171;-11.87912144;9.092778632;-2.046375457;15.26854107
-22.86965278;11.87549891;-6.739920731;23.99470025;0.356280883;-0.594185598;9.66927362;11.81676158;22.20255986;-11.13979874;-8.931248112;-14.8862042;-11.37526757;-2.165715006;1.296214718;-11.57023185;9.378316657;-2.42222002;13.99422889
1.06247053;12.28648297;-9.196346933;-2.765460059;2.651130551;2.955295587;9.408294488;14.0365719;27.94620326;-5.224979636;-6.923787478;-12.27290028;-41.87484849;-0.555454865;-0.176191568;-11.39614667;8.488214972;-3.043989471;13.1202713
17.97513833;12.47317967;-4.229223201;-34.52366712;3.42765102;4.668675834;9.054088409;13.55019603;28.3337168;-3.075137578;-6.186416027;-12.45735429;-62.67419935;-3.974008553;-4.717446179;-11.6562107;6.499387383;-3.689503186;12.62391942
20.34415156;12.37413;6.093883896;-56.83284699;1.859510338;3.296050589;8.781907852;11.99304;22.47726348;-6.615155933;-8.522502571;-15.54658526;-65.42446613;-9.385960606;-9.467908442;-12.30183621;4.118344597;-4.060515589;12.31003906
11.24480959;12.19470904;13.55387781;-60.48180045;-1.73011558;-0.876200567;8.661142687;9.919522773;12.83766838;-14.89953507;-13.85605972;-20.16481378;-52.06694594;-13.39768367;-12.10795485;-12.93468269;2.143784245;-3.938225963;12.20474904
1.63314972;12.18527962;8.733143581;-46.94244315;-5.742242409;-5.968145906;8.621271875;6.930219617;4.316958676;-23.99522332;-19.62719275;-23.92689212;-32.88142564;-14.6807419;-11.84891923;-13.09792867;0.984794517;-3.320552901;12.5511956
1.94735454;12.38999476;-12.17607907;-26.53640878;-8.012314483;-9.35187774;8.544916806;3.215796344;1.562565207;-29.12996667;-22.28305513;-24.61016304;-19.08500551;-13.97530659;-9.366877915;-12.64845528;0.598090454;-2.456649125;13.37972868
13.9914702;12.60604798;-43.52129201;-10.97611502;-7.025931814;-9.021230104;8.388301441;0.528496362;6.124762558;-27.75726438;-19.7563489;-21.38919635;-15.60796297;-12.2625303;-6.011228196;-11.90248025;0.812983115;-1.738923171;14.14254051
29.09897101;12.58957901;-72.42043055;-5.916375758;-2.875995317;-4.734385599;8.215433944;1.159236638;15.41312322;-21.29115501;-12.98021565;-15.36207147;-19.18662323;-9.34988286;-2.933659658;-11.40897347;1.656218571;-1.495305148;13.93007813
34.1864948;12.30870183;-86.08890875;-8.709021213;2.69936526;1.748172493;8.123605507;5.649799257;24.25764193;-14.15138661;-5.278942441;-9.016531484;-22.55406396;-4.420855052;-0.651006748;-11.51135667;3.297590809;-1.798525028;12.23187152
21.50924846;11.99737785;-79.60563687;-12.25230853;7.265326169;7.506432752;8.14254931;11.54070275;28.06645055;-10.77145384;-0.190993328;-4.966796505;-20.86117891;2.117193556;0.829245499;-12.05443022;5.62314841;-2.417832038;9.582766579
-5.008311297;11.95018911;-58.90716795;-11.23048868;9.040600322;9.939968449;8.208938875;14.76737013;25.44908815;-12.7425893;0.54961024;-4.725754545;-15.16094876;7.651805616;1.566514032;-12.49764038;7.86574018;-2.959081875;7.392000413
-31.70445473;12.24390059;-36.90354251;-5.72444343;7.824009055;8.083185178;8.238019585;12.86818679;18.61462431;-18.08607996;-2.530906083;-8.162000352;-10.61823523;8.701018473;1.345794725;-12.36615614;8.773490009;-3.11329668;6.922957256
-44.19395098;12.64702567;-25.28226908;0.122526149;4.986898843;3.065660825;8.215827678;7.253358361;11.50988656;-22.96318816;-7.729433014;-13.77592836;-11.513147;3.74674467;-0.248697609;-11.6760976;7.371345511;-2.849681953;8.215403915
-36.97703894;12.81051884;-27.51878722;2.493891902;2.624843662;-2.494066821;8.214777251;2.341611737;7.233484972;-24.3462365;-13.54680176;-19.45322725;-17.45380519;-4.911050275;-3.357803793;-10.96784843;3.800608033;-2.41712827;9.931296402
-16.65353418;12.57393108;-37.71375445;1.255519369;2.421175319;-5.818535627;8.31216131;2.071512079;6.554686362;-21.68051446;-19.15634484;-23.24796049;-23.7976276;-12.17456752;-7.34509763;-10.89294575;-0.482084785;-2.149855781;10.39350153
3.446156802;12.11035316;-45.74369056;-0.422573408;4.829543533;-5.345746677;8.490672799;6.720353274;8.267381177;-16.61324907;-23.87671233;-23.96555063;-25.57284098;-13.55011941;-10.77957123;-11.67653364;-3.456729156;-2.216196822;9.034741809
12.93050943;11.77492635;-44.80442363;0.601099559;8.901180779;-1.482988062;8.624830297;12.81594581;10.62811337;-11.44293364;-26.62951365;-21.53953607;-21.40918131;-8.348912712;-12.14851924;-12.90022798;-3.807490451;-2.494824142;7.020460159
10.92678205;11.78919389;-35.91770957;4.404106489;12.73077239;3.60972383;8.579874237;16.21621004;12.49696795;-7.728299184;-26.31872769;-17.18484843;-14.31125488;-0.169008946;-10.97408488;-13.802724;-1.791684286;-2.66997497;6.425126247
4.876399845;12.0440828;-26.40575069;7.977892102;14.28116173;7.102861483;8.340514765;15.57979274;13.42331848;-5.986694145;-22.97534125;-13.15109141;-8.9751525;5.691224744;-8.526723177;-13.87159189;0.978594871;-2.473327526;8.557222118
3.165438572;12.19988038;-23.85351159;8.085230331;12.28592891;6.93926197;8.049205882;13.10720646;13.07815722;-6.251741532;-18.47649222;-11.90067326;-8.151836325;5.843522732;-7.391002142;-13.25007813;2.726218845;-1.890555332;12.79858611
8.025837013;11.99540521;-30.29594064;4.315100686;6.92140609;2.93399031;7.907251562;11.98286821;11.00487123;-8.560408674;-15.77644958;-14.87389882;-11.00607966;0.772953644;-9.859953025;-12.62165965;2.792260771;-1.180196936;16.94430275
14.55726195;11.49062629;-40.93620334;-0.40896572;-0.051759801;-3.047832452;8.014246684;13.06580405;7.150931896;-12.75530238;-16.88921763;-21.46927218;-14.41639676;-5.998263449;-16.08799834;-12.65578055;2.039894527;-0.696974868;18.78951276
16.2857035;11.0263584;-48.0679928;-2.267076553;-5.867337233;-7.99092967;8.281962634;14.11621987;2.626683419;-17.88552557;-21.17687858;-29.00474602;-15.6752959;-10.48882769;-23.37693171;-13.45774443;2.079639956;-0.65665292;17.67234415
11.99618538;10.93702362;-46.90661192;0.270781702;-7.945494527;-9.300622277;8.500181275;12.41558833;-0.32257789;-22.03541743;-25.52561959;-33.95195132;-14.21637875;-10.49455583;-27.41160135;-14.46683496;3.932916954;-1.013242249;14.75321753
7.488935124;11.2704795;-38.77588408;5.294291224;-5.195313944;-6.226678437;8.502735967;8.249946832;0.474991049;-23.07252252;-26.53472974;-33.87512591;-11.27205095;-6.184799652;-24.93623057;-14.88856163;7.177087599;-1.522368087;11.92161469
10.3856639;11.75844389;-29.41288259;9.263434493;1.293411098;-0.33315554;8.295070299;5.627830768;5.497014358;-19.92177719;-23.08723225;-28.89157075;-8.326637136;0.659451954;-16.17885777;-14.320846;10.21383948;-1.921533277;10.37688337
22.36794003;12.05521558;-24.08858949;10.10013512;8.675455087;5.302414069;8.037051434;9.030078125;12.84977407;-13.39047571;-17.18984904;-21.64553071;-6.041957022;7.647117652;-5.24309026;-13.08448109;11.41050478;-2.083774077;10.1007475
35.85427443;12.02667692;-23.63466845;8.812911122;13.77752999;7.752347161;7.898977402;18.8549985;19.26441938;-5.839298506;-12.30923127;-15.7254885;-4.450278216;12.36731668;2.079131543;-12.00823885;10.20819092;-2.045747042;10.50309542
38.69026826;11.83601806;-24.47865999;8.266332729;14.75757882;5.831954311;7.916520539;29.8973048;22.1320742;0.119993574;-10.53386633;-13.51581246;-3.733075541;12.86699577;1.837713777;-11.8456581;7.383327703;-1.923849335;11.3828118
23.6598996;11.76327233;-22.35501295;10.26813142;12.01331693;0.711939269;7.968342474;34.85546698;21.04287304;2.995447054;-10.94814078;-14.87506362;-4.377559268;8.52723686;-5.491711715;-12.77043763;4.371304456;-1.812167387;13.09699515
-4.788959866;11.93530822;-16.3594304;13.66562273;7.791628129;-4.783765842;7.891423177;30.33875883;17.69169541;2.977422101;-10.63234417;-17.46422299;-6.384155292;1.049982864;-15.15174823;-14.30925107;2.285796276;-1.743334718;15.7236141
-32.403906;12.21500271;-9.887435771;15.29138421;4.767302352;-7.754699963;7.629664612;20.20249308;14.38590304;1.495716485;-7.459354051;-18.42173648;-8.469744577;-5.566628407;-20.96953075;-15.71823773;1.407200344;-1.715176972;18.16765662
-44.62860457;12.34333569;-7.749543497;13.0815741;4.497486771;-6.75206264;7.284833709;12.91925164;12.5174978;0.270358937;-2.25790237;-16.21567619;-8.459903919;-6.865231097;-19.10953892;-16.48579734;1.410280573;-1.72447432;18.40744867
-36.60344211;12.19323302;-12.00604045;8.644654613;6.678067612;-2.428632184;7.026629798;14.76583095;12.23326051;0.515716876;1.619518731;-11.48794523;-4.931795604;-0.854780736;-10.297293;-16.59379294;1.944071295;-1.76080733;15.04321569
-16.00932414;11.89488774;-20.08064601;6.764500583;9.546419221;2.951761001;6.942376182;24.49919803;13.29522658;2.592958509;1.082078838;-6.478416733;1.248834228;10.08810367;0.836213105;-16.39807402;2.948325252;-1.777379737;8.893159896
3.253641101;11.71613972;-26.70077556;11.72657251;11.03722841;6.759104389;6.958676338;34.28777278;15.95911989;5.990328971;-3.879140211;-3.561324414;7.074075917;20.18765787;8.71324758;-16.2860651;4.450760617;-1.69774868;2.98578306
11.35708877;11.81044434;-27.95027413;23.0883049;9.919688326;7.27473039;6.903761706;36.42657355;20.74500181;9.453264391;-9.790701131;-3.883754353;9.440926357;23.88838955;10.06822808;-16.39849505;6.157645149;-1.486035926;0.503887152
8.722095348;12.06745727;-24.00590367;34.36024386;6.318768946;4.391431613;6.657049161;30.19487816;27.22166802;11.32184474;-12.18772245;-6.851882297;7.550677096;19.64794471;5.504747166;-16.59458408;7.374334572;-1.229306165;2.135636371
3.682738244;12.20634281;-18.3811533;36.21055634;1.517275947;-0.479632305;6.257645606;22.72805238;33.16939482;10.23812368;-9.019777032;-10.57441815;3.61849452;11.00397289;-1.358983853;-16.6226127;7.460699159;-1.136901384;5.159327814
4.29437158;12.02861396;-14.5687695;22.506877;-2.666187716;-5.121759111;5.879283521;22.69486533;35.42322274;6.085493402;-2.177921379;-12.84796295;1.2022989;4.010502432;-6.292418552;-16.32102926;6.458907216;-1.412024017;5.428503168
11.48750991;11.60068457;-13.16227322;-4.820416104;-4.563333236;-7.476009821;5.692889278;31.87932107;32.20277416;0.551340077;4.107032087;-12.13867051;2.509894572;3.002145883;-6.757836808;-15.70633158;5.278424696;-2.067214735;0.985930841
19.15039278;11.19947454;-11.96097421;-35.67651116;-3.218262356;-6.484326668;5.731826387;42.00712572;25.09352482;-3.375342913;6.628334723;-8.1946741;6.933131562;7.951605646;-2.858606974;-14.93417963;5.15264418;-2.835687957;-5.643504996
20.53620245;11.06873545;-8.781285305;-57.00632947;1.224454431;-2.532063373;5.870424048;40.15339663;18.67218437;-3.041203198;5.500123104;-2.152723506;11.9455431;15.2831338;3.259023124;-14.21420136;6.721208763;-3.287558785;-8.729031541
14.99116885;11.2044625;-4.209225678;-60.24069479;7.395618053;2.674786162;5.930131793;18.95059189;17.49521243;1.987055219;3.507054929;3.869130583;15.38589972;21.09655685;8.829113529;-13.74719881;9.468321825;-3.106973942;-3.649770481
8.918727088;11.36148533;-1.569511175;-46.24974847;13.02480525;6.802858281;5.822451534;-16.48606516;22.49226792;9.160545982;3.181771476;7.611521958;16.98358389;23.88577154;11.77758686;-13.68271725;12.00366436;-2.339762875;8.960942172
10.0527457;11.27548162;-3.942973897;-24.56097756;15.80088943;7.932772522;5.611083967;-50.74968141;29.69522931;14.11936995;4.254106135;7.698473172;17.84110334;24.60984559;11.38398735;-14.06129611;12.99880177;-1.410793749;22.7162434
20.00542364;10.90365419;-10.86424286;-7.32098939;14.51078307;5.503213706;5.446608317;-68.17086805;32.69791961;13.27392196;3.794542422;4.395513831;18.64106097;24.59802502;8.28686854;-14.74797467;12.06348053;-0.864986298;29.46695037
31.65685695;10.47244589;-17.83447464;-1.940768424;9.838279382;0.658920483;5.433354393;-63.20032972;27.32393654;6.146108529;-0.982160737;-0.376649686;18.6002247;23.76;4.087196643;-15.42548736;9.914838005;-0.998120559;25.05354991
33.95476147;10.29177674;-19.44150932;-7.200871409;4.207123184;-4.259097369;5.541197631;-43.41231026;15.02444101;-4.167406299;-9.667059917;-3.931859413;16.39776481;21.05883763;0.759936778;-15.71023733;7.786864194;-1.64589813;12.45921662
20.5089618;10.49805885;-13.67652244;-15.20505451;0.561223118;-6.884817368;5.633477987;-23.24333458;2.254863646;-12.8086034;-18.11975045;-4.217003234;12.1896602;16.70116347;-0.024815986;-15.36182226;6.621886391;-2.299691437;-0.209679458
-4.838016549;10.94508629;-3.795443064;-17.57568298;0.705633782;-6.051447237;5.583868776;-13.69230477;-3.925297102;-16.06565738;-21.16947285;-0.917676279;8.478002639;13.47625985;2.456775292;-14.4549024;6.674680335;-2.47905614;-5.548338252
-29.9238058;11.32870278;4.018737411;-11.44161775;4.238487186;-2.38369593;5.382391741;-15.87364063;-0.839044643;-13.44834278;-16.54766452;4.43114468;8.49312054;15.23770242;7.623110516;-13.3747423;7.706195478;-2.092838111;-2.106484476
-42.2429428;11.43067534;5.424734943;-1.066624523;8.811820534;2.080405722;5.142305565;-22.65746503;7.954963704;-7.64014363;-6.905552204;9.419276819;13.19818309;23.33366801;13.75605385;-12.61233198;9.397852427;-1.518466921;4.939926823
-36.98223991;11.27457504;1.234461015;5.812460651;11.60544099;5.011854219;5.003250653;-25.98274671;15.30639916;-2.53823849;1.796556533;12.193489;19.72154741;34.2311235;18.71503862;-12.48662624;11.49019551;-1.331813806;8.175122898
-19.36596535;11.07430516;-3.482048196;4.040622656;11.07326527;5.010294495;5.011781107;-23.33645337;15.58029768;-0.830080566;4.388943894;12.42577939;23.13343906;41.11150164;20.88087245;-12.982746;13.53749617;-1.878662105;3.93
-0.159196434;11.03726308;-3.756240999;-5.058711829;7.831998281;2.258607341;5.078590166;-18.42580475;8.418965054;-2.676593284;-0.012608796;11.24526985;20.52594516;38.87757701;19.84044372;-13.80980934;14.66713142;-2.998901316;-4.808611079
11.76397188;11.19796322;1.094633436;-14.77138698;4.155210959;-1.680670291;5.048805755;-16.45722118;-1.468820372;-6.125472083;-7.704854755;10.28742882;13.94017933;28.6406024;16.46431915;-14.61807776;13.81867475;-4.105322768;-10.78377334
14.26940259;11.41376068;6.932391135;-18.08845356;2.478980856;-4.732681911;4.829513072;-18.86713874;-8.021486341;-8.676859077;-13.36631065;10.57401693;9.22521055;17.57412632;12.38591485;-15.20613896;10.48219321;-4.562410094;-8.197346922
11.384251;11.50484347;8.291547057;-12.8330026;3.93850446;-5.342102746;4.471572321;-22.22308603;-8.048131781;-8.834544293;-13.90834498;11.94673156;11.29059438;13.62395631;9.203788813;-15.578851;5.368066678;-4.097546601;2.740285027
8.819367824;11.40396783;2.896876544;-2.925066102;7.832076351;-3.177351553;4.13844355;-21.86588742;-2.908284009;-6.76539577;-10.32184715;13.30115346;19.6105318;19.09352079;7.805098515;-15.84997734;0.311134698;-2.961713556;15.94099325
9.621305419;11.19302012;-6.594618401;5.021969914;12.20571142;0.753912457;3.984627453;-16.6017758;3.179902453;-3.941039198;-6.374568283;13.32285807;28.09290768;28.55824446;8.066177946;-16.10151993;-2.747531177;-1.742897159;24.02615695
13.00167763;11.01719874;-14.98348556;6.918820955;15.02611423;4.566447713;4.038917063;-10.0664445;6.464595364;-2.216436767;-5.479800779;11.21185536;29.94167549;33.28229718;8.987922863;-16.32074063;-3.053678557;-0.979919887;23.71238383
16.30476791;10.97127889;-18.85561635;4.033992005;15.16329451;6.331000833;4.184882099;-7.59852431;5.980687493;-2.900847104;-8.275648569;7.057870304;23.68690033;28.78641535;9.192822982;-16.44449039;-1.598978187;-0.849641297;17.86472784
17.70067565;11.05681688;-19.05982106;1.283235138;12.71327878;4.968739391;4.254303692;-11.50544284;3.452955646;-6.156995268;-12.60271782;1.836469642;15.06714612;19.14291113;7.631631698;-16.44213295;-0.405776773;-1.126140434;12.82306244
17.28352956;11.22542144;-19.25545041;2.579528007;8.712820624;0.850004883;4.159042689;-18.90516639;1.432903744;-10.85612223;-15.53132668;-2.856964664;12.56561709;13.87789926;4.24750238;-16.34967376;-0.983179433;-1.405322334;13.28502177
16.22244325;11.44140696;-21.94404482;7.269059843;4.606018687;-4.217728172;3.955351848;-23.93229272;1.457282806;-14.94858195;-15.59409452;-5.275066765;19.79989708;19.47502727;0.24768999;-16.23194638;-3.112019;-1.408795386;18.76063083
15.3959466;11.69410735;-25.62547284;10.74661837;1.763676956;-7.729881772;3.788557254;-22.31371368;3.502348579;-16.33340405;-13.52527024;-4.182930518;31.09573651;32.39049649;-2.310596698;-16.12377915;-4.935686918;-1.150465993;24.18260942
15.00590948;11.95834055;-25.74090605;8.788390778;1.121006289;-7.715440673;3.763535834;-14.47883504;6.617397974;-13.9637755;-11.24896271;0.421883362;34.50528592;39.8745928;-1.585733317;-16.01272088;-4.354075277;-0.872950448;23.96154207
15.27324245;12.16399272;-18.73098537;1.888041238;2.884324621;-3.869917343;3.848785121;-4.874367578;9.736404757;-8.614407648;-10.25314257;6.925854696;20.62185911;28.87094686;2.845834262;-15.87278141;-0.697152254;-0.833285354;16.2541229
17.03393838;12.22679977;-5.737713227;-4.31719862;6.361445142;2.085422448;3.896340305;1.569937663;11.95993533;-2.701244818;-10.71879331;12.50335364;-9.449522768;-3.448951109;9.439176833;-15.7034763;4.592131899;-1.110750322;4.305228895
21.16401377;12.12280345;7.356105385;-3.308740265;10.11331796;7.15807586;3.76423161;2.757717924;12.51407604;0.989049262;-11.850314;14.39612625;-43.4256931;-45.81;15.31554354;-15.53003906;8.803418371;-1.568233469;-5.872705518
27.09620369;11.93245474;13.84182334;6.559567771;12.55364828;8.654307007;3.439921135;0.118521121;11.029375;1.036305357;-12.75268405;11.5163042;-65.47059901;-79.13742247;17.87091347;-15.37285674;9.731164949;-1.970373246;-9.521263054
31.89128139;11.7983427;11.03216821;19.54543332;12.79958459;5.710861301;3.057478575;-3.230609502;8.255467863;-1.528855551;-12.9096024;5.38678875;-66.62093926;-88.78399259;16.39857206;-15.23449402;7.107579377;-2.150582781;-5.920947353
31.17488976;11.81984286;2.195504637;25.67923309;11.25708607;-0.136491447;2.787569482;-4.819933354;6.45163271;-3.654807825;-11.96412168;-0.351320568;-50.27035783;-73.79858022;12.61345958;-15.1320335;2.726659913;-2.102283229;1.756215534
21.78773211;11.97269423;-5.931885625;17.63741832;9.447212062;-5.747563726;2.688878702;-3.801256934;8.542644756;-2.118647595;-9.34121588;-1.785747083;-28.80563027;-46.57962811;9.628535068;-15.13910776;-0.730761874;-1.945128449;8.969376785
4.45245215;12.12680381;-8.045581589;-3.680019531;9.036659557;-8.114240613;2.649045484;-0.437522189;16.0989824;4.31193643;-4.424654887;3.076959698;-14.32396264;-23.56464297;9.998533318;-15.36954393;-1.276844114;-1.815443301;12.65558231
-15.55154516;12.15131292;-3.774712765;-29.10107453;10.63734545;-6.029129081;2.473458732;4.631381244;27.50749641;13.825607;2.645553741;13.11134251;-10.70569179;-14.20839592;14.13250512;-15.88073664;1.444488587;-1.775391526;12.53985636
-30.49971808;12.01863416;2.722391631;-46.84569752;13.21192114;-0.713590279;2.054490445;10.33774088;38.0408974;22.37735171;10.29266854;24.61587686;-12.79464435;-16.29634383;20.1371893;-16.56672551;6.309186798;-1.802165568;10.46251118
-34.07753117;11.82;6.387312232;-49.88344034;14.59306732;4.928470407;1.47801434;14.71735492;42.33572966;25.91056864;15.81024034;33.24764889;-12.50348903;-20.26921342;25.13891414;-17.15496274;11.60832612;-1.844430043;8.666025037
-24.78634971;11.68334758;5.037121967;-39.82267493;12.87498951;7.944552389;0.968616623;15.23532861;37.86113479;22.63558231;16.78210744;36.14734884;-6.273985063;-18.21122392;27.10209254;-17.3546754;15.95832004;-1.882164971;8.390667257
-6.962063633;11.66778224;0.452226609;-24.87210423;7.792588684;6.888145858;0.709602357;10.40038582;26.91064332;14.01206565;12.73590305;33.04124097;2.231799149;-10.05337221;25.89275231;-17.06936196;18.71861965;-1.935355799;9.530307719
11.15529914;11.72451371;-3.618874064;-13.77683246;1.148104491;2.452650173;0.686750563;1.560138672;15.49314206;3.939315384;5.780289498;25.88344025;5.921354887;-2.503623825;22.99508321;-16.50199931;19.91648768;-2.02136652;11.19515446
21.28080259;11.74916696;-4.493438837;-10.30692957;-4.058324188;-3.063066598;0.694382622;-6.987148418;9.711854997;-3.260423348;-0.385862625;17.54760688;0.804050501;-2.428305431;20.31234404;-16.04176339;19.99616143;-2.109869583;12.52570198
18.92665946;11.67090886;-2.115282588;-11.99884744;-5.294383827;-7.050181419;0.508546659;-10.32323069;12.09146351;-4.878560868;-2.536714564;10.51281378;-10.42993619;-10.67674419;19.04977892;-15.99450191;19.63364242;-2.126088075;13.19539714
5.373584395;11.49932738;1.735541644;-13.37389237;-1.944639958;-7.901192249;0.084349331;-6.28393093;20.34943643;-0.856510293;0.276439195;6.19972418;-20.58828701;-21.41634639;19.39305323;-16.36273317;19.58476709;-2.008190835;13.43442527
-13.12756203;11.29852866;5.371429409;-10.6204385;4.321065964;-5.694259242;-0.396908352;2.751273067;29.28071964;6.509619602;6.307384888;4.96593393;-23.72763466;-27.10790155;20.90072863;-16.85992382;20.41190805;-1.772955644;13.72449115
-28.47741582;11.12689858;8.341113758;-4.114216086;10.44337701;-2.004520909;-0.68311788;11.28356249;34.19488932;13.82413913;12.23156417;6.345238375;-19.50452036;-24.62611486;22.96658139;-17.15854386;22.10370292;-1.530365083;14.41317413
-34.58677111;11.00423393;10.96320642;2.690596044;13.57253673;0.972442505;-0.683158985;14.42597057;33.43660726;18.09405937;14.97083474;9.205908796;-12.7163993;-17.44024119;24.85385892;-17.17113623;23.86523432;-1.425357222;15.46025548
-30.00971007;10.92870497;13.112959;6.517482485;12.46133658;1.528898781;-0.569427877;11.11548491;28.5152634;17.83838543;13.11625214;11.8956666;-8.880162175;-12.35670586;25.45159211;-17.12441213;24.38913979;-1.543683638;16.45230141
-18.05091902;10.90994218;13.78029514;6.795290177;7.945028655;-0.721100835;-0.644510543;4.382893626;22.30434851;13.46388834;7.314783716;12.66480458;-9.860597557;-13.8291513;23.36724367;-17.35416007;22.60630509;-1.850872078;16.89659846
-4.475450954;10.97058173;12.00329089;5.599309716;2.358979732;-4.649397047;-1.069932337;-1.328478314;17.03562831;6.886881134;-0.2805783;10.44477617;-13.07962876;-20.54029821;17.7330385;-17.98872544;18.48861018;-2.211717633;16.61596767
5.67687659;11.10938025;8.268447492;5.457327189;-1.704575627;-8.161902484;-1.691110775;-3.457502964;13.52311153;0.624085506;-6.979593064;5.597698855;-14.45935893;-26.74285179;9.322560314;-18.79422118;13.31805885;-2.478393352;15.92629052
10.26117487;11.26895826;4.849796522;7.100939372;-2.636280049;-9.261134091;-2.132298685;-2.61450605;11.70126794;-3.271359835;-10.49035232;0.01745694;-12.12293116;-26.87469732;0.978487257;-19.32658098;9.134258322;-2.584217725;15.37692248
10.13345274;11.35464777;4.443196352;9.011341744;-0.47284128;-7.127310505;-2.113196451;-1.171892692;11.45543887;-4.008297961;-9.641972733;-3.730470024;-7.636081926;-19.59314528;-3.402621939;-19.27598627;7.634881584;-2.576865976;15.19817393
7.64492653;11.3004834;8.031696048;8.947102339;3.259284194;-2.651966839;-1.735589557;-0.79932947;12.76848325;-2.274519665;-4.83514702;-3.857637966;-4.115576271;-8.302532206;-1.041825561;-18.71942604;9.207378449;-2.571179496;14.95538919
4.957199252;11.12461207;13.74280136;6.03238913;6.376915223;1.918502109;-1.48356934;-1.263034537;15.17362198;0.193403117;1.933919311;-0.487998998;-3.34201694;1.677593327;7.73063923;-18.06739047;12.70383521;-2.661009429;13.86414831
3.340981406;10.91730055;17.7668806;1.668561951;7.122545579;4.114290223;-1.89689906;-1.350053711;17.34709257;1.460053711;7.685399821;4.325261924;-4.587283661;6.671569496;19.14931272;-17.74580911;16.08501849;-2.856256034;11.67126565
3.453466522;10.76529036;16.78500207;-1.409199233;4.981775538;2.575708258;-3.147965102;-0.670061035;17.57256695;0.255596902;9.674308443;7.790442493;-5.930109099;6.280708041;27.83352159;-17.87694929;17.51322274;-3.087094012;9.356950125
5.672193802;10.6795112;10.17682152;-1.141626556;0.861074042;-2.153626126;-4.854002475;-0.334669698;14.90497773;-3.517094902;6.730408091;8.03252081;-6.409983352;2.474812134;29.74605897;-18.22069897;16.24132832;-3.264218493;8.812880959
9.777592426;10.59447532;0.481680879;2.312621406;-3.434556072;-7.852424913;-6.292176718;-1.765456625;10.06783949;-8.8014786;-0.048478943;5.138517029;-6.758165388;-2.402110751;24.42044617;-18.41202816;12.84122902;-3.344536208;11.38369997
14.35839831;10.44049029;-8.091005773;6.614487228;-6.135107461;-11.7730578;-6.876100025;-4.859965445;5.22016247;-13.86801177;-7.780446987;0.936955101;-8.081826476;-6.858981188;15.02567538;-18.27778955;8.747159824;-3.354585868;16.25103497
17.04949006;10.21683435;-11.99054291;8.813534032;-6.358929242;-12.08622261;-6.543724147;-7.498042851;2.648217715;-17.04345703;-13.29351099;-2.284905229;-10.04286178;-10.12577084;6.281012997;-17.95658391;5.451476842;-3.36196031;20.12815879
16.12654672;9.988922829;-10.03762919;7.357186163;-4.460476364;-8.816411583;-5.769054841;-7.139222974;3.334036023;-17.42941043;-14.78354712;-3.240039063;-10.6162484;-11.52711059;1.637022123;-17.72942727;3.794488198;-3.424221638;18.98954321
12.43453585;9.806288307;-3.735558013;3.176213008;-1.747575107;-3.770114846;-5.197625719;-3.203732275;6.43011457;-15.35887188;-12.65384514;-2.344346037;-7.915065128;-10.48279093;1.516135856;-17.73146123;3.657047906;-3.554669999;10.96111934
9.660377293;9.622968039;3.657679584;-0.912423225;0.208304819;0.458378398;-5.19014016;1.975707811;9.903118332;-12.38403375;-9.085617904;-1.296820854;-2.403578569;-7.254358809;3.563747717;-17.82101837;4.136470945;-3.722302303;-1.710629417
11.8765676;9.312113915;8.633717599;-2.159440501;0.267236868;1.819132678;-5.615705638;4.676805273;11.72383107;-10.71167513;-6.699873475;-1.90677284;2.778124987;-3.473306074;4.489473945;-17.7358585;4.08426783;-3.873630782;-13.36973592
19.69818048;8.783060193;8.902080055;0.05735665;-1.896435281;-0.238387025;-6.02698573;2.620646203;10.73956274;-12.23440828;-7.174602246;-4.941489369;4.031820274;-1.493988005;2.167368195;-17.39728264;2.752238274;-3.953501333;-18.25301773
28.25121402;8.104011625;4.406016878;3.514773009;-5.796372652;-4.628094504;-6.049352855;-3.268061638;6.867339907;-17.5652618;-10.56300748;-9.638655969;0.335923322;-2.73857783;-3.252231078;-17.07375233;0.242925027;-3.915672372;-14.24271735
29.42870802;7.508369977;-2.49282626;4.463819726;-10.38850698;-9.276411718;-5.665785545;-9.641315393;0.895214804;-25.58559051;-15.49880553;-14.05207275;-5.54253543;-6.334360245;-9.631378338;-17.2263005;-2.478301239;-3.732590818;-4.342246663
17.65245783;7.252098529;-7.984485989;0.325565478;-14.41042199;-12.14511074;-5.188563505;-13.29650124;-5.679264504;-33.81999064;-19.94817604;-15.94435745;-8.844510474;-9.338651726;-14.07215524;-18.13798959;-4.055479127;-3.415039145;5.340385593
-4.957318071;7.421954314;-8.808584429;-8.030216029;-16.7352303;-12.10909333;-4.973456654;-13.28715296;-10.76461714;-39.5152876;-22.02414359;-13.75961316;-6.251165316;-8.618470143;-14.27737881;-19.63407324;-3.471980187;-3.033625582;9.746039348
-28.44769099;7.851223395;-4.344384094;-16.23058846;-16.7387089;-9.332818214;-5.129759838;-10.9030402;-12.14577893;-40.88810064;-20.58288786;-7.299054354;1.805092593;-3.060068359;-9.460309111;-21.14330403;-0.624780334;-2.71625849;8.150686759
-40.90696976;8.222371574;2.645169429;-19.00328097;-14.61603235;-5.073740268;-5.457598154;-7.892775545;-8.531749582;-37.90062238;-15.5641304;2.088245128;11.70442456;5.546015433;-0.627972737;-22.07378847;3.610412198;-2.602429739;4.200694622
-36.48666882;8.28447871;7.513672489;-13.88540014;-11.45593578;-1.08303699;-5.639015055;-4.862380622;-0.701063498;-32.20097445;-8.078692932;11.84240218;19.38330556;13.57959274;9.705389946;-22.21289833;7.864328477;-2.767751109;2.777796427
-19.5199818;8.017020241;6.839446601;-3.348949454;-8.870133875;1.114722981;-5.503308137;-1.397152641;8.249724811;-26.32359491;-0.14259215;19.00251569;22.86943131;17.77386177;18.29600476;-21.83670308;10.98622945;-3.164847812;6.168639716
-1.313098619;7.61560216;1.058581261;6.527652418;-8.199887068;0.795019685;-5.146491428;2.449658412;14.20107087;-22.58178597;6.034288402;21.3024498;22.71359061;16.9357829;22.32030813;-21.45264608;12.51671025;-3.627745753;12.45731289
8.142924266;7.322751685;-5.485904264;10.24547164;-9.673692579;-1.72156154;-4.825631891;5.167261381;14.36544424;-22.13521887;9.032852527;18.18206358;20.50096629;12.18096768;20.56449194;-21.39770917;12.65502116;-3.948548149;17.23129519
7.132457999;7.250108976;-7.447464568;6.966593657;-12.08388149;-5.220741262;-4.737432028;4.72420343;9.194643021;-24.55462651;8.96758733;11.22573778;17.2729214;5.881067039;14.08269914;-21.62098073;11.84506654;-3.983991217;17.08946908
2.390791961;7.332356325;-2.380492131;1.249265761;-13.34847525;-8.09058608;-4.868647828;0.818164286;2.368731373;-28.0143906;7.417844969;3.661186209;13.41469508;0.337938857;5.81565866;-21.80911023;10.36999226;-3.725922643;12.14648163
2.544073694;7.429022358;7.304548949;-0.456360446;-11.7743897;-8.995403527;-5.024426545;-3.828261379;-1.365406351;-30.09782958;6.409187019;-1.035783891;9.770256479;-2.963231674;-0.825778909;-21.71804279;8.273500179;-3.294027619;5.704394444
10.4385325;7.46304607;15.95645354;4.92814822;-7.293355575;-7.476558624;-4.987072607;-4.89538188;0.81871633;-29.02097975;6.995417898;-0.855454628;8.302768064;-3.446154097;-3.712677905;-21.40947262;5.594300128;-2.862817228;1.606154661
20.88485989;7.467623762;18.7317499;14.2616313;-1.826100932;-4.218470716;-4.666522391;0.039994731;7.998312408;-24.80458384;8.406796023;3.602792746;11.0283862;-1.350231163;-3.039766032;-21.19129811;2.612218;-2.575850616;1.534261315
25.67394979;7.513546326;14.96364839;20.31653805;1.597622673;-0.815974651;-4.137478974;8.807426052;16.04161527;-19.69893817;8.464833047;9.28119263;17.86257975;2.2396797;-0.967292076;-21.3305383;-0.18033323;-2.498139126;4.310320871
21.37582031;7.607002507;8.247821709;17.53324293;0.54155059;0.920491171;-3.565650949;15.41223824;20.11184561;-17.31039081;5.118341413;12.18816997;25.52554944;5.480534002;-0.063024444;-21.804771;-2.372171223;-2.619431422;7.41744058
12.89445789;7.669792855;3.304296337;6.868731715;-5.318176662;-0.148803127;-3.104081226;14.22662988;17.48369002;-20.55830259;-1.884578386;9.586568371;29.11601787;6.426090087;-1.551936357;-22.31431224;-3.894709541;-2.882698816;9.157914469
9.350285801;7.622379132;2.299775589;-4.438540937;-13.81742165;-3.8376953;-2.833371319;4.531007188;8.99;-29.50786069;-10.36713354;1.668167896;25.64688669;4.22225537;-4.510374133;-22.53864866;-4.959649711;-3.205773221;9.577548178
15.62815648;7.478574395;3.671067408;-8.458370884;-21.35528835;-8.591922713;-2.757221622;-8.31427903;-1.544513929;-40.57949253;-16.6739658;-8.282494717;16.79458745;0.069612525;-6.490733752;-22.40362291;-5.695451414;-3.489396965;9.626570795
27.00782586;7.342627091;4.254070125;-3.293486759;-24.78330439;-12.1767653;-2.819785293;-16.29512696;-9.302779331;-48.05658074;-17.69180461;-15.44776017;8.34302655;-3.023208143;-5.10935969;-22.12240183;-5.835797966;-3.631382923;9.674744713
31.98653894;7.297313553;2.621215367;4.616517967;-23.04021416;-12.82010393;-2.921045851;-14.31996347;-10.73474946;-47.34296311;-12.71277354;-16.00066777;6.346284792;-1.938523113;0.446210535;-21.98153421;-4.828665108;-3.564132613;8.967307701
21.48270896;7.291319473;0.50724958;4.963202616;-17.61449637;-10.22608399;-2.941485035;-3.704106384;-5.084296214;-38.0147725;-4.006723482;-9.235043415;12.80699838;4.343985226;8.876241562;-22.07332317;-2.37728358;-3.302071478;6.55555106
-3.055411601;7.153270041;0.983670119;-8.257478591;-11.62865271;-5.857042161;-2.793583087;9.051207405;5.294087895;-24.50784139;4.225078808;1.905624491;24.23973252;13.61612278;17.38861843;-22.22088821;1.00855249;-2.95857538;2.715081518
-29.56038573;6.747704717;5.067706474;-31.21518213;-8.123050982;-2.229762378;-2.481296017;17.08546875;15.88620907;-13.67213748;7.898036188;12.25552609;34.26014114;21.40077363;22.99501528;-22.16400318;3.97784904;-2.701339028;-0.676970827
-43.72022619;6.143309024;10.00737531;-52.00066293;-8.508672351;-1.534005795;-2.11352036;17.79187935;21.99056927;-10.57949299;4.9894392;17.07558905;38.13702213;23.56367312;23.761387;-21.83393137;4.983809;-2.660681249;-1.386657485
-39.2585676;5.626509856;11.10101536;-58.73527821;-11.98042735;-4.331483814;-1.836359447;13.84874701;21.0614251;-15.33414293;-3.544920659;14.48875126;35.75962514;18.88842637;19.51138684;-21.46048886;3.212603556;-2.849871194;1.287454694
-21.96966393;5.513912976;5.727133132;-48.02734934;-16.10700243;-9.124242184;-1.719557666;10.37747354;14.30878749;-23.09431201;-14.20254662;6.371906623;30.9213889;9.868105976;11.8514856;-21.40192852;-0.884119109;-3.157748985;5.672112192
-4.532118523;5.898370473;-3.908359968;-27.32344096;-18.19808807;-13.11864633;-1.689602484;10.93545863;6.401219766;-27.33611629;-22.42087054;-2.759646139;27.89261625;1.179532758;3.613422815;-21.83747584;-5.872694794;-3.423834633;8.791971588
3.340335536;6.542336079;-11.93593338;-9.367245728;-16.70767887;-13.80078499;-1.579489482;15.5288588;2.962106991;-24.12536957;-24.47657052;-8.213287355;28.2975578;-3.110533111;-2.132279183;-22.59120861;-10.24111402;-3.542606683;8.566862377
1.328648942;7.026278642;-13.24357072;-3.083627009;-11.98229259;-10.41817946;-1.268255639;21.66733626;7.0447208;-14.48847366;-19.08573547;-7.53419194;30.67925472;-1.763639608;-3.269520761;-23.24798037;-13.25421289;-3.519997525;5.32962985
-3.235128187;7.049668607;-7.601658524;-7.868807216;-6.027138742;-4.479394726;-0.79558486;26.8303516;16.85819967;-3.393717259;-8.098129441;-1.568758322;32.58273046;3.315707128;0.368515864;-23.47021219;-15.15168039;-3.443554679;1.410520295
-2.937110862;6.647065543;0.006354596;-15.38537411;-1.449159283;1.046966281;-0.345681157;29.92747049;26.58514657;3.7155781;4.077439656;6.30266313;32.89139649;8.638678686;6.75039874;-23.2493312;-16.62109161;-3.397654048;-0.820652816
3.327529053;6.144026972;3.269164234;-16.93749923;-0.128570187;3.375092786;-0.104022192;30.85536526;30.11438848;4.281058243;12.25146509;12.19003906;32.31419818;11.35684317;12.50728389;-22.88135508;-18.04775289;-3.397880204;-0.767604334
10.47770174;5.889897772;-0.457068921;-10.25726237;-2.299189874;1.429998143;-0.106775004;29.35463996;25.25252601;-0.332176909;12.79759796;13.75052878;31.97435877;10.72230742;14.67547382;-22.694226;-19.17416132;-3.39777741;0.223881893
13.0168126;5.987651814;-8.111034328;-0.429884011;-6.511429571;-3.607904711;-0.215976049;24.92045213;15.32445416;-6.446141821;5.468767611;11.15631285;31.90873776;8.078766965;12.41635933;-22.76690588;-19.4072438;-3.355007959;0.357531943
10.57104328;6.23838526;-13.46505615;5.215815866;-10.48803881;-9.009327216;-0.243895556;18.06081965;6.81348988;-10.77326093;-6.362642667;6.583895222;31.17322892;5.699574681;7.600308292;-22.88198781;-18.44785146;-3.290644655;-0.89570924
7.947029561;6.333450391;-12.0771491;3.494301178;-12.38926507;-11.99758661;-0.113575899;11.34071526;4.678701189;-12.17684038;-17.36676739;2.706753666;29.37818947;5.380337966;3.715377381;-22.74480265;-16.66679931;-3.282132151;-2.419519797
9.938768563;6.121045189;-4.588598031;-2.420778644;-11.76466667;-11.18077857;0.092374089;8.459262647;8.877314589;-11.54246515;-23.04489378;1.162235903;27.80631329;7.587558372;3.64900434;-22.2671137;-14.90728298;-3.391814345;-2.702471556
16.20932641;5.72232804;4.1617319;-6.478183336;-9.65215707;-7.164226925;0.237730891;11.48875388;14.77172478;-10.39261902;-22.07681906;1.836211052;28.5612182;11.42962703;7.743191447;-21.65883213;-13.90493672;-3.59454244;-1.492473657
21.47499376;5.412753202;9.163426714;-5.455878658;-7.805640879;-2.102039564;0.286514952;18.58972108;17.05510767;-9.63136762;-16.7974432;3.227617527;32.26255324;15.22456492;13.46051468;-21.24402468;-13.82857925;-3.774084022;-0.255568716
21.00073038;5.387665657;8.866090724;-1.673116106;-7.569711754;1.483586516;0.347579193;24.69498521;14.01406286;-9.293062394;-11.48375635;3.522795314;36.59618764;17.26905923;16.96894678;-21.16495763;-14.30074353;-3.801205451;-0.940097656
16.0115632;5.618797639;5.541309694;-0.38466904;-9.117132738;1.965649731;0.557648552;25.27366002;8.707162207;-9.071511179;-9.542590387;1.690221569;37.60367731;16.511765;15.64183597;-21.24137408;-14.81402103;-3.634520379;-4.125455502
13.28808077;5.911496684;2.562088315;-4.40057159;-11.48705242;-0.649658373;0.916179774;20.30530231;6.220370038;-8.79501159;-11.42834593;-1.984336794;33.08773349;12.97835265;9.814898845;-21.11903069;-15.12758112;-3.361080283;-8.253913626
18.56305843;6.088413123;1.426950185;-10.97;-13.3083889;-4.80637028;1.248750633;14.85279772;9.415772913;-8.348560269;-14.62911306;-6.11319482;25.19157753;7.849247943;2.631744882;-20.58671029;-15.29609102;-3.139757808;-10.72535521
29.57381437;6.123008285;1.247510046;-13.90190709;-13.66078716;-8.208113578;1.361527963;15.1805769;16.76062419;-7.331846331;-15.64389296;-8.96113512;19.44851435;3.103559409;-1.900857847;-19.78722431;-15.36488556;-3.089095114;-9.982380543
35.7929213;6.111533735;0.810614827;-9.129604015;-12.51315334;-8.953912863;1.2541832;23.28301126;23.92199474;-5.100134063;-12.52279727;-9.31401087;20.53698854;0.744926911;-1.355424131;-19.1317287;-15.09381364;-3.206612268;-6.801366434
26.3742627;6.133870551;0.758375153;1.278564111;-10.5587862;-6.477356567;1.172430897;34.51389754;27.51593106;-1.393495639;-6.21686746;-7.059827265;28.14597533;1.849992605;3.719672931;-18.97864705;-14.04213239;-3.380808957;-3.66
0.258272748;6.155487668;3.357023988;10.41475706;-8.712248831;-1.851365886;1.408520025;40.81604199;27.61224261;2.995596662;0.102158088;-3.260733605;36.75587181;5.893174153;10.21805158;-19.34252737;-11.99007813;-3.482343614;-2.71067684
-30.45638078;6.071389916;9.828716805;12.2231593;-7.695259254;2.707656571;2.002473571;37.3587575;26.88284035;6.304055061;3.136578645;0.2832299;40.03294866;10.79872357;14.29247733;-19.87774139;-9.32276788;-3.459504008;-4.094084369
-47.81740858;5.843348707;17.90230955;6.693381075;-7.927294757;4.930888759;2.631190623;27.12054445;27.44986796;6.815013241;1.436464534;1.79364066;36.38174928;13.85821199;13.39127604;-20.15262176;-6.985352459;-3.364476027;-6.018237447
-41.01021882;5.582170746;22.43721345;-0.07557038;-9.586903827;3.662934931;2.843923281;19.13889211;28.62492907;4.091843953;-4.031962186;0.30078192;30.70773415;13.15305707;7.409168749;-19.98616532;-5.961958316;-3.296817118;-6.4801956
-14.75566919;5.476180561;19.28337148;-1.176280363;-12.56546943;-0.500001221;2.492452709;21.18302869;27.82939368;-0.60190316;-10.86026415;-3.858500559;30.28369526;8.733609114;-1.457287993;-19.56887072;-6.63643502;-3.317003237;-5.086088267
13.95945686;5.620019531;9.31383374;4.961608548;-16.23461212;-5.46384975;1.982068417;32.48806655;23.83603704;-5.087633339;-16.74545062;-9.066031245;37.70259299;2.816042941;-9.826872295;-19.27387615;-8.513472907;-3.401824712;-3.373639996
28.52654328;5.906623558;-1.140699845;13.02360428;-19.29082163;-8.680665369;2.061772682;42.73879002;19.02156543;-7.616251945;-20.41922148;-13.01837292;46.92114031;-1.257988897;-14.57268405;-19.3262261;-10.51223302;-3.473190828;-3.388660814
24.69468614;6.099449446;-4.475372287;15.44310037;-20.05977306;-8.441035046;3.243317237;38.90602345;18.00281459;-7.667386317;-21.50701065;-13.69723722;46.45691991;-0.825141507;-14.02509475;-19.61416991;-11.62031006;-3.469983834;-5.810961428
12.35341171;6.037530647;2.380418904;9.373385428;-17.34570954;-4.725577234;5.29;15.26675069;23.43132942;-5.667126323;-19.86360586;-10.31226431;28.09535793;4.542107432;-8.613810562;-19.79974843;-11.45681708;-3.400765688;-9.305394164
6.054086303;5.792160563;15.2704903;-0.137624463;-11.38875464;0.82824477;7.227667226;-20.98761876;32.76779739;-2.143132257;-15.31170155;-3.762034623;-5.441893546;12.69007813;-0.773223364;-19.6267869;-10.4050123;-3.335979938;-11.67098023
12.5259579;5.622414721;25.71213988;-3.932027055;-4.195729272;5.794893098;7.948091926;-53.20417321;39.52243638;2.663802148;-8.167802907;3.672172411;-40.28428689;20.03877948;5.956979523;-19.15499949;-9.305882794;-3.349786679;-11.76536758
25.71461761;5.749711514;27.30186846;3.256855888;1.225969822;8.173866803;6.987745648;-65.72803865;38.62705179;8.292485173;-0.000546166;9.333650371;-59.63701615;23.59190258;8.455438743;-18.71343394;-8.972402129;-3.459927589;-10.50343792
33.19259794;6.13892139;20.51163087;17.21528745;2.474066828;7.31569303;4.880733944;-54.00488388;31.50748556;13.32498803;6.376655921;11.45117901;-54.82659526;22.58230267;5.582154459;-18.60892162;-9.812190338;-3.611110885;-10.05186146
27.93444627;6.482157374;11.9543642;26.15051206;-0.742215884;4.137031075;2.785595413;-27.16162861;25.90865002;15.56720615;8.146901984;10.00626929;-31.08470877;18.74285417;-1.07503312;-18.8381706;-11.68804076;-3.71118529;-11.92355447
14.90652218;6.416629964;8.746560261;19.23087345;-6.220617048;0.593662911;1.651563513;-1.435217544;29.5787521;13.52050724;4.318217045;6.695365897;-3.765831471;15.09055434;-7.891785066;-19.05394832;-13.98854245;-3.691560116;-15.62310782
6.588811909;5.809289774;12.70737244;-4.635741193;-10.38203813;-1.27785086;1.564074402;10.58256275;42.44509216;8.103553634;-3.245392024;3.933258505;12.15761022;14.0823548;-11.16397482;-18.82441098;-15.84297064;-3.550795885;-18.99439535
11.34828583;4.88;19.28201537;-34.76208684;-10.27716477;-0.297760208;1.774503296;7.219125986;54.09766818;2.906232051;-10.60778431;3.404079775;11.5526032;16.35033568;-9.260560833;-17.97841526;-16.44632645;-3.356119013;-19.94250388
24.99725323;4.064242588;22.05316904;-55.33861195;-5.256050627;3.327691984;1.373093465;-3.134562738;49.8528557;2.185187698;-14.07269894;4.996314296;0.866684836;20.70954079;-3.598189565;-16.75565214;-15.43789817;-3.205215234;-18.0503154
33.29228675;3.724242187;18.87481392;-56.04236;2.731612357;8.086411909;0.050080414;-9.506723131;21.79543428;7.754532732;-12.49032636;6.808476749;-8.404902526;25.17915605;2.283929882;-15.63987792;-13.17231722;-3.171585105;-14.7662079
23.7249045;3.929155906;14.15740998;-38.77199195;10.35069154;11.82279509;-1.668662699;-6.423427577;-23.47533723;17.20389872;-7.877882103;6.305383265;-8.89448099;28.12630288;5.008071396;-15.0117479;-10.66046788;-3.263216803;-12.11329054
-3.200457345;4.453601779;15.02355536;-15.65467938;14.79126475;12.73180916;-2.88171008;3.170218622;-66.98032173;25.17267583;-3.843170223;1.977031858;-2.077360995;28.79428075;3.480148858;-14.89948098;-9.085535079;-3.417712859;-11.11020296
-32.87688864;4.962964437;24.33443934;-0.117297416;15.17455345;10.26452071;-3.064312228;11.48718448;-88.76501857;27.06080892;-2.939505846;-5.526161158;4.480996231;27.18455778;-0.596657611;-15.01614305;-9.098097771;-3.540213625;-11.23111329
-46.99889834;5.221260882;36.52276051;2.097018148;12.67476908;5.494449318;-2.482738459;12.4506189;-80.74193697;22.44117735;-4.912264042;-13.54288518;4.288259449;23.81665826;-4.123475156;-15.03182976;-10.33891283;-3.56666401;-11.21803354
-37.21810617;5.17516559;40.20390973;-4.555514823;9.460676501;0.685263012;-1.942674604;6.01560279;-51.68857581;15.43364219;-7.133746436;-18.80718402;-2.678869429;19.7692332;-4.845183421;-14.84144241;-11.57760037;-3.513576398;-10.35684404
-11.12081956;4.89809677;26.16250076;-10.58059553;7.275087878;-1.809954431;-2.108648248;-2.588822447;-20.79611161;11.59885238;-6.846831214;-19.26857278;-10.47297285;16.78511643;-2.772970058;-14.60834838;-11.46061024;-3.473506496;-9.01581229
14.04832097;4.491536291;-5.149658317;-9.574851682;6.565904622;-0.783306227;-2.978641444;-7.408051336;-4.645505641;13.71292509;-3.450039063;-15.19903027;-12.55181878;16.83308302;0.184905335;-14.56700763;-9.402405842;-3.545243778;-8.042538154
24.52360343;4.041425023;-42.39957351;-2.731390634;6.582414378;3.147206515;-3.94238816;-6.193594076;-7.170745617;19.74896192;0.95123074;-8.921094175;-7.178657484;20.91809225;1.952581307;-14.77556759;-6.001886529;-3.738438527;-7.726150158
19.36860696;3.637144803;-69.66088977;3.457882219;6.176567828;7.842729729;-4.342010242;-1.452307563;-19.47524914;24.64118002;3.128262986;-3.391773516;1.554822046;27.86794517;1.922529141;-15.04449088;-2.677785318;-3.92735455;-7.408864895
9.024220675;3.3844469;-75.91547913;3.76208004;4.670533691;10.80581256;-4.034528122;2.181111609;-28.59809616;24.35133084;1.187256646;-0.591129206;7.500294013;34.34917494;1.21171418;-15.10331237;-0.77469656;-3.909802587;-6.147281975
5.201660146;3.359871251;-61.25695591;-0.851832153;2.254734532;10.54606607;-3.480246635;1.779538544;-27.72413578;18.94080991;-3.991636116;-0.701336372;7.494342237;36.70853077;1.451588036;-14.85075445;-0.764826263;-3.553265283;-3.757331129
11.13557558;3.537479564;-35.86799629;-4.163855252;-0.208819816;7.358425494;-3.310078125;-1.837895068;-19.97962016;12.28479224;-9.364543128;-2.433083881;3.468985325;33.67883618;3.256186227;-14.45496538;-2.070019531;-2.929855589;-1.161831093
20.20725769;3.771819439;-13.04459339;-0.680639256;-1.723383748;3.081101702;-3.773549986;-5.111586202;-13.74080656;8.90972513;-11.79045067;-4.061366596;0.26332112;27.83728371;5.746134667;-14.20151901;-3.549009314;-2.324734808;0.389221236
23.32292467;3.879084832;-1.386139115;8.529705247;-1.662379681;0.021163002;-4.549948432;-4.632802572;-14.30615301;10.7337392;-9.905541966;-4.365511467;1.425252996;24.22284087;7.544308117;-14.21518957;-4.231133296;-2.080275801;0.539979625
17.93207338;3.759476702;-1.159534793;15.35275671;-0.005447729;-0.290641125;-5.064588614;0.429652022;-19.22509;16.30941349;-4.482635496;-2.948029439;6.656790944;26.65885037;8.315273827;-14.30734412;-3.785473517;-2.365257272;0.292803612
10.52723955;3.45230955;-6.35171778;10.40339661;2.717062346;2.179085668;-5.004456445;8.02077981;-20.89371865;22.78879189;2.693311729;-0.020595237;12.73205868;34.47478354;9.36;-14.10763757;-2.513824297;-3.036185266;1.14048083
10.48436759;3.073802996;-9.97990741;-9.188083457;5.662129353;6.082294251;-4.569804315;14.89286065;-13.67040854;28.45731079;10.21356154;3.866985044;16.58301823;42.50159299;12.53540459;-13.39685564;-1.042020171;-3.711381816;3.533928105
20.79169329;2.704968318;-8.628745487;-36.12431896;7.971627264;9.455253377;-4.255996595;18.79736172;0.848567128;33.44278129;17.45236335;7.833268194;17.61029259;44.86727766;18.26482658;-12.36966497;-0.020823943;-4.026210857;6.079257228
33.97172039;2.352961198;-3.568116559;-56.65;9.043691213;10.65628252;-4.388161717;19.589948;14.81872907;38.21803034;23.83942763;10.57734887;17.37980805;39.88203287;24.3813917;-11.58749715;0.027153034;-3.890919204;6.348054351
37.105914;2.034689685;1.40347558;-59.33225514;8.714699756;9.036458581;-4.841767043;18.71366908;20.32343395;41.80168506;28.02292688;10.66037388;17.45251165;31.90745001;27.08881896;-11.61968527;-1.179666131;-3.552952092;2.811302753
22.17321502;1.889044773;3.236185518;-42.7272632;7.296344394;5.144229156;-5.194442509;17.76135856;15.40301757;41.88889164;28.10767923;7.34971523;17.71299443;28.09135434;23.67437322;-12.62782872;-3.480164598;-3.403438735;-3.650482802
-6.615526958;2.159930232;1.73463984;-16.44197704;5.444850081;0.487204886;-5.150695474;17.3339447;5.062372999;37.1416291;23.11069087;1.564441033;16.82904955;32.00428346;15.03394923;-14.21299414;-6.076444096;-3.665342098;-9.990961116
-34.51568554;2.994164804;-0.542288976;5.162848493;3.907621603;-3.030328817;-4.834114794;16.96880367;-3.153388864;29.44161428;14.45578738;-3.961530264;14.23512705;39.23745499;5.897272029;-15.6567969;-7.648573153;-4.202505477;-12.95264491
-45.924636;4.194613715;-0.16899829;12.14197587;3.251813586;-3.849716447;-4.673372226;15.98498242;-4.967871277;23.50407082;5.971802769;-5.853405116;11.47194119;39.14067215;2.167233325;-16.38865473;-6.967016767;-4.605239071;-11.2880548
-34.87326101;5.174821823;4.715200849;4.641588984;3.676590745;-1.472370536;-4.99170846;14.41486621;-1.787822754;23.51121863;1.915502179;-2.177175831;11.30189079;22.31941889;6.961761313;-16.33729539;-3.764196508;-4.495945127;-6.551434511
-8.737905164;5.246207101;12.78680512;-8.542677543;4.949356802;3.158625841;-5.688608606;13.2168422;1.756004871;29.41884321;4.214082784;5.907615446;15.18911823;-11.33468906;18.12021474;-15.91333643;0.756952263;-3.822682551;-1.884609764
17.17370233;4.094412582;19.72670962;-16.95465904;6.449467817;7.906509435;-6.319044057;13.59473377;2.413497011;36.4436391;10.99044942;14.27276227;21.44354429;-50.42676174;29.12306342;-15.65215004;4.325196416;-2.912340713;0.215099355
29.89;2.094202492;20.45759712;-15.671992;7.305662806;10.37162995;-6.505759071;15.97552991;0.868366861;38.80542993;17.65682083;17.99329038;25.94915528;-78.09584584;33.05312235;-15.80076951;4.86509497;-2.240126233;-0.571488871
26.58399129;0.17491477;12.53904262;-7.673483238;6.651829788;9.139919381;-6.304013894;19.47716713;0.31846191;34.93549344;19.94811253;14.35224432;25.19226008;-82.54925113;27.04283588;-16.16239872;1.869442572;-2.09304529;-2.604537355
14.96199019;-0.73076625;-1.264779109;-0.262388217;4.011456394;4.66561462;-6.170282199;22.33702984;2.875512818;29.51680989;16.72238088;4.692577942;19.20397179;-64.65611087;14.20998694;-16.30003906;-3.096358021;-2.385177779;-3.868939605
6.7532516;-0.285254166;-13.38862223;1.153198473;-0.298030937;-0.817495121;-6.544636206;23.04282517;7.352366553;29.8967254;10.46448308;-6.247363991;11.91295671;-37.06175064;1.747625386;-15.91948458;-7.21417186;-2.758059673;-3.528353958
9.282376929;1.047623905;-15.5288772;-3.003556559;-4.999764628;-4.437314432;-7.418562923;21.3557835;10.42544312;39.16564683;5.16809021;-13.20302752;8.440377803;-15.48596829;-3.560670415;-15.12153972;-8.083989503;-2.872835999;-2.262280673
20.74469788;2.350439229;-4.46394364;-7.566398379;-8.19903278;-4.283746115;-8.292570525;18.46555866;9.883745967;51.58028981;3.285059742;-13.59449927;11.36645017;-8.619696815;0.576516603;-14.33129466;-5.135738567;-2.656308849;-1.335834508
31.81184833;2.897550113;14.22655764;-7.391953175;-8.255177852;-0.517130552;-8.59037543;16.14760536;6.77693144;54.85130372;4.113555022;-8.939312338;18.86270358;-13.8566668;10.88583259;-13.97183467;0.161234446;-2.314462002;-1.386836876
32.03097954;2.615528759;27.85687292;-1.710330889;-4.801885572;4.715915271;-8.183141873;15.53897686;4.415097193;38.58754038;4.800068359;-3.564919193;26.10389881;-21.39882795;20.95764211;-14.14683967;5.372513018;-2.125145312;-1.996464166
16.79687101;2.028368674;23.73853364;5.404876767;0.736936601;8.529426956;-7.558923934;16.43266934;5.180158294;2.930439612;3.023205651;-1.590063477;28.79214129;-22.8462799;25.3444459;-14.57706699;8.637794732;-2.198163219;-2.277163059
-9.295222148;1.76610962;-2.377670813;8.594630129;5.639139094;8.946542914;-7.464808468;17.58366855;8.160039063;-39.45911263;-0.893077705;-4.297844084;26.05419526;-17.31539401;22.57492754;-14.82855283;9.597552683;-2.402092916;-1.786228972
-34.61417872;2.049262054;-42.29355074;5.694560492;7.302513472;5.94981692;-8.30479458;17.73714359;9.853010912;-70.30275279;-4.173810332;-9.646664966;20.61791757;-10.68515361;15.32605556;-14.64555752;9.17573308;-2.502681562;-0.877740785
-46.93191847;2.553481926;-79.15049238;-0.573286231;4.83038451;1.340729783;-9.798170148;16.55431989;7.361134295;-77.0394074;-3.926765299;-14.08254432;16.39439397;-9.417540083;8.054242593;-14.13325474;8.567935184;-2.376487953;-0.237682148
-40.47370693;2.72849724;-97.13891257;-4.984323579;-0.242365896;-2.423731463;-11.19275763;14.7488209;1.205557733;-60.58525679;0.291936738;-15.21466238;15.53011057;-14.63930332;3.989482644;-13.66518879;8.302457912;-2.110437283;-0.15035541
-19.41506747;2.275473261;-90.89794471;-4.168046437;-4.686058738;-3.649585098;-11.86116856;13.42232024;-4.79115805;-34.00804907;5.77059829;-13.43594097;17.15933978;-21.45371732;3.504753144;-13.60421213;8.040039063;-1.911067175;-0.256602388
4.496048638;1.381851314;-68.27290949;0.737264838;-5.461587358;-2.239970103;-11.78533899;13.22197004;-6.514089066;-13.29606514;8.399421149;-11.46870976;18.53160292;-23.66268311;4.616967282;-14.05373028;7.101332825;-1.919132491;-0.024865297
19.05542423;0.542769889;-44.59797971;5.312478646;-1.627385632;0.452537098;-11.53118156;14.00599613;-2.884157912;-7.107867071;5.568865765;-12.33795361;17.32134672;-19.44820028;4.828316876;-14.81036846;5.153855422;-2.10200851;0.577901915
19.14703684;0.15151177;-32.59061212;5.865511203;4.974169352;2.539044619;-11.74631334;15.18469201;3.307245071;-12.7427621;-1.96257734;-17.28778227;13.24085878;-12.97772349;2.803354376;-15.52316689;2.480566213;-2.314279783;0.935081359
9.710877672;0.215442621;-34.90549292;2.772639601;10.76666405;2.667646186;-12.60998945;16.30387515;7.680545247;-20.48579888;-10.55817068;-25.01042878;7.936975451;-10.65359383;-1.150101464;-15.91749275;-0.288000821;-2.456403302;0.350342207
1.846727251;0.415975019;-44.20275891;0.241374266;12.62174937;0.672071626;-13.69193986;17.30569848;7.662330521;-22.12014494;-16.08368669;-32.50564254;3.634567753;-15.41811229;-5.739133657;-15.92156531;-2.624119191;-2.571536475;-1.196494597
4.46216154;0.421616448;-49.95991034;2.561754668;9.807576482;-2.460505556;-14.32198828;18.3210695;4.199327963;-16.74034593;-16.39794936;-36.79450628;1.809524967;-24.09537801;-9.648194055;-15.6356186;-4.307594821;-2.783577495;-2.875026858
17.30930773;0.159237198;-46.50125581;9.889889611;4.463636145;-5.175993283;-14.14498;19.36438474;0.608747043;-9.845828508;-12.28207688;-36.3335443;2.796568512;-29.97967957;-12.02704597;-15.21003906;-5.284348694;-3.135887179;-3.658834268
30.64599554;-0.182924432;-36.34640018;17.1303098;0.30284393;-6.140058594;-13.39639513;20.3717232;-0.167304513;-7.396468722;-6.438607671;-31.42811453;6.219766702;-28.32104478;-12.3867945;-14.74793232;-5.448228232;-3.4934633;-3.25703726
32.12509135;-0.38767854;-27.01222997;17.09582413;0.36848695;-4.854983036;-12.68729923;21.56631701;2.489579148;-10.33293084;-1.571512092;-23.72798927;11.48637921;-19.99582813;-10.37191656;-14.29453273;-4.663764693;-3.621576788;-2.450457236
16.08570291;-0.436536388;-24.4838365;5.730404395;5.241850699;-1.867255519;-12.50279019;23.63784639;7.084844098;-14.10479149;1.016416071;-15.37646772;17.81709237;-10.41284111;-5.878353372;-13.88679609;-3.047344132;-3.390918936;-2.452993125
-11.63;-0.517699297;-28.73634316;-14.50789614;12.75815287;1.488428834;-12.84068988;27.27042508;11.69782973;-13.17156292;1.556896489;-8.325651978;24.01184239;-4.887368243;0.515165655;-13.58815639;-1.192692825;-2.930125201;-3.805783484
-37.07;-0.8190795;-34.51051492;-35.66682698;19.31079317;3.68572412;-13.27272953;32.21245032;15.33510206;-6.260469024;1.002639328;-3.958404903;28.55298182;-4.603920952;7.307691435;-13.46588138;-0.009378886;-2.57394812;-5.785409567
-47.40223051;-1.31405998;-36.09460861;-49.01145538;21.87226312;3.687575587;-13.34271753;36.74661641;17.84411512;2.214226073;0.158954226;-2.887171472;30.30298988;-6.470285721;12.49468011;-13.53486781;-0.179729818;-2.624827816;-6.908045607
-39.22530075;-1.749267347;-31.84892817;-50.08354762;19.52569043;1.411468035;-12.94684007;38.34966988;18.94043176;5.691700658;-0.607887833;-4.831900667;29.32797587;-6.565308663;14.56716285;-13.7288634;-1.623335891;-3.112879057;-6.161254163
-19.99353707;-1.850810722;-24.89489855;-40.73549333;13.72050891;-2.237798951;-12.38719459;35.40180586;17.80042479;0.880075684;-1.135758904;-8.666783675;27.04368014;-3.801845961;13.44360644;-13.93487723;-3.422971151;-3.755021101;-3.928301153
-1.924292657;-1.562323868;-19.88677604;-27.17408328;7.285316558;-5.787059914;-12.08718866;28.74379766;13.93916992;-9.462916622;-1.189324104;-12.78177618;25.34713091;-0.534421964;10.60981626;-14.06750219;-4.329083809;-4.156798859;-1.791773613
6.6234827;-1.101080046;-18.99616031;-15.87328287;2.901084642;-7.863812282;-12.23671788;21.69410021;8.523855173;-18.54607586;-0.497509583;-15.71654401;25.29163354;0.148467937;8.264273228;-14.12353566;-3.504277672;-4.100159109;-1.341959689
5.813143666;-0.786128718;-20.55495795;-10.3107887;1.894391769;-7.794370182;-12.66443327;18.17902654;4.516689005;-20.56488763;0.973835526;-16.76326424;26.35830154;-2.348394234;7.986147521;-14.17485485;-0.986584388;-3.687963962;-2.962119068
2.150467679;-0.795266401;-21.20536765;-10.28834167;3.870503653;-5.862643973;-13.01366235;20.15654579;4.96966905;-14.68746645;2.855892978;-16.17616085;26.96419598;-5.509949824;9.794264653;-14.3092917;2.41020938;-3.234959581;-5.581643355
2.101904712;-1.060447667;-19.30790711;-13.40306411;7.177865666;-3.14431028;-13.03885907;26.24122596;10.61076983;-5.09762512;4.520265888;-14.8663413;25.83073943;-6.251433804;12.18476104;-14.56746459;5.601160291;-3.004806258;-7.565123683
7.057200487;-1.373514269;-16.4267576;-16.9245436;9.816414713;-1.025622752;-12.76409535;32.64498619;18.81998938;2.513493557;5.403508243;-13.8127473;23.09285281;-4.132517634;13.06290418;-14.91806323;7.724212878;-3.014974209;-7.958891803
13.35369909;-1.581614299;-15.61151128;-18.74200218;10.32157707;-0.619174734;-12.39697287;35.78643076;25.15481576;4.980183548;5.235808123;-13.58411098;20.22954566;-2.095959568;10.93896647;-15.27724655;8.32799402;-3.063575968;-7.062181154
16.46440592;-1.684272453;-18.14143517;-17.41790784;8.301617403;-2.286043092;-12.1136386;34.61933399;26.45474222;3.223287709;4.063733896;-14.21288075;18.89232009;-3.875392394;5.702523405;-15.54719024;7.297318176;-2.936945571;-5.92514836
15.15506634;-1.757281132;-21.79267313;-12.24461066;4.510784863;-5.421116717;-11.92278223;30.9873395;23.10611577;0.672897428;2.208867345;-15.3507402;19.64236527;-10.34029488;-1.332854874;-15.6485966;4.775794555;-2.605456596;-5.318232865
12.0643781;-1.806027605;-22.35715721;-3.795414322;0.492861971;-8.601700973;-11.71393941;27.92085456;18.62797072;0.348150911;0.321377195;-16.46092884;21.6636201;-18.12727118;-7.977800722;-15.54187516;1.23916441;-2.237498897;-5.132443047
10.76352812;-1.718895189;-17.27884253;5.598094322;-2.074238761;-10.11997502;-11.41261597;27.39146997;16.91329756;3.014759484;-0.566468451;-16.90853705;23.64388733;-21.94882357;-11.97922295;-15.24286482;-2.418129237;-2.032547469;-4.713057985
12.44258126;-1.385142315;-8.351587164;12.4454357;-2.118833568;-8.772462242;-11.07563618;29.2925645;19.36662713;7.448497269;0.706975847;-16.05;24.98063727;-18.73271017;-11.83922048;-14.82820524;-5.065993021;-2.037729918;-3.738629683
15.26909576;-0.865839643;-1.07622781;13.96354113;0.283750734;-4.5872833;-10.83614273;32.18523631;24.17949659;11.93197115;4.734505709;-13.50698867;26.1931817;-10.12079762;-7.485937122;-14.41086604;-5.87807762;-2.121141021;-2.749207559
16.60778814;-0.434468428;-0.952617926;10.04179364;3.84472525;0.934848859;-10.7624135;34.802104;28.12135554;15.38436153;10.75628484;-9.601314034;28.16385143;-1.263062505;-0.59314533;-14.07673207;-4.925784256;-2.123107301;-2.760221553
