Channel 1 - P4;Channel 2 - O2;Channel 3 - P8;Channel 4 - T8;Channel 5 - C4;Channel 6 - Cz;Channel 7 - Fz;Channel 8 - F4;Channel 9 - Fp2;Channel 10 - F8;Channel 11 - Fp1;Channel 12 - F7;Channel 13 - F3;Channel 14 - C3;Channel 15 - T7;Channel 16 - P7;Channel 17 - P3;Channel 18 - O1;Channel 19 - Pz
-125.5955012;60.24385207;-53.21499074;-116.3111008;-64.71341218;-49.97264619;37.72340618;-8.027471788;-13.69365409;-47.18094124;-3.354951153;-57.62229856;-17.45770159;-70.74850657;-49.12688426;-92.53875254;-61.91158693;-100.4951215;-108.7306948
-144.6867165;13.17944801;-88.33700019;-162.2075367;-65.76523764;-35.11563332;81.45448515;32.3473312;19.74338678;-20.76855817;6.477016692;-69.94662866;10.51972094;-44.08988934;-46.90618863;-134.4344976;-80.38815723;-111.4365345;-122.260203
-106.6396803;-33.43293072;-77.18762818;-141.9526175;-44.82978051;-9.367940876;88.60927867;57.5458974;44.9763273;23.89672302;17.80621574;-50.66585551;39.20600054;-8.541207082;-28.42602428;-117.7818238;-62.16578968;-75.20507976;-85.3447741
-33.91440603;-49.38319193;-30.58751553;-70.47048893;-15.2819398;11.11367176;57.40523109;50.9523589;46.56643394;60.55;22.25406912;-12.07914855;49.74696072;11.89051169;-8.70163343;-55.97026816;-20.55310296;-14.43421119;-23.96947493
30.53918655;-27.80121523;19.42390037;6.662497917;5.792155037;15.62450598;10.51814987;17.71905848;25.88911189;70.49811571;17.39931653;22.53409422;37.7935049;6.288623689;-0.296623836;10.37538545;17.99190449;34.39765435;23.24121755
53.23927905;11.54361506;42.24504503;46.16319239;9.383928564;5.830495464;-21.73667384;-19.46801331;-0.812668744;53.9636981;7.883434624;35.23656905;15.32610113;-16.02213653;-5.029856437;42.45477017;32.63775911;46.36817402;31.90394113
31.78472445;38.86284767;29.24880757;35.63642396;-0.374272032;-7.006789246;-22.77204825;-37.08460705;-15.3480087;27.18088026;1.088623085;24.72092134;-0.068391953;-34.66369811;-14.82801147;29.23750266;21.48739091;23.72096545;6.67851285
-7.261397605;37.09896487;-2.740415937;-2.625497913;-11.21003906;-11.72457193;0.396305725;-27.22671538;-11.11424725;8.749490758;1.092020913;4.60743347;0.817639273;-35.3802602;-20.03582462;-8.529579804;0.063173937;-9.143978922;-25.98291254
-30.91989097;13.01888408;-26.52508291;-32.89682948;-13.13790706;-5.825383714;25.27484674;-1.730914631;3.250097656;6.519353295;5.738812031;-8.735951215;12.90673764;-20.75983601;-17.66033263;-37.46738619;-12.56812468;-25.95875865;-39.8840814
-24.27132027;-10.90327439;-25.59474465;-33.79522401;-5.751965839;3.729621376;32.41291267;18.36168505;12.35548814;14.69147247;8.95037177;-8.484718398;23.01451052;-6.22476702;-12.77077955;-37.49079331;-8.367870365;-17.66819006;-28.06301947
1.621536046;-15.77911156;-4.91730564;-11.13628731;3.043623917;7.475559477;19.35416775;19.16871184;7.198460199;21.81029881;6.114385474;-0.304070632;21.90160385;-5.70956195;-12.59919845;-14.37365161;5.54066721;3.842174641;-4.772444391
22.47184765;-0.590025635;15.6928015;11.72313289;4.985402781;1.85040664;-0.125520103;3.467294284;-7.870642292;21.65867674;-1.947724439;5.114456068;11.60465534;-19.71964299;-19.15193814;9.031233779;15.10150912;18.38232052;9.022450528
21.92493651;19.33590362;18.77194421;15.42315956;-1.105664803;-8.009631063;-9.238641935;-13.27968587;-19.58817439;17.71889276;-9.592590896;2.456118188;2.303925782;-35.62959654;-27.043689;13.52622055;11.90600443;14.68623765;3.339189205
3.533380724;26.80088374;2.541545008;-0.445503415;-8.627076788;-13.0654544;-2.042661695;-16.19441774;-17.30491345;18.29933423;-10.90528028;-3.998089401;2.432682072;-39.15557344;-28.31931885;-1.519665987;-0.513705693;-1.854957697;-14.3052254
-14.8618211;17.09464211;-19.63357589;-19.81584012;-9.410423893;-8.312052039;13.17881272;-2.53848705;-1.741797772;27.651036;-4.441207981;-5.35219492;11.35600745;-26.6005163;-19.77592699;-20.27883397;-11.09089126;-15.9239542;-27.42725552
-17.71157801;0.478854654;-31.69366501;-25.59733818;-1.151393236;2.969136772;22.53821517;17.24788353;16.04574925;41.37378673;5.579703003;2.904300677;20.99748569;-7.495866915;-6.200277423;-25.83221606;-11.48657064;-16.24587263;-25.43336329
-4.459704596;-8.066806134;-27.93715496;-13.83084941;10.4040838;12.040236;18.77368532;28.88868007;24.06217965;50.03176319;12.42821462;16.2373979;24.25649282;3.967761696;3.349080849;-14.6054891;-2.963506047;-4.482442171;-11.82771267
11.72926348;-2.023983727;-16.02651291;4.799390919;16.25165723;11.95315853;6.583223572;25.72843341;18.91433157;47.44106592;11.78857729;24.84575111;21.81878742;0.800932731;2.979780133;2.057743773;5.653741502;7.731136481;0.349828059
16.66519019;11.94264257;-8.578153465;15.6462896;11.66309129;3.038023929;-2.665479056;13.08989006;7.711526617;36.16534346;4.697872476;22.32845048;20.67020563;-11.73385876;-5.260078125;9.166377732;6.394300138;9.802639973;0.686881796
7.370141027;20.9573556;-11.55093901;12.57574868;0.084496987;-7.730188918;-1.321849238;2.784082697;1.372416077;25.51265148;-3.481995563;11.4617749;25.64563376;-21.50025822;-13.24462265;1.35458801;-0.857338039;1.089839584;-9.914561858
-6.501738775;17.61137895;-19.58015572;1.709517044;-9.697352966;-12.56214148;8.365887267;3.137118052;5.539614908;23.98218411;-6.959838531;2.007826966;32.27060955;-19.9109764;-13.53848503;-13.37382007;-8.744214622;-9.648889469;-21.12069516
-12.25686085;5.911065617;-21.68505404;-5.487080419;-10.53450721;-8.810266666;17.14827243;12.97895706;16.75899074;32.70902738;-3.251588178;2.51759966;28.48486525;-8.312086806;-5.321153884;-21.78517112;-9.357301661;-12.82858778;-23.0347514
-5.506411109;-3.170655528;-11.69961805;-2.576445755;-2.234812537;-0.321296885;17.43302487;23.98640925;26.51025584;45.19723041;5.734605778;13.22490099;4.906494653;4.464155844;5.304391188;-17.37951839;-1.239585762;-6.462704655;-14.81478139
6.716261449;-1.853458005;5.857989882;7.159582165;8.850113886;6.36162051;9.725477762;28.48675962;28.8408312;53.00079193;15.50710733;26.00700713;-34.90782971;10.25874521;10.50875243;-5.483331202;9.623030186;2.84484511;-4.643111875
13.09200051;7.872821018;19.29204297;14.86728206;15.12257507;7.280378628;1.46139508;25.5993263;24.71776289;52.14162274;21.91974114;31.21629631;-73.72732184;7.907617095;6.86929218;2.40848141;15.30565514;6.518689502;-1.75666228
8.344137527;16.74155339;19.20774513;14.39838244;13.29373041;3.425137949;-0.113971206;20.71340683;19.73801072;45.03163194;23.11774082;25.44136697;-91.41481585;2.691981491;-2.486752268;-0.741464956;12.76173173;1.767053425;-8.139190101
-2.554513381;16.9334611;5.781651176;7.15245539;5.910308656;-1.220993983;5.692304258;19.49930436;18.01750208;37.06789892;19.64446824;13.79180071;-79.35923403;0.459638051;-10.95068457;-11.61308191;5.980862069;-6.44852856;-17.2389056
-9.549441766;8.912379178;-11.9401164;-0.133826682;-1.6659058;-3.560812313;12.94954086;22.33704485;18.28855805;31.66906997;13.35820339;5.224841522;-47.11032138;2.416184508;-13.62385244;-20.20501878;1.965314342;-10.48683143;-20.39052622
-6.809110383;0.456358667;-23.47626752;-1.772529408;-5.651924438;-3.539898246;14.91064001;24.26272849;15.78136387;28.28966354;6.336956908;5.263864525;-15.66124248;5.183496236;-10.2816352;-19.17419248;4.474335524;-7.070714519;-14.76179252
2.371675877;-0.753223975;-24.50011705;2.334006689;-5.886259005;-3.033116216;10.12384349;20.25265301;7.837512165;24.60192511;0.360118066;12.22300674;-2.490107429;5.298070397;-4.253436822;-10.19286102;11.12965545;0.133945238;-5.653523099
9.143267326;6.004205802;-18.63796507;7.553488148;-4.446611791;-3.132884904;3.387042562;10.74376245;-2.349953942;19.99874327;-3.29041009;19.56959327;-10.01808284;3.198822788;0.965649951;-1.879095664;16.10811207;4.379083815;-1.392468201
7.423676492;14.254835;-12.98683972;9.185517409;-2.913103907;-2.822365313;1.027751258;2.094556404;-7.738043684;16.62291014;-4.170915532;21.70490314;-26.14516046;2.660087891;4.020184051;-1.670746572;15.56659822;2.197477992;-5.734344388
-0.766676847;16.55194315;-12.02374459;6.336446509;-1.149468257;-0.362142415;5.086362239;1.312275743;-3.665420016;16.92505561;-3.100954206;17.94106308;-35.59496553;6.380258651;5.232431145;-9.248525617;10.75580226;-3.65645219;-14.66735036
-7.57802284;11.22393154;-15.10882814;1.886899266;1.502282616;4.147128491;11.68839389;9.641877898;7.283512622;20.40607228;-2.086937495;11.67724428;-32.28330328;12.32284445;4.636950917;-17.28361298;6.239095663;-7.140806449;-20.26917016
-6.756564829;3.569975758;-18.81496632;-0.626133522;4.326761559;7.839626726;14.83685496;20.82712748;16.43198337;23.1330008;-3.328196314;6.345473624;-22.77340652;14.72696311;1.101322917;-18.42213734;5.24806313;-4.71143861;-17.88353179
0.73421207;0.7175646;-20.89617097;0.121489809;5.028463697;7.084500013;11.92438368;25.89857282;15.64049491;20.94566427;-7.708670326;2.357403303;-18.85259676;9.187385426;-6.306354149;-11.91103727;6.691727043;1.488983848;-10.10596428
7.883440371;5.084758805;-21.84199866;3.009942748;1.773662081;0.829466098;5.914245186;20.63994188;4.013601479;13.57088663;-13.86479955;-2.17755546;-26.36259197;-2.813394398;-16.14572495;-3.950009766;6.552824636;5.829128238;-4.188321288
8.227512521;12.4033561;-23.01514733;6.330901036;-4.426473226;-7.784917356;2.392490467;9.400318726;-10.96215539;5.693444632;-18.72263501;-8.112634169;-40.01786668;-14.25285005;-24.19069985;-1.783298662;2.181619323;4.503238251;-5.447651267
1.67608324;15.87447852;-24.02627028;9.359132188;-9.545430934;-13.27643646;4.399240582;1.858429011;-18.90695397;3.594115594;-19.34563741;-13.02603633;-48.24582009;-17.79059427;-25.81694458;-7.149870172;-4.694291151;-1.056165213;-12.67575904
-5.658204698;12.43314038;-22.63242736;12.15854128;-9.251109041;-11.86129849;9.807020917;5.249165385;-14.2598839;9.971409705;-14.87176064;-12.66509169;-43.34262575;-11.47078582;-19.4991929;-14.99515681;-9.16174656;-5.720945045;-19.49774563
-7.223021626;5.376265951;-17.55819178;14.41854789;-2.449189118;-4.410706901;13.49184057;18.42285533;-0.10841349;21.36116314;-7.162559911;-4.971735002;-28.00255754;-0.065614425;-8.406135487;-18.32860102;-7.479778207;-5.544815539;-20.19316308
-1.952776832;1.136790585;-11.23272325;15.17677332;7.394833933;4.134093814;12.11336035;32.64505723;14.61496778;30.48244444;0.291499053;7.101779277;-12.86322601;8.939409896;1.495481204;-14.55501038;-0.613263619;-1.355718303;-14.63803247
4.994873404;3.360679575;-9.039257761;14.02456045;14.49704029;8.423648974;7.062694394;38.48465382;21.91994074;31.68426327;4.404767056;16.91649053;-7.613164665;11.12341041;5.469499036;-7.526523027;6.316094874;2.201928012;-8.075952904
7.147204331;9.743614392;-14.89639834;12.31313082;14.91488363;6.481305906;2.990533806;33.14640987;20.00739147;25.08501591;4.069689811;18.87367831;-13.46566179;7.817444906;2.991327853;-3.705138496;8.227129832;1.134958417;-6.205876516
2.615294139;14.36550677;-26.86212877;12.43319022;9.33050945;0.687187397;3.441396355;22.32899351;13.27127508;16.18110096;0.355691875;12.67455949;-23.11967064;3.864918033;-2.567686057;-6.208635732;4.228084616;-4.163135925;-10.16913926
-4.376832556;13.18435014;-37.16097431;15.17615577;2.28919457;-4.522146582;7.677897604;15.29072003;7.920482429;11.51070328;-4.502619264;3.496675895;-27.5950495;2.991568353;-6.982433802;-12.22435789;-1.884744439;-9.346556676;-15.84821103
-7.537005893;7.595326637;-37.54704857;17.619409;-1.364848917;-6.085549453;11.53155574;17.38243314;7.361209389;14.04348661;-8.404645098;-2.086478054;-23.625014;5.081701666;-8.200309029;-15.94742766;-5.089175248;-10.21104595;-17.83556254
-4.251191287;2.921179213;-26.10164859;14.21878613;0.076216103;-4.096615864;11.34701691;26.2242642;10.8929348;21.79696482;-10.13335494;-1.029859111;-15.40066763;7.433492344;-6.95213659;-14.08131242;-3.40194673;-6.568608745;-14.29266453
2.221141173;3.41374604;-9.745504275;1.133509295;4.480277129;-0.867452959;7.31094722;34.46358115;15.84016693;30.19092861;-9.396682568;4.426900387;-9.847430773;8.189111244;-4.941180642;-8.752272359;0.773409333;-2.31912265;-8.363709646
5.937866939;8.439692329;0.180932941;-19.50033415;8.092879487;1.412575596;3.155054304;36.47386834;20.33193748;35.64502917;-6.565629844;9.353553236;-10.2207684;8.300637266;-2.755746168;-5.28984737;3.199421389;-1.72847094;-5.121614486
3.747194273;13.25937695;-3.700624394;-39.35186322;8.538776019;2.191524272;2.631149351;33.13332171;24.05493725;37.42801687;-2.498312454;10.55799363;-13.768304;10.172502;0.387544629;-7.137708929;1.768372687;-5.429411034;-7.038307282
-1.998712456;13.50310878;-18.90586499;-48.76245542;6.160573872;2.168521386;6.080259863;30.58843564;26.90771217;36.84168166;1.579709093;8.988177625;-15.06053762;14.60046763;5.014902269;-12.69984542;-1.71197827;-9.855055488;-12.07732021
-5.830174082;9.127165045;-34.42492521;-43.37935358;2.99545725;1.87828335;10.21799209;34.09490191;27.75765574;35.26654136;4.427557;8.283373177;-11.39961675;19.35456879;9.825397407;-16.9630684;-3.360128075;-10.58522022;-15.89624049
-4.272263451;4.272138981;-38.46791667;-27.35736348;0.762969439;0.968276881;11.22578585;42.26196267;25.18711678;33.17396737;5.427278376;11.1095484;-5.164781505;21.07490882;12.11094619;-16.23617851;-0.826502606;-6.468823585;-15.88007813
1.070219304;3.316552372;-26.81773003;-10.40553251;-0.202713423;-1.061454191;8.227210659;46.7968409;19.65901822;30.70490476;5.083197906;16.69992523;-1.165187311;18.7497025;10.08031571;-11.52716859;4.668507388;-0.711893055;-13.2512988
5.180697038;6.87574454;-5.610309372;-0.873477257;-0.393438884;-3.578448973;3.976731331;38.37155275;14.57075759;28.61465797;4.813370017;21.68538841;-1.820426069;15.28195244;4.942479975;-7.474999139;9.596822513;2.041745282;-11.50493241
4.3486218;11.4039571;13.23942418;-0.278097254;0.052683917;-4.617391186;2.230968428;14.19905766;14.37099224;28.15137343;5.944980369;23.22202381;-4.857121367;15.30968954;0.551156633;-7.945877784;11.34636024;-0.078577959;-12.87944161
-0.48137684;12.6271183;20.21478741;-3.408137715;1.667299231;-2.354505597;4.307897081;-18.61626619;20.79634192;29.8612638;8.576361827;21.44095012;-5.638682349;21.01088616;0.535470016;-12.45452012;10.3712994;-4.531914161;-16.26489393
-4.739321686;9.516189565;13.90607912;-3.501250634;4.720009766;2.915662331;7.991973391;-46.72329885;30.56481801;32.73103702;11.27048526;19.05359692;-1.807166103;29.707714;5.228093252;-16.70332951;9.384655049;-6.763512425;-18.42483269
-4.544631722;5.127857682;0.595944596;2.053266022;8.138874065;8.242475214;9.697862616;-58.64999285;37.11334664;34.87199756;12.00035751;18.65095039;4.216565085;35.6360481;11.1071213;-16.65038052;10.52332258;-4.402827689;-17.22860745
-0.246591326;3.639505657;-11.08382013;10.10519273;9.709513825;9.786643541;7.803521404;-51.63378346;35.5394353;35.27549335;9.739024354;20.29624546;7.258034862;34.52274727;13.41148537;-12.27144942;13.24381841;0.58031006;-13.76254651
4.026159116;6.430333764;-15.90863372;15.09704217;7.76696106;5.72207318;4.066590222;-32.53459002;26.80133755;34.82514921;5.447231607;21.60311903;4.07782866;27.03612848;9.848249092;-7.544723287;14.90845719;3.691135239;-11.34263619
4.267799671;10.85727882;-14.23196529;14.07673609;2.996061539;-2.065087144;1.891643716;-12.66923528;17.41978397;35.31056517;1.57897289;20.11276512;-3.593418875;18.14038048;2.329366011;-6.740634247;13.43099034;1.997375382;-12.40808254
0.266815094;12.78905373;-9.943849687;9.018092758;-1.438667902;-8.999022936;3.137395293;-0.634593069;14.54338822;37.26653981;0.375097171;15.68850981;-10.43982118;13.02106256;-4.64989176;-10.50170179;9.425088228;-3.234305088;-16.23572824
-4.310133165;10.46534099;-6.75730799;4.79782806;-1.906940555;-10.90773396;6.439465312;1.900553355;20.27033126;38.94992947;2.218640914;10.72349773;-12.0807638;13.22274268;-7.525798206;-15.32232536;5.806373585;-7.696191667;-19.59539082
-5.389502679;6.082935368;-5.931755712;4.984275515;2.95972679;-6.852993391;8.54806015;-0.816409666;29.97217759;37.91;5.327729857;8.037779985;-8.643587652;16.25647131;-6.095165473;-16.84164814;5.209195265;-7.875343762;-19.70225017
-2.227799421;3.691031236;-6.608723287;9.158699476;11.03512745;0.41288211;7.3721425;-3.150319194;36.11720333;33.94133104;7.029895715;8.445510738;-4.267325114;18.63327327;-2.992069453;-13.85181554;7.616509748;-4.08114266;-16.71717222
2.020014648;5.415484177;-7.584760449;13.74348256;18.05679389;6.563962852;3.890400527;-2.281066832;34.43422689;30.30453214;5.633713384;10.18893676;-3.162424739;19.19070524;-1.008043977;-9.330241979;10.38584409;-0.002018865;-13.52026838
3.325488099;9.531516215;-8.576073717;15.16753054;20.58020541;8.632118087;1.201308342;0.780333365;27.23152424;31.17329681;1.492221605;10.65212454;-5.904022224;19.56775872;-0.837080712;-7.611679756;10.62772258;0.688230728;-13.03222011
0.517915249;12.12810064;-10.08539306;12.53614436;18.24842375;6.573831773;1.650092773;3.328145583;21.11668446;36.81269479;-3.446033879;8.695256809;-9.255927686;21.65953444;-1.183405033;-10.37609938;7.745748364;-2.454284103;-15.58745277
-3.73060094;10.76173833;-12.48941375;7.949196231;13.70278932;2.612870843;4.707848075;3.873630915;21.19116462;40.87262991;-7.100300308;5.486175689;-9.475984388;24.91507457;-0.804694999;-15.15879585;3.851758491;-6.447963927;-18.74140473
-5.494298932;6.695446397;-15.46566455;4.856582345;10.39755062;-0.701879428;7.521760347;3.341085943;26.813412;33.33343369;-8.537207929;3.194473495;-5.889794232;26.46593494;-0.238545595;-17.69707668;1.765505207;-7.733411302;-19.60257499
-3.269528948;3.686402777;-18.17424746;6.097341589;10.17779301;-2.029004278;7.564193938;3.887833253;32.57496398;8.122183152;-8.190356721;2.900439035;-1.416867098;24.14952083;-1.372812624;-15.87926686;2.512012094;-5.370937519;-17.47961139
0.687601549;4.499349927;-19.71299283;12.69140599;12.44048074;-1.408865621;4.906862971;6.724841918;33.47669307;-30.18100114;-7.113257443;3.710542491;0.321028571;19.37913428;-5.23465124;-11.63642025;4.611999319;-1.716650401;-14.42510756
2.542383268;8.389884948;-19.27673466;23.22948976;15.20057515;0.511734453;2.058500517;10.92997047;29.54702631;-66.55982516;-6.09315478;3.835464198;-1.510073242;16.65330205;-10.2465499;-9.079451248;5.720765118;-0.116388902;-13.26139697
0.482433933;11.84644838;-16.12003906;33.50451913;16.82979127;3.124630062;1.58922173;14.17275972;25.66532076;-83.92132336;-5.363528834;2.500780546;-4.1731267;19.64438788;-12.90052571;-10.66535634;4.974006571;-1.862804356;-14.98361262
-3.627137688;11.84314327;-9.900810472;37.00228916;16.94276885;5.799667174;3.780546219;14.60648974;26.72876015;-74.27517687;-4.937468883;0.806502009;-3.990502568;27.34813503;-10.54751957;-14.95177221;3.793738857;-5.200078125;-17.93040968
-6.029874373;8.570347894;-1.553102163;27.42979543;15.96194162;7.538957226;6.449399046;12.3266402;32.64639338;-44.51909147;-4.982185052;0.700897222;0.115028535;34.2001246;-3.877536005;-17.9745338;4.419962625;-7.146219336;-19.4056288
-4.588103906;5.158070862;6.117199939;3.137896153;14.18347696;7.158242114;7.039385613;9.301527974;37.99982148;-12.14498748;-5.725961919;3.057052783;5.507820423;34.65007813;3.283419549;-16.92170909;7.608510857;-6.291497123;-18.16746073
-0.737883632;4.722365575;9.250872797;-29.24545831;11.48143046;4.190507024;4.991056546;7.962823459;37.08630888;6.322054995;-6.998802101;6.707996612;8.217194518;28.39425284;6.937350581;-12.69762023;11.72219262;-3.941669308;-15.47283412
1.89254499;7.511868921;5.324685008;-55.76976361;7.934558348;-0.254400805;2.204103281;9.607207653;29.992398;5.769501542;-7.994689818;9.401620742;6.621528172;21.36585442;6.195887491;-9.051901765;14.1146941;-2.648341708;-13.78554348
0.867017666;10.77070974;-4.366525973;-62.10366525;4.572844643;-3.697323802;1.219177473;13.73341188;23.89682417;-5.669804805;-7.68356171;9.828781138;3.043267274;21.0386801;4.000164883;-9.136505888;13.5259683;-3.652094319;-14.44165617
-2.831358083;11.37301018;-14.34236417;-42.99081359;3.226422965;-3.766627698;2.854527409;18.61082013;27.54900146;-14.20760822;-5.632263132;8.847716195;1.77277522;29.77219376;4.536097167;-12.68484923;11.22943253;-5.715835386;-16.47473815
-5.765756491;8.732627647;-17.70626093;-7.393334498;5.332510701;0.048866678;5.488788136;22.49393488;42.87141488;-11.09856185;-2.487922134;8.733903459;5.288733418;42.12710126;9.484462086;-16.36639282;9.820912213;-6.414439513;-17.64313643
-5.257365538;5.297235915;-10.63419535;25.69337045;10.65568781;5.798157201;6.609942231;24.5947617;60.77744028;1.773964857;0.416979962;11.07982884;12.05292216;49;16.33025045;-16.90917866;10.7509227;-4.573545416;-16.61688069
-1.841853648;4.224800525;4.56066329;39.17114258;17.11441486;10.23121949;5.148902618;25.27860369;65.61301809;15.04204991;2.09389697;15.21431561;17.80189363;45.44847991;20.24943538;-14.06526929;12.91114821;-1.478577376;-14.23582287
1.280004883;6.449439236;20.31022096;29.41365464;22.01249889;10.9303668;2.430971095;25.5549924;45.93921148;20.2538256;2.679710554;18.57955681;19.12245407;35.420764;18.04852153;-10.71499693;13.64919337;0.311208515;-12.6822645
1.235749482;9.860405634;28.39272891;8.614406484;23.75384073;7.823997487;0.904170573;26.3301097;3.954564223;16.31758965;3.237922206;18.79095164;16.14473775;28.77932732;10.8824978;-10.098655;11.34510467;-0.600139979;-13.39526843
-1.885344977;11.30991284;25.19671372;-4.524876337;22.6907908;3.011818867;1.869492026;27.89082165;-43.79848486;9.148772929;4.708154344;15.63962289;12.11531056;32.50431896;3.514307486;-12.80079416;7.196383704;-3.099305636;-15.71272928
-5.177191698;9.537919903;13.95038669;0.85001709;20.5061249;-0.814631077;4.324266622;29.8364502;-75.68732947;5.723905384;6.935046737;11.35277573;10.45990106;43.34298778;0.772194734;-16.27320719;4.506877725;-4.61026968;-17.50207587
-5.650430778;6.293189568;2.358110944;19.32259827;18.76258018;-2.052324519;5.950300238;31.3957997;-78.146185;8.168734273;8.682716344;8.906998112;12.06378745;48.59731758;4.10939929;-17.27668684;5.994557084;-3.553278829;-17.15418673
-2.981443211;4.650727262;-2.608758598;33.42615588;17.86317996;-0.797302586;5.277393259;31.90016907;-53.75226297;12.78516408;8.658687814;9.77627887;15.03691634;35.31861543;10.91138927;-14.91935732;11.42579858;-0.881117363;-15.05512504
0.258689159;6.137004197;0.92882324;27.36839715;17.15597951;1.741202846;2.997709473;31.14347053;-18.87418333;14.15435022;6.617921018;12.8616103;16.79;1.06369412;16.78969075;-11.46560204;17.63521759;0.785352041;-13.17797591
1.052517325;9.345886697;9.124644226;-0.462843689;15.8355257;4.208822735;1.245749532;29.4306887;7.075033664;10.09363999;3.499666219;15.29625099;16.20700958;-42.43848578;18.71794497;-10.20336303;20.92689876;-0.364711609;-13.21975914
-1.259220443;11.29845123;15.56338578;-36.00179535;13.67121325;5.611486402;1.569440341;27.28997846;13.15624475;3.019692842;0.437305117;14.35487715;13.92175703;-76.11417967;16.50716534;-12.38853124;19.81974432;-3.567370503;-15.05410861
-4.422624787;10.2372627;15.68331737;-60.00923784;10.9563204;5.264710144;3.507844846;25.05293853;1.698965956;-3.007823744;-2.407952075;9.040252316;10.81851974;-86.07160747;11.88559171;-16.10349111;15.88128484;-6.117042188;-16.9318043
-5.437292794;7.241032779;9.426577923;-62.07403274;7.970540271;2.756613203;5.077722963;22.64873359;-15.79816542;-6.277970403;-5.966394825;0.450851824;6.698354488;-72.50286944;6.58310985;-18.05375873;12.12273603;-5.845334623;-17.19115339
-3.381778297;5.183237161;0.718015235;-47.13746757;4.736397011;-1.639501914;4.666465112;19.8485588;-27.59474019;-8.524936829;-11.02806499;-8.92785897;0.771943991;-48.45043337;1.389053621;-16.60171072;10.51095741;-3.149370872;-15.82980746
-0.255325437;6.042481322;-5.33914746;-29.98551376;1.433426288;-6.43029917;2.534102436;16.83315055;-28.78675739;-12.27914353;-16.71025023;-16.27901143;-6.446007306;-29.78684326;-3.194334024;-13.22743213;10.75109406;-0.660325932;-14.45618698
0.923173984;9.080934744;-5.443419861;-22.94874971;-1.033160319;-9.08776361;0.532579989;14.58602633;-22.28;-17.3573058;-20.2073982;-19.32717452;-12.02003906;-24.33;-5.885883489;-11.10551321;11.17330972;-0.818921083;-14.69711265
-1.045189608;11.56108304;0.425857844;-27.07694591;-1.181254068;-7.375894042;0.342607172;14.5952565;-14.417418;-20.21657691;-18.48892114;-16.99780352;-11.98488404;-28.16478654;-4.780868408;-12.1638537;10.61884159;-3.578626568;-16.59970138
-4.418998516;11.29438003;9.384660216;-33.4250833;1.923433435;-1.132066501;1.90628412;17.82135447;-9.607194206;-17.10489711;-10.89120609;-9.958585284;-4.580652066;-31.13976131;0.980065918;-15.35800746;9.449219392;-6.372141576;-18.55458855
-6.145668012;8.634507532;17.19845731;-32.28498922;7.3875746;6.941846931;3.519827038;23.57451865;-8.064099456;-8.184205141;-0.495464718;-0.791854337;7.426121005;-26.30255192;9.533368225;-17.71815273;8.823689031;-6.414793821;-18.81197505
-4.701964346;6.086503671;20.14323387;-21.85754476;12.34559423;12.46834574;3.472845859;29.2686029;-7.531206109;1.367044015;7.165963854;6.709553962;17.7613971;-15.4737908;16.53525761;-17.13936518;9.147092964;-3.268978372;-17.14940705
-1.494455109;5.94397838;16.59871213;-9.128096644;13.49552705;12.07165818;1.673506803;31.57809699;-6.563146043;4.709119415;7.526378292;9.237726455;20.71759307;-6.933918723;17.73923668;-14.30168541;9.385763694;0.667431119;-15.10838602
0.47077745;8.183863246;7.974846732;-2.982109974;9.418947773;5.729775874;-0.268273312;28.49931749;-6.172706631;-1.402985616;0.174727258;5.875591754;15.23658829;-7.836012747;12.15452529;-11.96613126;8.046216173;2.213703971;-14.57101037
-0.607495108;10.56442798;-1.497488662;-6.253419883;1.906891829;-2.991545914;-0.565513421;20.95081789;-8.590632869;-13.8464854;-10.60630533;-1.129234217;5.676539563;-17.95619649;3.202858086;-12.35510862;4.905240929;0.167512768;-16.01369206
-3.662577694;10.78765205;-6.452843527;-13.75485998;-4.926249339;-9.137584884;1.05519186;12.61091552;-14.59890977;-25.23375251;-18.53542188;-7.560058594;-1.457547064;-29.7817357;-3.319512703;-15.08510354;1.729122235;-3.689877888;-18.07695241
-5.774011424;8.668350152;-3.184484707;-17.53340088;-7.294517263;-9.501833303;3.084030912;7.815775189;-22.05615879;-29.23131739;-19.44586067;-9.841813284;-2.232237141;-34.47346923;-3.141447833;-17.56223603;1.074730484;-6.214279707;-18.8496229
-4.899921003;6.28097176;7.820269612;-14.12200692;-4.279541941;-4.512224839;3.627181388;8.796842978;-27.05277077;-24.85107449;-13.91637925;-7.319756667;2.28058018;-28.60967528;3.592897796;-17.43413883;4.06278903;-5.65778352;-17.65546104
-1.782646122;5.974277745;21.35627629;-7.173367817;1.61204876;2.355433236;2.16302939;14.1980351;-26.79985476;-16.50353432;-6.606677591;-2.547508596;7.586740149;-16.42238472;12.5524309;-14.78982051;9.080802934;-3.09709183;-15.66525221
0.733263085;8.139401205;29.85632662;-3.459181886;6.26087705;7.030474826;0.019048999;20.04529373;-21.87241929;-10.19604548;-2.899948935;0.641991358;9.728223827;-6.203337769;18.25538722;-12.06689144;12.68071566;-1.313904874;-14.77014113
0.324653858;10.8276021;27.65851751;-6.323924395;6.740116759;7.325243729;-0.865605905;22.58643114;-15.94414168;-9.227962162;-5.337402939;-0.163021214;8.172005187;-4.13971084;17.54158393;-11.78016884;12.06003906;-2.220430317;-15.7902146
-2.679762757;11.56568847;14.68848296;-12.71896568;3.090487536;3.837923803;0.268655649;20.96587255;-13.14705014;-12.66355916;-12.28847157;-4.46843277;5.428233902;-10.39228121;11.03896559;-14.20245703;7.121431256;-5.184424532;-17.71355739
-5.620078125;9.66168308;-2.913241957;-16.30478111;-2.043972292;-0.965269048;2.320087891;17.72289966;-15.03003906;-17.14421019;-19.49349937;-9.563194769;4.2243932;-19.91846138;1.991408984;-17.14203972;0.438431901;-7.7137875;-18.68263873
-5.956326604;6.849365662;-15.9187011;-13.4133569;-5.38621368;-4.464447857;3.371185453;16.69964504;-19.37832322;-19.85770751;-23.04035849;-12.62130725;5.087436927;-26.6749457;-6.152155936;-17.99039924;-4.779662965;-7.783247877;-17.79029041
-3.571982881;5.683903435;-17.20507648;-6.220110563;-5.03821843;-5.138505217;2.472446359;19.95598889;-21.75814103;-20.05773976;-21.56495866;-12.48489718;6.46527025;-27.6153767;-11.40297743;-16.11317785;-6.995270275;-5.63443907;-15.97659928
-0.817916447;7.194959355;-5.943827562;-0.364285677;-1.250605773;-2.844555534;0.503860803;26.13007813;-18.68229503;-18.42649391;-16.40610539;-9.908478491;6.898115094;-23.7612437;-13.29046579;-13.37346743;-7.087427157;-3.445403628;-15.16072892
-0.295019514;9.974884748;11.71638706;0.443858104;4.186046048;1.517880665;-0.671174939;31.60268626;-10.18229911;-15.70222499;-10.13471607;-6.466390547;6.793074555;-18.35246437;-12.03573268;-12.3426635;-7.141978704;-3.263743322;-16.41025213
-2.455816318;11.52104542;25.87706525;-2.387446331;9.116465731;6.390175803;0.047541528;33.5748105;-0.040328672;-12.30550313;-4.901881016;-3.346000184;7.901540346;-14.20270641;-8.113181734;-13.90162821;-8.545652345;-5.160558345;-18.87560841
-5.23842596;10.5514468;28.18283757;-4.222549646;11.90113852;9.861881264;1.980898672;32.51475374;6.451622285;-9.134683764;-1.740604459;-1.029763055;11.04676149;-12.36375893;-2.625141032;-16.46807933;-11.05931709;-7.2797462;-20.51939016
-6.034571418;8.133366382;16.27674013;-2.077914488;11.7685799;10.20472217;3.317960588;31.77723638;5.726295667;-8.097315002;-0.83999156;0.227850095;14.55904375;-12.53896023;2.309717104;-17.53675003;-13.46836996;-7.653246239;-19.98982542
-4.131287603;6.60639106;-4.891209677;2.405374155;8.930039063;6.768326666;2.806805726;34.42;-1.878935843;-11.08719328;-2.005084987;0.042854176;15.32080994;-14.12638503;4.211025953;-16.05721137;-14.92667874;-6.03565264;-17.89477387
-1.355286112;7.352358146;-25.48462853;4.802414064;4.662225658;0.756504305;0.910014648;39.66181584;-12.2993751;-17.91543875;-4.677515878;-1.687981794;11.75751222;-16.62371828;1.945452348;-13.41661218;-15.60157072;-4.062233636;-16.2617272
-0.345305656;9.521502271;-35.64725074;2.676508766;1.119454724;-4.934671585;-0.63788982;42.05935835;-20.08999366;-25.26534325;-7.684245534;-3.998899534;5.984652462;-19.2097489;-2.838359162;-12.12452175;-16.08117328;-3.649670568;-16.64785355
-2.083458938;10.89385794;-30.38622228;-1.528777364;0.507719249;-7.149982382;-0.441942201;34.63282198;-21.48289567;-28.27551218;-9.388731843;-4.769908036;2.776660434;-20.37531248;-6.109796638;-13.44981411;-16.31673511;-5.193234891;-18.63950458
-4.983743466;10.03273656;-12.04326845;-2.504913796;3.763625177;-4.467297919;1.274816597;14.09879208;-16.37393407;-24.04087588;-8.573397718;-1.956249388;5.814494577;-18.46374775;-3.947525316;-16.22329223;-15.34545856;-7.250577626;-20.15754856
-6.367171728;7.679258879;10.9474839;2.778603517;9.593815871;1.65189171;2.896088933;-15.57360161;-8.184907036;-14.26745343;-5.516696416;4.55336234;14.29446096;-12.98634501;4.450264217;-17.91390117;-12.22611729;-7.958328312;-19.33968245
-4.935376988;6.06825804;28.48;11.77478637;14.83729223;7.553009816;2.904791853;-44.2366773;-1.812708181;-4.605636523;-2.246544311;12.03685708;22.95630803;-5.620611312;15.55220201;-16.96411243;-7.328758519;-6.794945713;-16.30740745
-1.949583222;6.814074973;34.09162108;18.29219261;16.27398322;9.61199915;1.247050881;-61.03609505;-0.916139638;-0.818999619;-1.443466353;16.11112702;25.77989871;0.182756172;23.27575385;-14.21448165;-2.628703936;-5.015061459;-13.19421574
-0.048316507;9.363164592;28.20194437;18.08475154;12.7951451;6.495226629;-0.67599214;-60.79295779;-6.048764987;-4.690202842;-4.599042263;13.48211956;20.43431855;1.04057009;22.77065053;-12.11744649;-0.486461393;-4.376797201;-12.36517638
-0.830115499;11.47583877;17.31085607;12.88054157;6.338392098;-0.111688331;-1.335499633;-46.95493509;-14.55909694;-12.93420028;-10.80878589;4.36437234;9.86993208;-4.185956867;13.6554585;-12.50023053;-1.809830092;-5.412436187;-14.38966174
-3.444240471;11.29200079;9.566720455;8.893038016;0.755669521;-6.736587853;-0.453985136;-29.07303571;-22.15603135;-19.94315627;-17.22848709;-7.290665438;-0.127550657;-13.36033631;0.471499063;-14.95843224;-5.17317715;-6.911539273;-17.55817885
-5.457636983;9.050302503;9.494709513;11.00440585;-0.680021973;-10.32031323;0.838168892;-16.59151034;-25.17712642;-22.0173959;-20.94914948;-16.05095303;-5.202394944;-21.96603909;-9.95378336;-17.33263386;-7.741670453;-7.113550874;-19.357435
-5.138307345;6.857677715;15.37363754;18.04454945;2.648143009;-9.813161605;1.16408786;-13.28760742;-22.33825183;-19.6155605;-20.89197875;-18.1965588;-4.937636143;-25.47080234;-12.47158165;-17.7593917;-7.326604702;-5.46812877;-18.5854167
-3.006501112;6.732530469;21.04299594;23.79236067;8.508401004;-6.258009522;0.237806831;-16.08096052;-15.14537942;-16.0352208;-18.28757355;-13.67071546;-1.852108277;-21.78983523;-6.405326724;-16.34330464;-3.926235085;-3.270375129;-16.25724732
-1.237130488;8.753594557;20.80665851;23.01887912;13.52225814;-1.686823917;-0.899297562;-18.6408017;-6.916808378;-14.07879841;-15.4476704;-5.64805829;1.633660809;-12.4354177;4.365230858;-14.90536003;0.456357848;-2.53348839;-14.57311403
-1.532837701;11.03357623;13.79761109;16.93720276;15.36226602;2.09632819;-0.946547988;-16.75019485;-1.056533481;-13.84023394;-13.91312767;1.647169818;5.141457531;-1.714379029;13.78245035;-15.10949876;3.476306243;-4.125805052;-14.94799425
-3.506163912;11.51809122;4.509280119;12.59189072;13.8327585;4.040712733;0.330323081;-11.32741651;0.496645361;-13.4252352;-13.50927839;5.184169832;9.476371984;5.576161839;16.871957;-16.79840322;4.161453061;-6.905955473;-16.87675607
-5.093331091;9.905192501;-0.906197947;16.16526522;10.29866388;3.734061167;1.804229238;-7.056937745;-2.076775032;-11.53633867;-12.99326805;4.115448271;14.25559182;6.693523828;12.12429432;-18.14458676;3.327747047;-8.67576941;-18.570756
-4.580334982;7.886246724;0.341309038;26.06693816;6.298473763;1.248581418;2.0226987;-8.062230099;-6.916646681;-9.151939596;-11.58371586;-0.560599607;16.93794698;2.338628295;1.991913542;-17.47234044;2.544755729;-8.091975691;-18.6705047
-2.294911776;7.502941201;5.368054332;32.47853398;2.65601137;-2.69146975;0.599921243;-14.24355144;-11.66052961;-8.570271711;-9.931638324;-6.836727122;14.75603241;-3.894894039;-8.492158726;-14.99584394;2.710204746;-5.7999793;-17.41795905
-0.341073516;9.190227634;7.956950523;24.65046126;-0.327919028;-6.529200169;-1.361468634;-21.18236452;-14.68712917;-10.8142317;-9.645045582;-12.33087656;7.920997016;-7.721395906;-14.22262997;-12.77668588;3.470792434;-3.783919248;-16.26359928
-0.613106875;11.3604566;3.760631699;0.254153672;-2.180857443;-8.286440667;-2.239317146;-23.57125926;-15.80312748;-14.13531811;-11.81195739;-14.76211565;0.72491346;-6.744632793;-12.54447957;-12.88136273;3.820486643;-3.571337207;-16.37973824
-2.964601345;11.91726443;-5.833872885;-31.23688835;-2.093719717;-6.687642612;-1.362967806;-19.35182495;-16.1062148;-15.38107245;-15.89021197;-12.7027247;-1.251868976;-1.864330564;-4.64635872;-15.43750889;3.130216096;-4.953935065;-17.53940365
-5.278381429;10.25783301;-14.44450094;-54.49123173;0.336611736;-2.27879388;0.38037302;-11.29105714;-17.20965452;-13.169968;-20.0215857;-6.57625962;4.07247336;3.377901909;4.962976624;-18.42267257;1.599579847;-6.354681706;-18.40751759
-5.402811091;7.858479577;-15.65462061;-59.12759025;4.168725698;2.496565205;1.367012536;-4.848590983;-20.31145258;-9.843464943;-22.54758474;0.916979474;12.77017656;5.111305281;10.85353811;-19.42883197;-0.174495172;-6.41404056;-17.91373139
-3.15918699;6.880504662;-8.329657194;-46.73799994;7.110493679;4.648016329;0.718600382;-4.105909685;-25.5840849;-10.02322803;-23.38671067;5.854618986;17.47601292;1.62254405;9.821389903;-17.80675975;-1.905716694;-5.257702232;-16.35398734
-0.539413664;8.114170552;2.042763351;-28.61691556;6.839147899;2.63031604;-0.931688491;-8.927560654;-32.0960736;-16.65071195;-23.98925117;5.505345912;13.47857449;-5.578398159;2.964105075;-15.22470409;-3.778814109;-4.270119098;-15.15224515
0.109085069;10.21805908;7.289340038;-16.45903939;2.781876223;-2.476382106;-2.084602467;-15.39436618;-38.16595462;-27.86724159;-25.811521;0.588330638;3.280587992;-12.73187884;-4.76413962;-14.12841299;-5.889455293;-4.655521678;-15.50882437
-1.762883023;10.9948552;2.870009766;-13.95439465;-3.120254837;-7.560864063;-1.803110803;-18.91905296;-41.9072733;-37.64544447;-28.6060566;-4.537830066;-4.664390335;-16.09141292;-7.494947041;-15.52010388;-7.621805302;-6.218823759;-17.22748911
-4.41029553;9.51175797;-8.336734305;-15.94423415;-7.467923877;-9.494914535;-0.571598866;-17.47220367;-41.7953353;-39.96189831;-30.11165488;-4.42338865;-2.575531826;-13.95696171;-2.162730806;-18.09274558;-7.773534133;-7.554222714;-18.8454963
-5.415120343;7.050948231;-17.88114609;-14.93311218;-7.632442588;-7.135014661;0.212770318;-12.51247891;-37.2153617;-33.22049074;-27.63192648;3.642248924;9.956569527;-7.30634362;9.406209779;-19.49307954;-5.526271781;-7.442910639;-18.95928062
-3.918445672;5.955971572;-18.02060984;-8.486728592;-3.519266076;-1.923613607;-0.385322616;-7.232776308;-28.93694947;-21.34526311;-20.37960409;17.25094799;25.0341341;1.058149291;21.46227597;-18.51936729;-1.458646361;-6.076607214;-17.51155823
-1.39380824;7.424182027;-7.766771189;-0.857019829;2.443538429;3.20054986;-1.917901884;-3.857844533;-19.28;-10.7483723;-10.68339643;29.90607836;32.55050313;8.010551997;27.76;-16.21290809;2.402451228;-4.885991279;-15.84161224
-0.253882653;10.31755505;5.899383303;2.059814617;7.020100989;5.656381957;-2.96803759;-2.257727343;-11.61758102;-5.792639487;-2.909556955;35.01650081;28.55050107;11.31449538;25.21474203;-14.8512356;3.749108871;-5.112269225;-15.45680503
-1.59860273;12.14334978;12.69873368;-0.914479895;8.239541229;4.537576177;-2.507970412;-0.787940202;-9.077269988;-6.426991136;-0.697554524;30.18274795;18.76273386;10.20015514;15.50922815;-15.80714106;1.57800513;-6.508368514;-16.66909057
-4.204302812;11.3317018;6.322706039;-4.883244536;6.345595492;0.73208339;-0.904976667;1.700715527;-12.86850824;-9.543686199;-4.474790322;18.81154918;13.89259036;5.512454689;3.873006101;-18.27830146;-3.026392864;-7.475748817;-18.34933169
-5.687029493;8.699958457;-10.89333179;-3.811280444;3.165199594;-3.850536836;0.394885412;4.636291193;-21.19545679;-12.31176221;-11.09957867;7.986293274;20.13227965;-0.37424987;-3.888208523;-20.05949641;-7.531582261;-6.579329461;-18.99753068
-4.741773999;6.719133474;-29.21;3.158373051;0.672960655;-7.193268775;0.222171926;6.376995238;-29.68331875;-14.26660579;-15.94431173;4.137006603;32.68863033;-4.083433341;-4.17911812;-19.61493858;-9.537368653;-4.024226793;-18.10859653
-2.359822794;7.233396615;-37.76860646;10.37727477;-0.057489928;-7.780880389;-1.19998917;6.05110926;-33.44437203;-16.49203456;-15.94399452;9.427144809;38.11825616;-2.530877889;3.14714833;-17.50394728;-8.145400644;-1.641469969;-16.5680853
-0.888612559;9.738697449;-31.60966856;10.99269765;1.053872956;-4.994043952;-2.44826481;4.782122469;-29.76466438;-19.20079351;-11.45543182;21.00550999;24.28527764;5.261265934;15.20148032;-15.83505093;-4.24431771;-1.29886447;-15.74956291
-1.819510289;11.83168911;-14.77075614;4.003518726;3.581207548;0.508433539;-2.240304154;5.020133498;-19.74826135;-20.53136392;-5.685936088;33.14964818;-9.570478229;16.92107345;27.38019375;-16.27649553;0.266400099;-3.164474175;-16.20479412
-4.378730528;11.43447703;2.394401127;-3.889703545;6.924397866;6.611172497;-0.671348332;8.407860017;-7.734620639;-18.0255437;-2.22793126;40.54810974;-50.61781681;27.3131421;34.90732482;-18.49568739;3.582147476;-5.463224574;-17.19176787
-6.243833045;8.740949218;9.693214773;-4.055431397;10.21387312;10.29411664;0.829143456;14.01716159;1.2750788;-11.39850283;-2.535000689;40.70446579;-80.11727342;31.18592274;34.38739113;-20.48384209;4.702844707;-6.030186716;-17.45931778
-5.717639668;6.069097965;3.109617444;5.460521288;12.21292146;9.120898081;0.805824465;18.64890358;4.552466415;-3.685070679;-5.08238947;34.51685913;-85.45735186;26.47341872;25.27294039;-20.44655682;3.560825326;-4.286936646;-16.50329012
-3.324604282;5.73648851;-13.28926032;16.46790673;11.76849554;2.984119873;-0.857083461;19.23593055;3.002033519;0.780253054;-6.640343441;25.36323572;-67.76360771;15.96342686;10.70854795;-18.47677956;0.840276325;-1.818719262;-15.07441592
-1.330812717;7.916830132;-30.37163717;16.2402721;8.740916356;-5.208358184;-2.792601879;15.55041649;0.098002801;0.032392526;-4.59701329;17.54658247;-39.87980385;5.889635711;-3.145248386;-16.4435723;-2.255908736;-0.970068359;-14.45437869
-1.629058139;10.46932675;-39.638736;-1.853436171;4.609440071;-10.81267039;-3.380701535;10.93687322;-0.738164668;-3.55375193;1.327049041;14.7029481;-16.89059677;2.154849379;-9.694244686;-16.21576995;-4.343276952;-2.696396088;-15.20851591
-3.962747296;10.91399803;-37.95689835;-31.61570717;1.932329028;-10.21670924;-2.22096168;10.17362082;1.6005768;-5.067988432;9.015889736;18.4244751;-6.618928252;6.712943182;-5.431878018;-17.90484022;-4.448865731;-5.63069673;-16.62733688
-6.152988115;8.734191915;-28.6139659;-57.32546017;2.716044158;-3.306893505;-0.485139604;15.82245614;5.536104976;-1.352271798;15.35647936;27.40950065;-6.761559997;16.60289366;7.716821213;-19.7851318;-2.694134466;-7.252721873;-17.40415325
-6.126546951;5.872858172;-18.46161376;-64.93144476;6.802803;6.214711856;0.174462462;25.80845038;8.361005796;5.939432203;18.00618855;37.70126012;-9.597357305;26.17648433;23.07713031;-19.96067099;-0.513871366;-6.135595358;-16.90158039
-3.858194424;4.953355571;-13.29389864;-52.26437699;11.62413181;13.07791181;-0.858950284;34.30992055;8.356247147;11.37173036;16.43075507;44.37461791;-9.414682377;30.73401164;32.9194527;-18.19470332;0.048720696;-3.240123797;-15.78261857
-1.412532438;6.862293911;-14.49019454;-30.08536207;13.74404802;13.77666697;-2.637319844;35.68116354;5.870373072;10.20607903;11.8274883;44.14305808;-6.483665672;28.94952523;32.95230335;-16.16068787;-2.263989866;-1.06765438;-15.38169684
-1.035863174;9.927188444;-18.89019812;-13.3439831;11.21027191;8.660625825;-3.58633045;28.75415558;2.768524886;2.590029297;6.320573269;37.40238774;-5.094551771;22.717187;24.62953336;-15.86365155;-6.814078043;-1.420526982;-16.40114421
-3.065992711;11.44884018;-21.63841248;-9.987019084;5.008070518;1.380693435;-3.012886056;18.27779387;0.982108898;-6.167501129;2.084656056;28.19136435;-8.364661925;15.19208375;13.73094894;-17.71726019;-11.23266484;-3.790886008;-18.18196942
-5.603572783;10.17001953;-19.80907642;-16.30346068;-1.489233758;-3.747079609;-1.74939271;12.04998274;1.421924314;-9.568431998;0.771568798;21.79530292;-14.81337129;8.952561539;6.334518633;-20.1045054;-12.94606692;-5.836612581;-19.2693515
-6.256092241;7.398937529;-14.25832829;-21.92473546;-4.704426671;-4.44569785;-1.322418655;15.35048236;3.927608055;-4.870712035;3.18759331;21.45157062;-19.56078703;5.512421623;5.120225746;-20.86410555;-11.00120226;-5.512167583;-18.76224685
-4.341877437;5.758847804;-8.562907481;-19.47342029;-3.123538452;-1.41211049;-2.437617875;26.45577131;7.885505113;5.037848127;9.029227142;26.42791908;-18.69411821;5.757928973;8.501208209;-19.32467398;-6.756868032;-2.923499406;-17.17227276
-1.515094351;6.740697875;-6.07485942;-10.43855019;1.89160778;2.819147587;-4.235566134;36.65098147;12.65869217;14.18813104;16.70892438;32.83647746;-12.71494041;10.0189609;12.77248573;-16.96907443;-2.845579837;-0.234206118;-15.95981077
-0.239011777;9.340412516;-7.461824847;-2.764945126;7.15646016;5.841450183;-5.057454464;35.29024794;17.43104667;18.12415837;23.57558607;36.52492383;-6.090858515;17.26549034;15.20903526;-16.07584552;-1.220175349;0.275780634;-16.16311774
-1.528498179;11.04197307;-10.60257397;-3.071520623;9.695875635;6.607008983;-4.026775463;16.93032456;20.91561554;16.67502472;26.78234443;35.85054732;-3.495621515;24.44962011;15.62954152;-17.58273576;-1.868641925;-1.770357163;-17.41135964
-4.050764217;10.21197497;-12.74646069;-10.74711291;8.367702594;5.335380565;-1.953039543;-14.17728899;21.67849113;12.95312253;24.61244988;32.34716516;-6.090078125;27.50057413;15.55206167;-20.17007813;-3.200313158;-4.564755067;-18.2722381
-5.400110794;7.651484365;-12.97879994;-18.89555313;4.210129216;2.742395153;-0.667577338;-45.53518074;19.20326812;10.05249072;17.57847132;29.05323686;-10.89985499;24.09221713;16.18330214;-21.44710307;-3.65283001;-5.787365014;-17.63020868
-4.340058594;5.840884037;-12.80571593;-20.69056834;-0.395590104;-0.41379181;-1.365204581;-63.28253469;14.8562569;8.704473449;8.520943723;28.09395396;-13.51536588;16.18560758;17.26477505;-20.16549722;-3.025772544;-4.678544759;-15.79976455
-1.919785104;6.578877453;-14.32946793;-15.09007813;-3.033170673;-3.177227074;-3.482179251;-60.30867688;11.63030862;7.801683838;1.431370434;29.49288739;-11.59964257;9.708282362;17.69882864;-17.40762548;-2.359227437;-2.630890457;-14.29943153
-0.440235431;9.234399686;-17.67801165;-6.980851372;-2.336271564;-4.23712742;-5.17699727;-40.39052447;12.39726451;6.699618516;-0.475628129;31.90463882;-6.324696823;10.68428268;17.05210794;-15.62673356;-2.568608776;-1.809903552;-14.46113499
-1.262355533;11.27384825;-20.1749868;-2.231699161;1.472837343;-2.470129147;-5.003785662;-15.65568562;17.7487835;6.507050756;3.622418046;34.22941889;-0.9144871;20.34028894;16.22464546;-16.40501607;-3.240335324;-3.121166406;-16.16196758
-3.525453755;10.60362912;-18.34606539;-2.634990058;6.643558846;1.961407725;-3.245429577;0.926278159;25.12877867;8.792431216;11.78342967;36.44260507;2.05985586;33.29129799;16.49681464;-18.99687069;-2.859441588;-5.406054837;-17.88314706
-4.97689456;7.556522105;-11.30772667;-5.298646377;10.55802477;6.993925384;-1.663309226;3.05094052;30.16174934;13.00914198;20.36092953;38.93618118;2.238561052;40.98207386;17.88694355;-21.01277394;-0.364722368;-6.574713729;-18.07670999
-4.122390844;4.655735745;-2.561010755;-6.469292071;10.91585813;9.488925217;-1.874987344;-6.231480994;29.4012826;15.5771201;25.83879318;41.24498018;0.875038935;38.26325779;18.58274474;-20.62217328;3.427782009;-5.5841179;-16.58803432
-1.661705551;4.343947373;1.799248257;-5.578156795;7.050218437;7.2893163;-3.849685171;-17.99171408;22.54801564;12.20910235;26.39338184;41.69989707;-0.889638212;27.86278617;16.30205784;-18.24228706;6.023669905;-3.409527113;-14.80471737
0.153253896;6.761932175;-2.453250206;-5.433384196;0.625092969;1.035125958;-5.919058846;-24.13702077;12.54822619;1.88346489;22.42284343;38.66374764;-3.028280886;18.58911384;10.58869321;-16.14858691;5.150663867;-2.121785605;-14.37449155
-0.357754719;9.631309473;-13.92600625;-8.580019531;-4.96329937;-5.847890671;-6.306928895;-22.44821865;3.619069092;-11.12603276;15.98129425;32.38445131;-6.035382144;18.01081468;3.977582324;-16.36449547;0.819209349;-2.951798028;-15.67514744
-2.697658215;10.35442823;-25.79607814;-13.7762302;-6.432187551;-9.262426017;-4.770129227;-16.67204993;-1.21294209;-19.47882848;9.649726361;25.6817484;-9.565066702;25.25626161;0.731560551;-18.78281937;-4.323974159;-5.149295074;-17.46901303
-4.629447018;8.389798739;-30.25754651;-16.43657038;-2.687059462;-7.216982966;-2.827683642;-12.32152256;-1.305688235;-17.95032276;5.504545533;22.50375703;-11.89283351;30.17705781;3.868453618;-21.25823444;-6.854098572;-6.682716344;-18.08003906
-4.264545913;5.706107744;-24.11395354;-12.89704302;4.293351983;-1.185750529;-2.356215585;-11.96432096;2.165248867;-7.492603651;4.546895147;25.1980282;-10.97587566;20.42765291;12.7223407;-21.58387766;-5.225748177;-6.110501478;-17.00094359
-1.848453667;4.904958685;-11.26388202;-4.400401713;10.5181893;4.980414767;-3.847209076;-13.76099073;7.535208751;5.241830762;6.574751773;32.56328381;-6.309972382;-8.476718169;22.97608943;-19.51971217;-1.036744297;-3.884793437;-15.41132427
0.443144805;6.772051369;-0.056034871;3.290445933;12.39012817;7.7202966;-5.945159954;-14.03312366;13.36865305;12.66182697;10.33291077;40.28255487;0.076273587;-48.01391562;29.20774657;-16.99606118;2.198078181;-1.904760252;-15.08861035
0.526567335;9.546440048;2.589424549;4.66681921;8.837553402;5.96461889;-6.704243213;-11.23217633;18.18434123;11.5024208;13.88522218;43.53710034;4.520245394;-80.98314434;28.1060596;-16.31254092;1.791907716;-1.773923605;-16.70186872
-1.633623011;10.58966141;-4.095953682;-0.627840021;1.734975478;1.348580209;-5.403680566;-7.648797324;20.08421648;4.484760602;15.26788481;39.95249216;4.007077201;-92.61726402;20.15766704;-18.01225319;-2.082610485;-3.396435468;-19.09111684
-3.973776951;8.888110646;-14.60479245;-7.370403579;-5.548906685;-3.399718734;-3.233336777;-7.330678308;17.39396557;-2.610058594;13.36244368;30.85967717;-1.799593268;-80.35374941;8.944584014;-20.40493842;-6.676457606;-5.18579901;-20.25119037
-4.250048828;6.034826828;-21.46696273;-9.332746854;-10.28151098;-6.354181846;-2.201564502;-12.09044161;10.26507405;-5.641325454;8.617561939;20.2112718;-10.22223259;-54.99341488;-1.039943238;-21.17073345;-8.90469609;-5.625951425;-19.15860675
-2.14047991;4.754430021;-20.50140147;-4.710421015;-11.63772406;-7.100186177;-3.269230766;-19.23977215;1.780780331;-4.608747885;3.075289979;12.18181534;-17.11148772;-32.5609854;-6.409420606;-19.5375796;-7.611333117;-4.674929169;-16.76490508
0.443799601;6.339963275;-13.08285117;2.587259186;-10.4575439;-6.093249662;-5.442971823;-23.25743249;-3.023190613;-2.301955479;-0.576219936;9.162011712;-19.17091594;-23.2611455;-5.758707581;-16.99719901;-4.062871997;-3.698650383;-15.20763643
1.144818703;9.406098527;-4.166344127;6.906711681;-8.109799808;-3.735945509;-6.681408551;-20.18897836;-0.238500725;-0.981083473;-0.551596399;11.18057459;-15.60270407;-25.84797873;0.405079573;-15.89670824;-0.515406589;-4.050931253;-15.91430068
-0.621837309;11.14830728;1.782467727;6.227696654;-5.62821314;-0.26702326;-5.787638924;-11.11087252;9.765350998;-0.462917329;2.826954512;16.55923624;-8.250419571;-31.07280816;9.982300719;-17.23134613;1.672111134;-5.703552816;-18.30600313
-3.100397404;9.954012105;3.48429916;3.769975285;-3.710166756;3.549180727;-3.538031119;-1.63046275;21.76195761;0.779004406;7.185340044;22.93109665;-0.414366482;-30.58073324;19.64387383;-19.70950362;2.716103354;-7.257207996;-20.28568399
-3.833474559;6.928894599;2.372284557;4.314176326;-3.133175151;5.995928524;-1.994267881;2.340634716;28.64354291;3.053306871;9.571655436;28.01488654;4.845602317;-23.6574925;25.68647355;-20.96713639;3.523351982;-7.315764382;-20.08382502
-1.985745223;4.893067244;0.114892663;8.936865319;-4.711963972;5.175091939;-2.623575094;-0.846843892;26.14822101;4.426547654;8.484345297;30.17542877;6.072997875;-16.62698486;25.67581807;-19.79219119;4.388843821;-5.882126564;-17.80397345
0.831522337;5.75970694;-3.121101205;13.56761866;-8.521678556;0.657879295;-4.956946983;-7.403751343;15.91364658;2.577234529;5.066833826;29.00464789;3.934941071;-16.1633791;20.17938514;-17.26964314;4.700781839;-4.405697674;-15.28866988
2.035448601;8.735450483;-8.02510944;13.14096048;-13.12258283;-5.461327828;-7.019772304;-11.2619456;4.465861239;-2.233496491;2.528046853;25.74681045;0.772440847;-22.76321821;13.10822993;-15.76709727;3.927380837;-4.409489242;-14.456425
0.491603755;11.03771514;-14.05390294;7.448638211;-15.85136312;-9.410980307;-7.130837848;-8.938425032;-1.23283516;-6.280906592;4.031205491;22.97494014;-0.629961747;-30.07134297;9.722862774;-16.70775214;2.752927567;-6.007004121;-15.63692305
-2.384680291;10.48339425;-18.3939723;2.60103384;-14.42277564;-8.255017506;-5.404665797;-2.123591628;1.562993752;-5.020039063;10.3924814;23.20390312;1.439138648;-30.43297597;13.13227133;-19.22234222;2.977718089;-7.75255759;-17.39787152
-3.903340158;7.542964894;-17.50507802;5.758787564;-8.783725977;-2.243695068;-3.579108124;3.998680796;9.869948002;2.746911256;19.13933528;27.06383187;6.551229023;-21.67657951;21.70158439;-20.9551947;5.990370418;-8.006883143;-17.96214398
-2.592433379;4.929163463;-10.1835522;17.34966993;-1.62737368;4.983766665;-3.354874604;5.101299598;17.47547989;13.00049376;25.61863626;32.39511757;12.19862273;-9.24908672;29.60146037;-20.2789318;11.13392459;-6.535456972;-16.85937483
0.408819444;5.078368271;0.674176641;28.20256167;3.141148007;8.752258604;-4.815337799;1.016272836;19.31651832;19.04595414;25.51529066;35.28042809;15.12718711;-1.955903466;30.57206806;-17.83990511;15.62491072;-4.797106025;-15.28257806
2.376179144;7.861157619;9.591273499;25.43409115;3.026884508;6.603346595;-6.404301815;-4.630306766;14.46609862;16.70089517;17.26687143;32.63274693;13.27903282;-4.979415997;22.4103432;-15.96966712;16.41624796;-4.601521189;-14.86561124
1.518394154;10.67051955;12.46506868;3.203831881;-1.324514102;-0.005077928;-6.464331744;-7.81214624;5.922103206;7.800616264;2.999480624;24.58902957;7.160943643;-15.9473915;8.863945925;-16.49478656;12.6114638;-6.377173518;-16.08
-1.34623872;10.83461392;9.772466595;-30.59309644;-6.672207813;-6.818883782;-4.86421655;-7.363959905;-1.984774356;-1.098754617;-12.42062126;14.85135534;-0.299560556;-27.03416146;-2.615779888;-18.99194817;6.383917357;-8.704015242;-17.78186188
-3.527905406;8.124404032;6.181865082;-58.11227016;-9.594722973;-9.798805868;-3.158623917;-5.320379985;-6.217888595;-3.879353965;-23.5531209;8.526867302;-5.396626185;-31.03;-5.729945394;-21.13956509;1.507865852;-9.602707486;-18.32481577
-2.952519916;5.011199934;6.622155649;-63.79593184;-8.876002123;-7.709199389;-3.111965857;-4.352355287;-5.979868817;0.411366445;-26.60457881;8.895907695;-5.766063578;-26.34197849;0.686602816;-20.86500996;0.613401205;-8.404368635;-17.15971932
-0.094187569;4.404680342;11.90794573;-45.71726421;-6.047799186;-2.488711227;-4.978208778;-4.955625126;-2.111760856;7.196708569;-20.77472626;15.37202781;-1.649158372;-17.25764893;12.30422412;-18.29598831;3.374940304;-6.431434241;-15.38183899
2.452140561;6.951076985;17.58397129;-16.95132576;-3.846469164;2.523551489;-7.183524288;-5.121158675;3.733982615;10.50755861;-8.396293029;24.02239827;4.422253367;-9.969848942;22.50978495;-15.68410552;7.052286813;-5.797218402;-14.69545954
2.373633072;10.40248039;17.15073553;4.205522345;-4.030527083;4.855100784;-7.75198129;-2.729941533;9.301364271;7.902025112;5.975939968;30.12759266;9.187649816;-8.079041936;26.58125592;-15.34619029;8.816475805;-7.401388638;-15.78152363
-0.212824722;11.66148894;7.284905877;7.356135492;-6.363689241;3.977431032;-6.162119703;1.775027728;11.81518474;1.950808606;17.169925;30.89298851;10.41964088;-11.03332697;23.87681503;-17.52167301;7.855593024;-9.999450173;-17.63275894
-2.873696443;9.620317689;-9.006508912;-3.833680898;-9.365778192;0.831238987;-3.883616465;5.230796965;8.973661864;-2.695948995;21.26183859;26.58280354;7.904315361;-15.92390198;17.02045922;-20.13890744;5.596424593;-11.2697451;-18.50451953
-3.134756888;6.164183555;-23.79327936;-16.67272687;-11.83294989;-3.23644016;-3.053807312;4.529066075;0.8490962;-3.672732581;17.12971005;19.72147797;3.302450259;-20.23501131;9.455140002;-20.71873565;4.116413394;-9.944912832;-17.5830113
-0.796766047;4.406298891;-29.18360232;-20.62602835;-13.59562801;-7.008429252;-4.498479048;-0.161901945;-8.877529986;-2.606475641;7.004257253;13.35127418;-0.799398973;-22.9676208;3.581488695;-18.65668365;4.351138076;-7.042953786;-15.77076519
1.881260573;5.796854269;-22.22446733;-14.99225838;-14.93630303;-9.256273165;-6.943153229;-4.887923751;-14.18035704;-2.777315436;-4.465381194;9.625102976;-2.094557524;-23.75596231;0.550166151;-15.76973442;5.679818164;-5.018413246;-14.81676382
2.314020411;8.800969828;-6.38977973;-7.230019531;-15.53671343;-8.703740938;-8.17600607;-4.950627941;-10.4730226;-5.246853238;-12.42532437;9.289806794;0.427614492;-21.75118237;0.974108912;-14.6071005;7.023147074;-5.564603063;-15.60517715
0.043269905;10.37851173;10.97884027;-4.581809953;-14.32036821;-4.744855916;-7.103789131;0.959531108;1.582050492;-7.40437623;-14.25096883;11.77830218;5.94825775;-16.03257615;5.143436987;-16.10475592;8.144569105;-8.070525527;-17.25073339
-2.800887289;8.87654147;23.05593355;-7.204479756;-10.59481385;1.496368608;-4.787132362;9.237358706;15.53468367;-5.503597265;-10.77852859;15.46747572;12.00803147;-7.308836623;12.28114177;-18.76738011;9.768462859;-10.1690766;-17.91059537
-3.487399196;5.613621111;26.68801126;-8.923255931;-5.414939849;6.994065298;-3.470411376;14.04434049;23.0507983;1.180690699;-5.494454586;18.09670761;15.53717237;1.122795602;19.83149929;-20.12307135;12.43080237;-9.900332564;-16.58319697
-1.269092482;3.652407429;22.76763486;-4.263490927;-1.589562657;8.311465521;-4.488869622;12.10486288;19.80485474;8.701997035;-2.137775896;17.63302441;14.45146336;4.821432828;24.11531017;-19.06322414;15.34304731;-7.513264548;-14.17727204
1.8747789;4.898248768;14.52613648;5.402890313;-1.858278928;4.029370627;-7.001860559;5.52571018;8.853306147;11.24609581;-2.293046299;13.49113312;9.013012403;1.40744604;22.45620099;-16.8552994;16.6114856;-5.241769624;-12.77045234
3.069329863;8.253966947;5.557974174;12.66155859;-6.545884401;-3.782350631;-8.752619105;0.127971987;-1.433536645;6.165911049;-4.61356253;7.313085305;1.991829717;-7.128382181;15.25210693;-15.87780457;14.82036215;-5.24849964;-13.68038908
1.254345825;10.59443852;-1.22926773;11.08327128;-12.77769178;-10.52787809;-8.168333264;0.650376326;-3.559407381;-3.268636195;-6.171295907;2.378036759;-2.75115186;-15.30391623;6.113597561;-17.28900524;10.54587462;-7.624466973;-16.14636809
-1.780927093;9.681783306;-3.891998051;1.721061207;-16.24193698;-12.09050211;-5.845328671;6.939241676;3.567134202;-10.10724847;-4.883974389;1.607741961;-2.5406039;-17.88774298;-0.360388307;-19.86129918;6.2597611;-10.29013815;-17.92106345
-3.051393701;6.294879604;-1.740547963;-7.274816721;-14.34202088;-7.704828868;-4.014472576;14.38948952;14.16519248;-9.255650852;-1.191937173;5.439830893;2.479320054;-13.61201828;-1.568130817;-21.11615923;4.497452004;-10.89200179;-17.31119759
-1.201737981;3.548262688;4.12777826;-7.8231496;-8.256687649;-0.447783188;-4.461197364;18.14473851;20.49967627;-1.614249092;2.241688019;11.3046619;9.562253099;-5.831413948;1.687577611;-19.70362893;5.8178537;-8.943989855;-14.80787122
2.154878799;3.998505742;10.73578155;0.702439534;-2.16655748;5.068103083;-6.835758083;17.2408779;19.0663228;6.743489629;2.51744448;15.38045293;15.32380149;0.369021515;6.399069352;-16.75886979;8.388795605;-6.237925106;-12.7501035
3.891816402;7.233411039;14.35091117;10.81111027;-0.172983797;5.975456113;-8.951525565;14.99057358;12.92583888;9.605410214;-1.366210729;15.42222938;17.99610949;2.128848887;9.962039304;-14.90496024;9.62935832;-5.154914784;-13.24524669
2.305108868;10.22396752;12.60256619;13.74815942;-3.322414613;2.850336716;-8.821708575;15.38376851;8.425325653;5.490850996;-7.797541486;12.392827;18.26737558;0.546876667;11.87189287;-15.79801451;8.475377105;-6.457878979;-16.20594919
-1.217990199;10.1451817;6.204885753;7.630785565;-9.039926698;-1.325309855;-6.542340682;18.97293614;9.384032814;-1.732091389;-13.66686012;9.469419125;18.14652418;-1.012976476;13.19656894;-18.52713905;6.239859573;-8.61994385;-19.31981454
-3.415126691;7.036227065;-1.190134559;-0.70422874;-13.27387879;-3.7919169;-4.241752551;22.2136879;13.92547575;-6.69056339;-16.35520947;9.200610406;18.92602794;-0.217819295;14.69111491;-20.4205222;5.308698171;-9.30111591;-20.03755147
-2.177178556;3.782920239;-5.20219734;-1.996543968;-13.49178535;-3.903069073;-4.108553576;21.00576295;16.65837378;-7.114064611;-15.13037541;11.26669463;20.04609396;2.415251582;15.68327214;-19.54960239;6.902305897;-7.574257842;-17.8140082
1.426762598;3.400416985;-3.543204766;6.717007217;-10.16665509;-2.858719133;-6.323228346;15.14178294;14.05194093;-5.091919787;-11.13925841;12.87287704;19.83094554;4.661395599;14.97834291;-16.58590414;9.997551652;-4.804516696;-14.57678364
4.070523742;6.152626819;2.577089837;19.07909628;-5.866980758;-1.93604248;-8.844747548;9.297410108;7.972824859;-4.197325911;-6.344422274;11.50906948;17.3734855;5.299479623;12.84003906;-14.2241707;12.41103114;-3.35905084;-12.9956543
3.250699838;9.246312687;9.437723428;25.07729332;-3.100638531;-1.16550976;-9.292141958;9.242438516;4.068158348;-5.573117544;-2.41967231;7.612417634;13.78301435;5.560753758;11.77111235;-14.66072024;12.99111077;-4.37175579;-14.12969713
-0.32129259;9.445614935;13.3440164;20.3276058;-2.858261929;0.252622417;-7.189062782;16.46305234;6.465992226;-6.87572245;-0.333339358;4.597090808;11.55491417;7.809243215;14.78393451;-17.48287871;12.78167637;-6.681518623;-16.59069309
-3.29125065;6.181193723;12.79444555;10.35922457;-4.79554207;2.393050566;-4.460325072;26.18939472;13.75684193;-5.024459294;-0.525625704;5.982741851;12.52212398;12.74921455;22.36059802;-19.99582061;13.96517076;-7.953018197;-17.95355947
-2.744444664;2.198037722;8.853415339;5.69220836;-8.309261226;3.765759699;-3.673048066;31.04079413;20.14591933;0.112685168;-3.068336969;12.03387788;16.19129689;18.03120483;30.97385587;-19.743353;17.52546389;-6.916750148;-17.0650975
1.031682436;1.052668766;3.84909757;11.99660321;-13.06607246;2.383350641;-5.631245019;27.42275183;20.88897968;4.95348279;-7.439313529;18.98274469;20.01222355;19.91449287;35.07276755;-16.87759003;21.88772817;-4.591098382;-15.08303957
4.711711293;3.751539966;-0.268523417;24.41703788;-18.43526869;-2.06137024;-8.578159024;19.00908017;16.9863258;5.384382564;-12.21816742;21.80384994;21.44997776;16.71083917;31.41451762;-14.1047654;23.98890437;-3.305213762;-14.28568153
4.951827389;7.706873203;-2.648476284;31.63366636;-22.73860271;-7.077737059;-9.795360168;13.88118858;14.53529559;0.964649822;-15.34944627;18.36870502;20.0986416;10.8335006;22.19269638;-14.1755041;21.97210791;-4.43807747;-15.80224554
1.511141947;9.078041782;-3.188152973;26.3497484;-23.66118449;-8.792553769;-8.145963128;17.46530301;18.97423975;-4.015731695;-15.19402335;11.40889111;17.96968759;7.288081657;13.95571277;-17.23093029;17.0642963;-7.037488706;-18.44384481
-2.446848797;6.382030057;-1.966649942;12.67388672;-20.00723648;-5.080634565;-5.185930145;27.42134331;29.39395774;-3.991188031;-11.75121979;6.417151758;17.6496826;9.582489581;12.6806394;-20.53567949;12.78011669;-8.673324144;-19.78182606
-3.227074814;1.98414378;0.703233651;3.191236862;-13.33830105;2.216727219;-3.761832515;35.30773588;38.48334172;2.84872472;-7.009422014;7.072193853;19.89843438;16.49473708;18.79892241;-20.94797212;11.9719956;-7.750497633;-18.47987969
-0.040538408;-0.017741466;3.687176422;7.656423639;-7.644870105;8.15;-5.356968217;34.01024903;38.80105318;12.61087426;-3.886793878;12.00890403;22.78842926;22.62333066;26.38984863;-17.88721221;14.28614128;-5.076627744;-15.65756553
4.195770224;2.368628851;4.809442055;23.13517419;-6.720857998;8.24014598;-8.657292651;24.56696064;30.07468552;18.85131472;-4.329210013;15.75650072;23.18202308;22.49136098;27.54916561;-14.00356028;16.36760282;-3.14107416;-13.93436651
5.508441604;7.047537741;1.755127925;34.80445738;-11.10526319;1.991409564;-10.71853835;16.0313752;20.62788982;18.16547375;-7.91;13.19554713;19.33609644;14.90757399;18.65342359;-12.82627061;14.77457888;-3.734175937;-14.99063743
2.570308848;9.650929222;-6.193212268;27.63294044;-17.24700161;-6.58243065;-9.698388298;17.7730513;20.71328586;13.17579788;-12.00966853;3.884867839;12.46329408;4.006055517;3.50734073;-15.49568565;9.106876862;-6.167476026;-17.93067764
-1.982426755;7.569984491;-16.85611576;-0.515816985;-19.96010355;-11.93697374;-6.617479992;30.38497589;32.77134807;10.13435793;-13.49962044;-7.332144434;5.979126863;-3.847375383;-9.241705721;-19.62108405;2.564911853;-7.854397426;-20.04161169
-3.907379688;2.476379907;-25.54953707;-35.60791383;-16.45428765;-11.0853999;-4.465220145;43.21103826;47.09648136;13.27841305;-10.73799193;-13.94868968;3.102163438;-4.68839938;-12.42994328;-21.40739754;-0.633765564;-6.785526999;-19.30794706
-1.271231084;-1.092128964;-27.32105821;-57.28567178;-8.683373414;-5.507773773;-5.426115341;41.46231907;47.61852151;21.11338125;-4.503884903;-12.67445634;4.755946252;0.584154655;-5.46663891;-19.15762135;1.224260623;-3.568410297;-16.34761144
3.697350596;0.119290565;-19.82964673;-54.08924813;-1.959502947;0.497197498;-8.793287464;17.89765213;24.2144846;28.04405882;2.641926606;-5.676161273;9.30219138;7.600039063;5.678928294;-14.90779753;5.950290127;-1.014974081;-13.90950919
6.590849209;5.008570096;-5.096349288;-31.67118488;-0.853276321;3.378316606;-11.55469338;-20.20293512;-17.97825893;29.76985589;7.933764878;1.402863696;14.01030658;12.17288585;13.25228587;-12.60927522;9.382098558;-1.542264019;-14.33094581
4.870300643;9.033081468;11.0398292;-7.44378765;-5.719708292;2.707769208;-11.17092707;-54.75562237;-60.11087553;27.27239007;9.768279765;3.751035886;16.84321484;13.00087481;13.19527909;-14.46926494;8.916321841;-4.790555179;-17.30501102
0.239666494;8.371395194;21.60048336;3.580497213;-12.68655399;0.572939628;-7.985149913;-68.90288413;-81.60126147;25.52133901;8.138889228;0.475451377;17.21380851;11.47908711;7.106671891;-18.83532604;5.544330714;-7.78743791;-20.08949005
-2.901339797;3.518735142;21.93547507;-0.142579384;-16.98760088;-1.003998636;-4.982755639;-58.32830008;-73.80930081;28.11981176;4.249524624;-5.671377575;15.56851726;9.486415782;-0.258938828;-21.6523114;2.684882295;-7.658629589;-20.03835416
-1.548809477;-1.070387426;12.21293105;-7.561356504;-16.68411137;-1.921398677;-5.05255089;-33.36107523;-45.19909458;33.21347581;-0.116863979;-11.06012294;12.70374772;7.661157432;-5.171623219;-20.21694363;2.990229718;-4.427358797;-17.12535707
3.060139258;-1.061895309;-2.389907927;-6.277478296;-13.6001299;-3.381643863;-8.258950174;-10.65416858;-14.40225278;35.03262028;-3.103225902;-13.72471231;9.625658046;5.76182375;-7.05389677;-15.75676837;6.058880999;-1.206761282;-14.05750271
6.549865089;3.686501711;-14.07042708;6.082725624;-10.88930699;-5.663361625;-11.69468229;-1.270424195;3.063658679;30.037854;-3.242915545;-13.72139775;7.778684319;4.30545267;-7.222019525;-12.36842544;9.052945791;-1.422065813;-13.78400317
5.505589565;8.8840583;-16.38302;20.21104337;-9.709978923;-6.855952091;-12.12671;-4.337250838;4.171773014;21.78474907;-0.061803685;-11.73682547;8.782306972;5.249793253;-6.216941871;-13.21148578;9.498695335;-5.516616239;-16.67615979
0.771647541;9.719042434;-7.858143649;24.1405684;-8.228337822;-4.238368686;-9.026038621;-10.4017003;-2.607396103;19.15402114;5.410730498;-7.952483973;13.28795583;10.48453641;-2.811781351;-17.47356136;7.573724066;-10.24391881;-20.05065727
-3.194755921;5.350183361;6.86745037;14.53142593;-3.906795207;2.725106418;-5.144559434;-10.67522591;-6.513605343;28.53456576;10.8312247;-2.491598608;19.78054812;19.34291726;4.218539992;-21.0075655;5.76017548;-11.39340492;-20.58277573
-2.424159268;-0.234499044;19.47056476;0.054722605;3.161521222;10.71876014;-4.031394386;-4.109310087;-3.560954827;46.68612132;13.77227461;3.300442374;24.75911728;27.76697924;13.53199742;-20.16791792;6.28972287;-7.614512563;-17.4325252
2.775701619;-1.888534541;22.91801401;-6.106643588;9.260295707;14.32664993;-6.742387798;3.115110863;1.797856135;61.42881783;13.43211736;6.696480408;24.83654885;30.58347791;20.89;-15.32914817;8.906562901;-1.840143677;-13.14629284
7.931437993;1.851200964;16.08986459;1.999156507;9.735329588;10.23179523;-10.81363882;4.273109413;2.711185942;60.929997;11.52237489;5.466783945;19.48515655;25.48417305;22.05146953;-10.73902655;11.1444314;1.140358923;-11.39271096
8.443306538;7.314543534;4.854616584;17.39087017;3.231965631;0.386617985;-12.51732758;-1.465432094;-2.576338601;44.39359075;11.32714816;0.384767024;12.11541428;15.39764633;16.60959557;-10.6927043;10.86644159;-1.091440258;-13.55554948
3.879862836;9.119399817;-1.576331925;25.45805885;-6.337821286;-8.841572752;-10.35014095;-8.407325156;-8.670165407;24.61700655;15.28412983;-4.266357978;8.140475223;6.920739899;9.156864285;-15.48542526;8.582291612;-6.36;-17.3666975
-1.502527148;5.352261297;3.101539408;15.78791628;-12.18228316;-11.26310177;-6.486845573;-9.568084014;-7.941634792;18.9204646;22.81904544;-3.410406193;11.10797013;5.690678458;6.212569319;-20.94534039;7.192799374;-9.785704663;-18.95066653
-2.621405073;-0.399423343;17.74449484;-9.341602279;-9.699018005;-5.615265441;-4.768429294;-2.739728741;2.380068359;34.79863325;30.27722983;4.642051737;19.83482589;12.2603665;11.09567802;-22.1275409;9.244772332;-8.18606551;-16.47
1.686946863;-2.25734985;34.38870677;-36.57354936;-0.094199012;3.454245395;-7.04147344;7.930294275;17.43106712;61.93527865;33.30363918;16.10845081;28.98444157;21.77365494;20.99063133;-17.86463566;14.23230768;-3.025946393;-11.97003906
7.480325848;2.331231012;43.84482905;-51.42395462;10.49853283;9.042665573;-11.29249164;15.82382916;28.60846857;77.97247003;30.01610841;23.96964943;32.86201032;27.66711454;28.84741297;-11.94597597;18.59003906;0.828667286;-9.592919514
9.311438013;9.852127977;42.20444939;-48.26448243;15.69886167;7.294095744;-13.42991585;17.35050074;30.50738555;64.60384792;22.50227345;23.16089114;29.53461564;26.3758078;28.74899898;-9.710883895;18.59281046;-0.488903148;-11.70481033
5.36847368;13.6587473;33.29660807;-32.74815521;13.4995088;0.032947258;-11.15283398;14.19266118;24.81019594;21.92607544;15.38136191;14.6049256;22.03352734;19.37566279;20.4354108;-13.10147938;13.62623201;-6.264412573;-16.53310702
-0.661531374;10.10510409;25.1772034;-15.85965001;7.144713169;-7.221855664;-6.285093655;10.80629346;18.07531396;-30.18646561;12.52153976;4.659293527;15.76619586;11.31844662;9.374828411;-18.77;6.828820949;-11.75301139;-19.63669497
-2.898080299;2.206736615;23.49466324;-5.414105947;1.889454904;-9.870097656;-3.260390913;10.06780687;15.88155033;-65.0438348;14.52992228;0.290923607;14.37386138;6.277844127;2.501371223;-21.11975156;2.445579154;-12.43606364;-17.99561749
1.192568198;-2.808331475;27.16947232;-1.890234934;0.712023264;-7.437217251;-5.017120888;11.28367595;18.71738408;-66.78763899;18.97549737;3.906818391;17.4412186;5.362322;3.237590984;-17.57568414;2.260144137;-8.124909422;-12.95611988
8.197667247;-0.095109116;29.94112545;-0.807690018;2.626466168;-2.918296397;-10.10055508;12.07014375;22.91932412;-39.75876616;22.9637262;12.0499096;21.70131725;7.253318288;9.709111699;-11.17532691;4.349726175;-3.116428427;-9.17
11.70885625;8.078969351;26.37291698;1.836259978;4.587859819;0.573662725;-13.81015703;11.69447739;25.09078097;-3.449597039;25.67107194;18.80488741;24.28561698;10.38580656;17.07210155;-7.912105821;5.256060138;-2.197413424;-10.33112908
8.284093527;14.06299819;17.02097857;6.299786284;4.682393779;2.40059823;-12.51679108;12.17;25.41054022;21.95764787;28.5633354;20.7144875;24.92625808;14.22930422;21.41770683;-11.12751481;3.454076829;-6.159768757;-15.59745032
0.90161791;11.75726475;8.11443105;10.17001953;3.415687268;3.880229719;-7.203092377;15.87909045;26.74333723;28.04699171;33.20366397;18.89496355;25.26092183;18.52194471;21.84206443;-18.14959011;0.761716677;-11.02546994;-20.14027704
-3.507779925;2.50800035;5.894277701;11.59800354;2.146277889;5.614494588;-2.802856562;22.22242939;30.81576134;20.17123503;38.85854733;16.82555882;26.28894699;21.79707383;19.50211732;-22.48872078;0.307366847;-11.79396746;-19.52560328
-0.424606291;-5.667795498;10.63108766;11.03466633;0.752582323;5.86683273;-3.724038636;27.01934992;35.62230803;9.648570588;42.39498972;16.35932249;26.81146368;21.49111688;15.45872086;-19.79254264;3.047894781;-7.276327016;-13.97469895
7.821998407;-5.2;15.90034939;10.09653546;-2.59367853;2.108025839;-9.59540979;25.79656979;36.90383157;4.083077682;40.86203249;16.04581038;24.63785015;16.25131222;9.935445981;-12.10461418;6.373109899;-1.438859876;-8.441286098
13.85525195;3.894982838;14.18317631;9.432133299;-8.98163963;-5.565309063;-15.30243821;18.14358081;32.35630993;3.573291882;34.50834782;13.40745126;19.44167974;8.386074265;3.637007461;-6.291936519;6.435772835;0.171089367;-8.179619373
11.938796;13.56924064;4.067160251;8.249097366;-16.19391291;-12.80441719;-15.54519476;8.87350562;24.32789177;4.145372236;27.27889595;8.702648009;14.22802176;3.537044073;-0.845886837;-7.807273462;2.173834469;-4.283419325;-13.74036014
3.508226225;14.81667714;-7.54964201;5.934754052;-19.23974146;-13.59990916;-9.869765962;4.418229785;18.06348983;3.391358679;23.8971036;5.956410779;13.43686518;6.836504338;0.063228124;-15.43490904;-2.949324574;-10.90863921;-20.11686502
-3.747422381;6.075187842;-10.80469899;3.606687873;-14.42750504;-5.518072658;-3.421937527;7.359916299;16.89612635;2.498606554;25.77930399;9.538569478;18.94240072;18.28652377;7.731078502;-22.0586262;-3.608430002;-13.44864695;-21.12607846
-2.767345062;-4.854623883;-1.605102773;3.404607215;-3.623285086;7.050353564;-2.426926767;14.04173124;18.97;3.520029297;29.40203575;19.1363303;27.59095517;31.53919286;18.71746116;-21.0848333;2.35407002;-9.132648675;-15.21736241
6.172967444;-7.580078125;13.89043211;5.973586116;5.678800912;15.20364965;-8.334207438;17.68196184;18.89156531;5.792516697;28.90673165;28.19548099;32.99328779;37.90268485;25.93515524;-12.77963637;11.17633019;-1.564435392;-7.299455572
15.26444727;1.233676389;23.51651795;8.999953285;5.612442984;12.28698698;-16.09325351;14.44112077;13.06764528;5.933253959;21.07659148;28.28661044;30.58354867;32.92980194;23.62786727;-4.503165643;15.70816762;2.283805988;-4.577769265
16.06564084;14.21507294;19.08770084;9.001072187;-5.296125701;-0.317648791;-18.48552345;7.01215294;3.756212799;1.664377689;8.526579175;16.38133989;21.7406383;20.27069569;12.39207544;-4.210190168;11.50565685;-1.519375832;-9.914656635
7.441550469;19.46670673;3.772014078;5.166139698;-19.78918884;-13.59187535;-12.83929174;2.336905009;-2.273100185;-4.682270781;-1.812184973;-1.322309175;13.14502383;9.263777227;-0.361104431;-12.9093595;1.184246623;-9.931839935;-18.80551625
-2.881812134;11.44314294;-9.827770403;1.333776754;-26.75815922;-17.7211933;-3.936578596;5.342745526;0.35779378;-7.164028041;-3.919511836;-13.12925824;11.50795736;7.831441504;-5.652305168;-23.1459544;-7.203768965;-15.37988222;-23.08399693
-5.040825907;-3.357315851;-9.856134775;3.3317345;-19.99421278;-9.967660004;-0.066919149;14.35484961;10.46588987;-1.44036235;2.633570487;-10.84524242;17.993231;16.36843706;-0.009877509;-25.38607439;-6.85281699;-12.67558146;-18.35593798
3.740078125;-11.6005324;4.670275311;13.3412722;-3.625842919;3.105148979;-5.42867094;22.49140505;20.84333614;10.62942842;12.49047821;3.269751139;27.21442478;27.73217338;11.56899216;-16.86861029;1.726385635;-4.135962196;-8.435905788
15.95857085;-5.141295737;22.52352055;26.51352861;10.72539591;11.1609686;-15.77735595;23.92236722;24.35509316;21.76060741;18.95534253;17.80968095;31.85764678;33.39276559;19.59132543;-4.765799233;10.82395421;2.096654903;-2.380014648
20.15620953;10.89846769;29.23214121;33.84637254;13.20290006;8.789380025;-21.7112532;19.26232017;20.15;25.21471838;19.21335211;21.23487112;28.97435488;30.5052051;17.86802392;-0.224636412;12.14258152;-0.560180382;-6.3314223
11.53402978;21.88748486;19.01367731;29.75917305;3.797287519;-0.144766798;-17.14844719;14.94087761;14.12040454;20.62330875;15.78823096;11.23805404;22.32459716;23.7942631;8.488789366;-8.158352678;4.262440625;-10.63091616;-17.43964301
-2.817016705;16.72148825;-0.477003046;17.81806677;-7.751963936;-6.37735653;-5.449326966;16.87766904;12.9371098;14.05555815;13.10029926;-3.59332301;18.55136138;20.64361324;-0.441667427;-22.03570585;-5.857863497;-19.24237277;-25.75314891
-9.496407742;-1.300845771;-14.76577083;8.751458116;-10.43647546;-3.96042003;2.819119114;24.28378879;17.18080664;11.9825765;12.51132897;-11.46390149;20.59494933;23.84924251;-2.36713221;-29.00158335;-9.111669599;-17.9421024;-22.99807215
-0.933499556;-16.1618701;-14.90278483;11.44033972;-1.677310995;4.068630539;-0.815122928;29.71660784;20.38531347;14.77838611;10.76224524;-7.838787486;24.53603344;28.75135582;1.702517733;-21.45539559;-2.899415418;-6.888692649;-10.61012403
16.70489732;-12.98403631;-4.746709005;24.42897523;10.32215172;8.467200678;-14.40420483;25.97344998;15.54551192;16.25521732;3.637100484;0.618130331;23.20701445;27.68713775;4.419265284;-4.836143482;5.795381348;4.343385939;0.599617017
27.710175;7.69;3.321525011;36.08358625;13.97144237;2.841818544;-26.16752466;13.81270816;3.324208067;10.19881257;-8.403808655;2.442244696;13.67347977;18.01177817;-0.263953181;6.054730856;6.370156596;4.865521281;-0.33806983
20.51751979;28.48974281;0.516183766;34.42507069;5.178667001;-9.24406048;-24.44262922;2.982578473;-6.295848805;-2.146725776;-18.3242639;-7.353806389;1.617311566;6.232349955;-10.09888946;-0.046697421;-5.128326917;-7.236055215;-14.15939244
-0.797386533;29.42348802;-9.439413554;18.63502897;-8.085088551;-16.19431787;-8.801214625;4.508471274;-1.881962922;-11.40845927;-17.23973591;-21.43874937;-2.241821637;3.673969473;-15.30795036;-19.74327686;-20.75728687;-21.89672801;-29.37897288
-18.11738229;6.35808429;-13.2580275;1.572855677;-12.2893794;-8.615451996;7.872305876;20.21600299;18.00373731;-8.151888392;-2.637019898;-25.82586293;8.390628794;16.46550672;-7.510647417;-36.13506049;-26.17745736;-25.04067201;-31.50967605
-14.09830563;-22.72328651;-1.094056565;-0.361357492;-0.938043053;10.73456157;9.440437092;38.88667797;40.24860258;6.928298547;17.0539137;-12.95193472;27.99048743;38.24387152;10.66709561;-32.65384071;-13.32082161;-11.41282261;-16.28674399
11.6440551;-30.95102596;21.77772479;17.63105867;17.74052605;26.66949485;-8.854693836;43.66841182;45.2983883;20.57269758;26.67115088;9.236883216;41.17047676;52.67682801;24.60275976;-8.517279627;10.45358209;9.033322645;4.769765644
39.35200655;-5.887860731;35.99273991;41.93374154;25.67076588;22.71586574;-33.76945822;25.87997502;22.97963815;16.3420324;15.44488022;21.25;33.93312204;45.21670806;18.00650633;17.91027899;25.65074232;17.94156008;12.50278875
43.36830988;36.46870622;22.87216817;49.54710311;9.603068175;-4.583293261;-42.42607797;-5.877429538;-16.65831439;-10.65756004;-13.24242256;7.389352389;5.976754442;15.51101862;-12.70865935;22.31475123;15.37550321;4.15753785;-3.573710831
13.47356754;60.41267022;-18.33092353;27.14503046;-26.11067124;-40.2060667;-20.37675669;-29.63856713;-47.6535967;-46.23369554;-41.85394414;-29.53802056;-26.18997201;-19.63681625;-52.06304127;-5.359108626;-19.65494683;-24.65746067;-34.20528816
-34.11740542;37.28921547;-65.56425168;-15.34910229;-59.87434529;-59.7548454;24.79989703;-25.29327953;-46.09252851;-64.74682525;-49.85795424;-66.95;-39.11309759;-36.2104988;-73.96567405;-50.19970346;-58.54909842;-45.16709387;-54.86584798
-66.34375266;-30.05329505;-87.35720033;-49.21882199;-67.4760017;-47.1693616;66.15348847;9.995430763;-8.611395826;-47.71017545;-28.53032359;-77.35523915;-18.8782012;-19.39655376;-60.09333174;-81.05827555;-73.7265642;-35.43448834;-43.80819062
-57.39537626;-105.2588785;-65.5460164;-47.7913347;-40.34876912;-7.536541154;75.64219486;58.12986929;43.31532305;0.761849324;11.73268458;-48.82697096;27.85248339;25.29621252;-14.52936098;-73.24269833;-51.13934578;6.814290881;-0.121991608
-8.973180089;-142.2358979;-9.982162171;-7.912663984;6.849840375;35.40543433;44.72117159;91.43223114;77.64433299;54.54974929;47.67832619;4.811731987;76.75520945;74.43929709;37.21446377;-27.90012991;-1.769522878;59.62056559;52.89652334
49.47912294;-117.6636778;46.85515055;45.53721397;45.81377306;55.77396852;-8.614881158;90.82815251;74.40595574;82.93683282;58.97068745;52.65;100.9514994;101.0524264;65.09533044;27.4057715;44.99737762;90.72834158;82.8399081
81.4286129;-47.72225624;72.1051087;76.9;54.45718176;43.73723013;-52.12433361;57.58970526;39.62293422;72.11150025;42.01346159;68.19938098;87.5733137;90.86355327;55.23181073;58.01948628;61.68300028;80.26051602;70.99683192
69.27145782;23.69886238;55.15631281;66.07627071;32.07274256;11.64614088;-61.86984526;10.60088178;-0.04324069;34.35314422;11.66150124;47.60856459;44.32560914;49.5164178;18.9916082;46.90108568;41.59368848;35.05647426;25.691084
25.97234726;56.22432921;13.73510146;23.43206622;-1.558992972;-16.2447543;-38.10592226;-27.73452027;-17.52110126;-2.067212123;-10.21528675;10.93948273;-7.580078125;-3.149971664;-16.20176834;5.954519807;2.233529379;-16.31652661;-23.97601899
-16.07516164;39.98021083;-20.6719099;-18.5540855;-21.90490196;-22.10889791;-2.976497053;-45.72698792;-4.652503889;-14.15314845;-10.48593117;-13.94325648;-47.76336278;-46.3758724;-27.08597685;-34.22610718;-28.7577709;-44.03947478;-49.06802124
-29.6398993;-1.259804575;-26.33165263;-30.31041835;-17.70945705;-6.702543241;17.30021504;-46.66869286;23.92398691;0.004998538;6.936682754;-11.99729223;-67.55505661;-69.51356417;-10.39826363;-47.5873784;-33.81504364;-37.39536849;-40.45576336
-11.45854074;-31.34602981;-5.657237808;-7.059605294;2.410626834;13.43835237;11.46768621;-41.77612429;44.24170498;22.59852384;25.87598553;9.61963265;-70.7757958;-74.17830341;17.11611684;-30.63877385;-16.37623291;-9.974417848;-12.75479431
18.46824843;-29.51;19.65223896;29.39214192;18.94648637;20.476102;-10.80076797;-39.26369895;42.16394065;32.32558571;31.22;29.67137891;-66.26723642;-68.32669017;33.35623413;-2.092967809;4.839957626;13.08836792;9.196770031
34.87396125;-3.171852166;27.45141554;49.48642737;17.86672995;9.30327283;-29.21825563;-38.84079015;22.93035819;21.58956773;20.09429089;30.81618836;-59.78790367;-58.62464305;27.93278988;14.01456229;12.24409851;14.83822832;9.715619773
27.09615532;22.25714164;12.30335135;39.44210683;1.040202935;-9.752641113;-29.90351505;-35.03040738;4.524517463;0.978914252;2.61064506;12.699583;-51.70017323;-47.18252815;8.480943874;7.232968322;2.737270316;-2.298806213;-7.632943513
5.255842839;26.0433245;-12.15620651;10.54017957;-16.91107662;-20.67860745;-15.22302461;-24.77385579;1.684102708;-11.43935777;-7.41958593;-9.59032119;-40.68066794;-33.78377656;-7.569588383;-13.19377842;-12.07583161;-21.44076021;-25.86586812
-10.62636602;8.059552239;-26.06628815;-12.30717003;-21.60463975;-15.15857307;0.415827311;-11.68997438;14.29606352;-5.984349211;-3.696042098;-19.13634515;-28.35783569;-19.85448474;-7.922173933;-28.40952221;-17.5332001;-26.66939328;-29.9726369
-8.077017862;-13.86800554;-19.79007813;-12.00208539;-10.49168382;1.389439976;3.846996577;-3.254845212;29.15787849;11.08229655;8.340855707;-10.96076789;-19.78919736;-9.635805249;5.329675502;-26.43288518;-8.713447648;-15.63929034;-18.65520341
8.561513774;-20.87887425;-0.549946049;7.511714046;6.113126725;15.29176092;-6.229734551;-4.008589749;32.35329863;23.88355311;16.90986867;5.055197618;-19.39063157;-7.392641956;18.8455298;-11.08944851;6.265188448;0.326713252;-3.511008629
23.70292659;-8.839459047;15.08128949;26.552859;14.44806953;16.18115027;-19.637571;-11.38497137;20.97401899;20.77728217;13.76065245;13.45;-26.57027898;-13.53126198;19.83405768;3.055313032;14.30792221;7.289681114;2.195629437
24.79138728;9.914104787;15.3883318;27.79429017;8.638122198;4.813360137;-24.59463788;-18.01396731;4.469561976;3.613741741;0.327959119;6.094668145;-35.59013266;-23.52329636;6.247325746;4.104603285;9.007845038;0.605612939;-5.212903082
12.5406073;18.79822679;2.288650867;11.03938105;-5.358214073;-8.740621085;-17.84633241;-18.22445315;-4.515229943;-14.9003129;-14.27211146;-11.94850558;-40.06323483;-30.87226112;-12.54352924;-7.421254254;-4.252809687;-12.24775602;-17.86531631
-1.039629395;11.47081217;-11.84979459;-7.650367912;-15.64522596;-14.05146804;-6.525749578;-12.70262467;-1.034937044;-22.46212659;-20.93163524;-27.6;-38.04197793;-31.66500768;-24.05611184;-20.30267278;-13.62089745;-19.33897962;-24.31250011
-4.005750966;-3.877459899;-15.4744426;-10.79670003;-14.3808043;-8.442980798;-0.985808033;-7.168838274;9.023460935;-16.83926388;-17.23631187;-30.67330207;-33.07254408;-26.90291709;-22.35268088;-23.25406166;-11.26024862;-14.93286286;-19.68325664
5.274916858;-13.07810043;-7.123376427;5.199469472;-3.402103773;2.148011286;-5.567743557;-6.561763009;15.54003906;-6.035560114;-8.071565232;-21.2016201;-30.36251765;-20.87688688;-11.299671;-14.61196404;0.263342388;-3.800993102;-9.178700103
17.64575434;-8.841101579;4.640505222;27.47965092;8.488601412;9.281554179;-15.40623113;-10.29701913;13.78375112;0.073346758;-0.595811592;-7.85509022;-31.74421313;-17.31141809;0.124608745;-2.886491494;10.84525644;3.893049816;-2.556541098
22.02645205;3.560819218;9.467405302;38.40197886;13.29995047;9.108287753;-21.49064634;-13.00851035;8.167626976;-1.592234502;1.496138709;0.009669948;-34.1682443;-16.72640044;5.390976501;1.502499714;11.87339112;1.891279104;-5.189659671
15.2111504;12.07906214;3.836994898;30.63352948;9.705181148;4.426766783;-18.8959847;-9.975395193;7.110247093;-6.002826383;-0.344648953;-0.672098793;-33.07331774;-17.05252737;4.265061158;-4.56634905;3.309226798;-7.067207727;-13.75187125
4.045849576;9.137798943;-7.103465233;12.45704844;2.540256886;0.755751092;-10.76135962;-2.049482038;14.24324521;-6.405236044;-2.522348364;-6.092227287;-27.33500582;-16.4542953;0.603902809;-14.81400853;-7.053699661;-14.42119652;-19.89921434
-1.318975103;-1.954169033;-15.04508209;-0.682471741;-2.538238835;0.769485419;-4.874128978;4.644133671;24.37568088;-1.683836896;-3.465258341;-10.61478497;-20.94720461;-15.4238316;-2.61736692;-19.8238753;-10.9015367;-13.78846665;-18.07741278
3.441462595;-10.71539979;-15.6541713;-0.112455151;-3.842865401;2.34038564;-6.416420781;4.116156703;28.03202108;2.480687846;-4.885826593;-12.02310872;-19.61305657;-16.13706189;-5.882281233;-15.55288131;-6.477395411;-6.411641045;-10.27067124
13.4563256;-9.334169138;-11.03643109;9.324269165;-3.812566128;1.55995219;-13.54054297;-3.849961101;20.39347129;-0.396869429;-9.225723584;-12.28592047;-25.24901522;-19.81282841;-11.23158931;-6.46680092;0.667971176;0.543257551;-3.722086456
19.58747121;0.487586622;-6.213497628;15.35181396;-5.223501246;-2.656949485;-19.48695497;-13.03673479;6.379383654;-10.42542683;-16.1252989;-13.995818;-33.5568672;-24.77874159;-18.49553729;-0.940143395;3.38848582;0.814218919;-4.132159852
16.75664183;9.57420525;-3.843320631;10.97484235;-7.724330903;-7.051761418;-18.93502677;-15.88574949;-2.959381786;-20.094801;-21.62908159;-16.73420719;-37.2197927;-27.32208103;-24.01694311;-3.530488165;-0.425455666;-5.407540528;-10.67097234
8.124959037;9.852874327;-2.459248124;1.715905735;-8.204912322;-7.084915179;-12.6787572;-9.949206591;0.233771055;-20.52887579;-21.17484089;-17.25631534;-32.1956764;-24.79333218;-23.53024211;-11.18083558;-6.286397924;-12.0555927;-17.12017407
1.729251531;1.466701761;0.503983277;0.455982645;-4.448133602;-1.61148531;-6.570019531;-0.035042678;13.70205489;-9.701374075;-13.77546064;-13.24917852;-21.60240702;-18.23934634;-16.51843133;-16.46158541;-7.73054574;-12.99654169;-17.74587486
3.048304433;-7.808899682;4.537786866;14.43485607;1.809750922;5.383649837;-6.007209329;5.856432633;26.6530637;4.977716857;-3.543144419;-6.672735363;-13.5821043;-12.08279909;-7.644020313;-14.51649808;-2.616483458;-7.571262521;-12.3804768
10.33979806;-9.889850708;5.447750426;36.37154955;5.729360237;7.842750337;-11.1375504;3.283501498;28.56171983;12.4012335;3.053503206;-2.967461091;-14.71495858;-10.85800519;-3.437022499;-7.284532257;4.734627191;-0.926874948;-6.22607125
16.69900369;-3.558661617;-0.668631486;48.34314643;3.625810223;2.900581014;-17.01582531;-5.00065126;17.74;7.077298234;2.093915301;-6.404133831;-24.48214376;-15.58202134;-6.898969525;-1.378934084;7.4488673;0.879463462;-4.866111637
16.57761521;4.877906816;-12.60170299;35.91204484;-3.281184786;-6.323093177;-18.30876228;-11.52532447;2.536334761;-6.04214021;-4.741115844;-15.73457175;-35.47733778;-22.74598297;-14.82262163;-1.880830249;2.442609714;-3.647309702;-9.230019531
10.67072603;7.663916455;-23.33302925;0.814048801;-9.290370985;-12.96604982;-14.09609111;-10.37895454;-5.595187801;-15.47424173;-11.45775984;-24.35752014;-39.2168933;-26.80417015;-20.36473493;-7.840058594;-6.54104136;-10.31650916;-15.03273897
4.898426612;2.607394296;-24.82069598;-38.65255862;-8.756026113;-11.86675258;-8.464486121;-1.848612658;-1.133911321;-12.5838812;-12.30049411;-25.29277191;-32.71289113;-24.21568008;-18.75262322;-13.43892686;-11.91185887;-13.26214491;-16.9453228
4.737871838;-5.283591364;-14.48752622;-60.2703526;-0.892230402;-3.622957921;-6.576166421;8.325140341;11.78812238;1.489001787;-5.934607167;-16.89915655;-20.46664275;-15.91066487;-11.18485492;-13.48567323;-8.594192587;-10.24402773;-13.47955575
10.26290414;-8.711937668;2.241765411;-53.58665367;9.375035241;6.054782172;-9.965843797;14.02189077;23.54518366;17.03900533;3.863994352;-4.4440734;-10.53139095;-6.414643681;-3.57167785;-8.076381611;1.752864629;-4.436810616;-8.129484943
16.32886248;-4.796200628;15.77877277;-26.37;15.31777974;10.95852704;-15.32985911;13.51164061;26.96186917;23.82018098;11.20142806;3.883848317;-8.221499874;-0.535072216;-1.322039341;-2.258185624;12.18254523;-1.289371025;-5.918562546
17.4821724;2.549118443;19.50067593;2.601952198;13.74712333;8.988302072;-17.73225617;9.977356119;22.25562464;18.95136918;12.14956171;3.211003474;-12.68875174;-0.265334357;-4.815093237;-1.226019828;16.14367023;-3.522673015;-8.709518921
12.93393768;6.485710353;14.23074627;17.83347319;7.265490952;3.072088707;-15.13785534;7.898026125;15.41120549;8.282485676;6.895841978;-4.657444519;-18.74898111;-4.079777698;-9.450475462;-5.592762451;12.46643993;-8.848012114;-13.61334388
7.095385489;3.586107315;6.486963593;16.90931577;1.675609276;-1.907835043;-10.12673613;8.989853506;12.29183843;0.689920932;-1.132165647;-13.27907744;-21.75328194;-8.694788318;-10.00311897;-11.01255333;5.60526457;-12.31478934;-15.83274656
5.382617221;-3.19913931;2.361753461;8.979127324;0.993543737;-3.161682635;-7.364867814;11.36051924;14.03762959;0.68739808;-7.871264066;-16.95200085;-21.02755437;-11.52183916;-5.222652887;-12.32528522;1.356214014;-10.93745997;-13.1763214
9.283846088;-7.471626012;2.56440234;4.895319707;4.428433292;-1.555415888;-9.291830947;12.17713929;17.38851643;5.630359219;-10.79681871;-14.78779562;-19.22144278;-11.88830462;1.407479024;-8.293279798;2.03551944;-6.310531301;-8.047459765
15.17810897;-5.31335274;2.835614186;8.251857144;7.732727586;0.188709893;-13.99249466;10.81795833;18.72313228;9.266187696;-9.519881693;-10.37478641;-18.85727016;-10.51543856;5.191713015;-2.6138024;5.184589018;-2.940058594;-5.153473906
17.81661803;1.263177373;-1.06438825;14.45093478;7.380917523;0.479219612;-17.08878737;9.295572222;17.45968846;7.77644035;-5.230106285;-7.954955163;-19.73816347;-8.288001135;4.559519631;-0.417867678;6.469369313;-4.000234392;-7.143619055
15.12706641;6.349493333;-8.701261216;17.07891345;3.670574931;0.085858763;-15.78818817;9.707426526;15.70642478;2.738910262;-0.007803501;-8.868446035;-19.6360447;-5.670845878;2.151388074;-3.575202351;3.781293406;-8.482564498;-12.21547133
9.943109226;5.595095979;-15.07181481;14.64713931;0.072100726;0.681874726;-11.35320166;11.56788798;15.10688593;-1.212231605;3.616764939;-11.27564603;-17.24552036;-3.124761288;1.764541092;-9.088152053;-1.173223504;-12.27362395;-15.82810912
7.221495636;0.024800512;-15.35058053;11.41283434;-0.294406634;2.484466346;-7.824974325;12.02136083;14.60149451;-1.236159509;3.316287753;-12.82459729;-14.13963246;-1.671106826;4.220989645;-11.92175145;-4.904819714;-12.02380808;-14.86690112
9.451008622;-5.140132877;-9.76439719;12.26289492;2.391840284;3.596431776;-8.29450283;8.964087749;11.67982049;1.173624288;-1.808246779;-13.24185109;-13.52285014;-2.571100925;6.257756588;-9.572795471;-5.557172959;-8.176287502;-10.4194457
14.48804454;-5.365411335;-3.884586414;17.31922495;5.023775377;1.864481796;-12.17374918;3.946607521;5.893590725;2.188424042;-10.05660239;-14.22708196;-16.8567089;-6.087890815;3.686458591;-4.212243113;-4.425237331;-4.42768206;-6.682440689
17.68940258;-0.819185503;-3.826910472;21.79643262;4.795202876;-2.537573547;-15.88182159;1.603941099;0.793253865;-0.087172367;-17.31879075;-16.95071463;-21.72235357;-10.4757497;-4.040078125;-0.569341742;-4.31931251;-4.241717293;-7.089943561
16.24302046;4.05887951;-10.62105953;21.1708274;2.129482079;-6.482387388;-16.18880562;5.608398397;1.724090404;-3.44525333;-19.24496705;-19.96328027;-23.31431967;-12.47174391;-12.25470678;-1.618553916;-6.556042521;-7.698757892;-11.23591381
11.67903937;4.827501542;-18.96761937;16.33287613;0.450242741;-6.176050545;-13.0965193;14.75684975;10.97060454;-3.686852895;-14.28052477;-19.97270482;-18.56494367;-9.384935337;-14.35337009;-6.019536333;-9.556549882;-11.54188092;-15.34288719
8.340615498;1.094192921;-21.77557692;13.27509366;2.914471713;-0.549655526;-9.681072889;23.19260849;24.68683596;1.049539172;-5.243590803;-15.06603926;-9.252867006;-1.364327782;-7.374912559;-9.524823738;-10.38190539;-12.26700204;-15.7456861
9.34275491;-3.329943612;-16.63109605;17.12958785;9.115206451;7.279306819;-9.169115148;25.20107272;34.90588985;8.021007174;2.178854546;-7.32948718;-1.104221673;8.042371203;4.957955461;-8.915639077;-7.694408612;-9.33326135;-12.15799317
13.77773842;-4.138112385;-8.400385412;26.03437676;14.89130223;11.9959788;-12.00615532;20.5753671;35.4888748;12.02766312;3.297700451;-2.048453036;0.624662319;13.80293761;14.61131006;-4.820458016;-3.286264901;-5.557182819;-7.793686514
17.66606358;-0.539593758;-5.366252446;30.97173484;15.61976174;10.08285746;-15.5687954;15.4294415;27.12918832;10.10883345;-2.160592415;-3.684648794;-4.595766996;12.64712782;15.3126087;-0.940444688;-0.67579457;-4.421441821;-6.35222339
17.66539175;4.119857967;-11.94013414;22.57419693;10.20610976;2.580609704;-16.67166959;16.97779175;17.00253215;4.415161111;-9.819240901;-11.91456819;-12.13171535;5.354194482;7.391731876;-0.554891992;-2.013875708;-6.858294396;-8.704844153
14.07763417;5.575811637;-24.16482662;-0.506998714;2.278845015;-5.653367905;-14.4819357;26.29222114;13.12662652;0.479348874;-13.92282647;-21.28231293;-15.96101817;-3.625924436;-2.571133432;-3.592974133;-6.112220076;-10.47181946;-12.28074527
10.44700114;2.608481434;-32.09476845;-28.9254935;-2.524790337;-9.562642818;-11.17991893;35.48568508;18.08250047;2.347967417;-11.60416666;-25.07848569;-13.42739829;-9.008112996;-6.933147782;-6.892983611;-9.384432075;-11.84530428;-13.59274434
10.22847381;-1.921768968;-27.44167791;-48.40226955;-0.936818096;-7.44759914;-9.855455794;32.61916786;27.35362775;8.978646213;-4.787026983;-20.42795089;-6.979952051;-7.977706558;-2.715036742;-7.258642947;-8.862956852;-9.735402111;-11.47494087
13.65155162;-3.830048828;-10.41306906;-49.63928998;5.530836009;-1.729970788;-11.66114184;11.17943729;33.5592601;15.19823046;1.700622133;-10.45254811;-1.636426034;-1.701192331;6.663601549;-4.39493121;-4.633038605;-6.196151056;-8.04684165
17.6227663;-1.503303707;9.791703836;-34.60194443;12.02885203;3.370019531;-14.84207015;-23.3540911;32.78032729;16.35553059;4.104775144;-1.782802637;-0.639520889;5.836332761;14.64619336;-1.042286779;0.380953158;-4.640817907;-6.602661425
18.65408776;2.684211645;21.2993634;-14.39690259;14.27656746;5.062321944;-16.45449678;-55.6196535;27.47883918;12.41798059;2.459572505;0.457456186;-3.169770043;10.61419172;16.69190262;-0.303695002;2.950358856;-6.673917619;-8.472315325
16.05344986;4.671351376;17.80107406;-0.819424066;11.60781605;3.499744441;-15.10554308;-70.23900463;23.66178581;7.781596816;-0.098772865;-3.900126722;-5.883414738;10.92771501;13.0219522;-2.737136019;2.089220441;-10.611851;-11.78869653
12.46592986;2.507208203;2.50353256;1.519751016;6.821018135;0.734597536;-12.17548743;-62.22674454;25.08719324;7.021454255;-0.546464111;-10.74515069;-6.48260479;7.848845737;7.184434182;-5.90955153;-0.530575246;-13.01247921;-13.26481198
11.35959934;-1.892652608;-14.80808082;-3.344813912;3.37466278;-1.465869954;-10.4596535;-40.06688935;29.85189507;10.56583134;1.306691341;-15.46949058;-5.790158406;3.902646052;2.417409855;-6.748323371;-2.401130489;-11.77334098;-11.28214621
13.84363671;-4.59712957;-24.82836131;-7.821537722;2.621739075;-2.811857581;-11.56083969;-19.20482636;32.41103568;14.36075453;3.025919954;-16.38043026;-6.420756684;1.296555238;-0.612796643;-4.430280219;-2.373211653;-7.972670864;-7.411827867
17.73629361;-3.322786651;-24.38127138;-7.324776666;3.395616465;-3.845969066;-14.45942423;-11.09348667;29.07893708;13.89672101;2.364092934;-14.99426909;-9.511618094;1.029627988;-2.919038072;-1.111624202;-1.22986112;-4.835813774;-4.980078125
19.65684046;0.509850327;-16.89804434;-2.818524684;3.892745197;-4.527406106;-16.5297961;-16.13216234;21.87987293;8.871405568;-0.085252405;-13.50591068;-12.89230185;3.157227688;-4.643432931;0.133221586;-0.347376809;-4.843063514;-6.028423429
18.13644731;3.182798928;-8.372034542;1.91757885;3.723479231;-3.793540431;-15.99248003;-25.39078622;17.11224589;4.044923072;-1.053065402;-12.24047097;-12.71863782;7.431154098;-3.923649512;-1.802993345;0.00611026;-7.627680928;-9.472805326
14.88066877;2.171218985;-2.690265827;4.802355179;4.085279973;-0.712417983;-13.51178498;-28.92521675;19.79402327;5.236016754;2.352921209;-9.628636192;-7.230261719;13.40834111;1.330653586;-5.042509318;0.942242546;-10.50143529;-12.12771264
13.09577663;-1.549619117;0.082269129;7.1926888;6.031215572;3.934542598;-11.50638818;-23.59756069;28.93696357;13.88399581;9.404037161;-4.591567795;0.91636542;19.94400371;10.40851186;-6.488722465;3.524378253;-11.00724938;-11.61947029
14.50539012;-4.483764265;1.978290967;11.51191673;8.754111232;7.438345418;-11.88062195;-14.39637012;37.95345677;25.09724968;15.4258443;1.252125612;6.201684643;24.88721646;18.7918227;-4.704777852;7.140697487;-9.098938386;-8.508396475
17.82564073;-3.905322606;4.35380851;17.60489546;9.815036501;6.937133688;-14.30607452;-9.019080081;40.00154377;31.1920885;15.09301941;4.081202056;4.665214922;25.82979525;20.84488634;-1.23107685;9.468116238;-6.994422621;-5.708445087
20.04295694;-0.371898359;6.749780309;21.82777083;7.322631337;1.869300912;-16.60670716;-10.91476078;33.71920737;27.91459464;6.844236971;1.025077681;-2.550566307;21.7854306;14.39357381;0.855412675;8.319449784;-6.952693141;-5.786343721
19.23064893;2.84865888;7.977376816;20.08773834;2.062387739;-5.067767159;-16.81849545;-16.69510812;24.4310612;18.07996652;-5.270890048;-6.757308111;-9.72565707;14.54585883;3.247499871;-0.2167037;3.788754604;-9.115165762;-8.635243418
16.27215072;2.851322451;7.780143829;12.06944158;-2.578786368;-9.532846621;-14.97113073;-19.62467093;19.81744147;9.460697023;-14.06119016;-14.07489557;-10.91479216;8.293972996;-4.947650116;-3.295297327;-1.352122252;-11.41375845;-11.62304801
13.94620274;-0.221958779;7.136271438;2.524931481;-3.130039063;-8.647860114;-12.96131574;-15.68368781;23.75445732;8.612608882;-14.23021251;-15.25588958;-4.580019531;7.218444582;-4.28412033;-5.379828761;-3.596234058;-11.57477405;-12.02264697
14.30200972;-3.369731893;6.953738226;-1.946966621;1.035511245;-3.169004478;-12.70265701;-6.875424346;33.46698392;15.74533314;-6.101318082;-8.582331056;5.303261964;12.55663801;4.734615566;-4.376103796;-1.475258957;-9.305165196;-9.466977089
16.79902821;-3.578688857;6.732825193;1.90122937;6.926654763;3.033501985;-14.32794186;0.76047149;42.15549667;24.80435121;4.82185449;2.043027513;12.47460428;21.28259114;15.29810298;-0.999801471;3.18377193;-6.617755105;-6.206237606
18.90932224;-0.659578085;4.874613083;11.2274981;10.12649204;5.799012009;-16.12121295;2.315831922;44.5920601;28.51603172;12.00165215;9.723140219;13.15048386;27.7233364;19.29772397;1.889017249;6.652075828;-6.005830625;-4.995919061
18.55707175;2.560694024;0.610291898;19.23604232;8.23326569;3.605881318;-16.20315347;-2.193283559;40.89757575;24.08891591;12.41208102;9.537490238;8.423060765;27.26725896;13.40246077;1.879052776;6.243300449;-8.160427789;-6.599037896
16.08135613;2.853418211;-4.290221827;20.46790371;2.735974211;-1.581642791;-14.35351755;-8.364370763;35.61790062;14.96528122;8.074133363;2.007129509;2.64142874;19.61970012;1.489293157;-0.844261808;2.399288199;-11.31623905;-9.182779746
13.89946228;-0.420898637;-5.972947987;14.92472473;-2.192064022;-6.001167304;-12.25102412;-11.34061153;33.39692431;7.543573635;3.752857573;-7.555958315;-0.416165025;9.18384507;-8.360634443;-3.71718175;-1.754207825;-12.7964363;-10.10497896
14.21835188;-4.702419106;-1.227806841;7.809788642;-2.943915163;-6.818331111;-11.91243285;-9.536784093;35.24319866;5.965258178;3.005091566;-13.13349035;-0.15753885;2.151107173;-9.82;-4.129538055;-2.936852308;-11.33238921;-8.395189643
16.95154217;-6.549779562;9.554400154;5.359626821;0.879334848;-3.81161968;-13.79800047;-5.224969624;38.40414119;9.338621823;5.769092421;-12.24287778;1.353402377;2.316311748;-2.616606125;-1.728420733;-0.217278374;-8.082983126;-5.642755276
19.78;-4.744465658;21.74248088;10.25130987;6.442559271;0.9710043;-16.35260324;-2.068062266;39.38959351;13.30848728;9.066439787;-7.201878212;1.999277376;8.614053205;7.841437273;1.356466214;4.464858371;-5.513695706;-4.510835131
20.28434199;-1.344496461;28.99342701;19.98325137;10.02686392;4.899314719;-17.40821304;-2.179100455;37.01716618;14.07598509;9.737045815;-2.841176328;1.525184873;16.10518113;14.74810241;2.487637808;7.981947121;-5.232546506;-6.278482155
18.15776196;0.243228177;27.28351726;28.88099919;9.659082849;6.291748469;-16.14831221;-5.171389764;32.78676052;11.18581911;6.726991699;-2.816907248;1.06836611;19.58156361;14.51848117;0.848614815;8.374992503;-6.743985843;-9.668838584
15.45620569;-1.626389043;17.53409676;31.61124119;5.977980332;4.838115895;-13.82719033;-9.432100852;28.73096428;6.965908714;1.278234701;-7.397679009;1.184200556;17.0821357;8.450825418;-1.955225603;6.01917717;-8.144429685;-12.00328366
14.67557431;-5.388186127;4.96534639;25.57926175;1.032088154;1.136100303;-12.59982978;-13.82297012;25.27410797;3.722676108;-4.587188192;-14.00833908;0.753945879;10.84905462;0.87999629;-3.46381089;2.936322348;-7.98205805;-11.58755992
16.45203201;-7.763107234;-4.251514789;11.28577258;-3.539225129;-3.803625816;-13.55812055;-18.03275571;21.33546625;1.650495289;-9.568004781;-19.51141042;-1.866942497;5.329445065;-4.060087891;-2.575029614;1.138632966;-6.516210625;-9.148795865
19.00807894;-6.779432577;-6.602215571;-8.397198385;-7.247015593;-8.613598848;-15.77808996;-21.58076847;16.39279717;-0.640281446;-13.29452023;-22.15564242;-6.580019531;4.026514551;-4.473803682;-0.383094681;1.444345907;-5.290039063;-7.061861873
19.8359255;-3.539897243;-2.726202967;-28.83367618;-10.0421301;-11.53740388;-17.22552714;-23.03261636;12.07974115;-3.823546993;-15.52279411;-21.94089256;-10.67466033;7.593234094;-0.63924315;1.02327115;3.469854065;-5.556796767;-7.139774282
18.04500616;-1.153117629;3.818375751;-44.17860589;-11.28608219;-10.94476235;-16.65027425;-20.72912263;11.29108647;-6.383720317;-15.61465847;-19.77863581;-10.69590298;14.22342326;6.084243097;0.576254764;6.345707915;-7.120058594;-9.03500266
15.20460828;-1.861381888;9.222644105;-48.9119989;-9.778994193;-6.426593323;-14.71173212;-14.56549383;15.34412363;-5.689973784;-13.13488537;-16.68677059;-5.659221341;21.42442464;13.86068868;-0.848904327;9.240759932;-8.648870047;-10.67342249
13.9142424;-5.018200073;11.55866642;-40.63478078;-5.019530333;0.366343733;-13.31971043;-6.961864188;21.94564978;-0.74179753;-8.986035373;-13.7286121;1.403590302;27.38092528;20.18604072;-1.407502403;11.31192753;-9.055535426;-10.24622432
15.42415408;-7.741428198;11.21988384;-22.52127775;1.553300711;6.140405716;-13.83495971;-1.665449208;26.28368355;6.096514017;-5.652419749;-12.27362247;5.375933324;30.97515164;21.93835755;-0.15567404;11.52221231;-8.522551532;-7.882994872
18.48536215;-7.594752899;9.89802317;-2.919115576;6.804901602;7.752664968;-15.81060412;-1.052799124;24.74556813;10.31656044;-5.790350527;-13.69931178;3.162022817;31.1334919;16.66409968;1.988946884;8.961439431;-8.172313927;-5.484707328
20.46677758;-4.816954143;9.154221511;8.840663987;7.833239219;4.276658125;-17.42739324;-4.210450045;18.15335519;8.731897528;-10.03528626;-18.34360628;-3.516363222;26.88017768;4.649301826;3.098504217;3.664661101;-8.755412848;-4.930399725
19.7063397;-2.079137881;9.514381075;8.202432106;4.157973892;-2.21484822;-17.19543799;-7.61334535;11.53217867;2.323119651;-15.93480221;-24.59228414;-9.225614209;18.55984751;-10.01992828;2.073923428;-2.839364315;-9.722789223;-6.357598235
16.9622748;-2.036365918;10.36953565;-1.481438556;-1.700643595;-7.870993465;-15.33426074;-7.97961601;10.33671052;-4.077595561;-19.25206317;-29.24893796;-9.091569658;9.056819401;-20.92026038;-0.273624442;-8.029125655;-9.675591403;-8.099298577
14.68151103;-4.933747837;10.45863724;-11.26412381;-5.910147176;-9.504143598;-13.56232964;-4.887724665;16.19257946;-5.22386295;-16.95110796;-29.37;-2.664919438;3.232557175;-22.87051122;-1.918652684;-9.852882448;-7.812274332;-8.291342363
14.7942204;-8.425335341;8.609309721;-13.10887301;-6.065395168;-6.527138547;-13.50907882;-0.887176737;25.71113907;0.631697312;-9.625736893;-24.37200439;5.921154458;5.108206592;-15.27928326;-1.448069552;-8.106374785;-4.953980666;-6.622803985
17.04753815;-9.711382629;4.481771125;-5.791112428;-2.849302015;-1.066659658;-15.22589965;0.942396165;33.30366086;10.40539936;-1.381289738;-16.73045879;11.57929309;14.56573093;-2.743787922;0.671896437;-4.587029644;-3.058182701;-4.604677972
19.34555076;-8.007585188;-0.972821133;4.454830504;0.668678939;3.667004159;-17.16032366;-0.2595833;35.49949241;18.4033958;2.88690607;-10.55226003;12.43911703;26.42078048;7.70191515;2.544227225;-1.83916468;-3.551896133;-4.133571696
19.71110223;-5.12484081;-5.697402188;9.174736098;1.486813763;5.437304007;-17.59495579;-2.554101134;33.12273228;20.2947678;0.830955018;-8.955786901;10.90469088;33.3;10.80475885;2.56916521;-1.483545748;-5.989883759;-5.703924786
18.04125341;-3.717226468;-7.512945289;4.694070189;-1.081015147;4.034271692;-16.21087328;-3.213131576;29.77487646;15.85192883;-5.845338603;-12.15054909;10.83010434;30.6894882;5.870458485;0.854619803;-3.452826428;-8.328737793;-7.921394706
16.08666612;-4.873465441;-5.498733461;-4.773539968;-5.045621677;0.860503281;-14.3446332;-1.312836233;28.41064717;8.683265222;-12.69172914;-17.54627439;13.60487503;20.35983256;-3.572501797;-0.959882121;-6.615401333;-8.655440248;-8.745970156
15.7556246;-7.25153824;-0.85044179;-10.46782858;-7.367681797;-2.276394047;-13.72988519;1.61306603;29.29061198;3.577409606;-15.45743222;-21.63951396;16.89226817;9.228791561;-12.51533248;-1.25238495;-10.02895441;-6.848845052;-7.304486971
17.36048313;-8.465677333;3.595179348;-6.184726106;-6.147074479;-4.123716903;-14.90523172;3.468126114;30.94797287;3.640618045;-12.44610695;-22.15704994;17.20338658;4.235156369;-17.35915748;0.118818937;-13.56992719;-4.663975779;-4.623010581
19.41129012;-7.356435508;5.103352883;6.631045509;-1.714320391;-4.201665519;-16.75175359;4.103487941;32.70795316;9.075364657;-4.816845755;-18.9761111;13.77927801;7.196798972;-17.09290063;1.770807206;-17.3915256;-4.13789448;-2.658378552
20.08147436;-5.024110547;2.929267849;19.93763256;3.958846789;-2.575633822;-17.55926264;5.802592734;35.79953842;17.85388507;4.854358109;-13.51502694;9.887921784;13.90192872;-12.6277957;2.155154872;-20.89091515;-5.746420886;-2.56985498
18.92745752;-3.723312111;-1.089507674;25.42596442;8.757061472;0.266214028;-16.61141673;11.00413359;41.68107698;27.21414773;14.22686302;-7.486831435;10.00496797;18.2983874;-5.560019531;1.014462033;-22.42621768;-7.982383746;-3.819847321
17.2574947;-4.71893743;-3.827499975;21.01859528;11.55762772;3.304216396;-14.82481291;19.32097759;49.30559472;34.81638717;21.80700013;-2.134128437;15.33268011;18.24031326;2.42347745;-0.416811369;-20.33967944;-8.739714311;-4.862546045
16.84667603;-7.125618395;-3.181982674;12.37098047;12.35052361;5.056942657;-13.87467191;26.89734766;54.52925862;39.22431974;26.54452903;1.709980596;21.97573981;17.61835202;9.446781329;-0.614537287;-14.52258863;-7.241113331;-4.685373476
18.2416761;-8.779141837;0.369690496;8.272953538;11.6790507;4.225083696;-14.63990222;29.19276549;53.03214908;40.06232687;27.41561403;3.293693314;23.90805002;22.53415411;13.53077545;0.790581221;-7.055535417;-4.74889325;-3.714245145
20.25260774;-8.274664758;4.246739449;13.64580166;10.16605807;0.685822197;-16.40864997;25.02135236;44.52655217;38.11443202;23.78186345;2.061188746;18.4327649;34.39240237;13.46037003;2.681456884;-1.109797636;-3.410794849;-3.257627149
21.08930258;-6.24805732;5.966120327;25.54398946;8.482350209;-3.983591623;-17.55927186;18.1417442;34.16783719;35.12560306;16.24545748;-1.748679083;9.204448701;45.9963032;9.90189089;3.519604769;1.203315087;-4.299723055;-4.084943139
20.05460474;-4.729500652;5.31215395;35.04691025;7.435064106;-7.155060504;-17.06376584;14.53904801;29.09716502;32.95998093;6.952866269;-6.712737286;3.680993754;44.90913145;5.536579874;2.779852016;0.330707578;-6.443907414;-5.556736415
18.20093941;-5.217934804;4.628158543;33.41062815;7.673148298;-6.791434033;-15.41918007;17.36393181;32.4773398;32.3641583;-1.3330367;-10.73115484;6.778315778;22.54882558;3.583413375;1.405207483;-1.153107609;-7.73444563;-6.178199449
17.34275365;-7.297185194;6.810968149;17.92823152;9.014397815;-2.974705282;-14.16531874;23.90419594;40.22375704;32.27062147;-6.88014109;-12.31903866;16.20118581;-17.69712948;5.558987462;0.877297075;-0.612828526;-6.873855834;-5.064876132
18.35811514;-9.066983633;12.46178299;-6.393374543;10.03311097;1.894240527;-14.4604269;27.5767485;43.91354817;30.47395282;-9.986930429;-11.72054232;23.90104589;-60.1510635;10.0617716;1.802436912;2.609492516;-4.57311366;-2.908132609
20.36856469;-8.943105965;18.48426548;-29.9516009;8.578244779;4.528556674;-16.03920808;23.65072722;38.09351652;25.45837166;-12.35505461;-10.83384268;22.91907018;-85.61729108;13.75164106;3.351109702;6.827511659;-2.894054399;-1.46973199
21.55801343;-7.115439631;19.50631406;-43.91875506;3.167274723;2.885073356;-17.49649961;13.87835092;25.86981587;18.01953095;-15.23533984;-11.81548814;13.89827624;-83.51014554;13.92029905;4.064716959;9.548848196;-3.338480757;-2.014154422
20.86333577;-5.310175431;11.45595988;-44.44247692;-5.663696467;-2.502801297;-17.60179733;5.689101432;17.37312387;11.24217774;-17.90440497;-15.32132052;5.299303861;-58.64264207;10.64668439;3.250179489;9.571567685;-5.442549412;-4.11168803
18.96504519;-5.117295249;-5.064726242;-33.69300449;-15.15409334;-8.89430257;-16.41120702;6.028323689;21.40734958;8.630991965;-17.8714779;-19.70533612;6.423549698;-27.65631325;6.791730121;1.640009766;7.888659277;-7.18172375;-5.944416383
17.66389249;-6.485696591;-24.0464152;-17.94239945;-21.60190135;-13.06824929;-15.16109442;14.70493699;36.73717489;11.75626774;-12.79792218;-21.8198266;18.64927236;-7.696609366;5.844848962;0.702625934;6.730782198;-6.837174886;-5.881912632
18.22638722;-7.805286231;-36.79728594;-4.187990777;-22.36840546;-13.15558743;-15.07595506;23.07531716;50.64562496;19.26162244;-2.629271268;-18.89834164;32.38926857;-5.61739716;9.37917603;1.26569615;7.661774447;-4.627784392;-3.919071841
20.22811132;-7.481159102;-36.69871244;3.043363491;-17.28526757;-9.424371396;-16.22305318;19.88709336;47.07667679;27.97628211;9.815472504;-10.2790082;33.07478679;-15.32697056;16.09540175;2.757134976;10.35693273;-2.604204684;-1.673648067
21.95159192;-5.495656357;-23.17658624;3.522840546;-8.59749693;-3.768277643;-17.47770156;0.205581559;18.85839157;35.11226914;20.33454352;2.065279177;12.15686915;-24.48295559;22.99184632;3.77497476;12.98693331;-2.864656064;-0.939336439
21.95626559;-3.471750468;-2.42909527;1.055397864;0.366615989;1.459761859;-17.60998019;-29.57998921;-25.3973451;39.68440983;25.7886536;14.36748886;-25.31836577;-24.71723257;27.42921113;3.43707768;13.70973629;-5.672575645;-2.097475215
20.36819043;-3.1691607;15.67520419;0.998232707;6.813146683;4.430163122;-16.45922486;-55.00594982;-65.58812965;42.13613321;25.67073893;22.67393149;-62.75555818;-17.38480639;28.33776951;2.225132824;11.92094352;-9.159141755;-3.813345275
18.71616863;-4.824531471;22.86168766;6.499288663;9.439709241;4.272923781;-15.0948867;-63.04907414;-83.01531517;42.89285129;21.7801774;24.40072433;-82.56600083;-10.93469882;25.90594302;1.5180695;8.317973718;-10.88675073;-4.27339719
18.49381903;-6.900039063;16.90507287;15.57963029;8.471637374;1.155478661;-14.81965481;-50.94941169;-72.56095894;41.54470706;16.55407633;19.29469398;-77.55640118;-12.82559366;20.63889047;2.253088139;4.011890684;-9.899167116;-2.82850182
19.79412026;-7.489958325;2.713855264;21.37871413;5.168777002;-3.724085544;-15.95104416;-27.79624416;-45.25993213;37.62127338;11.5750977;9.595799644;-54.8784058;-22.92572451;13.1409394;3.985834684;-0.272554608;-7.46569841;-0.559653686
21.27257909;-6.083022135;-10.60758304;16.2404853;1.291849921;-8.296450226;-17.51728694;-7.839825692;-19.68210561;32.14847559;7.362627032;-0.646832687;-30.0441532;-33.57739954;4.920965148;5.256865242;-4.151469953;-5.898863837;0.720583267
21.4484309;-4.041142054;-15.03201715;-2.516586582;-1.346391847;-10.24792846;-18.14713734;-0.72131911;-8.926986672;28.11878444;4.233017802;-7.051228068;-15.97921435;-35.79678767;-0.942648677;4.945713833;-6.950295073;-6.523489937;0.098486767
20.11510215;-3.343521393;-8.129260559;-29.21992501;-1.415430522;-8.160803127;-17.32549431;-5.87113297;-12.9331653;28.82126466;3.032014728;-6.811778135;-15.36996699;-26.26733847;-0.716121336;3.353676111;-7.442122887;-8.587100967;-1.659572655
18.54379584;-4.755589476;5.834190015;-51.96280268;1.291622549;-2.595401549;-15.8550704;-14.74583184;-21.16080637;35.0620014;4.779844341;-0.224725491;-21.35897825;-9.623754634;7.45893234;1.987437345;-4.567102745;-10.02248434;-2.853910472
18.29514601;-7.115246325;18.8123351;-59.60230036;5.500840469;3.783919864;-15.10681053;-18.40494917;-22.49767536;43.72539888;9.462394687;9.151956086;-24.87961919;5.281880448;21.24985805;2.212756245;1.330100207;-9.323927681;-2.407884488
19.74702858;-8.394213191;24.02177947;-49.10941113;8.907108739;7.48302193;-15.76098043;-14.13307155;-14.07052092;49.37816495;15.2057241;16.14311755;-22.13541401;11.66299423;34.33516167;4.002164916;7.952699955;-6.856748044;-0.804038116
21.70707128;-7.552067551;19.9033948;-27.8894443;9.480247437;6.270443127;-17.20035153;-6.205771743;-2.337319585;48.11161064;18.9128719;16.73219692;-16.47286745;8.673797777;39.74524756;5.930820739;12.01746889;-4.488316005;0.425420093
22.47426835;-5.474184166;10.5676112;-9.001574932;6.902795729;0.72249211;-18.10182206;-1.000151313;3.466195795;40.67753708;18.20510846;10.373281;-14.04343529;0.512963718;34.34513121;6.437614841;11.2874;-3.945736107;0.141683964
21.37914998;-4.13846568;2.664293716;-2.445295469;3.053274528;-5.94977759;-17.66401305;-1.117616629;-0.55602582;32.20801416;13.2674641;0.325445293;-17.67459792;-7.563294726;21.16471793;5.210242338;6.18067443;-5.392848492;-1.369470596
19.39505191;-4.791726228;0.978237414;-8.789550556;0.964963113;-9.81635485;-16.33334865;-3.490120471;-9.982036976;28.45218396;7.067644467;-8.299511731;-24.27635768;-12.63367365;7.614608539;3.440166869;-0.371049497;-7.440019531;-2.705238998
18.26711211;-6.82043035;5.741253763;-19.77723585;2.801362747;-8.65241952;-15.37089808;-2.675554208;-16.16673488;31.38366309;3.578733779;-11.55039619;-27.61017205;-14.58591667;0.689990055;2.728618293;-4.824021265;-8.472004449;-2.664098953
18.95727873;-8.345022155;13.22123659;-25.25244445;8.228353518;-3.24867408;-15.6788832;3.889942138;-13.49618446;37.7032637;5.171965063;-8.764536162;-23.64368865;-14.35788665;2.6030052;3.653499373;-5.300019531;-8.034441989;-1.328623465
20.81403485;-7.970457925;18.72448834;-20.94577439;14.39757283;3.217983726;-16.9789372;13.32831116;-3.738046555;41.48609187;11.0191337;-2.5213316;-13.86023039;-12.38203221;9.945229059;5.301624741;-2.56399955;-7.062685533;0.078510091
22.1988794;-6.068207015;19.5816327;-11.1505309;17.64079123;7.219266304;-18.09103876;19.53619999;5.685089294;38.8370409;17.62562078;3.331156363;-3.995315377;-8.784955422;16.72359014;6.169180686;0.924010893;-6.856087198;0.391081473
21.97309801;-4.415684795;16.09752028;-4.521093421;15.74831034;6.893810222;-18.03557074;18.14853515;7.584978283;30.78320357;21.08751521;6.083278185;0.410375304;-4.609831996;18.7083587;5.574753471;3.003393311;-7.828437316;-0.403062182
20.4860277;-4.546089911;10.3308247;-6.704614737;9.308151449;2.818768418;-16.92819281;10.04349052;0.152106496;22.1573968;19.50508488;5.442920783;-2.104603621;-2.097682652;15.82617766;4.273173361;3.25967589;-9.186371868;-1.198971339
19.19049364;-6.345136139;4.26209416;-15.84850312;1.294419938;-2.694205629;-15.84713332;0.622196364;-12.34445975;17.61433455;14.00072818;3.146193797;-8.442288563;-3.115275337;11.24473307;3.714933242;2.926856934;-9.756891063;-0.896703667
19.27578548;-8.183741283;-0.984924654;-24.41676455;-4.679286206;-7.043463023;-15.81513801;-4.3;-23.11873915;18.25280513;7.84710827;1.555164371;-13.70621671;-7.020078125;8.53101635;4.655257385;3.565716357;-9.11511289;0.47047716
20.58747922;-8.442430898;-4.607334193;-25.48300734;-6.224094495;-8.542591049;-16.85291615;-2.51203222;-27.40352332;21.59566182;4.447119059;2.352793202;-14.63645975;-10.28196068;9.460798508;6.413306993;5.73196969;-7.942260835;1.690996537
21.80763662;-7.001084583;-5.478496717;-18.14101815;-3.083586373;-6.879524396;-17.97809871;3.736576853;-24.64707728;24.588788;5.475160519;5.990497087;-11.15848263;-8.831790074;13.88576659;7.471884789;8.643396253;-7.32620542;1.48486866
21.69647685;-5.319097199;-2.664407012;-7.701573774;3.167677253;-2.950170881;-18.13468803;10.26192733;-17.54729082;26.59782125;10.16494608;11.78754386;-5.460469767;-1.522373148;20.88327171;6.864659701;10.87602302;-7.72265699;-0.253724702
20.23605015;-5.052913179;3.063217139;-0.87677588;10.11995867;1.570638172;-17.17714169;14.35497012;-9.600411211;29.51936429;15.92777825;18.25003906;0.014592927;8.281010405;29.39783265;5.072818348;11.30829937;-8.575656588;-2.252081272
18.63626001;-6.512992917;8.381927915;-0.276390743;15.52374947;4.745489537;-15.99596232;16.22007813;-3.337617335;34.95815041;19.79828097;23.42964214;3.899213454;14.66543852;37.63718661;3.609555236;9.555681035;-8.923138882;-2.920935536
18.22619056;-8.395586833;8.824307249;-2.842936595;17.93356448;5.026509869;-15.67998249;17.64817496;-0.019616926;41.35929319;19.94105405;25.49858933;5.934780812;13.40943371;42.38579633;3.678246492;5.820600135;-8.362205224;-1.742492417
19.26620509;-9.025009001;2.108469391;-3.259923718;17.03420785;1.999497392;-16.50430031;19.60588658;-0.00088774;44.25757972;16.55408824;23.63856649;6.381369048;5.179535326;40.00442191;5.131523813;0.659555914;-7.430039063;0.271787721
20.75811023;-7.934334058;-9.085139309;0.921240472;13.73932254;-3.149467893;-17.68391908;21.14761949;-2.763499651;39.99943051;11.78808591;18.83076605;5.715289965;-4.881482495;29.29617414;6.665868135;-4.929655699;-7.050893981;1.477441633
21.39155589;-6.304917192;-17.65138147;7.020412137;9.959888603;-7.941151304;-18.11213083;20.5621156;-6.638190157;29.83791568;8.675820142;13.78921856;4.75426913;-10.80428873;14.02506921;7.043388252;-9.29892812;-7.612118536;1.046981203
20.72943076;-5.855851072;-16.40189072;9.772973098;7.881805889;-9.799557425;-17.3885861;17.46246755;-9.09191005;20.40549337;9.509088784;11.65201435;4.613486043;-9.73;2.179834776;6.200402652;-10.41042342;-8.580960961;-0.326946464
19.54999915;-7.221033414;-3.478302741;6.375938215;8.888148888;-7.561993431;-16.18301541;13.65386093;-8.078638609;19.33896702;14.47572522;14.01878373;6.052722572;-3.161243947;1.290834588;5.233590852;-6.832889236;-9.033617915;-1.098403052
19.07056145;-9.328765881;15.33605527;-0.456340728;12.69218579;-2.314757744;-15.60730119;11.8062114;-3.68090174;29.11511997;21.3902906;19.68583272;8.621130248;5.010503907;12.70721458;5.310322207;1.066184089;-8.573506321;-0.29161299
19.80695692;-10.36743573;29.70691728;-4.244015552;17.34094744;3.116971764;-16.1892846;13.06754535;1.476755984;44.23363906;26.82616531;25.18451106;10.54447466;11.59606168;29.51802043;6.542217862;10.76275787;-7.73398466;1.606710028
21.12620486;-9.44917891;31.52010424;-0.055429174;20.27036613;5.79585505;-17.40086468;15.83063943;3.807894448;54.65988262;28.08081348;26.98125119;9.822428671;15.67214304;40.6771518;7.875161366;18.66291156;-7.460449378;3.082704454
21.87309363;-7.436347096;20.56023353;10.89646715;19.83608878;4.378357339;-18.16636372;16.9190863;1.377637256;53.4143251;24.76413465;23.8789997;5.866255084;17.80701495;39.0501175;8.086599291;22.13752165;-8.164997623;2.953543796
21.45015453;-6.168859597;4.826340377;21.18909002;16.32449649;-0.203125382;-17.86445252;14.31699356;-4.509825951;42.43336719;18.94720313;17.88160031;0.315247259;18.43509752;27.3823634;6.946900003;21.12880777;-9.27540884;1.421539167
20.33684149;-6.804041794;-4.912075356;21.95574674;11.75940224;-5.447246705;-16.88815972;9.123933861;-10.14075846;31.64865913;13.75777604;12.86214012;-3.811764191;17.40446061;17.00737707;5.455735587;18.11242106;-9.738403468;-0.113558269
19.59071796;-8.791385555;-2.408847573;9.075361365;8.655541301;-8.790798507;-16.2515551;4.967520537;-12.06261133;31.34310786;11.40765783;12.00102226;-4.111437966;15.09957145;19.39021887;4.932936175;16.36289563;-9.018755116;-0.299439227
19.83466937;-10.40969348;10.18053851;-13.65324277;8.578194292;-8.890245193;-16.62376155;5.217817576;-9.469578425;43.34638259;12.0325562;15.83522922;-0.414600151;13.53116077;36.44580229;5.810441516;17.73724517;-7.640253068;0.987556744
20.69499134;-10.35193066;24.4392948;-36.52089812;11.4081413;-5.998781819;-17.69797144;10.23515775;-4.438436745;58.05987268;14.07301286;22.20127661;5.216006445;15.55575806;57.21062199;7.245689195;21.54105377;-6.728463984;2.565473758
21.20170877;-8.889450216;31.90611158;-49.59256023;15.61182523;-1.502665221;-18.48098748;16.93317488;0.000477209;60.23943204;15.72644;27.86394283;10.01837322;22.32011767;64.16323083;7.909261397;25.19844035;-6.96092187;3.014791379
20.7434961;-7.556288296;29.58367332;-48.22508071;19.12263563;2.830925219;-18.22642716;21.07955304;2.189300538;39.84172204;16.22551828;30.44631885;12.29227685;31.23661127;45.26667235;7.21037196;26.10646896;-7.912750007;1.925769561
