Channel 1 - P4;Channel 2 - O2;Channel 3 - P8;Channel 4 - T8;Channel 5 - C4;Channel 6 - Cz;Channel 7 - Fz;Channel 8 - F4;Channel 9 - Fp2;Channel 10 - F8;Channel 11 - Fp1;Channel 12 - F7;Channel 13 - F3;Channel 14 - C3;Channel 15 - T7;Channel 16 - P7;Channel 17 - P3;Channel 18 - O1;Channel 19 - Pz
-48.17166154;-52.24393256;-61.21209367;-56.75698296;-34.48676007;8.788812808;87.67261009;56.35578742;43.90912115;17.59288861;6.04797192;-45.67512225;57.38923596;36.17215427;-2.230434297;-70.33702858;-52.45028877;-37.33039707;-19.56623188
-30.31725594;-54.64422768;-59.75554263;-37.45197691;-22.72536344;19.18338757;80.15668614;64.47997662;57.61150391;39.32526294;21.08517923;-21.82087473;69.7751235;54.16812964;9.391374333;-66.12759452;-31.8305971;-22.81214341;-5.106280848
-21.18835566;-30.25457693;-33.02928352;-1.08442535;-7.695439583;17.51953984;48.5865016;41.28946659;46.94704748;42.15894369;22.25137688;5.214404342;54.89152307;48.03127376;6.687901439;-36.62664409;-5.189731002;-3.483333295;12.97122802
-21.01229932;6.073915172;1.181568482;29.9236666;1.187368061;5.249513722;11.65654299;1.125864077;18.39769375;26.5405171;9.337966635;20.83552918;19.1132807;25.43503266;-9.176715132;-1.699025304;12.80538988;8.714143345;23.05415027
-22.26450143;32.89892693;23.05470346;40.13400517;0.191090116;-8.995909441;-10.42610074;-30.77501121;-9.837332841;4.835550209;-8.083649239;19.28104716;-17.65528453;5.019070407;-27.77980003;17.78695146;14.29444697;8.050357285;20.34418839
-17.2125534;37.09911632;23.8426279;30.46147486;-6.702817631;-15.69085691;-9.328575627;-36.34842022;-20.70161016;-7.942844011;-18.23527542;6.853407896;-35.44462304;1.57047666;-37.0823761;13.93671401;2.818800404;-1.743520242;9.430522089
-4.620877327;21.97563999;9.932507252;14.33060071;-11.79866004;-11.23580077;7.299225423;-16.97278475;-10.10812061;-5.038117782;-16.12769036;-3.832719151;-27.62225796;15.01399963;-32.20669675;-4.49761061;-10.43946682;-11.3540445;-0.197219067
9.737030217;2.983311017;-4.144584871;5.435406679;-10.21260908;-0.238942594;23.29524351;9.175601232;11.08397082;7.809577294;-6.868826422;-3.808669408;-4.427761254;31.91912988;-18.68970854;-20.6126465;-15.4430787;-13.41379468;-1.677271667
18.50639968;-4.828510213;-7.390876267;7.780932865;-3.578423494;8.300158649;26.57371198;21.9374925;26.03515733;17.77875257;-0.863856209;5.937617414;15.59044306;37.79515328;-7.831863414;-22.64190697;-10.21670648;-7.665254755;4.627525337
18.92779116;2.409907385;0.428018174;15.38555544;1.875789955;7.823989015;17.06590902;14.10866819;24.55090768;15.46153178;-5.03227802;16.43136944;19.34581844;29.54101451;-7.873725351;-11.67237722;-0.936942689;-0.068768199;12.59086016
14.43757949;16.30660592;10.67731378;20.12868536;0.9785056;-1.150743258;4.648519831;-4.881480165;9.703322548;2.080121884;-17.21150778;18.82545706;7.755993931;17.47185281;-17.85862941;1.360310717;4.145910074;2.792295964;15.95311297
10.83380288;24.57389813;14.06068384;19.62096699;-5.86656156;-11.89494726;-0.140793214;-18.30503194;-5.96951798;-12.01699073;-28.08436104;11.76050291;-6.806723897;15.29428939;-28.77276262;5.779953986;1.616873115;-0.910743791;13.20622209
11.02231742;21.29108797;7.972805824;18.00265721;-13.01023223;-16.79664705;5.455461926;-15.91248066;-10.79692114;-15.93538435;-28.76060186;2.070525459;-11.25463432;26.72360063;-30.79923643;-0.379473617;-4.839828434;-7.352333692;8.000561687
13.28214798;10.78592483;-2.402786079;19.72817526;-14.30945992;-12.87403171;15.31618329;-0.933739862;-2.352996227;-6.787269221;-17.73288531;-1.355670491;-1.87230151;40.44265861;-20.88685726;-10.06919924;-8.134963538;-10.86616757;5.365148406
14.31474458;2.780122897;-8.997989747;22.99786836;-8.253913014;-3.420967586;20.63847237;14.33470726;12.15600961;8.45403955;-1.795923537;4.833715831;13.80423629;38.23025145;-4.882659838;-14.31800028;-3.913492258;-8.852593056;7.36104958
13.62380515;3.711760277;-7.023276446;19.71385517;0.735655667;4.99377269;17.53492355;19.34700883;22.62482195;18.79316215;9.345238113;15.71983538;23.91131276;10.03731973;7.059265346;-10.04726108;5.97972672;-3.617447572;11.79103754
14.47693101;11.75378392;2.321886199;2.666478033;5.768073611;7.423529826;9.650702563;13.0093808;23.66599933;17.65561017;10.08890819;22.28412921;21.80442033;-36.24143457;7.918625163;-2.037121473;15.22226677;0.07952368;14.62339305
20.09684211;19.25808366;13.61888425;-26.26893564;2.771418653;3.540773461;4.198125177;2.583534995;17.1917947;7.229518647;2.098333069;18.81551842;10.68146898;-78.54346023;-1.597133558;2.007659995;18.09522576;-0.70683206;13.62649932
28.6741157;19.83370695;20.91854236;-54.61728477;-6.603274659;-3.09721901;5.436185409;-3.811595252;9.062789935;-4.184750467;-8.201137826;7.450306019;0.289521881;-95.4386354;-14.34441443;-1.55138175;13.64637541;-4.795335137;10.00675819
32.54893993;13.65739747;20.26007813;-66.78935813;-16.51674327;-8.267185715;11.35685891;-3.706288853;3.829993441;-8.961270198;-14.92192497;-3.621834495;-0.96005127;-80.70368053;-22.27392905;-9.393887907;5.858857271;-8.303771622;6.91857118
23.51667696;6.688821646;10.16512214;-55.22732736;-21.34980818;-9.905812347;16.07477195;-0.435481235;2.286653215;-5.328808056;-16.21350847;-6.496806919;7.879487554;-46.73623374;-21.65857095;-14.59780025;0.222743675;-8.254778881;6.513987967
0.457931841;5.011378276;-8.542719587;-26.45649809;-19.37279165;-8.565674651;15.33383632;1.93492178;3.038905365;2.768434876;-13.68314991;0.791792381;20.11763834;-14.76447619;-14.4;-12.88241863;-0.201652968;-5.07030746;8.255862445
-27.40299392;9.569327205;-32.32616868;2.944905698;-13.07999132;-5.839656636;10.10448805;3.153630851;5.356422158;10.06315191;-9.355790545;13.52882145;26.4786681;0.077865189;-5.32562232;-6.151146855;3.721906327;-1.890111127;9.805800476
-45.358115;15.79534549;-54.57282941;17.581261;-6.53208781;-2.683559329;5.313682708;6.314872995;9.896137807;14.25732818;-3.658831129;24.43845891;21.10177888;-2.556642839;1.611777497;-0.472908525;8.670937606;-1.563969733;9.394659929
-43.26510681;18.05202979;-67.14274346;13.25410077;-2.308157627;0.811273787;5.199918005;13.35555038;16.75618602;16.65229509;3.704214001;28.86608761;4.447232964;-11.41474964;5.153054599;-0.62667359;11.43430095;-4.129555404;7.389788025
-23.09334849;14.65405359;-64.40185992;-1.51412937;-0.485671445;4.370306612;9.604884066;21.62944498;23.51735187;19.29516369;11.39745777;26.96198798;-17.90053433;-14.72365406;5.837476645;-6.140698387;10.37752082;-6.962940847;5.727438138
2.250749363;9.050256797;-47.48322499;-12.99279325;0.081536985;6.710251439;14.38345744;25.48754691;26.10689306;21.94822575;15.67497878;21.86211372;-38.64752526;-9.55927473;4.142700507;-12.12189722;5.184329468;-7.295155156;5.93733356
18.21365396;6.410515744;-25.06181244;-12.56134112;-0.059970571;6.128060725;15.29364416;21.59805377;22.27622388;21.98674683;12.68852026;16.28393521;-51.89628059;-2.398224138;-0.141239783;-13.80597953;-3.989364179;-4.72436211;7.708456733
18.80086354;8.932782308;-8.868155201;-2.028913824;-1.430242249;2.145611505;11.72564284;12.72621664;14.35799696;17.25344373;2.148116711;10.80358809;-54.75826786;-1.65899607;-6.803155525;-10.62281694;-16.57248009;-1.498178423;9.292093524
9.730019531;14.0855384;-6.361800396;9.380746287;-4.460283311;-3.39933183;7.009275758;5.900948909;8.11592351;8.954101747;-11.15439111;4.940183475;-47.76267985;-9.474522079;-13.87458647;-6.297117169;-30.77825275;-0.432809714;9.240595333
2.38017731;17.14670219;-15.85077502;13.13599298;-8.174741178;-7.132961383;5.25028518;6.284898771;8.096412071;1.592566368;-19.90779496;-0.699624896;-34.59802699;-19.79846092;-17.92525105;-5.202003911;-43.22595066;-2.423401131;7.761191474
3.947514124;15.52805408;-28.02336404;7.895543646;-10.34308008;-6.486462442;7.695927196;12.45898773;13.5669191;-0.285805022;-19.30363694;-3.85365404;-21.06594148;-23.94316847;-16.24990813;-8.434935991;-50.15673598;-5.750554327;6.414806487
12.13502145;10.94921562;-33.01312456;-0.309264735;-9.234449663;-1.788064056;11.85230817;17.8350904;19.11498446;4.24035821;-10.51236947;-2.456873984;-12.89710741;-18.26032453;-9.221634693;-13.08196495;-49.85107358;-7.688577767;6.509534635
18.52751313;7.65869345;-27.64100309;-3.584131644;-5.419617285;3.69354974;13.94833621;17.19216239;19.85531288;11.65766335;0.32649454;2.874800265;-12.94779298;-7.247301073;-0.630057373;-15.09322174;-44.34613092;-6.87869884;7.770715144
17.17527032;8.50532065;-17.22380056;1.4798151;-1.810955426;5.969136341;12.351351;12.18773524;16.58020867;16.85017431;6.845979297;8.410271054;-19.4354536;0.323138637;4.611219238;-12.97769737;-38.67899829;-4.359483456;8.576696497
10.44521288;12.47153087;-10.6929179;11.52460256;-1.608893868;3.186909602;8.848766022;10.17482523;15.5949117;17.17975503;7.048650226;9.837944395;-26.81791616;-1.345983971;3.774532583;-8.981742926;-37.755132;-2.459094903;7.544030206
6.768233438;15.78626446;-13.16801291;19.48384006;-5.718403626;-3.041330185;6.794921703;16.71221932;22.48689433;14.36836068;4.073773398;5.868082133;-29.21788709;-10.59428142;-1.894789825;-6.859623739;-43.00978878;-2.677665872;4.957652703
12.25376152;15.43903945;-22.05865043;20.14509508;-11.79699967;-8.818033739;7.9739328;28.42056332;34.97;12.69927305;2.783709958;-0.253465353;-24.20365725;-20.01857154;-8.262852804;-8.432290076;-51.436847;-4.488863469;2.670613996
23.80255928;11.83833937;-29.64410633;13.89903011;-15.8241313;-10.68236574;11.06861898;33.36122161;41.76441323;15.23092444;5.361402947;-2.913290547;-14.18311061;-22.51369221;-11.33100377;-12.0824027;-57.82314815;-6.033558511;2.51449427
30.29193751;8.283707703;-29.63195631;6.184420624;-15.01613708;-7.825321091;13.02454253;19.90848588;29.98078452;21.30273093;9.772737172;1.528867308;-4.383456627;-16.49223477;-9.828117343;-14.42277134;-58.5241439;-5.928787838;4.649487062
21.44254089;7.878786543;-22.06779626;3.434074801;-9.814459262;-2.29880188;11.9264653;-12.67435681;-3.953406112;27.30847621;12.22017557;11.68274363;0.937836013;-6.356254798;-5.543170213;-13.46352974;-53.92123699;-4.481465339;7.363708618
-2.89191734;10.76759854;-12.7019688;8.551807984;-3.455833939;2.653958802;8.709644414;-51.10555453;-48.76691116;29.8046969;11.09084598;21.87161667;1.060358096;1.480063477;-1.508748055;-10.34716589;-47.79905677;-3.259755546;8.53162365
-31.02825623;14.15044411;-7.814400665;18.83231288;0.413165524;4.698452525;6.205925294;-75.99552121;-83.75521301;28.12665161;8.627716867;26.13345101;-1.668650453;3.294453993;0.228639875;-8.160058594;-44.33468256;-3.536693844;7.445932302
-47.23066988;14.93455282;-9.218765647;27.36067543;0.146620529;3.459226972;6.501107271;-75.3039371;-92.14977074;24.37939818;8.727251731;22.33190412;-4.499141344;-0.169030208;-0.49454408;-9.038304384;-45.16590059;-5.113586466;5.398764981
-42.97497113;12.5228769;-13.59589152;26.83910983;-3.217158459;0.121751065;9.06800606;-52.92341428;-72.70384428;21.15796193;12.89150775;13.25082452;-6.530587337;-5.516297338;-2.721635569;-12.26744326;-48.7113214;-6.586555636;4.504324658
-22.79502015;9.234374337;-16.21096852;13.67667974;-7.211388607;-3.670321378;11.33972676;-25.56458072;-40.54979249;19.30020896;18.15178952;4.09206875;-8.611183815;-9.78631057;-5.66530035;-15.05360111;-51.93773284;-6.724344187;5.815336916
-0.277302531;8.085205647;-15.25514004;-9.712296668;-9.839200708;-6.611213394;11.11466687;-10.39787853;-16.44545871;17.69501007;19.10606288;-1.345498153;-11.34282538;-12.0128422;-9.169816583;-15.15033277;-52.84998058;-5.609804098;8.395792031
12.2195983;10.04019925;-12.86574635;-35.51975782;-10.57111087;-7.855921267;8.548013542;-13.18176806;-12.48643592;15.07696288;12.54489955;-2.73183209;-13.49024671;-12.50081253;-13.06069667;-12.87718482;-51.6669651;-4.4810375;10.14617674
11.76123058;13.22760078;-12.25447323;-53.89529719;-9.950832343;-6.88660588;5.937706129;-25.8790874;-24.97204359;11.86884159;0.731329932;-2.222117568;-12.63343986;-11.34325587;-16.32822856;-10.71679872;-50.02063381;-4.47343141;9.627489253
4.883098853;14.73894383;-14.04164767;-57.59404295;-8.592587053;-3.677342583;5.570121189;-34.81336139;-39.28739466;10.19206375;-9.606490244;-1.795953011;-7.597129321;-8.106522195;-17.28717358;-10.94753487;-49.23470755;-5.49676803;7.276724268
0.514182287;13.28571876;-15.47491157;-45.66267727;-6.700212098;0.854010933;7.637312445;-32.02935868;-42.21213957;11.99635487;-11.95556292;-1.514569921;-0.269337132;-2.994180775;-14.8493897;-13.53994316;-49.31694996;-6.324147429;4.981107685
2.462399687;10.28725816;-13.28779441;-24.09599079;-4.466709501;4.72233665;10.10793147;-20.60344902;-31.66093648;17.07748961;-4.701337245;-0.13785622;5.213290911;2.023618667;-9.823675856;-16.23085631;-49.3850833;-5.798830908;4.43627038
7.68483999;8.478143615;-7.369524684;-2.830551087;-2.679612421;5.634049632;10.60995487;-10.39769964;-16.65628915;22.86403302;7.823732436;2.794238884;5.533816458;3.778130985;-4.910166305;-16.64665108;-48.82988099;-3.999421872;5.75064998
10.84788726;9.394981855;-1.564958754;9.450499767;-2.604189448;2.41685354;8.568152392;-8.889600314;-8.645372874;26.2181321;18.55227546;5.668283298;0.923624484;0.160215085;-3.079671015;-14.48684173;-47.9299424;-2.242487226;7.483014186
10.09920058;12.05479303;-0.595604073;9.745296694;-4.982491659;-3.871285294;5.668289795;-15.27348727;-12.0407256;25.68588278;22.41885728;5.736561157;-4.932931351;-7.772173016;-5.448227094;-11.78025398;-47.32646249;-1.898684188;8.002832319
8.473041157;13.9652914;-5.781110063;1.746908556;-9.007263527;-10.16023198;4.289779357;-22.38600672;-21.6902835;22.31210081;18.97551348;1.564491619;-7.85946785;-15.85588815;-10.31794712;-11.02755482;-46.98158221;-3.120278548;6.919565965
10.03470218;13.45346061;-13.49231942;-7.089807339;-12.3780303;-13.03032479;5.383853659;-23.84687108;-28.52382022;18.50964696;11.35116187;-5.258581807;-6.473925788;-19.34350976;-14.23183706;-12.95875025;-45.78580349;-4.675208104;5.330982645
15.09267299;11.14743316;-17.88908245;-10.4090097;-12.70706892;-10.81562504;7.714027304;-19.57242789;-27.71584869;16.17770846;3.127441371;-10.8664814;-2.93844089;-16.07041507;-14.34043606;-15.92908217;-42.35045032;-5.063784006;4.739052541
19.59007813;9.300367688;-15.64928592;-6.550107332;-9.323471066;-4.710743795;9.076077022;-14.94860774;-22.16245743;15.71613498;-3.908900618;-11.92197118;-0.60324187;-7.855284854;-10.3636672;-17.43958515;-36.34832446;-3.903003576;5.662860355
19.4586224;9.655073025;-8.591475781;1.259258727;-4.024226373;1.914442495;8.312485434;-15.05910185;-18.77303653;16.49003906;-9.514120588;-8.231590087;-0.802914415;0.866556811;-4.748037109;-16.34809038;-29.17478111;-2.302633619;7.199161225
15.51243954;11.85;-1.965466257;7.799919172;-0.042536322;5.547878356;6.274906211;-19.72019697;-21.53109303;17.85936956;-13.20558132;-2.969188543;-1.803368416;6.016263736;-0.969047638;-13.77606851;-23.25208426;-1.87063887;7.888242683
13.52222274;13.80522874;-0.011029032;9.535522616;0.112274043;4.571704296;4.919658207;-23.88758924;-27.78806284;19.54782815;-13.29229055;-0.235501034;-0.831109378;6.213340122;-1.229541247;-11.96960451;-20.48286809;-3.237959421;7.068156352
18.5965886;13.67504644;-2.696642218;6.596353725;-3.6189124;0.035856094;5.446606796;-22.70963761;-30.91173936;21.13366829;-8.022391532;-1.859920862;2.849139768;3.024501654;-5.10884853;-12.2390338;-21.09269104;-5.439321003;5.491013341
28.82930239;11.53988359;-6.320473298;2.155367856;-8.802250984;-5.175897967;7.22124267;-16.19030093;-26.52841988;21.62604191;2.183438042;-5.965419716;6.902860407;-0.580930226;-9.926938035;-13.87340124;-23.73936444;-6.720321717;4.663135277
34.70044095;9.30104528;-7.112356848;0.131962851;-12.13821189;-8.101335634;8.434392663;-9.026405717;-16.5225029;20.08963477;13.77570141;-8.395903819;8.116389113;-2.100039063;-12.41147648;-14.95138911;-26.66887679;-6.05816616;5.511616505
26.03806088;8.922865067;-4.403912568;2.920398868;-11.55373038;-7.25716106;7.827706302;-5.932126879;-7.267528561;16.99594876;21.76874278;-5.859466178;5.822653296;-0.466249436;-10.54768911;-14.20573432;-28.8683332;-4.044673781;7.556986471
1.327448139;10.66324647;-0.615446692;10.25783938;-7.336324097;-3.208235838;5.858338224;-7.075100872;-3.929406855;14.77218451;23.02024377;1.609162186;3.167859339;3.993254415;-4.596918342;-12.17955009;-30.31589895;-2.355686229;9.301762164
-28.80592184;12.89439628;1.548117908;19.3087906;-1.708784063;1.940337383;4.243107868;-8.078373538;-6.159875369;16.36072925;18.4156544;10.60653103;4.644405;9.961016937;3.095564754;-10.64331335;-31.34423702;-2.292431684;9.475695008
-47.88249711;13.62433439;1.734516838;25.55302811;2.637259258;5.674896729;4.34468948;-4.622245719;-9.034684859;22.48399736;12.02163864;16.57780004;11.82706665;15.44365507;9.245768604;-10.88787938;-31.92505859;-3.691159336;8.058328594
-45.37362199;12.28695392;1.856682991;24.2621679;3.975174044;6.238337916;5.917388353;2.779388471;-8.179041037;30.01325443;7.799900919;16.55910756;21.20990569;18.21384963;11.14280386;-12.52591223;-31.63124854;-5.142882828;6.231264638
-24.66266236;10.17594025;3.58571015;12.52567586;2.163242195;3.389144942;7.363008025;8.537326471;-4.20452991;33.47584829;6.571489006;10.6014424;26.46499358;16.7639848;7.89929733;-13.90571177;-30.25317115;-5.285691308;5.351987921
-0.48215376;9.185508896;6.193401081;-8.674688778;-1.612143456;-1.480684745;7.231231921;6.800561529;-2.285520671;29.18020833;5.731772129;1.245576554;23.54435973;11.50311465;0.923422139;-13.70373759;-28.33582061;-3.996299449;5.852513773
12.32109243;10.06890889;7.135146971;-33.61607936;-5.535361514;-5.931109718;5.558498773;-2.936861788;-7.204329827;18.77518192;1.8832249;-8.178365746;14.28980461;5.179024276;-6.662364926;-12.1687348;-26.96392026;-2.439382041;6.972091014
9.623926803;11.81726899;4.899746791;-53.50961906;-7.877187988;-7.608098516;3.814845071;-14.62453424;-18.37112466;8.880163154;-5.906919759;-15.12793;5.230383217;1.672813333;-11.5036221;-10.84759607;-26.88727965;-1.98214234;7.481722548
-0.253268352;12.67911461;1.152297655;-60.62767971;-7.580426812;-5.478574027;3.530342135;-20.18888623;-29.42131837;6.372568885;-14.99703864;-18.52283917;2.349532102;3.557933222;-11.7252357;-11.07007813;-27.79116201;-2.984072507;6.73206078
-4.932824113;11.82130568;-0.345681177;-52.7682177;-4.704891827;-0.516860595;4.884326109;-16.01480797;-32.96073555;12.77672808;-21.11252543;-18.60714921;6.241568152;10.11209412;-7.916173838;-12.63946807;-28.46074279;-4.537497936;5.148178386
1.060904317;10.07836941;2.610329342;-34.97422009;-0.589230967;4.660068359;6.553080964;-5.788683236;-26.4856523;22.54352689;-21.66622594;-16.51207043;11.92756272;17.49592231;-2.719056034;-13.97897355;-27.78374688;-5.340249296;3.823405157
12.25804642;9.126185417;7.950544756;-16.7950585;2.545256407;7.155675428;6.936813218;2.710600982;-14.45368303;27.24158765;-17.69475112;-13.82301477;13.60242734;21.27093228;0.817892795;-13.61448357;-25.72793452;-4.864264154;3.624811087
18.31199023;9.889378384;10.64582374;-6.472170761;2.628233377;5.438752671;5.622322335;4.019971694;-4.779349226;22.72304081;-12.8901077;-12.07324608;10.15164927;19.50134862;1.117369004;-11.61285833;-23.39579045;-3.759596542;4.567833415
14.35882184;11.67945763;7.48259484;-5.944249915;-1.010218227;0.272822635;3.741496127;-0.907142972;-2.727897011;13.31890141;-10.63553547;-12.06379193;6.377595856;14.06608088;-1.05034372;-9.618956744;-22.06540797;-3.172060844;5.912149321
6.045488871;12.85040248;1.060238418;-10.29137445;-6.976016235;-5.684938239;2.916771519;-6.185191997;-7.223087316;8.959035022;-11.50072712;-13.27553214;8.498239867;9.15884318;-3.260048828;-9.421300719;-22.05327284;-3.650452041;6.802754401
4.413213772;12.3377198;-1.257401914;-12.06011484;-12.34794185;-9.39339373;3.778662357;-6.373175879;-12.3536467;16.75566875;-13.11285428;-13.9186901;17.6172722;8.204059867;-3.166830341;-11.3392029;-22.42770121;-4.663296313;6.88066481
15.04055429;10.64060461;6.438975562;-7.175133144;-14.27289626;-9.112744349;5.412362172;-0.846300862;-12.46455365;33.57217986;-12.30012307;-11.90400537;27.01903719;11.6410811;-0.046851497;-13.90598123;-21.86311065;-5.146807514;6.406299651
31.3117879;9.344986833;22.03077002;2.129774153;-11.67964398;-5.254671425;6.219545812;6.435056737;-6.472848329;46.08967562;-7.66250189;-6.304927092;26.2468466;17.17178735;4.874053885;-15.1535047;-19.9052637;-4.542125154;5.899345793
38.41656519;9.646305871;34.4828347;9.569561384;-5.981586315;0.023347659;5.385534979;10.98442658;1.887804585;39.41077864;-0.612008177;1.680762875;9.242523376;21.91571507;9.372176038;-14.34999238;-17.53048068;-3.342565598;5.674102488
25.37718044;11.24691362;30.5941854;10.28158502;-0.269365361;4.097710256;3.608389213;11.58873511;7.543220731;8.382431579;5.67792228;9.089519472;-19.87426688;24.4105118;11.62092735;-12.62913497;-16.47926514;-2.646149558;5.652953524
-4.888859727;12.63935561;4.99211079;4.944433046;2.492795737;5.20291511;2.443840412;10.45153669;7.995686328;-36.90798172;8.378609249;12.80316591;-48.29823119;24.84698799;11.02918805;-11.94705075;-17.89978029;-3.137437697;5.540843832
-36.27127032;12.49942746;-34.32054834;-0.858825016;1.105712012;3.116069813;2.887903353;10.07280048;4.551380827;-76.14406034;6.597237798;11.40105701;-62.59508591;23.80951533;8.142348379;-13.30547727;-21.42129929;-4.444264163;5.14201313
-50.89212977;10.89886197;-69.71738537;-1.43003418;-3.374491323;-0.970951382;4.494120293;10.3852692;0.436636521;-91.26900412;1.591769137;6.003116329;-57.44168229;21.23687657;4.014376772;-15.82940906;-25.39448621;-5.459961145;4.536914674
-42.20212409;9.231331957;-84.8518386;4.202438518;-8.455942605;-5.120444697;5.807156749;9.155009256;-2.004285325;-77.76972889;-4.142447016;-0.46251042;-38.63971687;16.90508679;-0.271846239;-17.51165475;-28.04687048;-5.331722304;4.006086837
-19.22319618;8.937684866;-74.95996465;11.52352435;-11.67735453;-7.469042956;5.685885349;5.125598166;-2.551812758;-46.8817123;-8.110324214;-5.042950354;-18.47083735;11.88516113;-3.661524987;-16.94917692;-28.58328142;-4.213295392;3.799384063
1.252346362;10.20867919;-49.16940964;14.5041653;-11.79615617;-6.933816349;4.299945606;0.409900108;-2.239571063;-17.48723064;-8.786738286;-6.395272839;-7.24454487;9.056279294;-5.076595119;-14.5347591;-27.40779126;-3.108238057;3.934321312
7.802199881;11.84085616;-23.48997659;10.90235915;-9.143736176;-3.658491527;2.916446989;-0.760758968;-1.849334669;-3.840883217;-6.175911099;-5.27501687;-7.373388035;11.4118904;-3.715496137;-12.08375147;-25.46098653;-2.964103275;4.149284195
2.062605831;12.34878275;-10.06505855;4.317669242;-5.197619955;0.947181093;2.713620481;3.874872851;-1.475696314;-7.786583164;-1.9405276;-3.733623736;-13.77348618;19.16525029;0.291857833;-11.27516524;-23.38754776;-3.84807373;4.030261924
-4.805665518;11.29560262;-10.5668092;1.168469175;-1.791721652;4.716346612;3.727270792;11.65490115;-1.319535206;-20.1969409;1.100168658;-3.705193527;-19.23569882;28.37422586;5.453797074;-12.30332558;-21.25570048;-4.937708938;3.252091872
-3.020862862;9.634711251;-17.77869092;5.113879265;-0.368207057;5.725122108;4.874614407;16.5103622;-2.352093521;-29.34617379;0.277061582;-5.905499556;-19.93728137;33.03746995;9.356413531;-13.88529943;-18.91768242;-5.304179378;1.829181445
7.327399125;8.788186116;-22.87405332;13.69992076;-1.464846305;3.362808563;4.989033927;14.15349893;-5.641257048;-29.31324455;-5.1935758;-9.585596626;-17.00604596;29.65381948;9.982819758;-14.52338491;-16.48058683;-4.752240499;0.236485414
17.31177421;9.343500713;-22.02912739;20.21340008;-4.50160161;-1.180873607;3.885475056;6.336651144;-10.77414208;-22.51286876;-13.11654394;-13.08095096;-13.87642465;20.61239515;7.091619981;-13.82851171;-14.33478387;-3.955712981;-0.728976158
18.19801164;10.56852824;-17.57685436;19.34211817;-7.939709831;-5.455506517;2.487368014;-0.090613303;-15.15788966;-15.68392976;-18.97368077;-14.71640573;-12.57531563;13.10819265;2.57480485;-12.73357734;-12.73323896;-3.792289434;-0.360492345
9.992766118;11.15770808;-14.02499547;11.93791296;-9.870359664;-7.128753748;1.939542301;0.951186576;-15.4691336;-13.63327586;-18.42804619;-13.60900578;-12.31685912;13.75575456;-0.64453892;-12.490488;-11.44344524;-4.51320806;1.464561149
1.734241519;10.4799021;-13.33338828;4.75834428;-8.899431312;-5.385387439;2.560767873;9.027336535;-10.45520043;-15.95690399;-10.30385333;-10.09141465;-11.13202688;22.96493871;-0.52184841;-13.44586977;-9.951828424;-5.514945365;4.053196589
3.269150574;9.158047107;-13.64913334;5.104895175;-4.91835034;-1.417481984;3.602573792;17.04333836;-2.646863988;-18.68315605;2.050541576;-5.645537671;-8.407174378;33.94442817;2.713898514;-14.73489096;-8.11634068;-5.908965332;6.185135876
15.85608228;8.459319437;-11.96764895;14.49383766;0.73305424;2.350720376;4.00189772;17.43345005;2.912315214;-18.49760021;12.2782349;-2.343675472;-5.687435342;37.76831973;6.682140863;-15.1344816;-6.622469516;-5.350890432;6.833479044
29.9878156;9.089060559;-7.591920048;26.45439252;5.913422836;3.788630704;3.390290804;9.498888457;2.323056055;-15.51010154;14.7121192;-1.936581283;-5.085427839;30.81104336;8.413795352;-14.23883837;-6.674033516;-4.365152898;5.855263799
32.55195506;10.52380812;-2.944228309;30.46129847;8.81150426;2.306803967;2.410078125;1.048498437;-3.987439686;-12.43427233;7.914054269;-4.937801034;-7.025746146;18.36157423;6.276351342;-12.85242006;-9.03091016;-3.876410714;4.116854314
17.41980225;11.49904249;-1.155527092;19.32288616;8.874490581;-0.964658605;2.063701898;2.035584523;-11.30313163;-11.47814099;-4.307489428;-10.18896361;-9.595066812;10.84234116;0.998447388;-12.25221035;-13.17482583;-4.384136962;2.886449028
-9.308103728;11.18526705;-2.977154764;-5.291100082;6.961930853;-4.063381869;2.734920825;15.02789012;-14.04070887;-12.08858966;-15.07519556;-15.2497005;-10.10872468;15.03908395;-4.765758273;-13.02228185;-17.38728078;-5.527502092;2.897753646
-33.58379996;9.951712569;-6.030058594;-33.14166802;4.6883881;-5.423066323;3.814533216;30.8282498;-9.855908623;-11.56079698;-18.34633492;-17.51755442;-7.369350974;27.27966036;-7.908819816;-14.53674502;-19.79581812;-6.415707308;3.800509066
-43.51102396;9.010668134;-7.004478278;-51.31706499;3.457294138;-4.607927954;4.277407216;33.93126816;-1.127073408;-7.737489073;-12.05519046;-15.50738155;-2.522597753;34.59391594;-6.418557753;-15.54335035;-19.60415947;-6.403106667;4.45912655
-37.10494327;9.27979694;-4.602148213;-51.71601874;3.818232577;-2.229830313;3.655853207;14.39212832;7.261000844;-1.194800241;1.237233214;-9.57012975;2.154368815;23.85007813;-0.217844083;-15.28389383;-17.52371769;-5.608156643;3.894097251
-22.04353047;10.52201325;-0.451924854;-35.32855868;5.439123328;0.631363652;2.485472478;-23.15298113;11.78612204;5.041528507;16.13021677;-1.659949053;5.238137269;-7.67094146;8.917306582;-14.12203781;-15.07035024;-4.740068359;2.115879137
-8.605653157;11.55931164;2.687073249;-11.00463819;7.50476572;2.945980375;1.802777516;-60.97044882;12.49729656;7.880318451;27.14517278;5.652223901;7.023177517;-48.49782994;18.11522972;-13.13993677;-13.32986881;-4.438749013;0.156006485
-2.188428236;11.36107756;3.522145524;9.944818202;9.144332542;3.921396758;2.169047334;-79.7883616;11.91573182;6.475370408;30.87133745;10.29922081;8.611929091;-79.42918641;24.48103171;-13.12674776;-12.21073796;-4.753227709;-0.751769534
-1.189194964;10.00281269;3.105492074;19.70275909;9.669689646;3.035168199;3.140326545;-71.92970891;12.0119087;2.547448556;26.79774482;11.3851804;10.36;-85.94563295;26.18994373;-13.91435217;-10.74090004;-5.211472188;-0.171366072
-0.773068384;8.61508599;3.3358563;17.14531948;8.713699734;0.222406969;3.684367914;-46.11038467;12.26580639;-1.291850753;17.06685491;9.212880312;11.36469312;-67.6464779;23.29626287;-14.64589637;-8.054935564;-5.358879545;1.192923698
1.878722504;8.371375593;4.819042913;7.116379907;6.435761276;-3.78293301;3.15702401;-20.47052372;10.59665051;-3.516083949;5.63342052;4.892936123;10.52034282;-37.92387146;17.86144106;-14.66820077;-4.170544651;-5.215564741;2.103658684
5.660905084;9.438422466;6.367631643;-3.100452722;3.72733057;-7.351875768;1.924581253;-9.508366218;6.089270227;-4.253805505;-2.989160803;-0.127159692;7.991337137;-14.37347858;13.1032829;-14.17015276;0.069665323;-5.214428787;1.830235965
7.931713034;10.83639757;6.618805762;-7.844997668;2.089506557;-8.520817641;1.045426856;-14.96265485;0.662582983;-4.277007407;-5.376507646;-4.448903469;5.470762083;-7.207849963;11.74734248;-13.96568842;3.711374819;-5.705313994;0.728568256
8.009397308;11.32021948;5.9583653;-5.639491471;2.938156391;-6.122533083;1.299135484;-27.00884493;-2.182482931;-3.747073847;-0.84134376;-7.058483051;4.804457904;-14.0110359;14.40179723;-14.65611709;6.309250784;-6.534888942;-0.135113601
8.004151649;10.47221291;6.518201222;0.739208643;6.570750295;-0.78836792;2.459690868;-33.71122185;-0.549163774;-2.127914207;7.85072982;-7.64478591;6.262365703;-23.93994848;19.02833737;-15.99858361;7.889062019;-7.133691367;0.025923453
10.34396;9.0265815;9.967502042;6.419701302;11.51449552;5.02060154;3.4870826;-30.50821955;3.734816954;0.678475809;15.55296275;-6.762287426;8.207415979;-27.24642045;22.05314862;-17.09880168;8.407715126;-7.042790984;1.003869492
14.84238539;8.163744266;15.23538017;7.568733813;14.95386305;8.225962888;3.464736057;-22.37565213;6.276998779;3.314820868;17.44251287;-5.615384399;8.609701757;-22.42170731;20.57685643;-17.2464742;7.409726361;-6.375260207;1.806540975
18.53799826;8.444886812;18.69220975;3.751728875;14.26118587;6.946909069;2.423276498;-17.95764661;3.81796364;3.444926698;11.90053836;-5.425776254;7.010227603;-15.85427312;14.27984098;-16.5885713;4.394641871;-5.753929425;1.61465788
18.57309198;9.354626911;17.08865325;-1.897704009;8.764824467;1.734177146;1.29778037;-21.49837683;-2.707983079;-0.319655229;1.649171085;-6.697119524;4.992240153;-15.18483507;5.713109206;-15.98390203;-0.342856723;-5.758007449;0.616706961
15.16290132;9.833399172;10.73198792;-4.90702052;0.509173677;-4.658040343;1.064501928;-29.51812707;-8.541253912;-6.643270935;-7.78473127;-8.883053265;4.606778452;-22.34951541;-1.252562127;-16.16315678;-5.234432346;-6.384196727;-0.074194998
11.52457127;9.272247451;3.770738975;-2.716326259;-6.700239118;-8.872785112;1.854847779;-34.45792785;-8.73928431;-11.62960034;-11.36955971;-10.75438288;6.254319942;-31.97397311;-3.751338479;-16.99153824;-7.979285368;-7.032226156;0.585550025
10.71070189;8.047746858;0.909822872;3.329132985;-9.512851936;-8.902650614;2.857485913;-31.45293462;-2.048194571;-11.23058403;-7.441681133;-11.2558608;8.214322676;-35.99839945;-1.439263426;-17.55345642;-6.904906794;-7.047072676;2.511224186
12.54691845;7.134188018;3.286517095;8.871230359;-7.108077848;-5.160250759;3.087130164;-22.19025635;8.252045302;-4.263891859;1.70924938;-10.2443858;8.512100999;-30.33461985;3.715607426;-17.01249578;-2.153858488;-6.330650316;4.336074602
13.95215007;7.192567304;7.358563901;9.897100081;-1.72726195;-0.065897795;2.300514766;-12.92945232;17.1104363;6.31354162;11.69437768;-8.561672615;7.41451594;-18.04813322;8.993674581;-15.45820804;4.28574835;-5.459248058;4.39376708
12.55734902;7.996473225;8.160658056;6.110386396;2.738325639;3.468880846;1.211762416;-9.02012843;21.51896919;15.03092102;18.75218921;-7.394148265;7.878604615;-6.751540155;12.56432664;-13.93412842;9.822007487;-5.1870998;2.079649767
9.962918168;8.705403956;4.210378538;1.529950823;3.199094189;3.658011599;0.813942838;-10.93239768;22.06277754;17.392427;21.40116721;-7.412957657;12.90840078;-2.668112976;14.10285948;-13.57946453;12.87914511;-5.776812869;-1.547896871
10.86930993;8.688468673;-0.56379984;1.451666539;-0.730717789;0.647377931;1.442112139;-14.89333142;21.1583255;12.76386128;20.22386716;-8.329772352;21.75796984;-6.238821373;14.26229709;-14.63645812;13.70713361;-6.759642047;-4.480635219
18.15678746;8.100425141;-0.192568908;7.811397621;-6.570172595;-3.777353838;2.450136999;-16.86519768;20.06377217;4.646758673;16.57544804;-9.149963718;28.53765759;-12.49608156;13.77905126;-16.21843103;13.86357621;-7.342522628;-5.260241239
28.32644872;7.674687107;7.140109724;16.58533951;-10.57357145;-7.229448412;2.803391905;-15.89347016;17.78080028;-1.732195856;11.65066771;-8.869837503;25.27671659;-15.40747353;13.06767995;-17.05931217;14.9075248;-7.096269267;-4.06479984
32.23847092;7.956994451;15.61340118;19.67515692;-10.01942779;-7.885126029;2.041265283;-14.00777946;12.92524209;-2.70927312;6.593000922;-7.091126723;7.814231066;-12.42379116;12.46048517;-16.58430899;17.39262168;-6.310497085;-2.49909522
21.76991876;8.733317769;14.83534795;10.4174713;-4.77797856;-5.274304367;0.720209815;-13.40795864;6.494800249;1.884566134;3.035008654;-4.193271548;-19.91644025;-5.78016457;12.5173924;-15.3559323;20.85930902;-5.708217641;-2.260100741
-2.587528966;9.210151452;-2.115166732;-11.09584255;2.687833911;-0.470402506;-0.075353866;-14.10236058;2.315240984;9.187628111;2.931437294;-1.096986626;-46.98260985;-0.065453169;13.7923178;-14.51851195;24.60119548;-5.791403958;-3.765909379
-29.90416016;8.778990185;-31.89092116;-36.91241244;8.743796292;4.340149615;0.28914387;-14.31758844;4.084583076;15.45879198;7.318808467;1.104545541;-61.7775689;1.486337718;16.11466965;-14.76636516;28.35916979;-6.410936164;-5.854978162
-45.28873775;7.63240068;-61.25777847;-55.48337133;10.52236826;6.787923661;1.423967056;-12.95474226;11.46695249;18.24723964;14.95255594;1.449384637;-59.27698204;-1.049338494;18.1357879;-15.77425153;32.29882339;-6.934803354;-6.775490532
-40.28126852;6.631761643;-75.21087414;-58.5752928;7.323949432;5.454377598;2.267426798;-11.2456133;19.18044549;17.28551567;22.29291659;-0.626470658;-43.96384747;-5.207095248;17.85671257;-16.58422919;36.40369776;-6.839192362;-5.635965438
-19.06954123;6.531726073;-67.13135177;-46.15557344;0.844893988;0.713478917;2.043070966;-11.6404894;20.72411281;13.97463502;25.38140249;-4.969430056;-26.30424633;-8.558342771;14.02685535;-16.5575187;40.01016837;-6.174452491;-3.1406234
4.600182765;7.279502741;-43.34528303;-26.02348698;-5.758510155;-5.247834294;0.951824526;-14.9088605;14.0762971;10.25545132;22.48204773;-10.44617542;-15.48528711;-10.34422542;7.396841574;-15.98907517;42.06356333;-5.494298286;-1.048410092
17.52350569;8.049429355;-18.57262301;-8.681276937;-9.430405296;-9.432018849;-0.024116359;-18.48030875;4.306179678;7.731441863;15.45181731;-15.07286248;-13.81967366;-11.17318093;0.692327646;-15.81051596;41.94365167;-5.340896596;-0.835596966
16.15775267;7.994378927;-5.727478974;-1.12779825;-8.63319296;-9.645273789;-0.018871568;-18.08296467;0.127848136;7.3295756;8.589545312;-16.77630188;-16.69054148;-11.58471511;-2.931783431;-16.66416951;40.09783936;-5.777085735;-2.645265753
7.675656473;7.026666199;-7.756963324;-3.633833391;-3.964167414;-5.809200729;0.936447401;-11.56958972;6.611016623;9.243018983;5.666856372;-14.55892632;-17.48606007;-11.18808044;-1.975044637;-18.22315216;37.82598652;-6.387542054;-5.309317639
2.651890396;5.906445418;-17.34213031;-11.08547284;2.304674027;-0.098442458;1.950940695;-1.468913781;20.1129249;12.8689972;7.359136904;-9.352430415;-13.25074389;-9.264040052;2.296791942;-19.41251191;36.30725776;-6.713863057;-7.327424659
5.966445581;5.550537856;-23.97104718;-17.22882183;7.516648063;4.287690614;2.080771097;6.380280275;30.31164797;16.81602414;11.04884097;-3.832211234;-6.637743607;-6.104258114;6.57131635;-19.35570392;35.66973635;-6.682886526;-7.952585718
13.63620197;6.192940294;-22.31330469;-18.53613898;10.06279125;5.010257833;1.165325266;7.33866476;28.4836831;19.29812146;13.10451158;-1.081615663;-3.05452051;-3.542132237;7.55967276;-18.19174011;34.91910231;-6.61355515;-7.543498719
17.80208746;7.166181743;-15.36568846;-15.34441381;10.16252859;1.947802086;-0.05725885;1.894830206;15.50548483;19.01194941;11.77051374;-2.841770099;-5.781240326;-3.862391691;3.9695606;-17.00631344;32.82762518;-6.811918776;-7.024026147
14.87980811;7.503349933;-10.54904919;-10.28627932;9.547944167;-2.829494624;-0.637505613;-4.442341745;2.48996703;16.07154673;8.366028468;-8.483248201;-13.17805339;-7.855544708;-2.917086466;-16.91154949;29.06161925;-7.175287641;-7.021402513
9.249051584;6.809502927;-12.6933678;-5.851979332;10.258209;-6.402590999;-0.261922471;-5.367690153;2.511588073;12.27660175;5.93749226;-15.40771214;-20.0422966;-13.7284462;-10.27257823;-18.07889855;24.61509507;-7.22701756;-7.433100103
9.044269028;5.608675467;-19.94987619;-2.982425056;13.30571276;-6.745712216;0.507235016;1.335587764;19.33029893;10.29317434;6.608165784;-20.60658456;-21.68071427;-17.99949551;-15.45586872;-19.58212052;21.19613962;-6.585832778;-7.709223025
17.84490966;4.85748786;-25.71203678;-1.266984379;18.04750611;-3.768265245;0.792894927;12.26859825;42.21665765;12.08896837;9.86720178;-22.31483748;-17.25831886;-17.87275313;-17.25448736;-20.19436201;20.06789423;-5.432168741;-7.489993043
29.91731256;5.078116081;-24.4317654;0.037445966;22.61289066;0.874864672;0.224864609;21.35880301;51.88237424;17.60696563;13.14696801;-20.70844694;-9.924052619;-13.30411433;-16.06150787;-19.44371146;21.24673568;-4.495811737;-6.974927117
33.71251427;5.902531416;-16.20868457;1.27644226;25.033944;4.891559658;-0.737752545;24.59981081;33.9984046;24.63094584;14.06911212;-17.36511074;-4.023484506;-7.142061439;-13.28591834;-18.01126017;23.6036019;-4.509901151;-6.70871826
21.13571523;6.432343588;-6.476934131;2.40014093;24.30567354;6.569382311;-1.263043532;22.5832502;-9.492653128;30.03937496;12.38775856;-14.09273233;-1.925313036;-3.205426693;-10.66239951;-17.1402137;25.66425205;-5.57890906;-7.026731233
-5.062623208;6.069503671;-1.433970044;3.335530055;20.75192239;5.424617211;-0.937592295;19.00685077;-59.95085315;31.67664718;10.02774729;-12.03187723;-2.910564073;-3.728217968;-9.808863289;-17.58444622;26.42627059;-7.024751693;-7.699271481
-32.08575549;5.052828241;-3.248277205;4.173967579;15.6325671;2.138891211;-0.151015511;16.96171677;-93.30430397;29.60344682;9.311438142;-11.49746513;-4.567908339;-8.007969825;-11.8667921;-19.00133582;25.66285996;-7.880607969;-8.106024671
-45.70567048;4.221271744;-8.865264423;5.032742087;10.43238696;-1.914413122;0.27551955;16.55409332;-95.17134363;25.88939888;10.9876329;-12.32050138;-5.093433242;-13.08835226;-16.96686781;-20.27605762;23.72788094;-7.637565926;-7.777565633
-39.98827876;4.240925857;-12.94966845;5.883469055;6.345663611;-5.192094332;-0.140416403;15.82615264;-69.24327313;23.11857904;13.73812923;-14.13470963;-4.474573851;-15.77596843;-23.69708018;-20.44913719;21.25635426;-6.619037315;-6.814404467
-20.70961674;5.014253207;-12.16292042;6.620529549;4.131962164;-6.418238117;-1.094011818;13.64634404;-33.46997265;22.67518183;15.46566046;-16.3503573;-3.840682987;-14.45857601;-29.19500526;-19.43263743;19.04661378;-5.672914332;-5.814938928
-0.321860467;5.801738231;-7.294080173;7.27541776;4.1361115;-4.985910585;-1.778526813;11.4060761;-7.522103333;24.00882815;15.11612496;-18.08307314;-3.940522919;-9.603962262;-30.3217328;-17.94507429;18.01637179;-5.456315607;-5.383360755
11.03081669;5.917577205;-1.957010238;8.056789196;6.203751328;-1.300728132;-1.632136076;11.69257787;-0.865713901;25.34;13.40960202;-18.46214767;-4.293919435;-2.974919814;-25.54543782;-16.81023555;18.93266594;-5.927085811;-5.648175153
11.41649844;5.339465224;0.539359736;9.09844293;9.506120455;3.162229917;-0.851489846;15.26678436;-9.401626236;25.19393286;11.9225432;-17.32374195;-3.725447508;3.527072354;-16.32844526;-16.2928924;21.8774381;-6.456568942;-6.195076968
6.167132431;4.675217596;-0.596855387;10.1903947;12.58406003;6.34655345;-0.202137668;19.55214005;-21.59681182;23.54609858;11.47575834;-15.71142625;-1.645130928;8.521084451;-6.806426065;-16.03632216;25.86353608;-6.427297142;-6.448902022
2.106712747;4.544962445;-3.820189037;10.8651898;13.87433275;6.601105518;-0.310840525;20.52289141;-28.14363859;21.70124221;11.37980851;-15.51047469;1.180559733;11.177114;-1.596496402;-15.56974648;29.13122648;-5.770538908;-6.162229655
2.318321105;4.982119328;-7.066937765;10.84321017;12.56777333;3.672675467;-1.098945628;16.52385046;-27.58877279;21.05444613;10.25731802;-18.17376159;3.079447845;11.11844909;-2.981258708;-14.84221773;30.18539351;-4.98503767;-5.60142482
5.295176313;5.422616424;-9.304788221;10.38405929;9.23135552;-0.970221926;-1.87493144;10.3723781;-24.66474153;21.8043473;7.666920616;-23.38197103;2.749925705;8.633732283;-9.373262665;-14.26979885;28.92100753;-4.661494635;-5.298398751
7.950661432;5.281956681;-10.60459069;10.08901552;5.634307413;-4.830511151;-1.987741612;7.350114025;-24.20299903;22.73350719;4.949025083;-28.79692654;0.289944823;5.02066213;-16.24329157;-14.28699911;26.89998436;-4.969986561;-5.601237077
8.895408979;4.557643368;-11.13847349;10.24904711;3.737759016;-5.774858328;-1.427049398;10.46259696;-26.47744861;22.26512938;4.342649806;-31.38988464;-2.836056366;2.420991879;-19.02581801;-14.87187219;26.36204578;-5.566189768;-6.401114298
9.052764967;3.870711579;-10.44067722;10.40295581;4.460181161;-3.287696241;-0.816612273;17.20084005;-27.68194489;19.87140281;6.965478359;-29.58675034;-4.83574455;2.77117843;-16.10033486;-15.52017342;28.54735736;-5.960918601;-7.238553826
9.830787759;3.894671464;-7.781138133;9.700888371;7.074054575;1.21060024;-0.818143105;21.13867166;-24.36549898;16.53426275;11.36893976;-24.6697214;-4.838481322;6.347003321;-9.845905486;-15.69493631;32.56437193;-5.97102924;-7.671578422
11.36506426;4.706846012;-3.248295897;7.890852034;9.682900691;5.183563675;-1.509566793;17.51647258;-17.36251798;13.75451144;14.07117781;-20.25157283;-3.470744007;11.04770909;-5.068692329;-15.31761298;35.74252728;-5.821058627;-7.594458398
12.72392038;5.680870193;1.620317246;5.970379531;10.46061548;6.413195252;-2.317319654;8.091603897;-11.61112852;11.96551778;11.92485852;-20.00664831;-2.384476586;13.31333508;-5.868309644;-14.83255096;35.32509195;-5.823932445;-7.26810769
13.46796543;6.03760006;4.427444915;5.635831898;8.7989744;4.179694638;-2.559581605;0.602848665;-12.11047344;9.925738448;4.635541342;-25.17376947;-3.055360209;10.41243391;-12.99500777;-14.78814566;30.32521076;-5.984585306;-7.071862908
14.4174138;5.552773777;3.404485607;7.733783244;5.611661468;-0.44812077;-2.087400132;2.533453099;-19.60633831;5.952482287;-4.521952508;-33.58614319;-5.614196415;2.628581093;-23.32992423;-15.33378771;22.22468115;-5.945110768;-7.195210334
16.53028385;4.764140582;-1.295356452;11.06595647;2.676558002;-5.257954077;-1.423485541;13.96256663;-29.65891782;0.150471524;-10.48131946;-40.91752571;-8.482337608;-6.346531386;-31.68691853;-16.09973687;14.06273687;-5.353213719;-7.504089022
19.1983369;4.478476575;-7.44815606;12.93143372;1.547692437;-8.014549549;-1.270928665;25.69836268;-35.76199026;-4.457700506;-9.519758109;-43.27449947;-9.166446251;-11.39278503;-33.72;-16.55358183;8.641235739;-4.307613259;-7.658780192
20.26781937;5.027508372;-11.88078838;11.39842716;2.754623918;-7.460434239;-1.852934387;25.04135047;-33.8819811;-3.471602032;-1.615179661;-39.39284781;-5.885035819;-9.171600698;-28.20964398;-16.47729954;7.130775083;-3.425654878;-7.37397261
18.35939977;5.95838127;-12.19402871;7.542613218;5.669404329;-3.80427589;-2.701655889;5.334825854;-24.89853999;5.288703801;9.540618681;-31.1134609;0.942043188;-0.39418059;-17.56027562;-16.1112655;8.911224674;-3.405929843;-6.632278512
15.24471138;6.446510542;-8.140280823;5.417955748;8.917750335;1.398272174;-3.095190752;-27.99896447;-13.42264094;18.89705512;18.77639148;-22.09680873;8.473178895;10.49581135;-6.448544543;-15.84917944;12.46948036;-4.43053307;-5.719800511
15.23615721;6.052435946;-1.933401494;9.087676048;10.96191058;5.868420732;-2.737677672;-59.93535553;-4.401439918;30.02851824;22.33557275;-15.84548599;12.9921612;18.08480363;0.509999283;-15.80688518;16.46727304;-5.932685268;-5.077273329
21.1060662;5.125689121;2.763539495;18.61096357;10.59957042;7.53530685;-2.049132852;-75.41306015;-0.316117619;31.63530512;19.57801991;-14.26758601;12.47639904;19.31604932;0.88454561;-15.70331994;20.20333365;-6.96664062;-5.063052212
29.86379812;4.483104674;2.861748394;28.30409741;7.359929224;5.484472941;-1.790265971;-69.08814159;-0.747766112;22.54104843;12.67029024;-17.30844339;8.395806546;15.11800675;-4.581259543;-15.17547179;23.39935151;-6.902998956;-5.758885509
32.94007813;4.657556389;-2.041789564;29.38028562;1.825159481;0.527941043;-2.361025385;-48.20847258;-3.863473227;9.409413428;4.887985626;-23.35464384;5.080809504;9.345338499;-12.45650247;-14.21183843;25.83238664;-5.885865282;-6.919683637
22.1027707;5.408974647;-8.799756766;15.82011335;-4.275795299;-4.982559621;-3.414205377;-26.7976085;-8.006614196;2.671794202;-1.085294508;-29.85966705;6.572193318;5.993130923;-18.3083485;-13.25886622;27.30533158;-4.683294405;-8.097426125
-2.904828559;5.94795251;-12.13876172;-10.51801957;-8.490108967;-8.190652235;-4.139949322;-15.82066043;-12.06547353;8.591816113;-3.849603031;-33.98305809;12.94811041;6.777417544;-18.82286758;-12.86480999;27.91935017;-4.069518329;-8.88122962
-31.61199861;5.666627314;-8.13528878;-39.55765713;-8.671531789;-7.213472282;-3.967607531;-16.66122053;-14.86989698;23.23176359;-2.99534835;-33.41082991;19.04825973;10.66728662;-13.38922665;-13.1813713;28.18400149;-4.25638693;-9.123685678
-48.45953107;4.705802219;2.207478015;-58.30316969;-4.21666747;-2.265261371;-3.056576373;-22.21;-14.88428573;33.50530391;1.3760521;-27.40737046;17.20059857;15.30340167;-4.365569666;-13.80312823;28.63341196;-4.822695882;-9.013368908
-43.51228885;3.838530103;12.04590561;-58.54357408;3.276255611;4.308072134;-2.14549705;-23.83079137;-10.99916184;25.61929633;8.614675136;-17.61607263;2.622668856;18.83504507;4.151648568;-14.12214594;29.18374468;-5.150730101;-8.933639974
-20.0946097;3.776871003;12.00064942;-41.78325155;10.55027157;9.227453082;-1.910924537;-18.28251549;-3.849956887;-4.571121399;17.04839221;-7.807588217;-22.23461979;20.66990659;8.447395717;-13.88647809;28.87800445;-4.962025739;-9.187897034
7.096705251;4.533430757;-3.675148454;-18.0222008;14.33137677;10.07724657;-2.417555266;-9.406748574;3.754535735;-46.90795204;23.84830368;-2.218312044;-47.91520952;20.86928794;7.059716888;-13.44053996;26.44583008;-4.501894408;-9.778009474
22.46389626;5.413559994;-32.04919744;0.70750995;13.15461742;6.637329334;-3.136122913;-4.010505884;8.134201235;-82.01890474;25.92330765;-3.172883783;-63.21225094;19.2430954;1.371028823;-13.40514154;21.38592632;-4.262853392;-10.4025077
20.53392854;5.635115498;-61.60964463;7.547323315;8.207426582;0.944947665;-3.474326051;-5.919190239;7.085025616;-93.22167239;21.662453;-9.502370383;-62.1173724;15.37308755;-5.369907042;-14.07689982;14.70368332;-4.537475878;-10.68713176
8.834033249;5.005958411;-78.35935966;3.980234692;2.597682314;-3.926997747;-3.307402196;-13.10464327;1.504910878;-77.12181023;12.39914865;-17.02698936;-47.58663311;9.668906662;-9.948198084;-15.10449846;8.583843219;-5.200950788;-10.47929028
0.527485859;4.051686192;-74.35170675;-2.703283919;-0.51104118;-5.59947217;-3.024878092;-19.78235356;-5.08018639;-45.45192704;2.316258273;-21.04281559;-29.35420276;4.239264979;-10.84283945;-15.76196354;5.100058594;-5.875358638;-9.976818272
3.195200696;3.50178944;-52.85742941;-5.250900551;0.295913244;-3.591811947;-3.083889524;-21.23515291;-8.87051753;-16.93188986;-3.568002215;-19.26106706;-17.3486074;2.209839677;-8.724770944;-15.59224626;4.885842089;-6.275424763;-9.583032191
13.253424;3.628232903;-26.32153681;-1.220576104;4.054166717;0.623740172;-3.523484404;-17.25268585;-8.319921095;-5.096706286;-2.28611484;-13.18451184;-15.49481058;5.476733252;-5.670394852;-14.83941871;6.791656058;-6.403364927;-9.59721229
20.47732452;4.047545048;-8.328302554;6.388764486;8.251012101;4.602547608;-3.915476836;-11.67675694;-4.978161986;-10.71887157;5.192658049;-6.93323685;-20.26431054;12.61387382;-3.750625976;-14.26108756;8.805537869;-6.444838091;-9.986313293
18.22734569;4.148379518;-5.191150462;12.39108524;10.45136599;6.271056068;-3.796117365;-8.910115987;-2.084367802;-23.67810648;14.46153406;-4.346870267;-24.58947708;19.06099786;-3.909205541;-14.46878728;9.523862008;-6.51742102;-10.42173456
9.975747841;3.718134846;-13.04653322;13.60576513;9.645298363;4.895482151;-3.154723296;-10.48674096;-2.029750222;-31.94280777;20.37755978;-6.426425392;-23.68782066;20.11312067;-5.686129113;-15.3803982;9.047185907;-6.545899283;-10.55014855
6.059084589;3.163615259;-22.14014249;10.85178901;6.585742782;1.287530644;-2.495933015;-14.30179769;-4.570864064;-30.33590999;20.22321398;-10.88608151;-18.18245191;14.74029041;-7.726396694;-16.2820791;8.675343715;-6.382236204;-10.27692142
13.41496784;3.112810719;-24.59800218;7.692164092;3.12328255;-2.697398975;-2.3974896;-16.654756;-7.013533755;-22.67574142;15.20766001;-13.99548744;-12.4618952;7.061352939;-8.602577894;-16.4566043;9.747670179;-6.024244325;-9.833929721
27.63213381;3.775620246;-19.6259269;7.376776884;1.110309581;-5.047868222;-2.971210705;-15.09968966;-6.116864619;-16.63671143;9.33124408;-13.23942557;-10.23607192;3.737697083;-7.47864149;-15.824441;12.6005641;-5.683645067;-9.58456412
35.0082244;4.676420957;-12.55576068;10.47151781;1.517997115;-4.502730675;-3.739342639;-9.875116331;-0.32708314;-16.42736162;6.505266101;-8.852732162;-11.33975736;8.810632002;-4.405964328;-15.02574306;16.40784644;-5.6116794;-9.732521436
23.66044677;5.030803593;-9.290039063;14.75239909;4.098845409;-1.163598903;-4.057723202;-3.223408533;9.113627929;-19.56292236;8.032535356;-3.287765964;-12.38401966;19.97534113;-0.279073348;-14.86591679;19.87198385;-5.847421443;-10.16888524
-5.480466781;4.439251559;-11.20853142;17.09931435;7.580517405;3.433490543;-3.704311316;2.360659952;18.75976107;-19.99360619;12.1984302;0.725293652;-10.30487926;29.6640651;3.462962578;-15.61247864;22.06913537;-6.149501299;-10.56539204
-37.45683699;3.268749777;-14.70048806;15.82018168;10.22245237;6.91286999;-3.088016162;5.418425925;24.75689603;-14.28738314;16.0723626;1.931351961;-5.379148353;30.68593729;5.339663943;-16.76107394;22.76562003;-6.203386019;-10.61879044
-53.58295258;2.369106449;-15.18311;11.83209667;10.55890681;7.185176396;-2.877031116;5.677483536;24.76274579;-5.173503275;17.95239272;0.908788338;-0.968286886;22.25600523;4.451466379;-17.47015463;22.12347436;-5.92275888;-10.24617282
-45.26936032;2.370109548;-11.59984058;8.097823909;8.11681618;3.623137516;-3.382803064;3.542861215;19.0365311;0.645866344;18.49151749;-0.913506652;-0.345334467;11.36007813;0.997532998;-17.274541;20.29123351;-5.554075352;-9.600247204
-20.21353703;3.178793899;-7.2641775;7.79795145;3.793230241;-2.385427679;-4.266889182;-0.23592524;10.27475973;-1.625417085;19.70501205;-2.493573762;-3.598910895;7.679171042;-3.622822273;-16.45309204;17.39580194;-5.465597262;-8.93616422
4.010902323;4.106204635;-6.451317254;12.28761916;-0.426188831;-7.970039063;-4.844961952;-4.474118689;2.350439633;-10.52622784;22.81717536;-3.588766863;-7.444604505;15.46868093;-7.303687923;-15.74577778;13.93552126;-5.801992242;-8.465777472
13.57294717;4.482663663;-10.06009766;19.87547007;-2.448887513;-10.25460209;-4.712214983;-7.527112593;-1.471124655;-19.31170485;26.83425619;-4.191031056;-8.05385497;28.743214;-8.162009762;-15.6936351;11.06100977;-6.327525319;-8.301230191
8.055389685;4.195861773;-14.4554059;26.09930946;-1.31521447;-7.99109225;-4.115067743;-7.86893819;-0.059944034;-21.40437898;29.08713129;-3.792293625;-4.279856588;34.17296005;-5.43477112;-16.19278903;10.24740817;-6.61956942;-8.475425361
-1.32933493;3.687656047;-14.62577683;25.60297556;2.075234458;-2.350261898;-3.724222618;-5.114955527;5.040136994;-15.67915434;27.32358777;-1.420428644;1.598536625;20.36738073;0.149415267;-16.63902283;12.42240757;-6.449376584;-8.958600408
-2.683421971;3.461826054;-8.808275331;14.97445356;5.338945555;3.680452947;-4.014369713;-0.637039251;10.41441961;-7.191426725;21.63140189;3.401768835;6.122172533;-12.98807514;6.715556429;-16.50240465;17.19890811;-6.000733559;-9.631933965
6.278623481;3.597200795;-0.360336409;-4.815134267;5.985775979;6.97484315;-4.819919633;2.993336915;12.60780022;-2.900589258;14.60925297;9.607657612;7.654227135;-53.15;12.08453635;-15.80122129;22.90007813;-5.712233991;-10.27111775
17.28682992;3.723232136;4.882506485;-27.93156381;2.964720073;6.006783117;-5.477487867;3.599076422;10.0273274;-6.098548968;9.639386305;14.56070651;7.351550951;-81.54275005;14.66447935;-15.06215014;27.4746473;-5.872087921;-10.61918888
20.13007813;3.450993855;3.476802201;-45.93772371;-2.652835969;1.600087891;-5.428555425;0.946519814;3.800852736;-14.11883431;8.640751015;15.43372653;7.401389522;-85.44355827;14.01587735;-14.83174671;29.67445898;-6.332490682;-10.5434534
12.66645338;2.812723562;-2.80069282;-51.97252212;-8.329665322;-3.704362609;-4.732816343;-2.959088357;-2.967596267;-20.92233243;11.03234466;11.19467196;8.502693532;-65.932362;10.95566404;-15.19903808;29.63927327;-6.617244126;-10.15722387
3.089639964;2.265256425;-8.596921377;-44.55396839;-11.60741936;-7.176988889;-4.022770919;-5.16534142;-7.102787763;-22.0556318;14.56600171;3.737608304;9.248440686;-36.54034315;7.250671082;-15.75178977;28.5064293;-6.345505578;-9.773622084
2.397454019;2.247738591;-9.557619183;-28.55060093;-11.48220183;-7.338544717;-3.939943218;-3.784734625;-7.206649471;-17.76817495;17.15003906;-2.85684097;8.066619495;-13.81179047;4.993762911;-15.97602943;27.43242814;-5.600452424;-9.687539868
13.80941129;2.728748717;-5.771228175;-12.43991067;-8.732123455;-4.509759067;-4.565317539;0.706433058;-4.273444668;-12.01186299;18.09375468;-4.663729601;5.647754605;-6.759816982;5.76656106;-15.7113965;26.82434326;-4.905334825;-9.947420439
28.66801634;3.200622705;-1.166610456;-3.396654548;-5.122462258;-0.332115905;-5.359325878;5.80319597;-0.758530711;-8.697123015;17.8917549;-0.401295886;5.068351345;-12.61673618;9.81247137;-15.25110923;26.31207276;-4.809309632;-10.31726453
32.76042568;3.151577394;0.352776021;-3.32163227;-2.198288948;3.254905933;-5.659590678;8.679007083;1.148367555;-8.688720754;17.05544341;7.603470101;8.991959435;-21.20510797;15.6310758;-15.0250705;25.32495994;-5.431790912;-10.48040719
17.96072957;2.574832364;-1.603252655;-8.380270131;-0.54164731;4.912245579;-5.277345691;8.049280035;0.814166992;-9.925890916;15.3115748;14.68830571;16.42981008;-23.76889527;20.41796556;-15.18807518;23.67188983;-6.356828893;-10.31826193
-10.53811095;2.0144287;-3.912228865;-12.23013814;0.140949183;4.284817582;-4.649859607;4.926279813;-0.78212058;-10.0099592;12.01866595;16.6230087;22.49602294;-19.21362703;21.40849114;-15.49939093;21.64027834;-6.967781422;-10.01190524
-37.44945531;2.071017682;-3.205986672;-10.56805513;0.432247876;1.900769726;-4.418977042;1.825587188;-2.068089706;-8.497002962;7.370187394;12.14810945;22.14717443;-13.3945642;17.55201804;-15.58385606;19.65535924;-6.93362022;-9.859781556
-48.41598963;2.808080755;0.820701257;-3.796306357;0.739596552;-1.159979377;-4.832587232;1.046163006;-2.081538105;-6.778537646;3.081361316;3.714047329;15.02795562;-12.89904943;10.49481437;-15.30196034;17.9475546;-6.435626842;-9.966575795
-39.91725308;3.619690957;5.196657249;3.898741331;1.272473771;-3.637770294;-5.522677294;3.210945934;-0.993591481;-6.007410619;1.637886128;-3.999052651;6.868070935;-18.94152598;4.044673921;-14.86893778;16.5861579;-5.959930919;-10.09775961
-20.48116454;3.715977856;6.66592909;8.091160263;2.253430592;-4.481074087;-5.860123339;6.998767888;0.257964336;-5.466805131;4.506990072;-6.826265927;5.341737126;-26.36959891;2.168042258;-14.62015232;15.77748083;-5.860653579;-9.865228806
-3.054485601;2.81415278;4.917219365;7.484199705;3.929963449;-3.259721176;-5.551766238;10.16051469;0.74687261;-3.241371045;10.76980983;-3.450327344;13.16125262;-28.22;6.604649559;-14.66480011;15.98600395;-6.083056407;-9.107181336
4.612080177;1.416180264;2.8693951;4.629784355;6.240393167;-0.47476414;-4.92294012;11.07152066;0.091642514;1.387235033;17.4243885;4.016419597;24.22170579;-21.70150541;15.61310137;-14.77155353;17.58847119;-6.271457849;-8.119698992
3.912027887;0.410006104;3.685654948;3.656775275;8.469907241;2.490616843;-4.621497615;9.757983105;-1.538659619;6.317857424;21.25560635;11.41816464;26.81346719;-10.58094994;24.77197427;-14.59815045;20.291002;-6.133617715;-7.493692173
1.558001781;0.334471301;7.405196525;6.914969068;9.393322487;3.936643613;-5.015350507;7.724591499;-3.727158445;7.74448946;20.84423088;14.96396661;12.30054494;-2.180529846;29.46878356;-14.04096091;22.91252507;-5.714379364;-7.650368359
2.520606819;0.951271224;10.56891965;13.13310382;8.019867986;2.753087725;-5.840019531;6.743824135;-6.033272899;3.388318485;17.16996998;13.20849382;-17.23681363;-1.648053147;27.58087017;-13.36350622;23.94325757;-5.335995357;-8.459477367
6.264418708;1.49280401;9.424754781;18.41629756;4.448483365;-0.837639638;-6.424389299;7.499843178;-7.996594622;-4.996400689;12.46812863;7.549885112;-48.7631255;-8.176070636;20.68649726;-12.97391623;22.62255961;-5.280968231;-9.29312251
8.929072528;1.350822801;3.800668686;19.24134881;0.089730302;-5.226739524;-6.292119442;9.101481751;-9.113083097;-12.36313864;8.457913176;1.153652822;-66.35448386;-15.97867054;13.07438606;-13.05594471;19.7173561;-5.526359146;-9.512109069
8.357841285;0.585607927;-2.129949647;15.18242826;-3.083241871;-8.206289504;-5.591704434;9.855763958;-9.023502958;-14.12590374;5.476501112;-2.894388542;-61.90436413;-18.90061321;9.209063093;-13.39753685;17.26784992;-5.776566162;-8.995998807
6.609069218;-0.185528585;-3.231750963;9.37653081;-3.811766023;-8.200916833;-4.963409498;8.722164578;-7.868068246;-9.908285283;3.080660655;-3.102308286;-40.50144956;-14.84166868;11.22165478;-13.5755748;17.31518043;-5.752856983;-8.257385851
7.578623424;-0.389820977;1.931315726;6.391474183;-2.41744467;-5.212073852;-4.964824761;6.270622063;-6.461093512;-4.026769125;1.244765512;-0.032277205;-16.49357272;-6.737507441;17.86925761;-13.32451389;20.45907744;-5.457652034;-8.01264318
12.43898096;-0.02295387;9.462524182;8.951691565;-0.565459849;-0.877521253;-5.576586544;4.2783735;-5.979680847;-2.103912917;0.746407887;4.296868598;-3.38620728;0.150616498;25.41560201;-12.7531738;25.31319097;-5.16226747;-8.549085432
17.80478001;0.379485566;13.28769936;15.71324432;-0.066437428;2.419661137;-6.233444916;4.188319903;-7.261391353;-6.528110224;2.211832339;7.519369306;-5.276601511;2.090875954;29.74855163;-12.22640982;29.30839011;-5.133734211;-9.428128802
18.8023145;0.272490635;10.50030262;21.57982063;-1.604533484;2.879133834;-6.346066987;5.692739189;-10.20873775;-14.54797879;4.767196011;7.914160416;-15.90790533;-1.077182181;28.47236251;-12.04375393;30.30134121;-5.364877876;-9.804879443
14.23737451;-0.37983251;4.09910996;20.46385994;-4.325152786;0.282205854;-5.835595159;6.774067952;-13.79820083;-20.61083885;5.866039676;4.941975559;-25.15287055;-6.74094937;21.92708959;-12.2228253;27.85482302;-5.568511845;-9.128421489
8.661805699;-1.084845641;0.455049127;8.921978845;-6.527490079;-3.890058594;-5.198054532;5.404580182;-16.73518349;-20.96600161;2.926752448;-0.668722786;-27.06395282;-11.83889792;12.80081179;-12.57076787;23.32538444;-5.446211138;-7.648902747
8.760500887;-1.305898995;3.567775964;-11.44373951;-6.862185645;-7.253461743;-5.048096004;1.597031551;-18.26229385;-16.65064147;-4.335149202;-7.167062096;-23.09420498;-14.60488171;4.710970792;-12.93417171;18.79377219;-4.980893156;-6.295195614
16.82707461;-0.977434111;11.25541485;-34.27471546;-5.122034303;-7.773367459;-5.563029625;-2.074965464;-18.49645669;-12.40203615;-12.94802439;-12.32309539;-18.76637511;-14.72509654;0.500988406;-13.34849692;15.69027201;-4.475664715;-5.998194017
27.22884451;-0.554360441;16.9235777;-51.41734817;-2.147228469;-4.814566541;-6.330755503;-2.302032217;-18.07728909;-12.54365631;-18.30141833;-14.27667376;-17.67825216;-12.55270526;0.990139145;-13.9272154;14.09064178;-4.294801784;-6.995018466
29.62027079;-0.55046061;15.60262273;-57.02246644;0.87920842;0.518931283;-6.730756901;2.006653865;-17.50387723;-17.42897558;-17.42816604;-12.504101;-18.49068864;-8.638754657;4.666109906;-14.61609001;13.05701328;-4.539433696;-8.669946566
16.92076213;-1.015454307;8.881043407;-50.52183038;3.061424163;5.888003084;-6.493329319;8.162707325;-16.7844962;-23.4257954;-11.44803497;-8.398117885;-17.24833673;-4.034547972;8.44545461;-15.09874021;11.59943227;-4.953539165;-10.04911664
-8.286084728;-1.465859252;3.976932575;-36.76068477;3.90972591;8.810102388;-5.929176272;11.29316687;-15.6924386;-26.27221327;-5.069515177;-4.884864952;-12.27512683;-0.637810259;9.208956158;-15.00413294;9.460208455;-5.14666928;-10.5360327
-34.3591416;-1.353000339;7.21804237;-23.16765332;3.113758958;7.835586385;-5.63106804;8.319408761;-14.30947038;-24.72685449;-3.271866201;-4.945943964;-6.623068424;-0.609254294;5.438383862;-14.25684975;7.195848544;-4.931612234;-10.29594225
-48.10481411;-0.628375846;17.37458103;-15.61826156;0.477794797;3.275763747;-5.930747727;1.20724311;-13.2203275;-21.29765214;-7.581824254;-9.709961239;-5.546027267;-4.859178526;-1.872620784;-13.23222949;5.644374179;-4.473167601;-10.00992734
-43.55300449;0.14707048;24.96303663;-15.47360342;-3.72867673;-2.866049139;-6.607475299;-3.62971567;-13.02501053;-19.52207986;-14.80583296;-17.33719794;-11.28712129;-11.79832672;-9.59922793;-12.52406376;5.296858;-4.12032983;-10.24831322
-25.45296372;0.285990337;18.91692197;-19.53279299;-8.343110148;-7.770757301;-7.103066936;-0.120008545;-13.52174848;-20.36763571;-19.24095029;-23.6677878;-20.1330425;-17.69245992;-14.06581348;-12.48627501;6.045334479;-4.08394551;-11.00811787
-5.238056807;-0.380201997;-4.284454802;-22.7361598;-11.44880408;-9.121702539;-7.032993691;11.74312617;-13.35973424;-21.08976824;-16.71172446;-24.51618437;-24.7517098;-18.76755221;-13.0104742;-12.94284223;7.385297425;-4.258103313;-11.78350177
6.985450333;-1.304304276;-36.44721413;-21.66505389;-11.35511403;-6.249625276;-6.522395632;23.96221221;-10.70538531;-17.67507376;-7.413029898;-18.26421032;-20.04963852;-13.68611956;-6.807120837;-13.33827165;8.790980557;-4.343451247;-12.06222205
8.293653732;-1.691586246;-62.2563233;-16.47;-7.895751079;-0.514157209;-6.070618315;24.80080964;-4.642887481;-8.779645057;4.452745964;-6.990987366;-7.502281071;-4.53583372;1.8004038;-13.21603937;9.934738172;-4.147657688;-11.78430778
2.911452853;-1.232342505;-69.50510141;-10.12044082;-3.008580595;5.32889523;-6.086122726;6.99522137;3.700230404;2.326087221;13.74789307;4.757531322;5.882895203;4.473988324;9.305206176;-12.61089144;10.65452393;-3.775902416;-11.36151034
-2.521572085;-0.426813216;-57.26440096;-5.852214682;0.113124631;8.506402233;-6.527951339;-25.86586504;11.29808274;9.660557034;17.72432337;12.81759329;13.15897528;9.680479727;13.40190538;-12.00662639;10.82537845;-3.531540809;-11.26438459
-3.976876044;-0.174415477;-35.86175712;-4.889340921;-1.022784759;7.657757362;-6.975993505;-59.91884395;14.7991222;8.89182772;17.22766664;15.91023424;12.81320065;10.09519887;14.1130223;-11.89607458;10.33787371;-3.621549935;-11.56842912
-1.712076934;-0.962661312;-18.96128033;-6.058522786;-6.41633225;3.54589375;-7.046959263;-78.93244387;12.6142576;0.68683074;15.28652243;16.01318452;9.387335933;7.616056346;13.44312186;-12.33850572;9.227106227;-3.946188315;-11.87597905
1.61382752;-2.373937991;-14.06270204;-7.259641117;-13.2879863;-1.362628984;-6.75719195;-74.4540351;6.125837166;-9.60691381;14.60014573;16.36474435;9.01384923;5.446700121;13.87726455;-12.91205338;7.812550808;-4.175244115;-11.68535589
3.812046641;-3.370924227;-18.56359704;-7.305301415;-17.6606375;-4.24578894;-6.495497632;-51.14372224;-0.873823904;-15.65273774;15.96761589;18.6507039;13.94664333;6.044271743;16.73619277;-13.09858652;6.675866692;-4.046014286;-10.87584463
4.48459958;-3.140165685;-23.725128;-6.564648825;-16.84766788;-3.47323926;-6.641615369;-23.49191826;-4.254249274;-14.30500146;18.53653246;21.56775458;20.88421482;9.943424799;21.40154445;-12.74441127;6.434574655;-3.609169796;-9.871305324
4.412531449;-1.773861176;-22.59418266;-6.093310058;-11.19535223;0.503110209;-7.196322872;-6.275137147;-1.881663399;-7.229357825;21.10397334;21.90232848;24.3489491;15.87439584;25.78782763;-12.17547146;7.434033449;-3.192599539;-9.324430572
4.448970345;-0.202454278;-15.27810194;-6.319499263;-3.911669387;5.411006816;-7.771915534;-5.547148245;5.181006742;0.879103577;23.03908378;17.28792388;21.83572662;21.65540368;27.63923491;-11.87075082;9.541829867;-3.11102871;-9.580213299
5.198413187;0.558926248;-7.785696893;-6.638424907;0.882868591;8.42297788;-7.949831537;-16.32085855;13.26692082;5.718863317;24.13217827;8.447347498;15.97358416;25.1304019;25.79532295;-12.01036853;12.15935206;-3.383879598;-10.37115251
7.281060683;0.196924566;-6.204671011;-6.248362512;0.578123844;7.714882675;-7.669077701;-27.9294158;18.06857458;5.783231612;23.92363761;-0.914591936;11.82522218;24.84730535;20.71821341;-12.32926125;14.43972422;-3.719294059;-11.0071261
11.12941191;-0.742196609;-11.53198087;-5.258922931;-4.552484341;3.453574409;-7.283610055;-32.4122831;16.83476388;2.352848986;21.56949718;-6.573593874;11.99906908;20.56219008;14.11600975;-12.41389068;15.60678229;-3.781596228;-10.91675118
16.06789348;-1.414387812;-19.3150669;-4.790284238;-11.74605124;-2.316055873;-7.237656757;-29.47412437;9.679734937;-2.214177944;16.62727916;-6.740227911;14.27943129;13.56066598;8.029196322;-12.15186949;15.23744293;-3.501955049;-10.11500104
19.85;-1.421243977;-23.82305022;-5.791385723;-17.45646543;-6.790984193;-7.661753552;-24.79364385;-0.523835725;-6.112048405;10.03982846;-3.223853283;14.10464122;6.448944027;3.953139223;-11.88789765;13.38586112;-3.151844381;-9.236186002
19.94607543;-1.070889176;-22.75652466;-7.681035634;-19.21238242;-7.892601896;-8.260756354;-23.9121067;-9.472584453;-8.487402137;4.203857751;0.092779675;9.591487375;2.096970077;2.405165329;-12.11036611;10.4834791;-3.111794705;-9.111562706
16.10930588;-0.965425154;-18.53270615;-8.290497239;-16.60904943;-5.298412567;-8.589885648;-27.18298191;-13.30925825;-8.908908925;1.759072049;0.267466636;4.191182683;2.045134854;3.000308486;-12.94545099;7.051004038;-3.540134661;-10.20349959
11.77964753;-1.348881046;-15.52137535;-5.483024425;-11.13292282;-0.499863338;-8.456679442;-29.87315007;-10.25827888;-6.997312295;3.924823448;-2.549572468;3.997201575;5.395218;4.82606866;-13.9431132;3.383384313;-4.232775954;-12.28400372
12.09415636;-1.851414521;-16.07733013;0.815838449;-5.204599001;4.075565573;-8.078154359;-26.89461257;-1.380255514;-2.803418062;9.704217209;-5.465737404;11.63544795;9.184627721;6.843471091;-14.39298835;-0.567097982;-4.791444036;-14.54181333
19.16224419;-1.869738692;-18.85926255;8.067621911;-1.063918184;6.341759575;-7.85838464;-17.77414333;9.877797054;2.581372888;16.58523085;-5.343637008;22.17852544;10.25431061;8.161775858;-13.92015853;-4.974795603;-4.944919489;-16.00859478
28.45517798;-1.209549666;-20.5184562;12.81985351;0.058021914;5.533961909;-8.005858054;-7.487302965;19.21817578;7.164376319;22.12546193;-1.411790145;25.32236611;7.386615956;8.20033025;-12.82996519;-9.69551342;-4.741721668;-16.0301422
30.33829123;-0.35959632;-18.81183983;13.42794572;-1.687023869;2.428526714;-8.351202306;-2.48124252;23.4993627;9.233065843;25.1518605;4.081962596;12.90457129;2.122281223;6.825617376;-11.87030423;-13.92693618;-4.460484107;-14.54766775
16.95285861;-0.108138949;-14.24548312;11.48503036;-4.876223197;-1.207817322;-8.527996537;-5.335904643;22.25549556;8.713842553;25.80321558;7.638120962;-13.95695569;-2.380579829;4.485943355;-11.59587636;-16.32198226;-4.34170148;-12.1063794
-10.3499865;-0.833101906;-9.06795543;10.56917227;-7.414984427;-3.559063037;-8.334756268;-12.59777638;17.86076408;7.419614858;24.75571806;7.222069458;-44.06816345;-3.536287536;2.229742456;-11.88898293;-15.62;-4.394908688;-9.63712687
-39.46144322;-2.118392325;-4.968475048;13.19472526;-7.509789511;-3.586414402;-7.930405596;-17.57081537;14.11111487;7.726413521;22.60453697;3.742090571;-62.91450882;-0.855228246;1.428670705;-12.07132387;-11.4540557;-4.44767522;-8.106558379
-54.38959567;-3.067174885;-1.814541594;18.52637665;-4.645275508;-1.390058594;-7.680694185;-15.69652469;13.92241363;10.60766245;19.94883459;0.147415915;-62.21674928;4.251934436;3.146541661;-11.52426792;-4.781046168;-4.367521062;-8.142408535
-46.27313208;-3.051874348;1.532188473;22.91969861;-0.008682795;1.958523082;-7.80781827;-8.098517288;17.48624274;14.6290898;17.75227888;-1.066967505;-45.23882374;9.909426581;7.376315876;-10.27784784;2.42402897;-4.227504211;-9.761528529
-20.18219642;-2.238370634;5.413955939;22.97879707;4.032077407;4.946390479;-8.181194428;-0.519217065;22.07494364;16.80287122;17.11155314;0.088648971;-24.04218065;14.97851913;12.6209845;-9.043641565;8.074644821;-4.247519829;-12.33739898
8.051421544;-1.419151451;8.560710097;18.57230715;5.241213331;6.257205259;-8.449542131;1.289202415;23.7229492;14.69055824;18.21449232;1.126814065;-11.01035312;19.01525359;16.27190672;-8.648085862;10.91826795;-4.564017326;-14.87352971
23.04066295;-1.309569985;9.121038762;13.1429795;2.870039063;5.293643404;-8.386316816;-4.1102248;19.80071695;8.131550232;19.40393644;-0.862212545;-11.06666669;21.40186603;15.83293616;-9.347311997;10.94128871;-5.051503883;-16.48524962
20.53774741;-1.93946759;6.504914458;10.9037634;-1.84421412;2.426009181;-8.114977583;-13.1376376;10.85627586;-0.685321307;17.64557486;-6.779655172;-19.97315033;21.00949979;10.43488357;-10.60852537;9.063045697;-5.379391947;-16.83273931
9.241276561;-2.676190601;2.200319339;13.25317608;-6.430821842;-1.127463763;-7.993557938;-20.32498663;0.510089111;-8.730695035;10.6858146;-14.61825625;-29.07746731;17.17803361;1.701584532;-11.53671345;6.45260119;-5.273446724;-16.23802141
2.496333038;-2.836811463;-1.256440468;17.5485626;-8.731109147;-3.793369562;-8.263293437;-22.44802072;-6.578174743;-13.96063028;-0.501435633;-20.76523163;-32.09931174;11.20429929;-6.762579591;-11.5716824;3.994468595;-4.759363347;-15.40966967
6.986133744;-2.317460643;-2.201629545;19.42710362;-8.203651048;-4.365049347;-8.79539835;-20.3533824;-7.410124231;-16.14221729;-11.17041505;-22.47797357;-28.70738381;6.547944994;-11.19541068;-10.86626594;2.181788067;-4.172566801;-14.97054745
17.92762156;-1.666853742;-0.91360242;16.75355077;-6.115091336;-2.645867801;-9.184221446;-17.40028327;-2.336708445;-16.35312684;-15.24662264;-19.66623619;-22.9377418;6.811542168;-9.823463833;-10.05855014;1.285646545;-3.9176561;-15.12175828
24.59217647;-1.552033469;1.000847503;11.71388717;-4.540509776;0.349049287;-9.11139349;-16.28202305;5.273721696;-15.89610221;-9.473814696;-14.73238346;-18.80965978;12.70458622;-3.9722255;-9.684994279;1.443555938;-4.174183709;-15.65632417
20.95098452;-2.123329349;2.102429127;9.043849403;-4.934705863;2.834105655;-8.647063853;-17.04863975;11.10574763;-15.59910718;3.733566719;-10.72729313;-17.22251685;20.66839185;2.68290069;-9.768311;2.505689026;-4.785160258;-16.24904019
11.70598739;-2.870205819;1.988734712;11.74486504;-7.282278308;3.191115409;-8.205329712;-17.74078514;12.37996675;-15.82058794;17.17905863;-9.273882185;-16.33796544;24.95082359;6.366508582;-9.913883195;3.854615106;-5.402473114;-16.73610539
8.005845231;-3.098701625;0.90402815;18.01334973;-10.32938585;0.918506318;-8.187258538;-16.63625649;9.270039063;-16.71437505;23.31133892;-9.731388307;-14.26950034;22.05657427;5.554695741;-9.767178765;4.563477906;-5.749399466;-17.1441077
16.41256767;-2.584903699;-1.067765406;22.31389168;-12.57252228;-2.978143039;-8.633388465;-13.87261064;4.529960892;-18.19847471;19.22310777;-10.02625002;-11.12029439;14.05381666;1.88718702;-9.371401179;3.979966308;-5.781678045;-17.48910669
31.09365755;-1.798853777;-3.930203356;20.04913217;-13.18666159;-6.447210731;-9.199557219;-11.07922852;1.712790023;-19.63780417;8.617084604;-8.353306521;-8.553220888;7.599270912;-0.98500633;-9.095049233;2.34926615;-5.641359261;-17.6002641
36.92499748;-1.492539646;-6.667230339;11.99633561;-12.26499953;-7.496465904;-9.472367875;-9.632951114;3.114701129;-19.79854395;-0.748853876;-4.468314223;-7.723532159;8.875425592;0.130527847;-9.229329329;0.890090332;-5.485597231;-17.20345219
21.84332801;-2.031120696;-6.529220214;4.488298465;-10.39003906;-5.325594005;-9.330216996;-9.357001468;8.592097132;-17.49867345;-2.329542925;0.21324145;-7.933198024;18.30558349;5.806045878;-9.669447783;1.083015804;-5.363062388;-16.23397874
-11.66265576;-3.077648714;-0.344845583;4.61997422;-8.082305672;-0.825237038;-9.02067412;-8.889001327;15.78730425;-12.63793009;4.968049906;3.552099978;-7.437678561;29.6285389;13.54365648;-9.998673599;3.592642549;-5.234593531;-15.07994352
-46.08586883;-3.909811177;12.28846467;13.98829325;-5.649625103;3.854735105;-8.895515981;-7.243319636;21.49855822;-6.701142003;16.43084168;3.873673608;-5.524730863;34.63423146;19.28950987;-9.891251672;7.653982432;-5.081263191;-14.45812823
-60.82105075;-4.065276574;26.40871372;26.09934524;-3.465916912;6.423749162;-9.065567478;-4.948925003;23.3861231;-2.079449129;25.00555818;0.70053655;-3.620907083;30.02378212;19.89940958;-9.432785389;11.49115604;-4.964964322;-14.92927297
-47.4098948;-3.719916228;32.68345773;30.05732525;-2.229560294;5.630833301;-9.30726575;-3.607029479;21.13037983;-0.533549651;25.87696202;-5.152691777;-4.096290486;20.58364462;15.00891996;-9.032603831;13.54504383;-4.972165233;-16.41522595
-15.88628377;-3.466065754;22.66049945;18.29404978;-2.747922011;1.878884145;-9.30712861;-4.281650675;16.50053168;-1.961505894;19.02797086;-11.87239762;-7.737017003;15.45422251;7.241364284;-9.001263566;13.59839873;-5.104634481;-18.15310263
12.99920813;-3.723678635;-4.719091341;-7.283267235;-5.276168745;-3.012312526;-9.002637128;-6.287649155;12.34972171;-4.503443996;8.503609778;-17.06946643;-12.3101496;19.97574324;0.762089679;-9.20451743;12.90428079;-5.24280551;-19.20245273
23.43160497;-4.354087657;-40.25668864;-35.48644303;-8.964794043;-6.723479017;-8.68064289;-7.584603193;11.07772781;-5.945543525;-0.466942957;-18.34139479;-13.81629966;29.7521101;-0.889296011;-9.150969908;13.18312434;-5.235223777;-19.15107519
15.47491227;-4.840637325;-68.32175001;-52.57144944;-12.03207276;-7.550445707;-8.723273977;-6.471816523;13.37356365;-5.292578702;-4.22466516;-14.10228993;-9.615475944;32.4313145;3.495150167;-8.462848572;15.25705986;-5.035199621;-18.44883293
2.828609093;-4.849936793;-75.71317085;-50.8641445;-12.75687907;-5.191093931;-9.23290535;-3.045309092;17.92293172;-3.248529904;-1.808611798;-4.551806302;-0.818834142;16.73868182;12.31492653;-7.298429699;18.38912043;-4.749119797;-18.05622871
-0.022635136;-4.614961238;-59.86851665;-33.27125232;-10.68205258;-0.871567935;-9.897097483;0.916598753;22.25458609;-1.314385005;5.452414121;7.771956576;8.171315694;-17.84490238;21.98645538;-6.30896068;20.82928901;-4.541358029;-18.64688919
9.95801519;-4.7445589;-30.66600642;-10.72698387;-7.124491557;3.222512429;-10.24126569;3.521907669;24.23918892;-0.41318162;14.87298804;18.51987441;12.71280274;-58.55228109;28.58449042;-6.127587774;21.10242225;-4.482423432;-19.99849513
22.95411064;-5.61627422;-4.326165144;5.255042134;-4.498847787;4.960298043;-10.05313369;4.334411905;23.33025546;-0.295941313;23.17927103;23.30029252;11.13166335;-86.63452036;29.56662932;-6.828433326;19.00758516;-4.488887212;-21.09452577
26.3004665;-6.930444668;6.537284618;9.465880992;-4.806332966;3.28877456;-9.588774465;4.51647152;20.76250762;-0.167330372;27.26302786;19.96361556;5.57817195;-89.60331237;24.87597807;-7.847286834;15.5927366;-4.418595533;-20.90054496
16.61608334;-7.884029638;-0.002135858;4.745750068;-8.282312103;-1.2046484;-9.356503421;5.476265231;18.58420546;0.226080588;25.30995985;10.06351144;0.058130416;-69.47131014;16.94622413;-8.455484904;12.24678986;-4.229725257;-19.21808564
3.156956783;-7.853976082;-15.48881496;-1.855860361;-13.13460995;-6.49740293;-9.659513482;7.364822481;18.19032279;0.239649879;18.01766823;-1.608394808;-2.524624482;-40.90064618;9.544863891;-8.378918153;9.747883823;-4.039033521;-16.92517015
-0.618806422;-6.982532927;-27.93982568;-4.890256366;-16.56924225;-10.07418996;-10.30850742;8.904300641;19.38440587;-0.849929404;8.856497324;-9.426338269;-1.894322932;-20.77568129;5.926644899;-8.011324387;8.038467152;-4.003302762;-15.38258512
10.20321289;-6.104974667;-29.96708988;-3.728986372;-16.42956454;-10.18767311;-10.77339473;8.747340478;20.6308711;-2.641757106;2.549682971;-10.00138172;0.403984564;-17.10116125;7.207353309;-8.02576334;6.767617691;-4.12368029;-15.4501348
26.35051124;-6.036420192;-22.54725125;-1.245005345;-12.39506572;-6.792088205;-10.64975304;7.0646953;20.29623951;-3.335467411;2.28900588;-4.072245784;2.930087891;-25.29471552;11.8792199;-8.728589169;5.934109968;-4.168736362;-16.87672894
31.20208034;-6.828987878;-12.52743811;0.145013529;-6.038813828;-1.616030854;-10.02667557;5.76327623;17.94708101;-0.929847971;7.54841453;4.016059779;5.404161932;-33.90766119;16.81345589;-9.738749533;5.925769452;-3.825647633;-18.53618761
14.69071123;-7.675534232;-6.622129497;1.219291963;0.172685313;2.715882296;-9.423923757;6.97181227;14.73614609;4.967554502;14.32672635;8.996228928;8.066698533;-34.51883611;19.18877459;-10.2906762;6.903681739;-2.983968085;-19.30965724
-17.39961434;-7.588164101;-6.745219493;4.979988738;4.21680307;4.06070537;-9.3491493;11.08386617;12.6074096;12.33283322;17.95319456;7.883910337;10.37449143;-27.7904306;18.14611936;-9.901586812;8.200708737;-1.914690986;-18.90901378
-46.73624758;-6.290229815;-9.781531227;12.89111632;5.388632494;1.875919146;-9.865964636;16.1729493;12.94770092;17.84770237;16.48821078;1.704967787;10.76272465;-21.38823639;15.11489109;-8.813271649;8.490019531;-1.165866622;-18.00161042
-55.87364917;-4.544292606;-11.11379817;21.82430209;4.346446741;-2.540683024;-10.55320354;19.44414998;15.70455474;19.26260208;12.06834177;-5.309177319;8.054425747;-22.31260285;12.65982271;-7.813156041;6.799634068;-1.218766246;-17.57361981
-40.99725747;-3.602750785;-8.519657622;24.83220171;2.520290259;-6.800776505;-10.88439165;19.55195005;19.57650965;17.15678359;9.040723145;-8.476653325;3.234107271;-30.47622751;12.72877766;-7.586963835;3.589021579;-2.150671139;-18.08061335
-13.88984824;-4.218792052;-3.358244636;15.80316161;1.3535725;-8.713807967;-10.68260416;17.75750145;23.01598012;14.61232718;10.31042352;-5.553286127;-0.394793626;-38.80238617;15.55575501;-8.166561762;0.866326127;-3.558046773;-19.08412546
7.939097069;-6.039775098;1.375896022;-5.275422796;1.746367786;-7.392588537;-10.24665579;16.84578988;25.18266054;14.95929429;14.85784887;2.07934419;0.646941946;-39.35917455;19.89247554;-8.946334865;1.001733892;-4.797298694;-19.65213949
14.46668257;-7.885915959;3.960724883;-30.63221397;3.799803759;-3.615305015;-10.0493537;18.68059868;26.12857712;19.3098239;18.51305885;10.56796724;7.091949884;-30.07718411;24.17469597;-9.235432357;4.978347861;-5.362636089;-19.16755619
9.088146985;-8.670786013;5.184340714;-48.45216038;6.802498122;0.668241018;-10.29616995;22.50955845;26.22604691;25.76836339;17.43185478;16.16243658;15.79653748;-16.44588523;27.55141422;-8.84704153;11.40275159;-5.13528085;-17.86373331
3.346566267;-8.192474314;7.059156306;-49.94242023;9.436047906;3.356465481;-10.75028375;25.5183237;25.51084206;30.85279019;11.46396555;17.42412427;21.72525915;-7.052131376;29.96783802;-8.212190416;17.13579792;-4.363096086;-16.64611718
5.999267453;-7.162898562;10.45699932;-34.99697252;10.2503059;3.210822548;-10.97532839;25.18422534;23.62493748;31.936458;4.625348285;15.67067989;21.73794463;-6.91923922;31.44045757;-7.945184277;19.21149119;-3.444305678;-16.35287145
16.07849787;-6.510143165;13.95635979;-12.44639593;8.371138803;0.415391704;-10.75942688;21.40958818;20.41298697;28.84283818;2.197864976;13.57284217;17.12703239;-14.09202511;31.43628175;-8.276360609;16.71896451;-2.709522678;-17.06309465
25.26764813;-6.594511443;14.99457102;5.465941834;4.151243825;-3.522563845;-10.320969;16.61425056;16.54245669;23.56669538;6.691241797;13.08903684;12.65500573;-21.84896157;29.15343713;-8.86734924;11.32119369;-2.338986335;-18.01376382
26.4170082;-7.005771327;12.3170143;10.71575515;-0.703513771;-6.466397911;-10.10512766;13.75471564;13.42396325;18.63860453;15.8039423;14.25843225;12.67930464;-24.20449222;24.57521459;-9.157289479;6.08014363;-2.397011987;-18.1889669
19.99507184;-7.060770048;7.528297676;4.076490123;-3.836760438;-6.659155318;-10.36359949;14.0193267;12.32070185;15.56401514;23.91747692;15.59426263;17.48448396;-20.02012715;19.27229271;-8.90037497;3.473569911;-2.869876492;-17.10995902
12.87360725;-6.501194146;4.249740601;-6.368812081;-3.561285032;-3.631466225;-10.91205549;16.14976366;13.31795893;14.3932825;25.91120795;15.56718475;22.95226863;-12.76599586;15.93354753;-8.391127656;3.99961372;-3.638406205;-15.2088064
11.2761106;-5.745606628;5.370525566;-11.51426594;-0.045005671;1.428999189;-11.29404813;17.82003906;15.05627591;14.33192619;20.41689108;13.90167644;24.03251457;-6.896772497;16.62627461;-8.174303923;6.233946439;-4.437356774;-13.51133885
15.00306575;-5.484045134;10.5236274;-7.706314761;4.494476948;6.118282084;-11.2015658;17.67716766;15.56271845;14.50245187;10.28049972;11.67551965;19.26188078;-4.39413854;21.00459603;-8.516161677;8.107539293;-4.910475941;-12.89588831
18.44151709;-6.008044493;15.89350156;1.190797929;6.919707823;7.971538194;-10.76255032;16.17589413;13.60772023;14.17459488;0.26784226;10.24940954;12.50555676;-4.25385102;26.01113789;-9.130815178;8.371059311;-4.791268282;-13.50206811
17.09085347;-6.899845516;16.75506625;7.396739371;5.079916841;5.80605609;-10.4270507;14.61560634;9.557070328;12.61536753;-5.980308876;10.011258;10.17552086;-4.647108176;27.63751872;-9.416112242;7.249204869;-4.096213957;-14.71462159
12.86872902;-7.368901575;11.03295654;5.548563525;-0.68275147;0.500422317;-10.55437853;13.5597239;5.090999711;9.215016599;-7.551844445;10.03813097;15.83236036;-5.131106763;23.705685;-8.984291884;6.01298331;-3.157472443;-15.68579812
12.51892394;-6.937884372;1.254716826;-3.101177021;-7.478942319;-5.332383258;-11.08104475;12.38194663;2.081416263;4.163121;-5.719969842;8.98333637;26.38488091;-6.673045197;15.68179304;-8.005416922;5.970767325;-2.425322743;-15.96113624
20.14443348;-5.871599081;-6.714240285;-11.7364943;-11.44414237;-8.709801853;-11.57661592;10.47038865;1.551777572;-0.909972315;-2.274076665;6.446432862;33.14536232;-9.746741471;8.071165068;-7.056222619;7.638722979;-2.162285301;-15.7362857
30.99315794;-4.975370303;-7.492455052;-13.31995807;-10.03879556;-7.948376295;-11.638044;8.79395761;3.450667702;-3.276161865;1.694053947;3.640068359;27.42064174;-12.80945424;5.64185093;-6.617208546;10.53325939;-2.261864567;-15.59430425
33.22083384;-4.943000466;0.02136529;-5.9996646;-3.648212268;-3.63879715;-11.26067188;9.922324974;7.164285678;-0.710895048;5.795082203;2.69999161;6.831513877;-13.08261312;10.31968239;-6.673412619;13.5158059;-2.34446107;-15.97818255
17.38229122;-5.814234611;11.60712964;5.591250783;4.542548585;1.69692862;-10.84396345;15.94313437;12.04998746;6.600287772;9.623990409;5.076520614;-22.18119883;-9.165567575;19.87373047;-6.769973299;15.34118362;-2.065827661;-16.82823487
-14.05903312;-6.985789183;20.33633007;14.01999128;10.33736286;5.08070476;-10.82468797;25.89684561;17.40415935;15.43377334;12.30965034;10.22623413;-47.6144684;-2.972197668;29.26010595;-6.456844517;15.12779039;-1.398903844;-17.64814577
-45.95052358;-7.73200758;21.15208793;14.68382353;10.87587042;4.784070034;-11.27294249;35.26483939;22.03864297;21.05126491;12.80668355;15.66032461;-58.86950839;1.163819399;33.66256729;-5.711717196;12.66687841;-0.667281407;-17.91365882
-60.29841748;-7.770019531;14.23311866;8.912096445;6.121734338;1.229467317;-11.82245941;38.59893281;24.24077774;20.11408773;10.560528;18.41194285;-52.84954302;-0.157455234;31.20089739;-4.964228104;8.565669571;-0.305731152;-17.48341046
-49.50138689;-7.405225718;4.717488222;2.240197078;-1.326110197;-3.407934722;-12.00237401;33.61491403;22.64529264;12.98795588;5.877864117;16.92044799;-35.3024221;-6.356037613;23.6699535;-4.713830162;4.149385411;-0.53629461;-16.69342512
-22.254882;-7.183898984;-1.053202744;-0.464216224;-7.848632343;-6.560537193;-11.6707558;23.41884908;17.57406374;3.692321136;-0.23251374;12.00782771;-16.80461503;-12.89779156;15.1052499;-5.094082491;1.021129127;-1.204000249;-16.07513938
3.025484078;-7.397555353;-0.028727765;1.176248645;-10.77862684;-6.698431923;-11.15548766;14.67856789;11.61068685;-2.597314393;-6.411920115;6.274986915;-6.276125028;-14.63799259;9.332614557;-5.765656302;0.3501973;-1.878664921;-15.92304532
12.21302141;-7.868302641;5.671248074;3.45702913;-9.584006701;-4.00240685;-10.97161065;12.7988937;8.461629881;-2.795936174;-11.11898302;2.367083683;-6.262582658;-9.862262637;8.050360708;-6.209569153;2.234554997;-2.123933493;-16.04323905
5.617107346;-8.158303005;10.90954801;2.708977987;-5.740590769;-0.025130702;-11.36614111;17.83295619;10.49621986;2.319380987;-12.72555878;1.316074551;-12.70200409;-1.720426488;10.35267719;-6.138588194;5.5805101;-1.731739994;-15.87617565
-3.879387802;-7.971272269;11.99254588;-0.660340063;-1.604790476;3.28177672;-12.09575695;24.54460988;16.69450536;8.915034574;-10.01924128;2.047467201;-18.7611114;4.125466289;13.59976737;-5.66787077;8.678969842;-0.786837929;-14.91691898
-2.808731233;-7.383037682;9.796834724;-2.007637834;0.910751248;4.525836437;-12.63243348;26.75400856;22.80782803;12.73701065;-3.244079123;2.290892745;-19.77430868;3.712690573;14.91332051;-5.134816359;10.17252586;0.420959438;-13.14487754
11.1092941;-6.735230548;8.843871078;3.345335061;1.134231291;3.354569993;-12.61047553;22.48823789;24.04007813;11.67951824;5.0343418;0.210116904;-15.94638428;-2.505657699;12.56139776;-4.781183741;9.78589614;1.523798237;-11.15989923
27.41649474;-6.338686292;12.83862318;14.99550869;-0.351123587;0.398309074;-12.12010697;15.63061096;18.54189435;6.699233102;10.38590762;-4.311081144;-11.31570171;-10.3993027;6.797726873;-4.604684463;8.331812563;2.160841243;-9.905730865
32.70578679;-6.271190559;20.26224123;26.0191276;-2.258571803;-3.103690018;-11.60013281;12.59288493;9.126756382;0.830763917;8.740550428;-9.465399394;-10.11828593;-15.41262833;-0.053395608;-4.483520341;7.02954625;2.038373385;-10.1248428
23.02748708;-6.418641233;23.96746769;27.04277489;-3.301735617;-5.757728898;-11.44391543;16.76318769;1.737979853;-2.708054749;-0.690605184;-12.43855399;-13.34908035;-15.51557775;-4.388917543;-4.393840524;6.67089553;1.026622146;-11.86763307
7.870612366;-6.660251288;15.8161207;13.13211173;-2.729014413;-6.452900237;-11.67904359;25.50549153;1.577304337;-2.056747857;-13.92983801;-10.89461826;-17.96991897;-11.68981406;-2.926765649;-4.460449875;7.2343761;-0.70840294;-14.36485872
1.955867967;-6.982652105;-6.694576872;-11.76905958;-0.563058615;-4.760106506;-11.99561886;32.43211209;9.613272868;2.746915527;-23.7690581;-4.280570583;-19.21972713;-6.160884975;5.41128668;-4.776972998;8.140112173;-2.643327778;-16.36919166
11.76208703;-7.417761154;-36.90475439;-36.51623761;2.451614398;-1.200688164;-12.07097014;33.12663208;21.95500015;10.08983024;-23.86307298;5.643035024;-14.2614513;-0.440790959;18.33213899;-5.197110933;8.814876072;-4.031207892;-16.79530442
28.58826768;-7.902262377;-61.78837467;-49.61463581;5.154314981;2.808554282;-11.87498184;29.30935688;32.45456616;17.52317049;-12.84241124;15.31078311;-4.475908877;5.01859532;30.68717435;-5.35654697;9.044496449;-4.237677299;-15.30110606
34.69010996;-8.240611148;-69.70510465;-46.33381438;6.4578836;5.470223481;-11.67651682;27.48883174;36.56;22.63674413;4.457628227;20.79;5.295384152;9.683978076;36.82262297;-4.96390513;8.869924788;-3.110584583;-12.47355996
17.94572368;-8.239544723;-57.85716388;-31.02062189;5.865088335;5.455141413;-11.76206761;32.78134281;33.70705384;23.96924363;19.71613325;19.64428563;10.05104601;12.03696802;33.68301542;-4.109959039;8.252228743;-1.13413469;-9.508430006
-17.01519833;-7.893837914;-34.11184931;-13.27663711;3.765400283;2.664675666;-12.14580553;42.99469382;26.88495849;21.73392664;26.08584719;12.3914632;8.111257589;10.33876936;22.81603387;-3.280048828;6.949270609;0.77502408;-7.572838218
-50.75555837;-7.43525349;-11.79575739;-1.249441967;1.300240025;-1.580155429;-12.54863833;48.404696;20.21759977;17.90244097;22.07778738;2.681013711;2.257518756;4.614022927;9.841145972;-3.00239767;4.813903588;1.739470813;-7.226283024
-62.97177432;-7.179295169;-1.14030486;2.902668105;-0.204887504;-5.130777257;-12.66253442;38.30923549;16.62629625;15.30366182;11.86143518;-4.219033529;-2.302912403;-2.168927028;1.452145293;-3.407986765;2.262799772;1.381384166;-8.227866576
-47.4702352;-7.296269452;-3.412712751;2.519854182;0.036593505;-6.119201169;-12.44588905;9.781249439;17.04128559;16.01748263;2.060540646;-4.119612081;-1.654448966;-5.360971307;1.663946317;-4.091617229;0.415837541;-0.007732639;-9.804593527
-16.31150344;-7.705471559;-11.62308556;2.242699552;1.816360322;-3.970140115;-12.16923744;-28.27225497;20.98768306;20.03028213;-2.491495873;3.597423144;4.158161746;-1.834436943;9.613822767;-4.421012063;0.62257279;-1.677195439;-11.16648569
9.930623509;-8.174784625;-16.75081089;4.059008191;4.037631144;0.266939901;-12.1683416;-59.4742711;27.31132852;25.1748761;-1.141205799;15.2649125;11.4324019;7.354922305;20.29194226;-4.047605048;3.60857015;-2.855319757;-11.92317822
17.67137637;-8.518728802;-14.50458339;6.664899065;5.341102153;4.457837477;-12.53661585;-70.13878213;34.2337541;28.55808492;3.280288344;24.705597;15.7412302;17.22710114;27.70173961;-3.18349049;8.846002486;-3.140039063;-12.16509807
9.156403433;-8.709909817;-7.650493377;7.915655313;4.882847475;6.488659957;-13.04303879;-58.02716224;39.19963898;28.53803756;7.163392614;26.68725183;15.17601656;22.17347041;28.41509087;-2.405706313;14.64814325;-2.630115177;-12.22928183
-1.824521943;-8.82169645;-2.687156433;7.487846572;2.808318224;5.33281988;-13.34760713;-33.37610837;39.59768451;25.80353213;8.599058289;20.03828959;11.42857024;19.85884095;23.32351583;-2.16274691;18.97696587;-1.768974421;-12.38082026
-2.824126123;-8.893563428;-4.026404761;7.112063274;0.166654086;1.53600877;-13.30825866;-11.58764969;34.56413795;22.73814137;8.04169576;8.423196617;8.034065235;12.70046154;16.65037469;-2.418238113;20.44646562;-1.041025927;-12.6563023
7.058602232;-8.878135961;-10.44508246;8.396893396;-1.651582246;-3.088987019;-13.09244393;-3.083606106;26.49953169;21.57504504;7.209697649;-1.835856965;7.376957543;5.816825116;13.06207321;-2.737297724;18.89645792;-0.712576389;-12.94409999
17.98202471;-8.725800675;-16.37182291;10.71815226;-1.619368533;-6.368927688;-12.99607991;-7.626726823;20.39392747;22.78897355;7.47664899;-5.596330474;8.970214649;3.171437086;14.80650255;-2.719491028;15.25676495;-0.743814932;-13.17161726
19.6625102;-8.500774926;-16.57109734;11.56488003;0.440642099;-6.828574333;-13.15054607;-16.65946158;20.5480049;24.94231635;8.966804969;-1.965321067;10.32594447;4.983490562;20.58490076;-2.373744648;10.91357554;-0.882357029;-13.40111681
11.51440551;-8.376040968;-10.25489057;9.220681574;3.788047039;-4.410221988;-13.40133561;-21.03584532;26.81212698;26.00089158;10.66706274;5.354549158;9.476389858;8.254302424;26.62355444;-2.09443942;7.045284763;-0.856764419;-13.74875781
3.422081482;-8.480163417;-1.44661696;5.136301673;7.099938354;-0.52174855;-13.47381934;-17.79816267;33.6982681;24.97952462;11.09251538;10.61124787;6.820824055;9.608882132;29.05833271;-2.271498666;4.274937502;-0.554599362;-14.22357429
6.406996093;-8.741682571;4.374438628;3.308034808;9.0461851;2.63241803;-13.26332765;-11.07674226;34.03161795;22.61912495;8.986906296;9.719268352;4.658554711;7.888528348;26.11388825;-2.904547278;2.672487244;-0.090806284;-14.66511574
21.50468281;-8.91104995;4.43978134;6.642682049;8.883274642;3.159144609;-12.96386718;-7.265216665;25.06225372;20.69901703;3.934296357;2.723441673;4.909981272;4.476944728;18.90049208;-3.582382584;1.92812413;0.268223569;-14.86423889
36.95560307;-8.78067611;0.424727229;13.32496428;6.843029007;0.503529159;-12.90102297;-9.074438794;12.17827949;20.70996734;-3.073845002;-6.478957204;7.21169914;1.531662783;10.5897905;-3.846041673;1.540484898;0.281774394;-14.76698021
36.79286312;-8.414538788;-3.293401179;16.7533805;4.131397833;-4.150945938;-13.21880227;-13.43688574;6.321037746;22.99228116;-9.389118053;-12.78505448;9.252658779;0.064495906;4.628213348;-3.597388472;1.003083027;-0.09448956;-14.5602194
14.0868298;-8.152677605;-3.145233431;9.902880465;2.463637556;-8.392665621;-13.71795493;-14.5879541;15.8231601;26.85014247;-11.37210262;-13.04381587;9.126874468;-0.369342809;3.033830819;-3.175954919;0.023951673;-0.660943932;-14.52550021
-22.13471355;-8.342919498;1.163994402;-8.862078734;3.263820868;-9.814186043;-14.0106469;-9.280335286;38.3238046;31.2397984;-6.230973995;-7.719343869;7.487190003;-0.408651351;5.61052304;-3.038307607;-1.284532306;-1.096218774;-14.75969856
-52.30580998;-9.014478933;6.874970623;-33.17082232;6.877739632;-7.339684339;-13.86236904;0.399040397;59.47675311;35.26345108;5.742238993;-0.220354906;7.27917326;0.327053222;10.33154961;-3.343393921;-2.413895168;-1.177201541;-15.01077277
-60.07340496;-9.795105636;10.50593424;-51.76214309;12.23491719;-1.899337729;-13.4103726;8.77943011;60.8382653;38.14166853;20.17803188;5.380097656;10.97656093;2.931317809;14.5387588;-3.829226525;-2.765430421;-0.94024137;-14.81450235
-43.64491842;-10.18056301;10.29321564;-55.50738789;17.22537429;3.975985616;-13.05214605;11.15307229;32.40195305;39.0322597;30.18827943;6.625119112;17.69817388;7.609872158;16.2569664;-4.086667611;-2.108871363;-0.653543351;-13.87270237
-16.0644949;-9.94888046;7.034990797;-43.38451977;19.67179164;7.457108669;-13.09658291;7.206259391;-18.97956383;37.24342854;30.12558583;3.61905994;23.06885789;12.53208649;14.96223668;-3.960268748;-0.845163885;-0.606924245;-12.38300888
5.264195646;-9.360403556;3.096549874;-23.09847251;18.40215558;6.901962314;-13.49041975;0.692447755;-71.92124596;32.85986042;19.32626298;-1.630019531;22.51155527;14.65723986;11.5120841;-3.689298081;0.202542843;-0.873329515;-11.02242869
11.10623009;-8.952981369;0.643472139;-5.986756208;13.82677988;2.695318963;-13.86859576;-3.968262213;-102.8315221;27.1469559;3.142581702;-6.710934655;15.52242313;12.19337776;7.43196166;-3.654680611;0.390149528;-1.232744183;-10.53629646
5.262183005;-9.095059617;0.41822653;0.030518486;7.696951314;-3.00687726;-13.88475294;-5.045318827;-100.1750656;22.08699736;-9.844768644;-10.06654479;7.144530622;6.583663477;4.07799325;-3.979872201;-0.195694304;-1.330063477;-11.20675646
-1.118924884;-9.682674425;1.678923317;-5.434222247;2.207242781;-7.446763853;-13.523588;-4.094906909;-70.94726042;19.16633972;-12.87659465;-11.3579012;4.752777871;2.014349851;2.171592109;-4.380461117;-0.712084732;-0.951082926;-12.6058797
-0.009345615;-10.24829983;3.041476925;-16.41123899;-1.022535786;-8.673137175;-13.11330209;-3.711188774;-35.06437632;18.37023391;-5.02143381;-11.02595378;12.10159421;2.482685094;1.861153163;-4.423523745;-0.161329093;-0.199136777;-13.85143205
7.32602457;-10.38494718;3.534970533;-25.41273701;-1.531981998;-6.439697677;-13.02914632;-4.762109825;-11.9354428;18.35782821;8.564838945;-9.623607978;25.24038071;8.685940946;3.064873245;-3.960169429;1.790241296;0.569874093;-14.20592623
13.11169243;-10.10357435;3.256938734;-28.03543996;0.057606524;-2.182906573;-13.35860183;-5.613869561;-8.795289149;17.81305304;20.22497868;-7.458765229;33.9689122;17.34509824;5.689450187;-3.312283883;4.407098038;1.00192011;-13.58450853
11.46783086;-9.799491547;3.311509782;-24.3626904;2.596781661;1.819300527;-13.83020515;-3.846933136;-18.5647113;16.82125899;24.65635351;-4.696499891;28.42772261;23.62381703;9.515655286;-3.010913735;6.24728028;0.985213681;-12.59010609
4.49012115;-9.859603987;5.031938842;-17.16169977;5.031553964;3.619923005;-14.06482812;1.278354165;-27.65813764;16.92377747;21.71735223;-1.67647874;6.302652402;24.69639945;13.9155896;-3.306957722;6.072527388;0.693359192;-12.04631932
0.520070801;-10.27578782;8.84849462;-9.21874264;6.773208568;2.52332374;-13.9150863;7.869792367;-27.0111452;19.58981211;15.5408123;0.91901441;-24.70065663;21.55674094;17.78489327;-3.908264386;3.667102955;0.419571732;-12.38039772
6.230431523;-10.63151948;13.52504905;-2.124564032;7.742953583;-0.649843964;-13.58366072;12.73104452;-17.9720615;24.34685862;11.03409202;2.238992617;-51.16820791;17.71463911;19.92861868;-4.209531901;-0.002188881;0.360170039;-13.32090152
19.62834888;-10.48875708;16.5389118;3.126086372;8.217075113;-4.033632797;-13.41993645;13.70802469;-9.420828727;28.34732766;10.52568905;1.684793106;-62.17705835;16.1187733;19.73737972;-3.831115662;-3.358225713;0.526099133;-14.12798534
30.30150412;-9.82619594;15.7699806;5.198259988;8.618119442;-5.681686241;-13.59096627;11.04922254;-9.465154487;28.08856823;12.81682185;-0.70770819;-55.67170264;17.07105545;17.6724927;-2.982668469;-5.076921153;0.823669546;-14.16317223
27.04846371;-9.116408549;11.55137387;2.697190284;9.304388715;-4.569963165;-13.93359587;6.829963676;-18.79052833;22.13534658;14.83683804;-4.196809364;-38.76877059;18.80228517;15.13544796;-2.305564292;-4.660565646;1.186684283;-13.35358186
6.81344443;-8.947054489;7.359456525;-4.339217518;10.35676567;-1.149487729;-14.12049155;3.22485886;-30.63977074;12.6338804;14.22187268;-7.657595786;-22.26179608;19.8201464;13.71349937;-2.313889674;-2.439535759;1.613568179;-12.20623012
-22.22746178;-9.508915003;7.935305552;-13.28874815;11.42007813;2.852211984;-13.97871567;1.224527012;-36.66421071;4.189045779;10.81333604;-10.1383702;-13.63977882;20.52332173;14.25313296;-2.928069303;0.831669582;2.086170434;-11.39151615
-45.81995521;-10.40935879;15.49417455;-19.67874324;11.74077704;5.320376706;-13.65926501;0.684537847;-33.37692615;0.770981726;6.286850625;-11.33443408;-13.49999827;22.42573024;16.35898436;-3.529054954;4.394634982;2.490424418;-11.24566862
-52.958067;-10.99087606;26.64142229;-19.74860604;10.50483514;4.89071669;-13.49807357;1.219824916;-24.08587679;2.995591633;2.664358491;-11.68792133;-17.19030004;25.84348494;18.63969413;-3.500817303;7.666645972;2.667936028;-11.58025257
-42.42278072;-10.88422173;32.88715465;-13.04510129;7.378314423;1.713574635;-13.69881483;2.791477888;-15.38111683;7.920231819;1.077510941;-12.03065286;-19.50859967;28.62508754;19.54021987;-2.78445701;10.22080681;2.581290774;-11.9170561
-22.2446744;-10.31014225;25.47286748;-2.971199422;2.927460654;-2.605818364;-14.13475383;5.424201003;-11.69051252;11.50706372;1.559843083;-12.97101651;-18.46232654;27.6641304;18.25802327;-1.944633952;11.76794555;2.420403804;-11.92088372
-3.420491323;-9.862667712;1.842144318;5.310249394;-1.435093419;-5.87789923;-14.45622291;8.598811842;-12.48689213;11.76092867;3.605105773;-14.41186142;-15.56288978;22.15608843;15.2373635;-1.678525499;12.23987767;2.488615455;-11.66322485
6.909428338;-9.968778745;-30.88021202;8.187503524;-4.074991473;-6.514010013;-14.40614352;11.2670613;-13.94277712;10.03793424;6.709363638;-15.53603769;-13.29516186;15.4571659;12.00595429;-2.198424759;11.86287356;2.909178954;-11.51694151
8.216533148;-10.50897816;-58.64154723;5.771731721;-4.031455035;-4.344335137;-14.05308175;12.70162243;-12.93374636;9.564251393;10.42628004;-15.31325079;-12.50756688;13.18953952;10.44610939;-3.039097;11.04553979;3.408361967;-11.80073998
4.549751193;-10.93743014;-68.46799929;1.456692898;-1.639583352;-0.627895341;-13.72824067;13.31821752;-9.661956255;12.4896093;14.11300664;-13.23593659;-11.97594856;18.54804739;11.8160526;-3.466338247;10.07677074;3.433500735;-12.4909674
0.537598308;-10.78814606;-56.66675106;-0.685035617;1.545600494;2.683163664;-13.72678562;14.40353629;-6.906775345;17.91843412;16.8320002;-9.816941168;-10.10317082;28.72958001;15.93316267;-3.126131775;8.865956817;2.599632969;-13.23997297
-1.236202432;-10.10354195;-31.47730956;1.242753053;3.525921224;3.943680889;-14.04978518;16.7113819;-7.120039063;22.44219624;17.60073799;-6.508621583;-6.823280166;36.11204271;20.92920984;-2.356527246;6.996828043;1.13165335;-13.66688928
-0.352846197;-9.392188267;-8.007355576;5.770209968;2.903345757;2.529132846;-14.42127504;19.19878184;-10.30281259;22.6083584;15.75486041;-5.054099411;-3.857874715;34.03625472;23.85351276;-1.884123644;4.124320584;-0.113650844;-13.65898256
2.575589719;-9.152236659;1.285802839;9.181132094;-0.395678929;-1.016166049;-14.55665981;19.37108578;-14.4734279;17.29793335;11.11635768;-6.621988126;-3.196939236;22.78706946;22.05933289;-2.176366687;0.419683391;-0.171701492;-13.42893213
6.615638809;-9.397215097;-5.928889881;8.068608591;-5.083512661;-5.312797604;-14.42602944;15.36428763;-17.88045903;8.286719644;3.978680598;-11.18754365;-5.318177856;10.45381325;14.81372555;-3.027113204;-3.328314887;1.295407232;-13.29605995
10.48329539;-9.626531635;-21.45080535;1.681802804;-9.125968732;-8.693092966;-14.2655785;8.121579034;-20.52477773;-1.104605974;-4.808724621;-17.4605141;-8.759690703;7.052718489;4.207232732;-3.74176638;-6.094904769;3.633041212;-13.39646551
12.71534022;-9.284208513;-33.11257417;-7.308049006;-10.65745964;-9.748988872;-14.33133859;1.54179273;-23.45722841;-7.924896528;-13.55563744;-23.36307045;-11.30058558;15.93242423;-5.416527596;-3.750727821;-7.216720574;5.550940511;-13.57572936
12.65235925;-8.302971413;-33.29118341;-14.04484342;-8.779286812;-7.807286957;-14.63446277;-0.01102596;-26.71164002;-10.64766362;-19.63753625;-26.82331511;-11.57059939;29.38301928;-9.519409768;-3.099393326;-6.738227995;5.999758913;-13.54737602
11.43494898;-7.240152262;-23.29362025;-14.1013901;-3.956203098;-3.281954876;-14.91548787;4.909950794;-28.22722075;-9.058307233;-20.18519389;-26.56714508;-9.707952181;32.74601309;-5.902587228;-2.379466234;-5.239279057;4.917395043;-13.16859032
11.55977412;-6.863128297;-10.99821298;-6.121491693;2.096523517;2.258433595;-14.88837777;13.39723876;-25.2191059;-3.745510589;-13.62930904;-22.62807188;-6.747512906;14.83734267;3.842300377;-2.171669449;-3.313796656;3.250961218;-12.59275678
14.7288739;-7.525721318;-4.248027159;7.004255223;7.012786598;6.529234601;-14.52614818;20.17484257;-16.98905903;4.015095453;-1.232515974;-16.37696797;-3.602099962;-22.81632847;15.05217183;-2.507679927;-1.162918575;2.211913913;-12.17516941
19.74450456;-8.864792272;-5.30885062;19.34489126;8.721496131;7.505031125;-14.11320944;21.63651034;-6.49578919;12.09436939;12.73087789;-9.993038465;-0.664437332;-65.14767629;22.6348325;-2.837544895;1.350488596;2.339387919;-12.21971071
22.82164639;-10.07328798;-10.27959374;25.19013751;6.43327364;4.556734035;-14.00283588;18.66138283;1.174607241;17.86747751;22.82170456;-5.500178468;1.823485158;-92.36232962;24.05106163;-2.531765637;4.266215363;3.117266373;-12.77445634
20.78933786;-10.51504783;-13.15221435;22.64007813;1.206652892;-0.937815954;-14.29527653;15.76996163;2.574913923;19.51198046;25.47230495;-3.762377198;3.390186831;-92.42882092;20.70487611;-1.468130931;7.144928383;3.452264523;-13.6214754
14.66899215;-10.16798108;-10.75695497;15.16548742;-4.334160541;-6.072352342;-14.73400746;17.23015611;-1.170770762;17.48445437;21.19666258;-4.003956059;3.643804038;-68.44384328;16.79940182;-0.180169306;9.132314294;2.617864889;-14.43494552
9.986654896;-9.550296616;-4.695524668;9.669446112;-7.199546085;-7.923467412;-14.92385624;23.41034261;-4.948451839;14.71219636;14.23196204;-4.271952736;3.03272485;-35.8454417;16.41019541;0.563864091;9.452978178;0.881520484;-14.96137412
12.5224514;-9.236743792;0.724767728;11.79957659;-5.649914604;-5.293338181;-14.68023791;30.57610812;-3.60705927;14.77232856;9.617318131;-2.733846454;3.059509142;-11.89826414;20.73466001;0.381246709;7.913199112;-0.708877104;-15.09985122
22.43095066;-9.404428034;2.262008447;21.44425133;-0.309026035;0.427442582;-14.19459284;34.35870666;3.763236064;19.0903877;9.684488079;0.925048677;5.302040363;-5.249921733;27.32789025;-0.440783647;4.966471495;-1.203366204;-14.87902301
31.99437234;-9.780256425;-0.059249655;31.76401979;6.014817043;5.944791931;-13.86424109;33.78768751;12.73678988;25.40140826;12.53440277;4.99282585;9.845306087;-12.66380846;31.75160022;-1.22357633;1.286924016;-0.556207894;-14.41037758
30.06436434;-9.979572533;-3.780154829;33.04463195;9.866491052;7.98589361;-13.93855351;32.07962477;16.68798291;29.0617995;13.69898692;6.653499621;14.62394206;-24.13844271;30.45415394;-1.471275012;-2.745408328;0.325811585;-13.86907504
10.74923867;-9.885930739;-6.592902492;19.2654316;9.200327375;5.300295799;-14.30046954;33.13712235;11.81054536;26.55788773;9.806758671;3.915639132;16.65029885;-31.38437286;22.98925591;-1.234117346;-7.144833033;0.350773162;-13.46651496
-20.36627323;-9.723244586;-8.140736705;-7.013908351;4.664141465;-0.540085449;-14.57959484;36.69083765;0.151141621;18.55039902;1.51276937;-2.713051671;14.4222327;-32.86785231;12.27255951;-0.969341738;-11.88082168;-0.803198126;-13.35186753
-48.16773166;-9.787663467;-9.598742215;-35.11664787;-0.777759316;-6.072819277;-14.49198977;36.68859571;-11.64086703;9.866458812;-6.544635347;-10.08148914;9.483621654;-32.30478153;2.921820098;-1.065824037;-16.309301;-2.343388458;-13.46426148
-57.70463163;-10.127684;-11.81956041;-52.20625938;-3.71252065;-8.025225048;-14.09699412;25.16127011;-16.81696713;6.165939239;-8.799186399;-14.10444506;5.542352434;-33.16702167;-1.165347512;-1.481234669;-19.08859725;-2.936436764;-13.46979296
-44.72548119;-10.49020545;-14.07122205;-50.98610154;-2.455996236;-5.235687908;-13.73923135;-0.894216782;-12.88451495;9.748186643;-2.649163605;-12.32550946;5.594510923;-34.67764746;1.370340616;-1.806973949;-18.84385196;-1.759836143;-12.91562713
-18.84162309;-10.57585587;-14.63742561;-34.01560404;1.884213147;0.74722086;-13.73192613;-35.14846375;-2.793336238;17.80083006;9.556597233;-5.611956528;9.420039063;-32.78855411;8.903056739;-1.669726449;-15.1961604;0.802055015;-11.56908286
3.474126698;-10.34177811;-12.6472006;-11.78350862;6.155488854;6.671241;-14.07210392;-64.23793915;7.465691112;24.51634114;21.75509749;2.253352042;13.75567072;-24.83449052;17.69757157;-1.080271371;-9.369366492;3.369502602;-9.706086064
10.81735378;-10.04673658;-9.281739274;4.015215797;7.206769059;9.481345645;-14.4460584;-75.81908159;12.7;25.40851712;27.68302345;6.894908121;15.22183507;-13.24079089;23.55345536;-0.413494132;-3.799548601;4.52162443;-8.073621239
4.425350368;-9.988589307;-7.075631279;7.35280568;3.879976898;7.941385981;-14.51657569;-66.71695547;11.06985964;20.42670526;24.31345812;6.044959595;13.51980562;-4.607918572;23.56160281;-0.060486731;-0.875604471;3.760280025;-7.463726552
-4.419358998;-10.1891943;-7.814145603;0.438896993;-2.319314512;3.103352775;-14.22747567;-45.02721075;4.160234622;13.53949929;13.18993124;0.811432642;11.88116366;-4.698069351;17.38825501;-0.091892752;-1.599533571;1.775246058;-8.162138214
-4.672289364;-10.34197239;-10.87016817;-9.182744817;-8.213284093;-2.475863147;-13.84909136;-24.43887895;-4.615587959;9.397304672;-0.780907946;-5.274770773;13.97626809;-13.54902148;7.583543117;-0.24008728;-5.055538023;-0.129440623;-9.694813918
5.242218458;-10.09174869;-13.508903;-14.37207443;-10.8640151;-6.16936044;-13.72799523;-14.95992902;-11.69039501;9.96425285;-11.96880844;-8.660936928;19.72453689;-24.94314266;-1.388035356;-0.192991578;-9.034318787;-0.954917162;-11.11430198
16.91618086;-9.395578107;-13.00534221;-12.76204623;-9.163280705;-6.535070534;-13.97353067;-16.94068158;-14.27983695;13.74141512;-16.48315172;-7.907162587;23.83729654;-30.831347;-5.19882243;0.098275784;-11.38232097;-0.57845105;-11.65237446
20.26835964;-8.621695619;-8.85523968;-7.113350489;-4.208860187;-3.822502873;-14.36662155;-22.6129233;-10.92898324;17.76082781;-13.42909679;-4.178275364;18.99083416;-27.2056172;-1.909459727;0.390933221;-11.20331506;0.372571757;-11.2482536
13.16249626;-8.27363233;-3.261224781;-2.182921561;1.55913846;0.354077715;-14.56830052;-23.44404907;-2.23253119;20.17363571;-4.83947813;-0.009312245;1.647625778;-16.7877911;6.844809102;0.411853319;-9.215921531;1.127264845;-10.52909016
3.678571675;-8.569570433;0.502990788;-0.926759941;5.754964904;3.8775817;-14.43092119;-17.19599063;8.573001195;21.06667894;5.308592145;2.52477288;-24.04654805;-6.593964314;16.60014195;0.139057341;-7.175487451;1.324379946;-10.24883724
2.797584668;-9.246955048;0.530194669;-2.773004778;7.118583209;5.089145566;-14.12599676;-9.154062994;16.23816064;21.14539985;12.5647493;2.8682721;-47.78414962;-2.566687947;22.48058318;-0.175478176;-6.831524697;1.121490957;-10.64210534
13.77287537;-9.768181761;-2.399232544;-4.724486095;5.805333409;3.475336283;-13.97673248;-6.943713835;15.95914876;20.10653357;13.63711669;1.719936027;-59.40970568;-5.589218147;21.88012379;-0.257382702;-9.049370066;0.891213252;-11.23473806
27.69113846;-9.750058594;-5.581139862;-3.956588975;2.993642821;-0.14368873;-14.15587408;-13.55866022;6.618222018;16.75066539;7.748473271;-0.000540589;-55.5088671;-11.71616774;15.73774434;-0.077765778;-13.47196383;0.851571934;-11.27838348
29.71818353;-9.247413585;-6.543847784;0.137802125;0.216953194;-3.982716227;-14.52877202;-24.47383757;-7.572688001;10.92150737;-2.90656672;-1.914044969;-41.34446081;-15.85809278;7.647488224;0.135801886;-18.71928175;0.948048595;-10.4429947
11.3897537;-8.659197074;-4.869861314;5.682249501;-1.227077006;-6.090171185;-14.78157507;-31.14624987;-18.86941859;5.150202379;-14.06604478;-4.085553923;-26.73756463;-15.5636278;1.522215286;0.15970138;-22.90698959;1.015071619;-9.164935676
-21.1836773;-8.363899945;-2.297509757;9.671503398;-0.658670227;-5.265832156;-14.70960207;-27.89635235;-20.67184459;3.735225012;-21.44316856;-6.380219866;-19.15128631;-11.97678699;-0.542375775;0.042016501;-24.27350629;0.989929367;-8.328191267
-50.36453063;-8.417912281;-1.081309722;9.904707997;1.804595531;-1.68280664;-14.39757618;-16.49214923;-12.03667611;9.314520994;-22.86671754;-8.087788518;-19.25517265;-7.817058598;1.122962024;0.092941774;-21.78522169;0.952955875;-8.529030926
-59.34998261;-8.570712496;-1.905040886;6.399525587;5.285897656;3.121190461;-14.13057098;-4.788830993;1.383021892;19.73836252;-19.23167448;-8.315543538;-22.03521896;-4.731763348;4.743585625;0.580497366;-15.58818213;0.984189733;-9.550190599
-44.2276016;-8.548469566;-2.973644396;1.611798424;8.467230413;6.936300192;-14.1271064;-0.665302013;11.00755499;28.48971089;-13.64829712;-6.843524878;-21.97738875;-2.480191704;8.596802939;1.415978385;-7.108177415;1.024252206;-10.51180263
-16.27743865;-8.320359171;-1.088997403;-0.719015207;10.16540007;7.949934358;-14.34657812;-6.171981227;11.19308649;29.18894179;-9.3772406;-4.605854233;-17.76763372;-0.297216074;11.81806125;2.151556755;1.370176106;0.913821512;-10.59243871
7.037445426;-8.102479806;5.86108305;2.242409234;9.937940841;5.657772106;-14.54537906;-16.37913857;3.064334444;20.96165624;-7.962947678;-3.216417132;-12.76841197;1.404453219;14.18703894;2.33292488;7.584974409;0.588527952;-9.714173254
14.92611012;-8.119946303;16.61029674;10.17488567;8.354242587;1.137092116;-14.51819177;-23.4762601;-6.513970827;10.03641293;-8.768902565;-3.790058594;-11.35820223;1.035819404;15.54657088;1.906053881;10.25437471;0.229456125;-8.601636931
9.791023695;-8.377715103;26.08999214;18.72319592;6.687827643;-3.47154034;-14.2893785;-22.59182392;-10.04883387;5.540379069;-10.03256853;-5.985753579;-14.68660099;-2.305120411;15.68867134;1.298192781;9.572495561;0.191795534;-8.157660605
2.886286173;-8.667941947;27.55252569;21.13189063;6.144997226;-6.01455537;-14.07403809;-14.82300771;-4.797237753;12.27458813;-10.45498669;-8.100533986;-19.60445765;-7.032679796;14.82700527;1.071497964;6.918662637;0.73717162;-8.692404676
3.641941447;-8.797153592;16.36840046;12.13061713;7.093345095;-5.375952894;-14.05327119;-5.584665464;5.512317916;26.25626521;-10.07153152;-8.22416801;-21.49998635;-9.467323639;13.95637904;1.439747992;3.944698658;1.786846109;-9.676393062
12.00972241;-8.794112825;-6.623064351;-8.024863109;8.803817128;-2.005902395;-14.18711112;-0.175479407;13.68217956;37.14273826;-9.861750611;-5.601693015;-18.30838099;-6.586076411;14.37373436;2.081358605;1.632029331;2.912777446;-10.23229719
19.95018387;-8.878083099;-34.438949;-32.27286159;9.896421323;2.323962838;-14.25063988;-0.286899955;14.31125732;36.23669002;-10.60336452;-1.170526815;-12.09855625;1.074691472;16.50203818;2.429839792;-0.062063837;3.590444871;-9.927266598
19.97635752;-9.209639291;-56.85464456;-49.84754278;9.202300999;5.406418864;-14.06079744;-3.837056315;7.386929953;23.89747608;-12.00274057;3.110172542;-6.990861961;9.078432294;19.07443304;2.19294779;-1.771985051;3.525393001;-9.154752811
12.67125892;-9.674301348;-65.60416901;-52.42941776;6.476187338;5.685688798;-13.67266547;-7.504038625;-2.176603063;10.05942542;-12.7886127;5.581494079;-5.481216461;12.03689043;19.70021702;1.634410691;-3.880648155;2.818305127;-8.755054585
6.343661264;-9.934320627;-58.89919479;-39.46096543;2.518557333;3.012796127;-13.34749974;-9.346262502;-8.270955875;6.714123983;-11.62283275;5.844374829;-6.537677705;7.721553727;16.69718711;1.354334826;-5.935771665;1.878215573;-9.209101325
9.157405455;-9.729848361;-42.35764704;-18.77991098;-1.309371443;-1.30171631;-13.31191132;-9.4184693;-7.588762595;17.77522471;-8.082620999;4.710863107;-7.034811821;-0.994860776;10.79239509;1.753252188;-6.789312029;1.187533686;-10.14050901
20.80714029;-9.156636357;-25.53323381;-1.74907881;-3.799933898;-5.163634875;-13.5332575;-8.484678723;-1.143129202;34.3892782;-3.02553318;3.343211121;-4.963470311;-8.090826932;5.112760836;2.656520302;-5.373416018;1.0965745;-10.6044922
31.30350304;-8.643122812;-16.14554016;3.951411095;-4.383223447;-6.757082162;-13.73165446;-6.621308016;7.2098981;40.04806029;1.81234729;2.374539842;-1.304137215;-8.808378932;3.161361305;3.441270564;-1.547529071;1.740255541;-9.938135535
28.35121313;-8.614503877;-15.78776238;-1.170808116;-3.173889141;-5.445359381;-13.6314764;-3.239998218;13.58097955;22.40086456;4.628896646;1.692964921;1.147366959;-3.045080192;6.216345496;3.561788385;3.604013092;3.038657429;-8.417679674
7.444930357;-9.126681708;-19.95915105;-9.7751669;-0.718651632;-2.04323139;-13.22553314;1.665921119;16.01719889;-16.78950589;4.307179026;0.9138761;0.74701967;4.926838213;12.25527906;3.011057873;8.250986995;4.705456428;-7.103759528
-23.58027239;-9.800377371;-22.21594998;-13.70352153;2.26395517;1.6682021;-12.80183005;6.619501633;14.674208;-61.17369058;0.839673103;-0.025857737;-1.206384004;10.04325315;17.38767967;2.311001012;10.76181821;6.265655407;-6.962206166
-49.32305641;-10.1291414;-19.24660174;-9.984088243;4.990425222;3.8986087;-12.6955482;9.342134685;10.82500448;-89.65476486;-4.623416444;-0.738824316;-1.670713954;10.29956683;18.72418989;2.044891943;10.5091181;7.164060381;-8.011501547
-57.22432444;-9.900752112;-13.05842494;-2.327876175;6.654137629;3.744892634;-12.9852596;8.600078125;5.929635386;-89.79696071;-10.10085121;-0.795948214;1.064228658;7.772837799;16.37849216;2.353679081;8.06630168;7.007029782;-9.265250358
-45.65679244;-9.364690237;-8.774749397;2.685575336;6.599440477;1.561802206;-13.4130573;5.481158205;1.349868206;-65.44321245;-13.48162448;-0.20739038;5.450823854;6.242643967;13.01118155;2.84491299;4.752299939;5.831441146;-9.562781484
-23.94454344;-9.001331473;-10.02128703;1.318864676;4.675877143;-1.329988044;-13.61018678;2.735425491;-1.655041944;-33.43961322;-13.44794077;0.548232053;7.945883706;7.72872598;11.41841917;2.985226537;1.877873426;4.185036003;-8.589476663
-5.049434299;-9.102396995;-15.7565229;-4.453157948;1.54838905;-3.365570636;-13.42965357;2.57913656;-2.241534171;-12.20022513;-10.19106428;1.004707167;6.455894788;11.02279257;12.31806778;2.608595088;0.156525688;2.877062739;-7.187173759
3.021512469;-9.536457144;-21.13510578;-9.067203248;-1.382509404;-3.47336983;-13.08285401;4.864453497;-0.575833035;-10.37598158;-5.399187409;1.218895688;2.706533481;13.33065412;14.21333362;2.071632459;-0.453171139;2.501356268;-6.650495433
0.913976402;-9.899402728;-21.60682757;-8.38940917;-2.600399929;-1.496983758;-12.94966156;7.295174887;1.970131586;-23.19917638;-1.352817674;1.743102103;1.046537102;13.26865558;15.25060364;1.914772678;-0.515997493;3.052501524;-7.596799458
-4.900435543;-9.898483181;-16.75029574;-3.19587055;-1.370690305;1.79952725;-13.22812989;7.548324068;3.552464726;-38.06207734;0.377315894;2.969203437;4.455870293;12.26729007;15.12872831;2.344433086;-0.734914656;3.939737122;-9.398401381
-8.070960052;-9.612027498;-10.58795622;1.815927608;1.656800792;5.052703818;-13.74080472;5.39431078;3.154805743;-44.31940003;-0.285452292;4.387748721;11.33770046;12.99191794;15.11406766;3.018684742;-1.633664219;4.425115146;-10.69708211
-6.490129783;-9.392187495;-8.127469606;2.455675843;4.639813941;6.8027652;-14.07840693;2.858020524;1.361302884;-39.98213723;-2.279254356;4.510908121;16.3122055;16.27603905;16.132333;3.343231288;-3.387873136;4.177295917;-10.56972388
-2.17837813;-9.514717898;-11.08416953;-1.097370326;5.555635081;6.060207748;-13.95804687;2.244355025;-0.199205381;-31.1491581;-4.620205538;1.748187255;14.76516234;19.62003906;16.96544567;3.015737733;-5.771215272;3.519150287;-9.317041392
1.685014195;-9.913288536;-16.42332649;-4.445375233;3.482117232;2.804645224;-13.4766143;3.86591917;-0.360960893;-25.78541057;-7.409999992;-4.268463594;7.315437695;19.02486999;14.73744227;2.322320661;-8.179836176;3.168809039;-8.157408237
3.449283139;-10.24985441;-18.93445271;-3.010048828;-0.670391314;-1.793958984;-13.03058788;5.673372844;0.481592168;-27.28863423;-11.6373909;-11.89392003;-0.014695991;12.84693174;7.767681706;1.906356841;-9.762608164;3.666625084;-8.082443664
3.500371681;-10.25021125;-15.60260067;3.63256788;-4.524847116;-5.667443993;-12.97161683;5.276372474;0.812162922;-32.61822013;-17.78794921;-17.94;-0.668299665;4.23051838;-1.674015922;2.204047454;-9.705636148;4.93041858;-8.914540023
3.111841967;-9.979340118;-8.044463939;11.04502837;-5.579637281;-6.715812717;-13.30424493;2.553210058;-0.299636089;-35.6695015;-24.43932148;-19.28589764;6.308775861;-0.452576556;-7.681472892;3.04579687;-7.633082202;6.283246869;-9.472250858
3.323250281;-9.785442571;-1.005647806;13.65847071;-2.759426348;-3.942078433;-13.69381162;0.304222047;-1.805140655;-32.55966253;-28.28424438;-14.68371849;14.21222922;3.609198367;-4.708956793;3.78155156;-3.945215966;6.929302629;-8.764218536
4.722223793;-9.956037962;1.662889794;9.844294578;2.783542982;1.772379277;-13.77363176;2.022614862;-1.120629964;-24.53524458;-26.00729651;-5.617513958;13.05551589;15.41615701;7.550291927;3.826609046;0.149744416;6.511211989;-7.142447251
7.598839363;-10.40958679;0.014291224;3.894780177;8.164357194;7.848183716;-13.47326898;8.512804576;3.636510925;-16.60689062;-16.86064641;4.356463454;-2.580479178;28.16722336;22.61735304;3.154270849;3.042459253;5.33553386;-6.261930155
11.65936329;-10.72564012;-2.518680816;2.912146813;10.33068898;11.24688451;-13.074735;16.40146784;11.4338566;-13.49249217;-3.948176883;11.42296512;-28.37996172;33.96444885;31.02068991;2.311378741;3.445043398;4.125669006;-7.67502778
15.51532861;-10.50776848;-2.504875614;10.83223253;7.814843875;10.17100108;-12.95192747;20.22901178;18.26514281;-16.23864024;7.049182971;13.4327947;-52.20854042;29.71853369;27.0953704;1.953653256;1.066285885;3.520801385;-11.14687052
17.04896631;-9.759398597;0.428934605;24.3397753;1.652225699;5.209015416;-13.2336078;16.77076052;19.7565444;-21.8993657;11.12352513;10.88127557;-62.04775672;19.52627766;13.56529104;2.312406161;-3.166157058;3.701000477;-14.20844051
15.13042876;-8.92624599;3.629987653;34.15984989;-5.086521754;-0.863400937;-13.6941608;8.094225528;14.62565893;-26.04955673;7.015736483;6.467527368;-54.09467399;11.46013378;-0.048802988;3.047942286;-7.519834281;4.377584242;-13.59875317
11.42259578;-8.550994407;4.374785961;31.11951522;-8.912276974;-4.613214961;-13.96476932;0.581403306;6.166749908;-25.90035051;-2.043373335;3.544667001;-34.98399311;11.23251217;-4.396036982;3.590176012;-10.31845556;5.088405383;-7.709709897
10.09523218;-8.833344882;2.833336375;12.69147238;-7.797482512;-3.932075454;-13.86621586;0.323877594;0.265346672;-21.7616531;-10.4659785;4.308580623;-16.66658525;17.85080162;2.652725356;3.63966934;-10.77307596;5.531331444;1.811548681
14.64599487;-9.475384491;2.096473806;-14.70083929;-2.29252843;0.738537355;-13.55866759;8.367872747;1.185248582;-16.21771289;-13.81698564;8.641073892;-8.095606259;24.85394985;14.54234024;3.382314793;-9.304545342;5.699159381;10.67473798
23.88522933;-9.939479574;5.078849382;-39.27125412;4.721853015;6.692428208;-13.37659717;19.63233839;8.297319243;-12.11803793;-11.29603777;14.16566737;-10.02475303;26.13356544;21.50356845;3.251717126;-7.179834123;5.778990989;14.52645988
30.80622466;-9.883970994;11.1550108;-50.84660424;9.508246345;10.56156067;-13.50682403;26.52168501;16.36249996;-11.01489253;-5.652534206;17.49412346;-16.34909835;21.43028767;18.61516706;3.487611314;-5.702947868;5.958043474;11.72968917
26.45090268;-9.397879893;15.87428044;-46.53869491;9.39260911;10.24166445;-13.8086534;24.51604942;19.28053434;-12.87479694;-0.893744896;16.07754371;-20.0892328;16.68114295;9.790277011;3.909484066;-5.463215114;6.299618256;4.360447192
6.77820386;-8.85318959;14.449119;-31.60798657;4.135535749;6.003000977;-13.94072801;15.40548366;14.50821743;-16.70202737;0.397894801;9.74402493;-18.76403476;18.57983746;4.177850566;4.107698427;-6.079961394;6.74097532;-3.27
-22.65661006;-8.542249177;6.209261127;-15.44438346;-3.94123308;0.212197663;-13.67591223;5.700334385;4.826692271;-21.19079837;-1.673792409;1.071615115;-15.06559883;27.67472208;7.722840407;3.860624082;-6.545806518;7.15195749;-7.454811418
-48.55784009;-8.445625458;-3.964158683;-5.698422828;-11.12832974;-4.058923194;-13.11408514;1.593562538;-3.781420517;-24.93846817;-5.018505499;-5.742646228;-13.10268466;35.94994584;16.87404224;3.379693132;-5.897504246;7.380823675;-7.250568037
