Channel 1 - P4;Channel 2 - O2;Channel 3 - P8;Channel 4 - T8;Channel 5 - C4;Channel 6 - Cz;Channel 7 - Fz;Channel 8 - F4;Channel 9 - Fp2;Channel 10 - F8;Channel 11 - Fp1;Channel 12 - F7;Channel 13 - F3;Channel 14 - C3;Channel 15 - T7;Channel 16 - P7;Channel 17 - P3;Channel 18 - O1;Channel 19 - Pz
1.626774664;182.4850471;62.04528435;46.45895714;114.6232161;6.455269304;88.39932341;16.49221795;94.75772307;117.6834847;14.23435989;11.59157357;3.2961887;58.73162768;94.74772286;112.0926488;30.819715;8.441966818;35.34919994
8.557713523;141.8801449;51.41802378;39.16933277;73.94454024;7.946014876;70.33071234;11.62703597;82.22751408;103.080383;18.52072964;-2.866722752;9.228539462;18.65269436;64.9533724;85.18187743;33.32551535;-42.30249314;11.34003906
9.156331646;52.57588105;23.7963809;16.68111172;7.18766743;6.307434203;27.56850867;0.810530084;41.73118064;50.04394403;17.32737172;-16.65257094;11.94818515;-27.45812265;7.132939124;29.739929;22.848571;-65.33732526;-12.47014563
3.212638011;-34.38912587;-1.825326436;-7.070665304;-44.93677493;2.624332888;-13.94784238;-10.44365629;-3.246391019;-8.643071044;10.32990837;-24.61675313;9.501235025;-52.10904388;-44.02079805;-21.56192642;5.886798211;-49.3574199;-21.87043684
-4.949652817;-74.42399771;-9.753258801;-18.26975543;-55.18793655;-0.798519475;-31.81709238;-16.37833457;-29.20018769;-39.59356034;0.515451271;-24.9950349;3.772271942;-44.15862939;-61.44528842;-43.00896099;-7.962306833;-8.893941309;-13.45558018
-9.70787437;-58.11501511;1.853760427;-12.35196572;-26.85637755;-2.055528326;-21.81531834;-14.87601104;-28.11205557;-31.48052219;-7.91717435;-20.13716006;-0.941299789;-15.58641207;-43.13216153;-31.60865372;-12.34657637;27.37465652;3.772238812
-8.228489249;-13.22038043;21.26835177;3.796673005;11.93656953;-0.887316403;1.495129049;-8.538337704;-10.64805451;-0.398837526;-12.36706457;-14.59973453;-1.285919926;8.94157273;-10.51444513;-5.389840611;-7.723706618;37.72946435;15.91227407
-2.311670819;19.62228674;33.3116471;17.75433459;30.90289955;1.33707523;17.57341315;-2.321873616;4.291457303;24.95707591;-13.26134468;-12.08953917;2.50292112;11.09531625;9.611907722;12.66490078;0.086171924;21.77218733;14.674371
3.287465008;17.44114293;30.87129423;20.74512891;19.22071772;2.796371211;15.45394954;0.224943894;4.5683544;25.71917685;-13.14823281;-13.43701454;6.764874625;-8.305303938;4.884593844;11.58160305;4.766850886;-2.136588018;2.800474602
4.595172353;-11.43463858;18.97902191;13.18599048;-9.617346462;2.579426041;0.163694759;-0.867174166;-7.434373684;5.353300543;-14.32317848;-16.82626822;7.253315011;-31.92210293;-15.9689464;-2.331379619;3.884015953;-12.99936979;-9.297718165
1.25803719;-38.93030181;9.125484407;2.958898687;-31.4534661;1.199702978;-13.80981757;-2.909183284;-19.35143482;-16.30528742;-16.94029609;-19.73958077;2.405996149;-40.75457712;-33.14158212;-14.00997792;-0.299928337;-3.371505825;-12.35869345
-3.591249946;-42.14489818;9.306866301;-1.489709299;-31.1849085;-0.029829016;-15.42690278;-3.458984908;-20.58607546;-20.99701211;-19.07623492;-20.90641607;-5.485147855;-28.79220759;-32.81296757;-13.17826812;-3.593575622;16.81678883;-5.248232823
-6.081606931;-20.68;18.09465915;2.520367199;-12.8581702;-0.145425178;-5.495557012;-2.572636051;-10.99480272;-6.642268008;-18.59364034;-20.82102403;-12.02336043;-6.174925211;-17.19493994;-1.491975063;-3.540956771;30.50409434;5.161181166
-4.617808788;6.328790366;26.96103058;10.80772462;6.364333276;0.753936111;5.598510886;-2.521347016;0.209933974;12.70460967;-15.21084203;-20.74;-13.90515518;10.48076492;-0.518638531;11.3141573;-1.003376679;28.2383815;10.4092908
-0.812223859;18.58062347;28.02735427;16.60424495;11.5749258;1.73862819;7.765499863;-5.393837899;3.347031537;20.1104437;-11.05789058;-21.29816072;-11.07269325;11.69657534;4.120087891;17.21611708;1.24300854;15.09236267;7.421051456
2.169804099;11.53690868;20.32588648;16.2008476;1.537283843;1.92406439;-0.257809227;-10.83003906;-3.325384623;10.20617947;-9.248519482;-22.00374519;-6.309350437;1.49031388;-4.680120233;16.36371414;1.268084582;4.823934741;0.358200621
2.267793687;-1.95695615;9.63019311;11.40265215;-12.38297321;1.200650242;-10.6816592;-15.94916984;-12.78902713;-7.181736384;-11.59377147;-21.9245634;-2.855532993;-7.831067321;-17.01578262;15.09617116;-0.41189094;7.202423525;-3.663804581
-0.035450375;-5.056276654;2.739663445;7.290837822;-17.27517542;0.233682273;-14.14773631;-17.57154036;-16.0989566;-16.37514318;-17.2521746;-20.76859772;-2.083667368;-6.970261691;-21.47151865;18.44474303;-1.627693303;19.64329789;-0.892939792
-2.509296847;7.613150055;1.606696109;7.653110334;-9.488497082;-0.185532175;-7.93064309;-14.83195362;-10.40223243;-9.454328096;-23.35056669;-19.28315084;-2.995844506;2.894430717;-15.10603584;24.67391635;-0.804304347;29.96812556;6.142557129
-3.293253934;25.93198881;2.246955963;11.97451028;3.580630952;0.176765253;2.142275608;-9.959578031;-1.141088511;7.459008906;-27.05991063;-18.60997847;-3.662903652;12.28572801;-5.160474664;26.87734971;1.443560683;27.39233242;11.28185852
-2.418022215;34.27980879;-1.172639905;16.15613988;11.01289586;0.859981369;7.173948006;-6.585627884;3.065242618;19.93457044;-27.51225024;-19.23454822;-3.154509103;12.46966557;-1.811765655;19.79678265;2.752237483;12.08931329;10.28162027
-1.484266912;25.79890553;-11.08178825;15.93705734;7.777919804;1.180230592;2.860385707;-7.02288437;-2.034070126;17.40114641;-26.13914868;-20.53276436;-2.281035171;3.050728658;-8.975851612;5.289801561;1.035670401;-4.695402328;4.360087891
-1.928275315;8.17256738;-24.64407108;10.05976813;-2.037549592;0.845493688;-7.306014559;-10.75377665;-12.99330005;1.288032082;-25.29296469;-21.34846097;-2.644371732;-8.258757612;-21.23900085;-8.652944536;-3.672496475;-9.808705916;-1.138113211
-3.506539024;-3.61284733;-36.43029197;0.884222429;-10.07259932;0.16955172;-15.61068398;-15.24468434;-22.1093868;-17.17483299;-26.3325297;-21.08348756;-4.980996329;-12.86683362;-29.0803406;-14.41734782;-9.081292899;1.187513046;-1.515490755
-4.372123735;-0.457967945;-42.75183079;-7.524737042;-11.43641435;-0.265345675;-16.85528049;-18.20882661;-24.16268309;-26.78403118;-28.68444649;-20.3216575;-8.316189811;-8.740785474;-27.25156145;-10.92799772;-12.25276909;20.60383025;3.317634838
-2.685068103;13.47192979;-43.7034753;-11.96344222;-8.334379882;-0.1538325;-12.28855944;-19.30832441;-20.39341129;-25.0824767;-30.52689192;-20.43399336;-10.66198701;-1.578122537;-18.86476695;-4.079108461;-11.62310635;34.83560994;8.983911044
1.642040881;25.13517888;-41.49977076;-11.43513749;-6.939782918;0.278372882;-7.69765069;-19.93681712;-16.50276781;-18.97842915;-30.42752099;-22.51105293;-10.63843135;0.872380459;-12.01721484;-1.294279085;-7.918523521;34.7848476;10.50212308
6.583580491;24.15285148;-37.23790402;-6.845570091;-11.06617123;0.517681685;-7.905072996;-21.496113;-16.93689834;-17.64849125;-28.55850517;-26.52134067;-8.644026116;-4.110048828;-12.46373865;-5.204923088;-3.471764597;22.10647357;6.397796679
9.382891438;11.08052569;-29.48628773;0.02777435;-18.6397832;0.254976936;-12.78521041;-23.87129814;-20.8367114;-24.45672762;-26.53291201;-31.33557937;-6.62635497;-12.10145426;-18.97380607;-11.9335692;-0.688107682;6.818264389;-0.365818716
8.591231658;-4.318805335;-16.08808246;7.239496444;-23.89601602;-0.327881994;-18.08514328;-25.51037277;-23.20142344;-34.71857515;-26.06126002;-35.47205434;-6.671768603;-16.01533885;-25.13651366;-15.13929689;-0.85253235;-1.061212295;-5.140679273
5.149130376;-12.27762122;2.655545558;12.87885129;-22.84312681;-0.724841887;-19.79407097;-24.96609974;-19.92046263;-40.50143539;-27.56086194;-37.85120228;-9.53987366;-12.87319049;-25.45620149;-11.90125399;-3.906251404;1.185034451;-5.422052253
1.677052289;-10.92132603;22.6290711;15.34376174;-16.80749214;-0.558889352;-17.76983972;-22.39655778;-11.88686986;-37.60608285;-29.83504014;-37.99209475;-14.21612037;-6.660864197;-20.01700794;-5.185644921;-8.918607722;8.167510165;-2.48696632
0.553932898;-6.134181232;37.87910385;14.05589514;-10.99516626;0.089476053;-15.38083902;-19.57397848;-4.419345613;-28.58795744;-31.03625367;-35.73629241;-18.68784527;-4.733087953;-13.74227166;-0.990682083;-14.57621082;11.85105324;0.265821195
2.258352734;-4.557630184;44.32456691;10.14186794;-9.697818798;0.759128084;-15.82323274;-18.34680502;-2.594876545;-19.76702737;-30.09820317;-31.06467313;-21.24073974;-11.03090281;-11.40516196;-3.037672418;-19.34869455;8.247416435;0.487797872
5.162671583;-7.03097456;42.00659655;6.168070152;-12.65549128;1.002251363;-18.81649915;-18.95438609;-6.785688781;-15.57178977;-27.48904214;-24.39150152;-21.32752919;-22.16116475;-13.26492544;-9.776556644;-21.58164992;0.054477649;-1.315501351
6.812051093;-8.672167403;34.0420716;4.637953362;-15.7279692;0.737906148;-20.84405554;-19.77784951;-12.42282483;-15.45784695;-24.7299308;-17.063116;-19.5546679;-29.81331514;-15.27907875;-16.04354568;-19.94068672;-6.147521818;-2.736638118
5.644708818;-4.919628135;23.4435788;6.165793849;-14.95226999;0.268240305;-18.65523916;-18.84125817;-14.14132198;-15.7347744;-23.12647642;-11.34773474;-17.04788541;-27.45401327;-13.39627658;-17.44404993;-14.20145002;-5.154376327;-2.004548974
1.91640144;2.981682703;10.8205236;8.838825712;-10.11651659;-0.024365137;-12.66683752;-15.77971846;-10.55181659;-13.96750814;-22.76287813;-9.503260752;-14.79849938;-15.61683022;-7.690858954;-13.38700431;-5.809936974;3.468751534;0.353236042
-2.680376588;8.799848651;-4.989829558;9.530164103;-4.710838112;-0.005650329;-7.015752832;-12.49833444;-5.403521823;-11.51859737;-22.55448479;-12.3666652;-13.38752534;-1.432746695;-2.42767532;-6.412057222;2.439917916;15.92163337;2.173741213
-6.226844604;7.703951318;-24.14452629;6.332211193;-2.594038029;0.145244058;-6.132171933;-11.82538291;-4.176590537;-11.93167401;-21.28380468;-18.54208026;-13.04605241;7.000030518;-2.064946005;0.873916311;7.673536011;27.29538393;1.855515394
-7.663488102;1.668721573;-43.70530066;0.219596089;-4.614535758;0.16140411;-10.90526071;-15.1979561;-9.169806549;-16.947927;-18.76705434;-25.00417473;-13.77174951;6.589677124;-6.990270906;7.876024047;8.425538255;34.3676146;-0.071021979
-7.086708193;-2.024045773;-58.45992738;-5.464756757;-8.186538355;-0.032528161;-17.88103695;-21.30441966;-17.37790702;-24.11457229;-16.21310358;-28.87535861;-15.33318198;0.779515216;-12.97688127;15.12391867;5.351627501;36.27311502;-1.469619464
-5.290533351;1.579987056;-64.18833264;-7.389550843;-9.909462117;-0.254348023;-22.18632345;-26.86354315;-22.91346633;-28.31692475;-15.47703799;-29.13436832;-17.24407145;-4.159671473;-14.86957642;21.73210721;0.674940406;33.54281068;-0.676383336
-3.090674635;8.541631108;-60.6215807;-4.643453005;-8.579959776;-0.260890233;-21.55291625;-28.96374624;-21.7782891;-25.84902665;-17.7528044;-26.96596005;-18.87474825;-4.5201402;-11.12902791;24.38710124;-3.213636916;27.18839516;1.85297313
-0.946888609;7.564921696;-51.54085429;0.697639735;-5.858704575;-0.005133271;-17.91289828;-27.10120986;-14.90293672;-17.34535941;-22.65048482;-24.49425158;-19.70955754;-1.650024414;-5.12094504;19.58616543;-5.015198107;18.76381944;3.878594787
0.99704576;-10.44779661;-41.94519043;5.215764665;-4.28323668;0.299129866;-15.29132177;-23.3179053;-7.061522348;-7.048877913;-28.29606628;-22.94248693;-19.55840499;0.143044877;-2.035910204;7.449901444;-4.866171722;10.78771018;3.396402486
2.69660769;-42.70490037;-34.72095613;6.621841511;-4.814934282;0.368854644;-16.03149807;-20.40965541;-2.871992569;0.738096054;-32.35197041;-21.73422693;-18.5323868;-2.064904079;-4.270373989;-6.594250047;-3.751815268;6.307821644;0.498475485
4.094827055;-73.74712763;-29.54044132;5.112941895;-6.326598263;0.118147577;-18.77189237;-19.72193112;-3.403624507;4.760399513;-33.25057291;-19.2616288;-16.8167155;-7.22335707;-9.41316093;-14.49443268;-2.634988654;7.323227772;-2.616096512
5.174820008;-85.56046758;-24.61070677;2.724705726;-7.320986689;-0.252859578;-19.8902377;-20.30365185;-6.060590697;6.88307335;-30.86991621;-14.63031528;-14.48858515;-11.54365037;-12.55174254;-11.05190613;-1.990936677;13.20508031;-3.493772124
6.025147835;-71.10375379;-19.35655666;1.463039508;-7.890251684;-0.432720546;-16.97097061;-19.99168966;-7.388913136;9.482136329;-26.33574684;-8.840196842;-11.59308073;-12.1049165;-10.71832605;2.102363474;-1.928054156;20.63038982;-1.498413469
6.772476648;-40.24646149;-15.44412836;1.859024313;-9.723514169;-0.277423666;-11.10534975;-17.40224975;-6.053149923;12.88243181;-21.22347798;-4.316587532;-8.414300845;-9.426545474;-5.462997356;17.40098589;-2.526532009;25.39551123;1.702187162
7.415539336;-12.90705128;-15.26448747;2.993783541;-14.0116134;0.062707682;-5.999948661;-13.14045886;-3.458295783;15.24027808;-16.74254039;-3.104086821;-5.628285837;-6.801224214;-1.341539563;26.56371647;-3.926068473;24.86192326;3.60369868
7.735720693;-4.605920752;-19.44078298;3.64870693;-19.35773488;0.283518055;-4.79203705;-9.296499588;-1.880784044;14.71912246;-13.36482051;-5.201073915;-4.070169553;-7.214155682;-1.811252315;26.08061431;-6.066442006;19.23543223;2.944907823
7.409336078;-15.86768503;-25.82367458;3.34412133;-22.03089369;0.204975408;-7.471610002;-7.762373879;-2.189155127;11.57789757;-10.97909664;-8.447362157;-4.189072075;-10.73500815;-6.267287719;18.78217688;-8.417846536;10.90539282;0.590894169
6.256171612;-33.61608052;-31.00488673;2.366852558;-18.78593089;-0.067854363;-11.14345593;-8.823502745;-3.318698862;7.997920423;-9.318723012;-10.115907;-5.602889723;-14.63017276;-10.7828904;10.68137514;-10.09536984;2.693218088;-1.454121869
4.419821575;-42.74325;-32.99019181;1.007004494;-9.960363068;-0.24625665;-12.73928609;-11.1350169;-3.75552068;5.824365736;-8.317798619;-8.950195234;-7.17156663;-15.88429471;-11.71541696;6.11192718;-10.38372555;-3.428618139;-1.912181833
2.324896305;-37.91;-32.5735179;-1.006490575;-0.025445026;-0.126852096;-11.64073899;-12.96419981;-3.331715726;4.547764828;-8.187870998;-6.013605054;-7.632750577;-13.74829351;-8.833921407;5.21771609;-9.269627943;-6.369105537;-1.278102427
0.446424672;-26.1169713;-32.16246454;-4.184839751;5.193071812;0.218197608;-9.900297522;-13.55550229;-3.468789389;1.685479771;-9.222012566;-3.692180644;-6.386046091;-10.1271788;-5.217747151;5.374891201;-7.511869514;-5.329946677;-1.17877133
-0.921344284;-18.91735981;-33.1887888;-8.40619859;2.566577112;0.502352866;-10.03479548;-13.48838472;-5.660812882;-4.616854225;-11.48463168;-3.703379332;-3.864106285;-7.713887276;-4.206301183;4.56020041;-6.151571588;0.197129852;-2.727881104
-1.730941815;-21.88543214;-34.57253082;-12.50500291;-6.198066005;0.480864478;-12.55985973;-13.85324089;-9.76929614;-13.20665521;-14.58545826;-5.75360634;-1.229708037;-7.744077397;-6.321249611;3.246654287;-5.842004288;9.471339245;-5.419920776
-2.078088587;-30.61933431;-33.7424839;-14.96239734;-15.94362374;0.170481797;-15.55497637;-15.08738961;-13.87844649;-20.1849628;-17.68755492;-7.91312778;0.355683268;-9.355437872;-8.968066897;3.226293474;-6.525284115;19.58458705;-7.548353032
-2.065584021;-36.1138021;-29.3229515;-15.22951758;-21.7098016;-0.163277524;-16.57713333;-16.52931168;-15.90761651;-21.84996708;-19.7933705;-8.337014876;0.351469481;-10.8650645;-9.066299903;4.920186603;-7.670967073;26.02663043;-7.721945375
-1.765377733;-33.84791296;-22.97814652;-14.45483593;-21.70965802;-0.237036559;-15.05613348;-17.04526145;-15.44101845;-17.82805597;-20.21088698;-6.862041214;-1.048801003;-11.50872016;-6.063754564;6.185378;-8.806351542;25.04717316;-6.088553421
-1.278671201;-27.98076458;-18.57219994;-14.77340145;-17.56845425;0.008699089;-12.91077203;-16.12517876;-14.00540206;-11.58142137;-18.96827772;-5.150286245;-3.267771014;-11.94213177;-2.512802929;4.04456459;-9.847292105;16.348992;-4.194381946
-0.781221733;-26.98394635;-19.18889387;-17.58187825;-12.21993214;0.368386484;-12.82401006;-14.46475827;-13.52184227;-7.747417341;-16.90722442;-5.283301306;-5.772707619;-13.17588729;-1.705055497;-2.253894974;-10.96836097;3.903609543;-3.661332632
-0.4625202;-35.09272009;-24.5227062;-22.23158854;-7.652412908;0.559107873;-15.7889112;-13.52823133;-14.43106452;-8.577556081;-15.31866848;-7.992889053;-8.224887582;-15.18235144;-4.584895991;-9.929624925;-12.2047264;-6.142905997;-4.892034478
-0.397497358;-47.732098;-30.92152224;-26.34732394;-4.349211989;0.463637942;-20.18254737;-14.46040343;-15.32859039;-12.53795109;-15.26157662;-11.99320892;-10.32706175;-16.66811191;-8.795099414;-14.66727656;-13.22957777;-9.241250663;-6.911660302
-0.487820765;-55.26131697;-34.11369514;-27.63367847;-2.344705746;0.215030431;-23.19164065;-17.23123942;-14.50499646;-16.1769971;-16.95749969;-14.95645435;-11.65626791;-16.27400625;-10.72050445;-14.30660029;-13.56959731;-5.199699388;-8.381557899
-0.563937309;-51.628351;-32.36594735;-25.71375924;-2.270915162;0.058964583;-23.26194264;-20.65835885;-11.92798147;-17.44173125;-19.67217775;-15.33768573;-11.76870463;-14.00305446;-8.656404355;-10.83431071;-13.08012006;2.0865631;-8.786647581
-0.580693197;-39.98248117;-27.49459839;-22.44244198;-5.032392729;0.129149993;-21.35058143;-23.22381486;-9.703099235;-17.39201678;-22.20679367;-13.59371377;-10.56437667;-11.41870238;-4.242282234;-8.668704836;-12.21652355;7.642641431;-8.72649166
-0.722019918;-30.06632913;-23.04030234;-20.39473149;-10.41823747;0.339684701;-19.90322923;-24.01590416;-10.41947224;-18.82123832;-23.69230166;-11.85394576;-8.590519167;-10.33915438;-0.921759298;-10.60988524;-11.78470446;8.792814357;-9.133056337
-1.283007131;-29.6978258;-21.32303368;-20.78944648;-16.27911171;0.481594028;-20.56;-23.12911784;-14.77544129;-23.18349712;-24.12863769;-12.32546591;-6.940600156;-11.22141582;-0.886553462;-15.10561893;-12.31348617;6.419660134;-10.23054432
-2.394074791;-38.0026038;-21.91868952;-22.61143207;-19.49792676;0.422665039;-22.69978095;-21.35987909;-20.63329851;-28.78396095;-24.26281242;-15.65591546;-6.706714017;-12.76067266;-3.272314996;-17.45948915;-13.55668171;3.470236114;-11.23774801
-3.820009766;-46.42968239;-22.69287414;-23.67969118;-18.2231731;0.222914516;-24.09156426;-19.56794257;-24.4423888;-31.99170353;-24.88274204;-20.43421429;-8.315890536;-13.10243764;-5.155523072;-14.07904868;-14.56740967;2.294301669;-11.06854076
-5.04032068;-46.51747451;-22.22081877;-22.73082125;-13.44173352;0.065792831;-22.96794251;-18.21563732;-23.87730959;-30.40608049;-26.06374733;-24.09887168;-11.21003906;-11.54755407;-4.329661874;-5.982416816;-14.33153709;3.119061694;-9.344212818
-5.594071286;-37.32526389;-21.28231603;-20.69213677;-8.362230157;0.079155083;-19.57880134;-17.32202559;-19.46297084;-25.06770827;-26.97026186;-24.51515649;-14.10647402;-9.164050787;-1.279643404;1.75859637;-12.48411386;4.693992798;-6.768849223
-5.432037188;-25.87455809;-22.09767188;-19.99025182;-5.980668893;0.217371017;-15.84753211;-16.69273015;-13.87148429;-19.65336204;-26.40445223;-21.12904716;-15.6797206;-7.748138516;1.397519124;4.421717076;-9.557043418;6.118864142;-4.545578593
-4.975042746;-20.39236393;-26.09771819;-22.41913881;-6.860839704;0.311106722;-13.54827021;-16.13807357;-9.632232036;-17.35043105;-23.70746594;-15.06663469;-15.23980469;-8.129511781;1.489839868;2.122993203;-6.582914201;7.915574586;-3.407327015
-4.791208778;-22.69671724;-32.34452691;-27.35201716;-9.010145981;0.231105322;-12.76222339;-15.53059883;-7.324624346;-18.23442191;-19.32135351;-8.348192463;-13.02120619;-9.429072406;-0.778803105;0.284695727;-4.390817423;11.29595389;-3.158513265
-5.116805275;-26.75685715;-38.07872086;-31.8512939;-9.867063255;0.008675057;-12.03486682;-14.77048233;-5.749302777;-19.51457488;-14.56278316;-2.884353673;-9.973490503;-9.971372412;-3.023423138;5.287179343;-3.150087891;16.40625157;-3.09831093
-5.59998412;-24.71045421;-40.90603394;-32.69580334;-8.544095209;-0.197567279;-10.00844287;-13.79473643;-3.684042447;-18.38674649;-10.7655269;0.164903636;-7.23372715;-8.980578994;-2.985839149;18.70604684;-2.47703804;21.37600389;-2.847889722
-5.502108483;-14.71437332;-40.65885803;-28.77774582;-6.316713589;-0.250962877;-6.914044143;-12.65424879;-1.400443483;-14.84735996;-8.438326338;0.530855384;-5.583450054;-7.429872995;-0.673470825;34.98300834;-1.93833569;23.30122151;-2.743874794
-4.245230464;-3.267723589;-39.29396581;-22.00457742;-5.04452987;-0.156810494;-4.467654974;-11.55508138;-0.452615512;-11.86348966;-7.064064847;-1.310503789;-5.130520024;-7.192993566;1.636379495;44.74101283;-1.475873813;20.49330232;-3.415599375
-1.913163795;0.320738186;-38.97391449;-16.00841276;-5.158704445;-0.040784974;-4.249804691;-10.77465037;-1.985924995;-12.72267931;-5.653213346;-4.3476047;-5.312662714;-9.246049379;1.514856289;41.38171889;-1.390290664;14.07192539;-4.982774107
0.677178666;-7.579931907;-40.08558424;-13.65023775;-5.21641423;-0.012240953;-6.103482237;-10.50128196;-5.283248187;-17.97656551;-3.579192953;-7.284976325;-5.193989128;-12.59440856;-1.342461165;25.9051196;-1.937332538;7.429467623;-6.701876165
2.415160555;-21.20856777;-40.94521363;-15.17204442;-3.464923607;-0.049570913;-8.094039058;-10.74359296;-8.068338657;-24.77454188;-1.03974958;-8.93355652;-3.938935867;-14.97425315;-4.770769154;6.291142117;-2.940604516;3.879182657;-7.474810039
2.556851791;-30.00203313;-39.38061073;-18.27591349;0.142969734;-0.022069519;-8.130180188;-11.39207289;-8.403336269;-29.21158244;1.161075709;-8.709390752;-1.277808453;-14.75966985;-6.026287648;-7.932351313;-3.806317792;4.360325273;-6.800958048
1.156139966;-27.55098036;-34.71062412;-19.92949487;3.556259433;0.170936152;-5.792778953;-12.34877612;-6.442834946;-29.57804793;2.247740988;-6.98272938;2.260513217;-12.38095936;-4.182609571;-11.69480755;-3.964240511;7.042663237;-5.292707286
-1.017256775;-16.98852855;-28.35214306;-18.49210632;4.413446499;0.479382235;-2.701267842;-13.55651797;-4.349814951;-27.59866941;1.964344455;-4.968387746;5.515101904;-9.972241903;-0.876184753;-6.630953768;-3.372836582;9.073915351;-4.232937073
-2.992327066;-8.00761217;-22.58106388;-14.6808537;2.408584755;0.722793628;-1.070383692;-14.86743775;-4.3429996;-26.60421154;0.569093717;-4.097565179;7.235530497;-9.551390847;1.224259166;1.49395192;-2.650048828;8.92991787;-4.515659418
-4.172899902;-8.179441739;-18.63487525;-10.86997074;-0.102901018;0.741857347;-1.756463713;-15.89717655;-6.605140723;-28.3801089;-1.527313234;-5.192377828;6.735988172;-11.35019614;0.789377673;7.508456751;-2.690129734;7.387486095;-5.887918761
-4.593137031;-16.35023739;-15.86872942;-9.402087231;-0.103562761;0.543892354;-3.551801921;-16.09327594;-8.987343361;-31.61044025;-4.028932129;-7.957789555;4.276591046;-13.76051042;-1.104761971;9.851363033;-4.047682837;6.396916411;-7.165905187
-4.727679226;-24.00958166;-12.63981763;-11.12792841;3.089507582;0.303980641;-4.342401493;-15.08079328;-8.858961855;-33.31320342;-6.640215305;-11.12759731;0.917518987;-14.88836862;-2.117833554;10.04900371;-6.559336854;6.976602572;-7.243515838
-5.052425857;-23.31850744;-7.995398848;-15.03210423;6.596813547;0.213793651;-3.05179955;-13.05691743;-5.495992909;-31.85792765;-8.754226962;-13.17044746;-2.079159717;-14.26337527;-0.873624433;10.0026445;-9.476917199;8.08990598;-6.015387691
-5.699414177;-14.44285439;-2.552780696;-18.97132165;5.958434582;0.312416313;-0.597995014;-10.86866673;-0.863623851;-28.66886413;-9.429147198;-13.10182744;-3.920972567;-13.14972458;1.789369448;9.97747359;-11.97418936;7.580817881;-4.422230799
-6.433375426;-5.438650529;2.213287803;-20.89612458;-1.015248621;0.454541996;0.985393709;-9.598137609;1.95129689;-26.93877548;-7.925121689;-10.91764739;-4.603668973;-13.22393233;3.652772902;8.996191607;-13.60818698;4.404634918;-3.609450426
-6.910039063;-4.702105818;5.515713696;-19.81132075;-11.69584793;0.448379664;0.429056833;-9.878897402;1.308578887;-28.49968418;-4.484468567;-7.457510511;-4.706288629;-14.89797919;3.21052127;6.801814189;-14.39378751;0.171132841;-3.96223553
-6.971838441;-12.85938984;8.055151051;-16.06245707;-19.75545375;0.239307801;-1.625714183;-11.43778597;-1.665931718;-31.80483071;-0.619140536;-3.877417108;-4.860029297;-16.88057185;1.064313974;5.087705616;-14.50680439;-1.52218292;-4.856718294
-6.743094988;-21.68313188;11.1768571;-10.97905406;-19.42114613;-0.030177821;-3.254231063;-13.23673006;-4.149927171;-33.05065271;1.606270959;-1.09679761;-5.291372975;-17.40073952;-0.644852135;6.539750183;-13.95154165;2.306988921;-5.300591671
-6.479161093;-21.39135813;15.05888819;-6.188611222;-9.730963472;-0.143803226;-3.05106538;-14.14280686;-4.099910899;-29.58983921;1.007253747;0.500213614;-5.736711976;-15.95202495;-0.210352129;12.45066719;-12.53489502;11.43709077;-4.845193669
-6.332735881;-9.984280432;17.63914906;-2.972390658;4.47793161;-0.010320525;-1.43450648;-13.64035569;-1.920971541;-22.57204483;-1.605306176;1.057027652;-5.721803701;-13.90438469;2.090790597;21.12267912;-10.17852701;21.99461575;-3.943850937
-6.257316858;3.951203242;15.50057988;-1.931099738;15.64676833;0.242487414;-0.244553999;-12.06850691;0.117919999;-16.28273656;-3.648458938;1.052353226;-4.944568522;-13.35715928;4.273967218;28.64985802;-7.252077522;28.74769023;-3.469621324
-6.132608678;8.070467311;6.276208204;-3.043185177;18.36406386;0.368249746;-0.99855628;-10.25462104;0.122531047;-14.55639711;-2.441531249;1.06896147;-3.480826099;-15.23599481;4.455359902;31.58784022;-4.544720149;28.65352052;-3.875815598
-5.990676261;-2.725425473;-9.291940916;-5.990922277;12.51942232;0.212568136;-3.408577305;-8.893752796;-1.616402734;-17.35184687;2.733368224;1.593006882;-1.722259544;-18.37084933;2.517164325;29.37878329;-2.790416573;23.11090017;-4.782057005
-6.121807852;-20.71055461;-27.44782739;-10.48609429;2.709477741;-0.151382393;-5.542757004;-8.190336014;-2.909966717;-20.61041804;9.738680689;2.851321728;-0.166889352;-20.44036078;0.1350336;24.62488571;-2.080619434;17.17255851;-5.346464869
-6.934323694;-30.63574999;-43.88726077;-16.35157466;-5.279768627;-0.482906164;-5.530627722;-7.998950415;-1.803429911;-19.72421476;14.70737415;4.702388705;0.757767029;-19.98519332;-0.790928876;21.11074069;-1.665364445;16.10272119;-5.052763889
-8.657787583;-22.21223416;-56.90477045;-23.3282326;-8.143280843;-0.577277852;-3.308566628;-8.235156753;1.385690505;-13.71529938;14.56979271;6.636180516;0.761728032;-17.70213992;0.189421671;21.23526959;-0.380535378;21.60945437;-4.176721663
-11.13269777;0.363895754;-68.81340787;-30.83467116;-6.425498156;-0.433753995;-0.837384755;-9.094855903;4.007686764;-6.433444515;9.229389086;7.934076102;-0.293875985;-15.84155796;1.825937963;24.77023598;2.56674333;30.43674665;-3.516514739
-13.88166144;20.10198732;-84.31168866;-37.97862653;-3.156265438;-0.242196162;-0.553548336;-10.82771094;3.143945603;-3.520634105;1.765242746;7.967026222;-2.350339679;-16.21132686;2.501801848;29.5704986;7.050418242;36.46277213;-3.658048529
-16.43027169;19.49159284;-106.618897;-43.89692214;-1.273182642;-0.205049223;-3.354197936;-13.26410468;-1.927459027;-7.538505451;-3.576636631;6.515999992;-5.06929034;-18.54080933;1.832402086;33.28826037;12.15634645;35.02678068;-4.458481321
-18.62014687;-5.925599285;-133.899079;-48.15365706;-1.804075518;-0.357287094;-7.813268932;-15.57577104;-8.93949031;-15.37084175;-4.20761177;3.95648866;-7.803737544;-20.65683358;0.996072989;34.6267992;16.8840501;26.5458472;-5.20387928
-20.63;-43.2897831;-158.5510647;-50.79159745;-3.742959768;-0.545340775;-11.2601191;-16.58815617;-14.16374727;-20.25772627;-0.809447243;1.192685732;-9.708162571;-20.33337004;1.491690025;33.44497409;20.8127515;16.77117651;-5.26442223
-22.64303463;-70.93819842;-170.2773422;-51.9037221;-5.16490578;-0.579621101;-11.78422956;-15.48589931;-14.98155414;-17.00648441;3.403701784;-0.666708385;-9.979941801;-17.20721173;3.527008049;30.1670509;24.11906467;13.18557486;-4.629777933
-24.41202005;-73.35196727;-161.48939;-51.08383493;-4.513843542;-0.41713859;-9.519420029;-12.38028038;-11.46607642;-6.242542883;5.161342795;-0.782085353;-8.134604644;-13.10027715;5.616627454;25.36853582;26.87769012;19.70278174;-3.854531144
-25.1207077;-51.45662706;-132.0068753;-47.36551586;-1.347645413;-0.204016216;-6.266596441;-8.278685843;-5.916389096;5.736251328;3.456308806;0.985872432;-4.209484658;-10.48947583;5.85338363;19.86452371;28.25099298;33.20947808;-3.515485496
-23.76684999;-21.07397199;-90.15328529;-39.94312695;3.524642033;-0.136449941;-3.946415547;-4.466351364;-1.022982763;11.43319757;-0.013308559;3.897145555;1.154069766;-10.47303236;3.738388943;14.85810213;26.39700688;44.55018288;-3.727307716
-19.89323502;-1.404812388;-49.23477394;-29.25866141;8.305223123;-0.266400598;-3.264625558;-1.782333351;1.698766501;7.470840937;-2.517480935;6.544541111;6.761684638;-11.98993044;0.87406916;11.58349563;19.44066357;43.75588473;-4.167954777
-14.16136896;-2.461119214;-21.02;-17.53546587;10.80281432;-0.432946988;-3.613921229;-0.338796021;2.120409218;-3.290568898;-2.686126791;7.432828458;11.07845531;-12.92543319;-0.204656333;10.5120605;6.982390321;26.42734341;-4.541277365
-8.279952842;-20.20922052;-9.74256953;-8.074915669;9.377831321;-0.390946226;-4.054434123;0.163350633;0.653409373;-14.23131186;-1.703736677;5.695185861;12.64045005;-12.09236907;1.876273167;10.85257176;-8.950198959;-2.831247;-4.967902046
-4.205431587;-41.64476124;-10.13248331;-3.544141553;3.967301234;-0.031609113;-4.315749807;-0.114801319;-2.49511007;-19.84796779;-2.368164599;1.584356046;10.61434913;-10.35130852;6.109522033;10.99017197;-24.35851874;-32.35363789;-5.871275185
-3.061309773;-54.70328803;-10.86224457;-4.376057202;-3.467536115;0.497684571;-4.90411234;-1.383941202;-7.1886355;-19.19086332;-6.761334135;-3.565370605;5.280346318;-9.919616522;9.836110941;9.668004336;-35.04343765;-49.76152995;-7.440426773
-4.485515481;-55.37322993;-1.615418596;-8.489331104;-9.644816578;0.885762936;-6.345677776;-3.903201519;-12.6950406;-15.50629337;-14.35556983;-7.940437987;-1.891641591;-12.48813184;10.8343779;6.934675675;-38.6380788;-48.86962771;-9.2044274
-6.884034332;-47.8134108;20.36014018;-12.63507951;-11.65688709;0.893460961;-8.414508998;-7.393352416;-17.49360437;-12.89709191;-22.03216033;-10.11130947;-8.7670521;-17.74251314;9.024444301;3.985841825;-35.62170787;-32.88014402;-10.19600024
-8.471213033;-39.13961594;48.28371362;-14.44628851;-8.645200998;0.540988325;-10.14380458;-10.77322606;-20.08282545;-13.01181896;-26.0270556;-9.675583349;-13.49774149;-23.47593196;6.398870748;2.008231866;-28.73136499;-11.9911435;-9.6465423
-8.423919022;-33.97616841;69.83648457;-13.70414195;-2.283363568;0.094538863;-10.61577132;-12.58580361;-20.19376754;-14.34818107;-24.39218108;-7.330406874;-15.36759302;-27.11365961;5.309947031;1.092717052;-21.28997005;2.865229298;-7.63579378
-7.372350799;-32.71501817;74.7411424;-11.94155627;4.297847051;-0.133896237;-9.771498064;-11.91054613;-19.21092832;-14.32887589;-18.23889717;-4.390824953;-14.97873075;-27.36424533;6.592614946;0.27308598;-15.63660423;6.078366673;-5.111692149
-6.889332469;-33.51928675;61.17077312;-10.81618183;8.349638826;-0.009634755;-8.480179399;-9.106064624;-19.19742339;-12.04892602;-10.98601095;-2.112033619;-13.63667523;-24.76523255;9.045490194;-1.295208366;-12.59346906;-0.44783433;-3.228083832
-8.324834276;-35.13778975;36.92964157;-10.6319953;8.794825144;0.351636394;-7.816722345;-5.776317148;-21.21237466;-9.304979879;-6.269851941;-1.235849017;-12.37483858;-20.93557613;10.57032578;-3.138174124;-11.99337059;-9.841833816;-2.545189752
-11.7815601;-37.7813288;14.765781;-10.18846883;6.225870285;0.701883871;-8.217574186;-3.888939394;-24.36644814;-9.200394809;-5.997524176;-1.933575187;-11.34812224;-17.38452398;9.897074103;-3.503765767;-13.49539531;-15.32260691;-2.755514781
-15.92414227;-41.81694605;5.009454663;-7.972401749;1.991244983;0.856311678;-9.247581471;-4.592884722;-26.5038078;-13.67240947;-9.708760565;-3.984326295;-10.04447758;-14.87817262;7.460019531;-0.815840342;-16.87065567;-14.23442804;-3.125744746
-18.73766941;-46.20709674;10.31799798;-3.581029478;-2.616782116;0.805424256;-10.10114158;-7.515462857;-25.97012098;-22.00074718;-15.33954693;-6.901671862;-8.093672395;-13.63298959;4.848035265;4.644435158;-21.61383946;-8.714019181;-3.212373956
-18.7143133;-48.57156508;25.57702043;1.86670329;-6.459193068;0.671630407;-10.29335666;-10.99628606;-22.92611765;-31.33168054;-20.55216159;-9.899828297;-5.932710164;-13.78423297;3.47996368;10.39760961;-26.47925959;-3.215724933;-3.191221769
-15.69252791;-46.89388029;42.30917939;6.628363794;-8.270504854;0.575751016;-9.899213209;-13.08435093;-19.04735671;-38.55958677;-23.67055634;-11.88070904;-4.67835253;-15.44861733;3.678502765;13.29749781;-29.66349119;-1.117611865;-3.530711232
-10.85526148;-41.22346244;54.02715634;9.679527809;-6.816612192;0.542656458;-9.216194871;-12.64175705;-15.907515;-42.00897082;-23.86873576;-11.71240876;-5.228806915;-18.30570553;4.781299498;11.84969805;-29.74456959;-2.77584697;-4.367309355
-5.980039063;-33.78729495;58.88514645;11.2854646;-1.767406271;0.519104842;-8.309913139;-9.882466973;-13.55592977;-41.8374571;-20.95991775;-8.823722901;-7.327790136;-21.27742017;5.946842228;7.442560211;-26.70090303;-5.922641614;-5.221536327
-2.496479392;-27.47025016;58.53185798;12.35056941;5.451265864;0.463729525;-6.97180039;-6.092357007;-10.63929349;-39.28895358;-15.31436656;-3.755091841;-9.452733566;-22.88794789;6.804766243;3.398721095;-22.10997885;-7.566640676;-5.363414168
-0.941195304;-24.05648387;55.05237103;13.25037008;11.93145076;0.406907971;-5.128849977;-2.802911454;-5.994865563;-35.73094328;-8.029767884;1.839347246;-9.769656733;-22.21334147;7.441605718;2.50448848;-18.21793793;-5.82902801;-4.506080922
-1.036360145;-23.63788471;48.9512861;13.33584642;14.95163637;0.419313384;-3.219111661;-0.972735025;-0.240551509;-32.23430342;-0.971535504;5.938613462;-7.502253359;-19.65347917;7.953426759;4.933972304;-16.49733314;-0.684061217;-3.169044415
-2.162973941;-25.34932915;39.65406971;11.65611604;13.92564369;0.525488871;-2.038329253;-0.631172409;4.198056903;-29.68422049;3.759626439;7.277159498;-3.639077388;-16.78251444;8.172668233;8.19328784;-16.77094487;6.385798869;-2.333826732
-3.793136589;-28.40028289;27.49395364;8.253745146;10.94142096;0.656006216;-2.100766343;-1.088216408;4.830953949;-28.88701934;4.884869519;6.093615389;-0.347268285;-15.29435369;7.868977044;9.105773263;-17.55544174;13.19749906;-2.664388478
-5.596645214;-32.34903084;14.85474346;4.750126248;9.178334939;0.694490882;-3.104730138;-1.476424637;1.219676465;-30.31306043;2.875709882;3.940360716;0.540545547;-15.86963479;7.127467376;6.26558603;-17.31153772;17.63301398;-3.981878927
-7.276284138;-36.58165394;5.096104656;3.482161703;10.32492422;0.581554213;-4.077263655;-1.260473577;-4.352613627;-33.68940419;-0.033686961;2.648103819;-1.155339247;-17.88299856;6.383930357;1.084216869;-15.5902403;18.27335335;-5.471276921
-8.41836241;-39.88512844;0.101170674;5.737185744;13.16298236;0.377901663;-4.16062894;-0.453185817;-8.315593654;-37.96237091;-0.993352014;3.175456975;-3.841910757;-20.13257181;5.984958945;-3.276216816;-13.21521312;14.94510317;-6.437320523
-8.593486812;-40.89433955;-1.313144701;10.52389322;14.64492367;0.221845238;-3.363213865;0.503338308;-8.267651893;-41.85542998;1.762555144;5.163758661;-5.317646445;-21.8751458;5.72098342;-4.157562438;-11.4808551;8.980999094;-6.920443578
-7.675719827;-39.19878522;-2.569348846;14.98563924;12.64587836;0.212783471;-2.563861448;1.046758611;-4.546924995;-44.65910871;7.757122451;7.465549605;-4.316801829;-23.22159472;4.909332105;-1.133635481;-11.13209;2.811445349;-7.602976154
-6.106610712;-36.06341499;-6.669769872;16.24405507;7.990078125;0.322738279;-2.710919827;0.786872967;0.218636195;-46.61311676;14.46159072;9.155332182;-1.264479445;-24.59976134;3.089602656;3.925692917;-11.96394402;-1.198082949;-9.085255745
-4.823261179;-33.92069202;-13.93466623;13.27161255;3.850824824;0.416677337;-3.913017157;-0.362417215;3.072232934;-48.56551051;18.76032996;10.18214703;2.264710755;-25.90928431;0.718308998;8.251191912;-13.23551138;-2.091594137;-11.2024516
-4.80849688;-34.86493129;-22.03665535;7.359550968;2.912031611;0.367081971;-5.262691728;-2.229545806;2.594682877;-51.21425855;18.766775;11.16965389;4.855062667;-26.29917903;-0.884212917;9.848904915;-14.36469167;-0.888832035;-13.03798615
-6.518687905;-39.30358878;-28.21519107;0.908409395;4.779743201;0.164495033;-5.597841576;-4.521126892;-0.618373188;-54.56791698;14.8565537;12.61352118;6.231145079;-24.88711347;-0.460618907;8.333036137;-15.22049147;0.187939013;-13.6656873
-9.566765292;-45.81468166;-31.65785927;-4.371079381;6.090347591;-0.071366338;-4.550177149;-6.929872021;-4.868430705;-58.01261857;9.332407256;14.23452566;7.162571164;-21.77654873;2.100562395;4.659355012;-15.84262165;-0.619872207;-12.97668741
-12.88631754;-52.22806976;-33.94051867;-8.355850163;3.46260104;-0.188837188;-2.942229357;-9.157120622;-8.602660487;-60.81083606;5.024021613;15.08774186;8.47541661;-18.34100965;5.501185308;0.330422195;-16.04260772;-3.289436118;-11.83695525
-15.28586432;-56.95513524;-37.19087613;-11.88562112;-3.167644538;-0.125791677;-2.158154593;-10.89150055;-11.00135095;-62.52786548;3.737068446;14.34588809;10.08302991;-16.34835272;7.924240849;-3.205567061;-15.43972262;-6.114857104;-11.39470642
-16.04834901;-59.52781395;-41.68384371;-15.34747832;-9.848399666;0.04679141;-3.029773344;-11.84124985;-11.8202641;-63.0671859;5.4377824;12.06368184;10.88400602;-16.57780097;8.402158;-4.725883698;-13.96448206;-7.185222541;-12.11358645
-15.21539007;-60.1605026;-45.07560668;-17.8539822;-11.43637233;0.191189339;-5.214358987;-11.8736004;-11.15160827;-62.45703653;8.504022019;9.22522824;9.607016906;-18.1399745;7.516398139;-3.28175463;-12.27015814;-6.053590815;-13.3707932
-13.41875255;-59.05382007;-44.01934813;-17.80527324;-5.773434001;0.216985752;-7.593147529;-11.19259512;-9.604491958;-60.7703262;10.72771531;6.988851166;5.880736558;-19.17956342;6.820039063;1.492900295;-11.47846549;-4.202363535;-13.98297952
-11.41725369;-56.26089177;-36.8086188;-14.34419142;4.268807778;0.144719281;-9.296085972;-10.38841224;-8.59999144;-58.33364493;10.42555834;5.747492226;0.638348842;-18.44007813;7.476643013;8.843325641;-12.3319206;-3.875379002;-13.21791142
-9.662424139;-52.1992836;-24.82498895;-8.38844807;12.69027737;0.07112335;-10.40433185;-10.22443577;-10.00468516;-55.94489316;7.118423312;4.807861272;-4.460776302;-16.36224643;9.296124451;16.61708452;-14.51438748;-6.200467618;-11.42429913
-8.153684559;-48.09956659;-11.6502661;-2.272071867;14.74199514;0.075220088;-11.70274997;-11.20724167;-14.84393222;-54.66860072;1.590092773;2.990210944;-8.104925322;-14.72888554;10.99325448;21.77321034;-16.88888151;-10.13076673;-9.742427627
-6.620238929;-45.65127665;-0.71547639;1.775131413;10.24559532;0.150928202;-13.74806326;-13.19125916;-21.93752029;-55.13564002;-4.544442216;-0.317621042;-10.04814198;-15.10867181;11.40271455;21.71766346;-18.57983753;-13.07575949;-9.154250444
-4.850298172;-45.88938156;6.508239556;3.089972691;3.253826387;0.220366304;-16.15458217;-15.32721295;-27.84257023;-56.83401109;-9.496296611;-4.506755327;-10.96611339;-17.41652001;10.53615969;15.84561271;-19.92136906;-12.72891179;-9.694502915
-2.921301162;-48.20082605;10.46263179;2.818780593;-1.427902178;0.20668326;-17.79021565;-16.48046013;-28.70933029;-58.07445619;-11.94250972;-8.035048682;-11.66496866;-19.8499773;9.52838995;6.330909292;-22.23430513;-8.66708735;-10.48566151
-1.189925106;-50.39016547;12.06314519;2.80358207;-1.776795548;0.096078284;-17.71909395;-15.91616243;-23.02507399;-56.87291369;-11.47307959;-9.447555;-12.34139151;-20.29941341;9.543907744;-2.527661368;-26.39892221;-2.541070053;-10.53045759
-0.080556403;-49.92071656;11.51031502;4.062922905;0.732835163;-0.063147572;-16.02283687;-13.80921842;-13.15627316;-52.22895962;-8.720078125;-8.356296214;-12.46865612;-18.06348114;10.66721055;-6.311951317;-31.43020721;3.16699946;-9.545977529
0.16672192;-45.46614739;8.5205344;6.066949155;3.424783952;-0.213724036;-13.73627794;-11.19403903;-4.212254142;-44.85869073;-5.103661028;-5.669237306;-11.31378451;-14.43360471;11.80971943;-2.879905488;-34.53391909;6.769855802;-8.120487542
-0.368161811;-37.64116613;3.557100381;7.274377417;5.235453372;-0.337625631;-11.9483111;-9.324522073;-0.755885756;-36.77830954;-2.246526052;-2.960335759;-8.586469241;-11.67792369;11.72470686;6.239197456;-32.97789321;8.189321972;-7.102487379
-1.323470388;-28.45069675;-1.470408221;6.37290336;7.311125025;-0.454033541;-10.88667107;-8.836658801;-3.694797205;-30.00257336;-1.26738603;-1.498334887;-4.684050506;-11.31169532;10.19348928;16.46591953;-26.42084613;8.547334394;-6.816701064
-2.220963074;-19.99445239;-4.095542791;3.205212541;10.98297255;-0.576064861;-9.815384388;-9.286099384;-9.728231529;-25.31713472;-2.267327886;-1.616679538;-0.400917108;-13.10671168;8.278546228;22.70902116;-17.64088667;9.086050873;-6.83093021
-2.669568007;-13.43188676;-3.204318363;-1.237963648;15.37288515;-0.677353337;-7.821481712;-9.415529362;-13.83393534;-22.02604402;-4.276352652;-2.749290595;3.574562493;-15.59131664;7.391490671;22.43548448;-10.7320265;10.32556622;-6.467162
-2.537157241;-8.824393148;-0.20696554;-5.574160607;17.31799927;-0.70857934;-4.75596955;-8.019702097;-12.92661958;-18.80805952;-5.717674959;-3.940215857;6.932620779;-17.46941737;8.017235802;17.28905679;-8.017186977;11.96030957;-5.551445508
-2.047951648;-5.672772284;1.807177034;-8.860951017;14.05479026;-0.651601315;-1.472173292;-4.851188892;-7.918420835;-14.96430225;-5.180227516;-4.388438053;9.613754602;-18.62450631;9.264641945;11.97192959;-8.280019531;13.32473968;-4.669167151
-1.764071419;-3.499290785;0.406580286;-10.97076674;6.274519167;-0.556732985;0.830240119;-0.948808826;-2.705858374;-11.08107404;-2.118879926;-3.735131414;11.49239636;-19.8374272;9.669051989;10.88545181;-8.063537332;13.92900359;-4.646247449
-2.40554598;-2.020817333;-4.349741491;-12.46374315;-1.515759212;-0.519098694;1.531346003;1.872024127;-1.031141392;-8.63437369;2.869406024;-2.101405799;12.23658273;-21.59018534;8.52863313;14.76613063;-5.193559011;13.72936648;-5.704679724
-4.509522928;-0.999583192;-10.26674228;-14.22897855;-4.123166728;-0.605232933;0.958549021;2.084348854;-3.741985107;-8.883488304;8.329485809;-0.021516487;11.51943265;-23.20442869;6.559970629;19.87521097;-1.50029159;13.12615462;-7.080781738
-8.044619293;-0.152580102;-15.30474115;-17.09643643;0.155894269;-0.790521231;-0.058287018;-0.584316989;-8.478046358;-11.88923253;12.64236497;1.688373156;9.422582586;-23.25823446;5.268378367;20.66216297;-1.995211973;12.80249558;-7.523056858
-12.21107927;0.698569492;-19.72539663;-21.42117619;7.972713495;-0.964954878;-0.921358907;-4.897624918;-11.76231518;-16.32524495;14.77602642;2.221840362;6.68271416;-21.00069437;5.59472223;14.1864376;-10.6060833;13.42312134;-6.312778645
-15.64890636;1.447172999;-26.02444743;-26.66934672;13.54788732;-1.009384175;-1.545625726;-8.75286705;-11.62746576;-20.14263641;14.71950267;1.256053758;4.531689891;-17.45673121;7.062322482;2.935971188;-25.76508704;15.19575383;-3.951068643
-17.07608701;1.802002438;-36.56416844;-31.30079862;13.40145762;-0.884563683;-1.979690241;-10.36022541;-8.726646958;-21.60119507;13.39858253;-0.635908075;4.166790223;-15.05745154;8.200131834;-6.448731152;-39.86282968;17.51760991;-1.884526692
-16.06858799;1.662442054;-51.03798862;-33.35132951;9.15834028;-0.662890623;-1.901400856;-9.267863161;-5.343348797;-20.04846003;12.14233633;-2.040442674;6.13545965;-15.8848412;7.865617897;-7.984607726;-43.83868021;19.13675846;-1.427035784
-13.48830655;1.386644999;-66.27458222;-31.71437669;5.974658331;-0.478399798;-0.6942016;-6.620793592;-3.449071939;-16.08763303;11.99607668;-1.41827572;9.973347367;-19.90951014;6.277681834;-1.135829127;-33.91438275;19.03827515;-2.722912206
-11.16902463;1.594205764;-78.89924665;-27.38528273;7.939440736;-0.434975735;1.805497289;-4.483087066;-3.503595975;-11.14989637;13.23696982;1.85075224;14.29935683;-24.76299152;4.832232243;8.378907767;-15.19284002;17.5861151;-4.601574767
-10.8976651;2.603361902;-88.66022481;-23.55;14.48020627;-0.542239888;4.614942774;-4.60329449;-4.756377453;-6.73730219;15.31287705;6.825491769;17.35392671;-27.40100668;4.869866819;12.85984487;1.265563754;16.89018915;-5.47722658
-13.23721204;4.037809791;-99.25464963;-23.95932471;20.91989904;-0.72158119;5.85152257;-7.344608799;-6.393376765;-3.684777974;17.17786373;11.35770452;17.76989005;-26.43382499;6.501788365;8.952504461;6.333139331;19.64935634;-4.610490947
-16.96366562;5.057189145;-115.3406465;-30.33651244;22.63937694;-0.867915542;4.034729346;-11.4273275;-8.277391798;-1.771340064;17.7926076;13.35388245;15.24461319;-23.26210234;8.534033852;0.947757601;-0.078389039;26.91927508;-2.747534246
-19.60582321;5.079582255;-137.7245928;-40.62921425;19.0888764;-0.914529031;-0.504008837;-14.66485769;-10.66563484;0.091763094;16.51785491;12.1270237;10.77626536;-21.04327503;9.532647828;-2.034058834;-8.368833946;36.47318337;-1.6234548
-18.89770593;4.333001364;-160.6718864;-49.68674412;14.06303983;-0.856524115;-5.389683121;-15.27286267;-13.4067426;3.107801354;13.25990712;8.861822942;6.277398868;-22.23585829;9.055073983;6.718765923;-6.098463434;43.43962469;-2.681667925
-14.30476042;3.665081125;-174.0570169;-52.32951777;12.06940577;-0.729019078;-7.606592471;-12.95592809;-15.60595479;7.641081339;8.412119006;5.823986127;3.678398284;-26.62520586;7.952260589;25.38032392;12.414786;43.32881935;-5.946339031
-7.630543771;3.734494527;-169.4107831;-46.87409444;14.18610945;-0.570796702;-5.612880639;-9.082404628;-16.1905147;12.68194074;2.727889886;4.877987236;3.95512751;-31.37345375;7.512909448;43.69334912;40.91071568;35.46145869;-9.860988303
-2.215004273;4.350739309;-145.711973;-36.53595292;17.25489725;-0.405560211;-0.516597908;-5.815975156;-14.83394993;16.2208278;-2.797898835;6.392020659;6.638127313;-33.04722297;8.271073727;49.77189755;64.55099873;24.01192217;-12.2009661
-1.112417002;4.649005155;-110.6574785;-27.45434274;17.14345575;-0.247321097;4.692563221;-4.748858095;-12.30415865;16.45353608;-7.086671198;9.275199389;10.12900304;-30.04420055;9.574860797;38.68427268;69.67121562;15.37960465;-11.42685434
-5.316576947;3.986895946;-76.34140526;-24.52911732;12.9710698;-0.112162692;7.306209047;-5.929023413;-9.866283072;13.07090649;-9.261874208;11.97884334;12.64848233;-23.58352914;10.2824841;16.19755301;52.97271079;13.49747894;-7.592408117
-13.11554355;2.676637728;-52.33056978;-27.98657344;8.194145607;-0.01751461;6.741691807;-7.931004536;-8.31167968;7.666567297;-9.036181275;13.55911382;13.20271213;-16.61081479;9.901820718;-5.364707235;23.59944986;16.64991113;-2.277247676
-20.97662795;1.724688296;-40.90007813;-33.19229101;7.314088622;0.031537319;4.608487315;-8.919474274;-7.549113484;2.820433732;-6.991356027;13.95059619;11.93095125;-11.60423173;9.090967034;-16.0452829;-3.202975225;18.54958735;2.330474702
-25.42370437;1.687014129;-37.38655016;-33.90493922;11.14877765;0.053177122;3.02980242;-7.966607238;-7.115411423;0.387878313;-4.480675372;13.37292815;9.654465137;-9.042153718;9.047925597;-15.04664507;-16.07666965;13.16988657;4.586669273
-24.78569956;1.717782116;-34.76045113;-26.6418289;15.22306792;0.083456216;2.718567782;-5.699838561;-7.017591467;0.206078028;-3.061200299;11.59515596;7.056567717;-7.63943887;10.36161981;-10.1889079;-14.08631399;-0.329920793;4.116568902
-19.83281955;-0.094855648;-28.65946831;-13.02779147;13.22480412;0.157106517;2.478664353;-3.826178419;-7.960398732;0.219664897;-3.694056834;7.899206709;4.197454072;-5.97711759;12.40305341;-10.72706551;-5.652258928;-16.59950224;1.789916863
-13.05235338;-5.10703808;-19.33673659;1.472732452;2.830356487;0.289236605;0.52742723;-3.878692576;-10.62577766;-1.992838628;-6.184415143;1.903085412;0.758888837;-4.062964593;13.83641856;-19.52288294;-1.455536339;-28.02752831;-0.922434163
-7.140341952;-12.49442845;-9.792521422;11.37531643;-11.28213702;0.469199393;-3.574270025;-6.082575177;-14.67069354;-7.378304744;-9.249824938;-5.47151767;-3.239981954;-3.507772578;13.78924517;-30.9224713;-6.937274568;-30.57987317;-2.780823651
-3.669749891;-19.15485154;-2.32721338;14.71133226;-20.30952672;0.665207117;-8.134581126;-9.138677913;-18.49753758;-14.60150987;-11.2179784;-11.87565898;-6.960102983;-6.193866955;12.60336299;-35.84274883;-19.56764347;-26.80224162;-3.342514358
-2.64544943;-21.51371908;3.435163366;13.84275815;-18.10506339;0.831603881;-10.43299083;-11.05110907;-20.19125405;-20.84305988;-10.92842379;-14.62212239;-9.029523895;-12.54356053;11.46917293;-29.58919696;-31.943418;-23.44301538;-3.006376074
-3.010172957;-17.97013171;9.699761918;13.25284664;-6.259056117;0.916619499;-8.803412494;-10.38849362;-18.89610811;-23.57487341;-8.271454615;-12.33358469;-8.46674014;-20.79328208;11.27774058;-15.80346713;-37.49793055;-25.58894115;-2.579468316
-3.589559567;-10.05554036;17.99327391;16.16907835;6.982546684;0.877087101;-3.935449441;-7.108452679;-15.40380965;-22.01672152;-4.060885647;-5.94060656;-5.502737391;-27.86554379;11.75773529;-3.37725231;-34.37742848;-32.19918659;-2.660153427
-3.812634478;-1.352875198;27.3634077;22.47449745;13.29922614;0.703437491;1.682714187;-2.454107131;-11.38181454;-17.34150454;0.589262596;1.768448436;-1.57034638;-31.20184971;11.7162209;0.83442923;-25.29615142;-36.86604458;-3.223067678
-3.837571334;4.943101181;34.7556515;29.14229018;10.9571671;0.442357841;5.654987894;1.880087891;-7.924115759;-11.72873862;4.89321137;7.769943638;1.616480975;-30.23747168;10.19085539;-2.764971519;-14.60441525;-33.28721538;-3.666019061
-4.175690334;7.849939282;37.07334519;32.51334813;5.915992828;0.192910642;7.278492817;4.659125785;-4.778698673;-7.170908379;8.605731624;10.45452403;3.204221945;-26.53161883;7.467695791;-7.6344827;-5.515334624;-20.91252089;-3.28631674
-5.201375519;8.454568206;33.16330184;30.61822281;6.388989525;0.063115829;7.581590858;5.528414258;-1.00779456;-4.881749853;11.77859363;10.19146278;3.658230518;-22.57952769;5.009674125;-7.259725845;0.586382989;-5.967897558;-1.85809037
-6.902292094;8.231495301;24.32879302;24.0886724;15.45057353;0.105835433;7.96417538;4.861657897;3.536172627;-5.403597;14.38911218;8.57964236;4.183691845;-20.22512574;4.307154899;-0.778354056;3.178582041;3.131281506;0.112881509
-8.958919093;7.567384057;13.37078131;15.465147;28.00470496;0.278869384;8.816492963;3.380989443;7.410177016;-8.83563471;16.22507236;7.144918418;5.619808028;-19.74465106;5.637398034;6.821755203;1.777958601;2.257038934;1.675283484
-10.98265503;5.888114856;3.226441721;7.760039063;34.75447662;0.466065742;9.398637134;1.921916497;8.437738104;-14.65011211;17.13201062;6.536131429;7.757397224;-20.07547235;7.822774151;9.858185721;-3.614980547;-5.3987926;2.086170642
-12.67380749;3.113196932;-3.827945252;3.272304382;29.86185341;0.552687769;8.993086075;1.390531993;5.684122364;-21.23988751;17.37432862;6.688918952;9.652420847;-19.84232656;9.209033186;7.594053118;-11.43443389;-12.19294496;1.361474024
-13.79640125;0.769988563;-6.346163568;3.055998374;15.84936889;0.502198595;8.097353178;2.655898243;0.832850921;-25.91669272;17.73962238;7.531662717;10.62772907;-18.37962183;9.017794883;5.109454964;-18.41304392;-12.31717994;0.29325911
-14.0646806;1.356133992;-3.831140197;6.855620725;1.647590328;0.374453437;8.36698434;6.168456049;-2.450496081;-25.89053016;19.22029349;9.394501606;11.03665064;-16.09872102;7.91042468;8.50270374;-21.14651054;-6.221464192;-0.113237754
-13.12816804;6.261180486;2.880890533;13.24177105;-4.508408503;0.268937262;11.21054384;11.46357958;-0.94819214;-19.8772554;22.45059927;12.67784732;12.056774;-14.08620999;7.307390604;18.72465217;-18.34985322;0.401951752;0.619229553
-10.7586529;14.12491939;11.42652845;19.9766939;-1.355945868;0.238371349;16.27588448;17.02029227;5.698310396;-9.198854919;27.27028949;17.1352296;14.63727931;-13.31845753;8.098748564;29.74872082;-11.86858251;1.94993186;2.082882341
-7.152779598;21.35447394;18.66462559;24.78322641;5.070039063;0.245153424;21.29342539;20.82861593;14.54960696;2.634125047;32.68892138;21.56962836;18.49816696;-14.03868565;9.887266602;33.05903746;-5.404138969;-2.19144051;3.298373105
-3.116680201;24.6527365;22.42844832;26.39195147;7.047242434;0.199151828;23.60083673;21.48403733;21.35011181;11.79680152;37.25155166;24.40961898;22.08641007;-15.6496484;11.39461222;24.82120786;-1.874852248;-7.376785557;3.470350265
0.084577464;23.49756804;23.20111974;25.27667096;1.741813451;0.046053075;22.1623564;19.10309702;23.45291117;16.24372053;39.59205591;24.81171886;23.60383625;-17.12281853;11.61434384;9.538911898;-1.559578256;-8.098242533;2.604618452
1.239534196;20.38447767;24.20514196;23.42424819;-6.789602715;-0.170438578;18.37996867;15.33566707;21.47183455;16.53057351;38.937774;23.37330485;22.30433727;-17.63698754;10.65754509;-3.169001387;-2.500465582;-3.001391668;1.50324787
-0.161897755;18.55287938;29.32967539;23.06799201;-11.57256659;-0.33019482;14.97227485;12.34608382;18.49488647;14.83050859;35.43080175;21.77187857;19.0077559;-17.06053466;9.560738437;-6.177168838;-2.650791623;3.964708845;1.133573709
-3.521444961;19.18846387;40.04296959;25.14699989;-8.926126278;-0.32928281;13.83814255;11.42261627;17.62485901;13.02987263;30.20106512;21.51327924;15.42068367;-15.99519525;9.288098247;-0.513601351;-1.745719351;7.216565653;1.855577772
-7.267342517;20.61896359;53.53426978;28.60281938;-1.471630903;-0.16839573;14.69003906;12.21280733;19.81972266;11.47950915;25.11357643;22.74517377;12.84582037;-15.34579283;9.874823853;5.732311169;-1.223554021;4.655590849;3.10570237
-9.546020825;20.22109584;63.738309;31.09230375;4.464583161;0.038036127;15.57050693;13.15134764;23.56639519;9.345373099;22.13236783;24.09871049;11.35421066;-15.66291045;10.48879099;4.408587273;-2.407860079;-0.399243177;3.786719695
-9.144249773;17.22494156;64.89049325;30.63582433;4.502682832;0.142836763;14.73985964;12.74701392;26.33897952;6.080821652;22.42905815;23.72590738;10.07199137;-16.67894459;10.3141069;-5.611491066;-4.83298234;-2.214388761;3.078441112
-6.134969354;13.70574184;55.32528974;26.98377372;-0.147760008;0.073290081;12.26702579;10.73211195;26.46663687;2.560147129;25.65674815;20.7469873;8.268017967;-17.39003906;9.39870807;-17.1565455;-6.485891388;2.114449277;1.075194135
-1.858883769;12.72306771;38.88923499;21.69609611;-4.119092535;-0.120774102;9.96220152;8.194570197;24.00184311;0.730825445;29.93512294;15.99297339;6.254945844;-16.70960934;8.654997421;-20.36371742;-5.902560765;9.89691696;-1.204309336
1.773571202;15.32630461;22.92028575;16.93496056;-2.888086316;-0.313534917;9.768944066;6.630343941;20.25976312;1.995880743;32.79511405;11.48981707;5.304354465;-14.30235974;9.002697461;-10.57417556;-4.166867389;15.07868467;-2.429448384
3.270673765;19.37813185;14.09659559;13.95197242;3.202173208;-0.401974085;12.06634323;6.717578504;16.79444107;5.747588955;32.68100738;9.11425766;6.645658237;-11.00038009;10.4516621;7.836354255;-4.702332395;13.52455614;-1.764354791
2.274632677;21.54443932;14.85723517;12.41889122;9.388039882;-0.374976805;15.3631089;7.821901093;14.74765425;9.45984705;30.05843441;9.45884055;10.40806378;-8.412663181;11.99291327;24.58929402;-10.58956423;6.671676432;0.650181598
-0.382368696;20.7157334;22.58123366;11.00658431;10.81597967;-0.301573085;17.60380754;8.623630884;14.80155207;10.47457738;27.24772619;11.70763718;15.40274663;-7.898244867;12.43248587;30.8648286;-21.43157878;0.300845658;3.796142387
-3.251674944;19.47956671;31.76079624;8.615176901;6.792091513;-0.258602035;17.89579958;8.32065863;17.2561124;8.148008352;26.90390392;14.48131921;19.92073692;-9.595512551;11.43506894;25.04971482;-32.48416136;-0.496182158;6.331237067
-5.067696202;21.83741018;37.48719141;5.225622273;1.223939948;-0.266654695;17.14454574;7.378109518;21.78743621;4.613601489;30.09186789;16.87414886;22.88097817;-12.25897236;9.835926568;12.77825877;-37.14383446;4.300779203;7.234680718
-5.285257615;28.95806397;37.97798522;1.777464388;-0.972273836;-0.288161488;17.0989976;7.168767684;27.10049803;3.450200775;35.35208754;18.85870073;24.416131;-14.12079651;8.924780886;1.9779305;-31.21169909;9.781592682;6.214341928
-4.106806612;37.06618629;34.82506753;-0.664636684;1.824055115;-0.280229913;18.71950348;8.773283726;31.14369695;7.189509374;39.55799247;20.85730628;25.50264584;-14.20974447;9.325405674;-2.671302458;-15.83737332;10.62609627;3.742703847
-2.119203727;40.11756647;31.2647035;-1.666781762;6.726671931;-0.245067434;21.33240053;11.9261626;32.17405125;15.51578527;40.06896866;23.00304269;27.03823504;-13.12935143;10.46187877;-1.718444576;3.034120258;5.977025726;0.785662467
0.119093476;35.57928321;29.89312686;-1.519128161;9.149217139;-0.227411073;23.27539727;15.00883767;30.0330229;25.468229;36.64517471;24.82407161;29.15573734;-12.62218189;11.08587551;1.279889299;18.27704529;0.337682797;-1.618225828
2.263112081;28.18353714;31.26388492;-0.748619312;6.990223126;-0.262900936;23.38970358;16.1637047;26.48291265;33.41762189;31.66922467;25.64023976;31.25583718;-14.15840222;10.39983776;3.420078125;25.62549556;-0.301877182;-2.764511165
4.114273853;27.41736679;33.95184578;0.375664012;2.467391056;-0.331039133;21.99604517;14.69560967;24.04256347;37.3002657;28.44249578;25.28142465;32.5801264;-17.60713399;8.784751841;4.295360507;25.41307961;6.309649235;-2.534789698
5.486357913;39.60385844;35.6875613;1.870799312;0.102184708;-0.363712476;20.51392126;11.66843412;24.0688316;37.53849596;28.79229253;24.42505642;32.74095886;-21.09149785;7.493029305;5.116356583;21.22105464;16.69249718;-1.38955599
6.189614214;60.65714203;34.66878746;3.659359493;2.791036923;-0.307133297;20.1301379;9.203475219;25.66347075;36.20220992;31.78665905;24.1711376;31.79380356;-22.27041159;7.579921404;6.829306839;16.92354596;24.57426683;-0.082513341
6.143675245;76.20404265;30.28653357;5.259254916;9.465932974;-0.181213923;20.75145361;8.973730208;26.44412417;35.29299146;34.52651146;25.14406679;29.94732728;-20.14316227;9.011821382;9.405524055;14.45086691;26.11592699;0.781273551
5.470805343;70.53753935;23.00604442;5.938673047;16.26559455;-0.077410282;21.16395283;10.9979004;24.63429594;35.52314101;34.38895265;26.85537777;27.33307755;-15.95503421;10.72526917;12.67153431;13.54924715;22.84479116;1.096719091
4.436671082;38.58936986;13.65939764;5.244228886;19.96654733;-0.089201182;20.19713;13.61182431;20.68197724;36.35214623;30.98522735;27.8995554;24.10308566;-12.38674244;11.57116918;17.1320252;13.03264108;19.85277533;1.283399012
3.274197767;-8.22572376;2.693684321;3.406968822;20.53898131;-0.231604293;17.79924451;14.62536731;16.91669187;36.96615608;26.35560775;26.91114269;20.69040161;-11.54693188;11.30796373;23.29795545;12.06313239;21.05985853;1.937271188
2.066778334;-47.61229543;-10.10734752;1.204448772;20.68102536;-0.420360792;15.06569631;12.82726964;15.45907905;37.24900776;23.3372104;23.60129768;17.83183101;-13.3159702;10.77644856;29.9838489;10.47510238;25.87180602;3.327937895
0.819893084;-60.2925983;-25.2174506;-0.656210619;23.00194087;-0.532608336;13.257031;8.793814221;16.22976549;38.0058304;23.46174717;19.09835709;16.17999799;-15.42480513;11.11264506;33.71778245;8.343145574;30.1534706;5.101316878
-0.357456501;-42.48793426;-42.51641012;-2.12191344;27.56092615;-0.500698072;12.75645103;4.49697885;16.93601097;40.41983271;26.02709133;15.31025386;15.80243567;-15.32032052;12.6933214;30.79144111;5.649985031;30.43488565;6.431469678
-1.201664855;-7.960255671;-60.57975377;-3.837445586;31.956838;-0.361141484;12.91706968;2.054142019;15.19534033;45.26969426;28.94392417;13.72777487;16.0817424;-12.37556106;14.73511467;20.84261447;2.508093775;27.32946841;6.550100406
-1.535295194;21.77109554;-76.6921264;-6.599699536;33.71353326;-0.218308255;12.87221484;2.495861483;10.95733095;52.42839769;30.48937355;14.4778922;16.21937491;-8.590279634;15.8990208;8.721918508;-0.472644767;24.93378973;5.294557043
-1.665053165;31.71507936;-87.74279931;-10.67165205;32.63;-0.154999266;12.47189034;5.316431717;6.946235672;60.79017492;30.43620414;16.25049893;15.95799554;-7.048096633;15.38934285;2.14983916;-2.371848555;26.75464745;3.279091367
-2.545936999;21.87;-91.56069869;-15.51291751;30.91808956;-0.166266867;12.41701637;8.968733595;6.490814833;68.48935069;29.69018539;17.12157401;15.84313552;-9.254806606;13.61928873;6.14465151;-2.762132464;32.00474635;1.549739666
-5.383983924;4.437923262;-87.90148616;-20.1233071;31.07892896;-0.170833794;13.45984738;11.84290352;10.46978315;73.31033483;28.93962732;15.717466;16.68863745;-13.57453811;11.88592681;18.48109931;-2.311126886;35.87610231;0.947291368
-10.76565983;-6.910591481;-78.50112624;-23.69728297;33.54776478;-0.086486565;15.45919027;13.04492438;16.06673999;73.33902704;27.68589726;11.98885864;18.64242456;-16.29113442;11.32536824;30.35329992;-2.283113182;33.7886065;1.607962124
-17.87315821;-6.853362575;-66.23164698;-26.07238488;36.27461676;0.098128734;17.24688191;12.55068073;18.62377916;67.82617634;24.6297984;7.162124895;20.70651426;-14.73352528;12.0058967;32.52300136;-3.043853328;25.86375791;2.930995118
-24.45713638;-0.180563079;-53.95441698;-27.66793938;36.57184766;0.316504672;17.51068351;10.80196653;15.22871811;57.88108429;19.09821406;2.968248932;21.26967284;-10.02607452;12.88987551;22.54338068;-2.882096105;17.42905912;4.017432645
-27.81114993;4.520048828;-43.7276017;-29.0253869;33.49680617;0.484223395;15.92675952;8.171384904;7.075625069;46.37076012;12.16805352;0.660228967;19.34637375;-6.977181357;12.68518345;7.218489647;1.39690058;14.74068746;4.272172598
-26.27539347;2.906906993;-36.58819717;-30.32173223;28.62834612;0.569766061;13.49640434;4.736200326;-1.428841629;36.69740969;6.32062359;0.391113983;15.52019853;-10.67443815;10.90695371;-2.14381643;11.99149605;19.40172106;3.773560877
-20.32219584;-2.236024206;-32.64076638;-31.1683518;24.62996893;0.613548427;11.73485474;0.507332612;-6.107132985;30.93572167;3.724775295;1.252408363;11.72090732;-22.06219189;8.330378009;1.59798881;27.4443723;26.33773356;3.190180398
-12.44796642;-4.970604982;-31.11411881;-30.7594993;22.98775922;0.681416133;11.40169102;-4.113001438;-6.114415006;28.52062632;4.51129777;1.871711288;9.886405803;-35.97839452;6.508900767;15.5038586;42.1552096;27.3435118;3.323474622
-5.853837659;-2.619839417;-30.41660072;-28.24331848;22.94595581;0.797861739;11.89578498;-8.071736294;-4.121129701;26.56971662;6.535465132;1.180662406;10.52228506;-43.65589318;6.738464235;28.19428711;49.05858184;17.50657326;4.577003631
-2.719758705;1.498845928;-28.55872381;-23.15898916;22.44864116;0.920819386;11.85323491;-9.929246416;-3.547792586;21.8674793;6.953753975;-1.072485066;12.33050362;-38.42910331;9.222884326;28.04353403;43.98471776;-0.716358762;6.675010637
-3.163638505;1.339279676;-24.12289787;-15.82;20.05206936;0.980800256;10.40503091;-8.625119535;-5.398696623;13.23706151;4.42292478;-4.296327828;13.24718891;-20.74193906;12.99539122;11.78559742;28.62615731;-19.14350147;8.787838885
-5.50695541;-5.918396184;-17.2895672;-7.495866976;16.01674071;0.948765185;7.955093184;-4.332936135;-7.546290354;2.541667852;0.155933762;-7.457874293;12.07451172;1.32952963;16.5813444;-12.94766017;9.774278308;-29.92050001;9.983018678
-7.576556784;-16.87961996;-9.94;-0.185238355;11.73118442;0.871631053;5.777512002;1.18757533;-7.065253311;-6.576614689;-3.042560266;-9.638909115;9.388081692;16.80078269;18.8904044;-32.94666105;-4.836147552;-31.09840147;9.741262769
-8.101714634;-24.68589832;-4.245537836;4.137607901;8.259024935;0.843012406;4.812934763;5.140180558;-3.408127077;-11.4332751;-3.002670983;-10.43703485;6.993252696;18.69317589;19.73390467;-38.45218071;-11.17586658;-27.36212306;8.2432521
-7.281822941;-24.94802967;-0.389569707;4.589148772;5.545006169;0.932765706;4.785362751;5.029508858;0.609737447;-12.50633319;0.106926848;-10.03804763;6.404616316;8.339451604;19.68162481;-29.20711386;-10.77519637;-25.60161977;6.259691811
-6.252819237;-19.42248807;4.797239476;2.153520025;3.010019531;1.13271291;4.478828516;0.118108502;1.095608375;-13.36295256;3.94445746;-8.99507487;7.619147702;-5.969486437;19.43669512;-13.49100319;-8.630272566;-29.16957337;4.702572021
-5.963840607;-14.11286735;16.64449864;-0.49433084;0.775942182;1.359990809;2.950480865;-7.886062454;-3.306779236;-18.2032058;5.84348968;-7.899648021;9.173253098;-14.99753996;19.20386077;-1.540170545;-8.990058594;-35.49114356;4.101959367
-6.32813197;-13.59995267;38.94801918;-0.29399405;0.090347799;1.510785147;0.570745555;-15.46655981;-9.779659426;-28.73185943;4.809676939;-7.14239385;9.369037474;-14.87262613;18.49437978;1.368387479;-12.32457596;-38.68411765;4.332906132
-6.229763879;-16.83890345;70.00957262;4.401080732;2.335557721;1.519511563;-1.113076725;-19.05053371;-13.3681324;-42.65162388;2.07370058;-6.855465189;7.582677052;-9.176968744;16.50513598;-2.658735892;-15.62635025;-34.70211459;4.771274253
-4.31752135;-18.29732873;101.516667;12.6867632;7.49601019;1.382114169;-0.664105654;-16.92948468;-11.14628439;-54.93226867;-0.148498549;-6.997650562;4.558380397;-5.487867113;12.82913742;-7.118673056;-15.44845518;-24.68874237;4.775290213
0.007623903;-13.39711072;121.8868616;21.5139422;13.63150536;1.138525849;1.882503452;-10.20441528;-4.944299819;-60.98783649;-0.565501652;-7.477562172;1.528203006;-9.155769855;8.021112857;-6.471247056;-10.99337992;-14.03013763;4.155254863
6.068009963;-3.23187366;122.6168496;27.51078859;18.04704983;0.842238459;4.792617919;-2.151694445;-0.132636629;-59.51604853;0.206427255;-8.234187121;-0.960978122;-19.05749035;3.593670945;0.231496788;-4.765510514;-8.239028095;3.28851654
12.13923023;5.895936061;103.6927034;29.05456009;19.24155791;0.545706126;5.821502111;3.619648382;-1.290536065;-53.04916723;0.314466742;-9.258274744;-3.408081786;-28.42526519;1.345564434;9.465524546;-0.472316212;-9.161435013;2.791927464
16.24721813;7.908407989;74.26657618;27.1683486;17.90552763;0.303499026;3.89762186;5.081172342;-8.329247165;-45.97504572;-1.694112615;-10.57635676;-6.582022311;-29.95151075;2.353335616;16.11015705;-0.111484013;-14.30180251;3.005755027
17.07049144;2.564659244;47.77064933;24.6141599;16.05352196;0.171405966;-0.057719215;2.60697787;-16.37684565;-41.58966624;-5.703283896;-12.2115775;-10.3630288;-21.21278316;6.22935838;16.58353872;-2.673081359;-19.25003906;3.703609423
14.5179415;-3.882000253;34.42731082;23.85068262;15.10445797;0.184383416;-3.834466248;-1.706730154;-19.61487318;-40.29955228;-10.24536883;-14.11870342;-13.35260901;-6.393386193;11.15820112;10.42619092;-5.34723329;-20.83077562;4.273891499
9.774732477;-3.825245203;35.96123717;25.3416216;14.73382527;0.324363569;-5.579015421;-5.63132891;-15.92350596;-40.06986324;-13.76418383;-16.10834215;-13.74730472;6.769235221;14.77667899;0.138550493;-5.985309351;-18.53321491;4.233623929
4.843316978;5.081408603;45.8041495;27.4040613;13.61145388;0.510350656;-5.061645335;-8.159989167;-8.497404511;-38.48481733;-15.7174781;-17.82048159;-10.82629561;12.31583318;15.42138349;-9.980598687;-4.644831194;-13.68673966;3.645033048
1.764534444;17.61465823;54.27844816;27.6081682;11.31318185;0.632745239;-3.612474269;-9.755808021;-3.140295165;-34.69467607;-16.57222553;-18.8205036;-5.783846826;9.685852138;12.99841532;-15.40802423;-3.029943319;-7.771757291;3.066291084
1.796959396;25.11871383;54.93866263;24.60221774;9.461953213;0.616951662;-2.891038523;-11.48809343;-3.555627297;-29.82638169;-16.84367534;-18.82303966;-1.115604425;3.226497519;8.946898778;-13.20539636;-2.54805435;-1.556681039;3.054540636
4.877643418;22.65113522;47.81382847;19.01219465;10.74270115;0.470894366;-3.566100028;-13.84805335;-8.552351072;-25.77095108;-16.23499088;-17.9293055;1.040144782;-1.57558137;5.347132426;-3.667710102;-2.846986656;4.513961293;3.637766663
9.63727722;13.04644338;37.8878736;12.8771398;16.40660608;0.277266102;-4.950868163;-16.18633306;-13.36173347;-23.51279684;-13.81788126;-16.69454349;0.313835537;-2.003893761;3.767616426;9.213493219;-2.14570009;9.616258608;4.231150088
14.03623736;4.43347279;30.66911842;8.229801785;24.45675925;0.132735371;-5.760938535;-17.15456256;-13.75598919;-22.38312235;-9.167012297;-15.91355272;-1.843534734;0.682491342;4.567673226;19.44361718;0.995678047;12.59564558;4.113239269
16.36440425;3.37998379;28.46938961;5.990685213;30.37029065;0.079272204;-5.233880008;-15.7342392;-9.396595013;-20.73647899;-3.370952877;-16.20414576;-3.469964088;3.189032816;6.99996493;22.50462884;6.099469045;12.79361515;3.083606593
16.0895056;9.577606636;29.89620458;5.92208489;30.12488369;0.080218766;-3.646719365;-12.0210967;-3.692810463;-17.36227262;1.178252618;-17.64211803;-3.659679625;3.266683105;9.887888636;18.47871581;10.82126446;10.69613668;1.725250493
14.06015239;16.5715495;32.22170037;7.4215796;23.23578957;0.058211524;-1.891125931;-7.18660711;-0.561582492;-12.41464005;2.294428939;-19.70395129;-3.110420677;1.344732938;12.3187779;12.23933691;12.62118435;7.59049201;0.993486508
11.92569;17.73770806;34.12014321;10.27203932;13.31611442;-0.037325599;-0.60733394;-2.709975692;-1.083553687;-7.137479399;-0.307351139;-21.57496626;-3.26210652;-0.349821997;13.91542033;9.970690318;10.65785612;4.503957227;1.425345912
11.12607609;12.16787469;36.3958323;14.63809455;5.605011703;-0.187801869;0.303752551;0.489664695;-2.92944975;-2.702225284;-4.544001668;-22.61964144;-4.825041463;-0.073576432;14.66907051;14.26197505;6.350988827;1.531696087;2.626164214
12.09116884;5.305928386;40.38840643;20.38929505;3.363647537;-0.320612198;1.399588434;2.391078217;-2.82524005;0.80937696;-7.239150476;-22.69381267;-6.981993947;1.869173469;14.65710154;21.6326842;2.212316054;-1.698714668;3.507170668
14.1456047;3.884680468;45.83543093;26.49933549;5.933682954;-0.367115243;2.987032976;3.530068359;0.367410078;4.411530196;-6.267600947;-22.10714374;-7.948278596;3.541139153;13.95926027;24.84727212;-0.027284488;-4.914431302;3.137735946
16.12650809;9.769049814;50.32825278;31.2222113;9.837417441;-0.316056114;4.688523477;4.364719864;4.777093617;9.210657486;-1.980665958;-21.31966873;-6.421028247;3.214482734;12.79197615;18.61379073;-0.470852204;-6.74654165;1.538204719
17.23535756;18.24800933;50.94576378;33.0377951;11.80323767;-0.221993625;5.686790305;4.890482946;7.521534931;15.23303221;3.125445515;-20.65215182;-2.719010265;0.925330142;11.61359272;4.24742775;-0.550485598;-5.709664301;-0.257112957
17.51597437;22.31342815;46.64790567;31.63140525;11.14771069;-0.166071123;5.406374468;4.753355613;7.565458608;21.06804223;6.173788713;-20.24259729;1.306175112;-1.58012755;10.9754762;-10.66656478;-1.549684199;-1.889908346;-0.963496266
17.66251016;19.07401613;39.31212193;28.07436379;9.70329077;-0.202310073;4.001132122;3.656926855;6.665401413;24.66454813;5.724483364;-20.2335946;3.492730183;-2.35154254;11.17222093;-17.71042175;-3.464366548;2.353987668;-0.04840834
18.36611218;12.48104097;32.45653701;24.00057296;9.683853299;-0.328780206;2.216848364;1.646528843;7.456956133;24.71039347;2.352284087;-20.94663315;2.747343615;-0.820827286;11.99318951;-14.03177904;-5.097435067;3.726382963;1.834399463
19.72363708;9.793277347;28.66056839;20.39660124;11.5676861;-0.498818929;0.773360238;-0.967686801;10.46122034;21.56902069;-2.224041455;-22.79823779;-0.443615978;1.853425545;12.83765873;-4.536641739;-5.172840655;0.575488239;3.341265336
21.13778114;14.8533016;27.77376443;16.94733199;13.84149617;-0.656376039;-0.173493318;-3.915983896;12.90124722;17.08168558;-6.534462682;-25.95090799;-4.629185675;3.848839638;13.14572538;2.046553279;-3.438470489;-5.437917401;3.472873531
21.73926691;24.26839963;27.31942947;12.4401454;14.6326154;-0.766582006;-1.033110027;-7.158106207;10.67455623;13.39311152;-10.0936974;-29.96670867;-8.505166172;4.130416032;12.80206543;0.183767024;-0.849532691;-10.23475315;2.315600757
20.98240799;30.19281583;24.68562074;5.897589414;13.56345192;-0.8237918;-2.287017872;-10.74457068;1.971856506;11.66700815;-13.05489383;-33.79530165;-11.60699568;3.064511649;12.17359888;-8.009966581;1.215509245;-10.31368474;0.905430209
18.98311998;27.54995829;19.29324533;-2.441909631;12.08455772;-0.840235612;-3.973868321;-14.48;-10.58460028;11.6003008;-15.37620925;-36.20422164;-14.15223211;1.818928004;11.75581787;-14.51168684;1.953413373;-5.481211977;0.355340753
16.40667569;19.31550693;13.05828416;-11.02554803;12.04932115;-0.830294219;-5.612055932;-17.74483126;-21.30196222;12.01426224;-16.46722053;-36.41533994;-16.36533635;1.241843175;11.74530841;-11.94068241;1.518080727;0.988333678;0.982992163
14.05125399;14.7499104;8.920679574;-17.81046416;13.93424632;-0.801974435;-6.605652543;-19.72542871;-25.36940186;11.99239549;-15.71791505;-34.52614669;-17.99614814;1.258460754;11.91321586;0.368951939;0.583934171;4.9639607;2.14573846
12.44885558;21.39488468;8.726401525;-21.39121066;16.38478875;-0.756777809;-6.755140177;-19.94926096;-22.26383838;11.6577048;-13.37955783;-31.42507591;-18.46568909;1.223738703;11.87213234;15.62718299;-0.38793077;4.681917992;2.872125785
11.71876774;37.29465711;12.1040796;-21.67059116;17.48431031;-0.693416465;-6.429461167;-18.72357262;-15.86707906;12.00138629;-10.84778614;-28.26104886;-17.45362847;0.751684091;11.46814911;24.66828483;-1.470281836;1.894311288;2.708529993
11.67707326;50.34769342;17.00342024;-19.72993863;16.53638316;-0.612568997;-6.276342828;-17.10247809;-11.2524395;13.92842373;-9.892844574;-25.82889234;-15.35245936;0.159334943;10.92541282;22.69527342;-2.919841888;0.058074674;2.047098676
12.0331535;46.25736052;21.18841646;-17.13542686;14.70317875;-0.522695896;-6.74268767;-16.34464679;-10.8109348;17.29508405;-11.35087493;-24.26035703;-13.16550231;0.114736464;10.61729254;12.39635308;-4.543982755;1.240773706;1.682814397
12.5064878;19.5041342;23.36722639;-15.2096016;13.93003906;-0.444930885;-7.80055538;-17.20455798;-12.83590163;20.72391626;-14.35538983;-23.16238688;-11.92957867;0.880754505;10.69999701;1.298302126;-5.431944726;4.470167235;2.03129664
12.82714518;-21.11684648;23.20211003;-14.65353066;15.16935931;-0.410772295;-9.052644111;-19.5222368;-13.54540177;22.39548904;-16.81884325;-22.02699348;-12.12651623;1.93003418;10.97500667;-4.110956498;-4.376634029;6.876532569;2.725988425
12.70307469;-57.05190211;20.55964066;-15.54516469;17.53345867;-0.447736672;-10.05825869;-22.35578302;-10.65227351;21.27815957;-16.8625471;-20.58914241;-13.49910216;2.333753212;11.11863444;-2.662003082;-0.714973648;6.439412868;2.959919271
11.8499716;-71.6983274;15.00388425;-17.50397337;19.12348777;-0.558203435;-10.57889187;-24.5271903;-5.407538878;17.9162359;-14.10152908;-18.91320351;-15.31031472;1.579173356;11.04765865;1.872584603;5.049689995;3.760640689;2.262949801
10.10020048;-60.88718044;6.175970704;-19.85194383;18.74194028;-0.70724399;-10.58601155;-25.21479165;-1.467363574;14.19800685;-9.800368689;-17.22716679;-16.75570964;0.061869438;11.03963075;4.811961367;11.33228337;1.28498369;1.008442886
7.523500642;-34.72295315;-5.265443387;-21.78350893;16.925557;-0.833827719;-10.12789755;-24.27404715;-1.676066133;12.23858847;-5.835949801;-15.69794842;-17.23299535;-1.200620544;11.45396801;4.45775298;16.23601962;0.820134412;0.17443499
4.472479975;-9.888165926;-17.13402098;-22.63807475;15.40318187;-0.883260443;-9.263541296;-22.20857706;-5.577891786;13.11734177;-3.353715402;-14.33608836;-16.42368161;-1.373702569;12.30055346;2.698538226;18.5178174;1.795763115;0.540855103
1.50871635;1.549728605;-26.37608776;-22.24808611;15.5355455;-0.83938736;-8.150201438;-19.92146332;-9.774976277;16.28352424;-2.191842786;-13.07607233;-14.34547997;-0.413405443;13.09003906;2.394667944;18.15748256;1.963327315;2.009622649
-0.775372825;-1.265500605;-30.67838776;-21.14872286;17.18187182;-0.731375266;-7.161197271;-18.40862258;-10.80835705;19.96386081;-1.441574497;-11.93398201;-11.47478463;1.028563266;13.17212185;4.372474044;16.22541513;-0.133560835;3.643791338
-1.981396818;-9.997550698;-29.94437199;-20.41058713;18.97786398;-0.608432834;-6.83461783;-18.45933224;-8.136780847;22.24073663;-0.538929001;-11.10110009;-8.805794156;2.250413071;12.31050436;6.827281189;14.18151905;-3.353501061;4.410396912
-2.0936149;-15.08771673;-26.5365311;-21.08108098;19.67754647;-0.502703469;-7.595196443;-20.36492889;-4.737482551;22.08741055;0.124892791;-10.8943958;-7.602062051;3.063758762;10.98212057;7.41400411;13.04399953;-4.704644701;4.007415459
-1.535323444;-13.00347694;-24.0240402;-23.53748804;19.26333512;-0.411755628;-9.420219723;-23.69724932;-4.816220021;19.77062344;-0.393266624;-11.58454563;-8.793592476;3.774307321;10.08380112;5.773132543;12.89377544;-2.123642991;3.079328614
-1.019046354;-7.543653134;-25.22391383;-27.19108537;18.8182038;-0.315464722;-11.72020461;-27.32299296;-10.43173289;16.50728217;-2.56302907;-13.19371204;-12.33938407;4.672795965;10.24304545;3.995541307;12.95897875;3.270507905;2.642212959
-1.204499722;-5.209713837;-30.78559494;-30.78607234;19.3599626;-0.210524203;-13.57553601;-29.79679566;-19.66247808;13.71684182;-5.681384022;-15.37649984;-17.05394201;5.603869372;11.30230229;4.635030922;12.19480108;7.6982595;3.204380281
-2.31402209;-9.211274671;-39.13633718;-33.12652255;20.8018965;-0.127720761;-14.21225706;-30.05212132;-27.70766133;12.35193515;-8.167055652;-17.47295466;-21.1503798;6.082446845;12.43162791;8.241656908;10.0025638;7.78771068;4.317945653
-3.946012328;-17.08751081;-47.6527505;-33.74452484;22.03338435;-0.110893937;-13.42061032;-28.02582389;-30.08493271;12.60297877;-8.653112337;-18.75381003;-23.22246571;5.858039832;12.79813621;12.79286167;6.653314296;3.535030136;4.928346953
-5.264944504;-23.35606049;-54.16624428;-33.04814691;22.0066715;-0.172187423;-11.65360842;-24.77125626;-25.59851888;13.97759529;-6.988363712;-18.77120395;-23.00542643;5.344597812;12.23610724;15.54159735;3.151678373;-1.583447564;4.226019031
-5.518590264;-24.35421229;-57.84089557;-31.85756227;20.74689775;-0.264119912;-9.753098452;-21.88321583;-17.03479787;15.58667036;-4.321937054;-17.62731519;-21.37439587;5.417999321;11.35109173;15.49727798;0.622752868;-3.627301069;2.306622154
-4.575993888;-21.00191968;-59.02973982;-30.68610285;19.29321271;-0.299594126;-8.479428237;-20.53675749;-9.237747589;16.48534428;-2.203615094;-15.96378548;-19.6054158;6.678088251;10.97505793;14.18445836;-0.37454537;-1.757033057;0.129467592
-3.101887354;-17.43291579;-58.43837957;-29.31588364;18.62913109;-0.211198229;-8.122136351;-20.77271138;-6.003365436;16.00135834;-1.439077675;-14.61500114;-18.48942325;8.823533441;11.44826607;13.99055654;-0.140199316;0.872734018;-1.153703658
-2.192282596;-17.0922696;-56.29746594;-27.00195524;18.65525801;-0.004530504;-8.403417051;-21.54769179;-7.888916861;13.99774889;-1.623181007;-14.1045059;-17.98243468;10.75797231;12.34649455;15.7172423;0.462214961;-0.156550856;-0.946771986
-2.67721391;-19.83315785;-52.08997002;-23.1615259;18.23726733;0.239707603;-8.71421955;-21.53673704;-12.25848715;10.95715031;-1.698147357;-14.32500354;-17.60709537;11.42282572;12.87491296;17.71281538;0.647697944;-6.46271182;0.515966213
-4.568390182;-22.35164624;-44.90302273;-18.01349673;16.33452348;0.420467967;-8.540833112;-20.11107699;-15.34829966;7.764739934;-1.037746973;-14.6621635;-17.17867258;10.68122261;12.56629884;17.46768197;0.197279349;-15.06603273;2.481636058
-7.058561925;-21.28945912;-34.05391962;-12.62998582;13.15205145;0.486521542;-7.82876052;-17.76012847;-14.87929222;5.207939802;-0.137111159;-14.50451646;-17.1561212;9.47605376;11.66777537;14.20100092;-0.56580712;-20.5909517;4.225182745
-9.086960521;-16.18641622;-19.5368124;-8.277575926;10.18109153;0.466655599;-7.044557929;-15.63778607;-11.49862534;3.442144304;-0.317027794;-13.75033308;-18.25485026;9.077191602;10.89397953;9.958794258;-1.217540003;-19.71045637;5.371836838
-10.05900771;-9.860572717;-2.051562851;-5.482048869;9.002897747;0.436965241;-6.852857723;-14.59338104;-8.151707422;1.790097656;-2.646233709;-12.87059728;-20.62544639;10.01944778;10.79258777;8.047366063;-1.629907163;-14.03845765;5.830019531
-10.18691172;-6.136149568;17.29530958;-3.534544143;9.900242486;0.454369612;-7.573831382;-14.46448855;-7.8310564;-0.913881511;-6.907539964;-12.41893563;-23.33463811;11.62416457;11.29823171;10.07314865;-1.925040053;-8.928859931;5.551327535
-10.21074342;-6.985636992;37.32543924;-0.916723956;11.55268287;0.512796359;-8.786295538;-14.21327157;-11.21840002;-5.59683978;-11.41291263;-12.3697687;-24.69894216;12.52429527;11.85530278;14.21956877;-2.060910737;-9.141732463;4.449714558
-10.7431384;-11.36770672;56.91065706;3.529008845;12.14161441;0.557559085;-9.42438788;-12.81276247;-15.87899981;-12.31542674;-13.85481664;-11.90011954;-23.34643598;11.77152701;11.96111196;16.40362405;-1.572820015;-15.03852449;2.583971675
-11.76773012;-16.39481797;74.86568948;9.478761721;10.91211258;0.542528303;-8.419776185;-10.16583751;-17.72306191;-20.17926959;-12.65114422;-9.946903845;-19.25969767;9.6140166;11.6076883;13.47285595;0.053545595;-22.49983814;0.383193367
-12.67840704;-19.55247507;89.83246702;14.95662455;8.803374431;0.478025009;-5.520679722;-7.281844313;-13.91524537;-27.90366427;-7.922083276;-6.228590374;-13.99659996;7.311672214;11.21925254;5.816704173;2.505711974;-26.53210504;-1.395047973
-12.79284491;-20.11552199;100.4326966;17.44358577;7.58100438;0.426564831;-1.687942405;-5.517021187;-5.263047854;-34.58799309;-1.509161864;-1.926963496;-9.860867341;6.158720612;11.17103542;-2.765001583;4.054672889;-25.37844499;-2.048529937
-11.88771106;-18.92058327;105.7729233;15.67562943;8.247510324;0.450014648;1.329150562;-5.455590912;3.764523156;-40.12803894;3.934449798;0.656097354;-8.56376166;6.525169982;11.37194118;-7.806734453;2.089532584;-21.62358525;-1.390692792
-10.30604426;-17.13908222;106.0609588;10.91876934;10.15512945;0.554373988;2.06537265;-6.342105358;7.721939719;-44.94716427;6.222489503;-0.57914055;-10.29107795;7.678671802;11.32747322;-7.299295769;-5.177615712;-19.518121;0.096232519
-8.571791671;-15.31795481;102.875413;6.697841575;11.60858839;0.680148795;0.349816352;-6.575928161;3.918667505;-49.27809122;4.584954683;-6.087940244;-13.78681439;8.476257031;10.63402601;-2.790738146;-16.89059904;-21.07742384;1.571324401
-6.87986773;-13.35785183;98.72793533;6.925966089;11.40154343;0.746436997;-2.512445727;-4.938229971;-5.46602141;-52.6137506;-0.146444162;-14.20111863;-17.32819876;8.309390398;9.430123557;2.139935166;-29.1279407;-24.48207399;2.384982181
-4.937854451;-11.06756519;95.9731662;13.5103348;9.895803043;0.710998737;-4.603272903;-1.607642097;-14.6331781;-53.84670639;-6.106999399;-22.06757029;-19.85596263;7.530211981;8.350319966;4.541038566;-36.64886379;-26.10981105;2.449137091
-2.322349373;-8.509892538;95.60563488;24.98543723;8.676550779;0.596692874;-4.726358194;1.856606665;-18.14267875;-52.0819233;-11.34846358;-27.4308279;-21.4779581;7.07064819;7.985629335;3.738728589;-35.99826157;-24.19282909;2.166146388
0.952853166;-5.823254154;96.68076166;37.14165353;9.106129454;0.465730007;-3.231264136;3.595554475;-14.83026258;-47.54030927;-14.6681536;-29.98320795;-23.07835282;7.640130523;8.330039063;1.005243915;-27.92798493;-20.64016484;2.024078108
4.174254919;-2.919105118;96.80675454;45.32092858;11.08324927;0.368334506;-1.683162924;2.785141169;-8.690337396;-41.82020728;-15.93937666;-31.31053699;-25.42220865;9.181709009;8.737494296;-1.984335124;-17.27;-19.28680077;2.221773073
6.259390164;0.407360925;93.51061221;46.93540707;13.11309154;0.311531611;-1.608703253;0.197904049;-5.886700508;-37.19507851;-15.85235932;-33.48064756;-28.458367;10.97818538;8.468009611;-4.376103002;-10.04854769;-22.14575211;2.616701139
6.478423464;3.986344068;85.70122735;42.63118477;13.60666153;0.27153013;-3.28158873;-2.436552124;-10.01016017;-35.31668308;-15.28928757;-37.34871486;-31.3;12.23207726;7.360925224;-6.211648712;-9.620678514;-27.12922574;2.975864407
5.022444721;7.034418868;74.34945278;35.47074549;12.23778849;0.231720808;-5.500568132;-3.753537063;-19.18133471;-36.16242116;-14.74613246;-41.85449417;-32.82135635;12.59767064;6.031063871;-7.773287187;-14.47899224;-29.44358427;3.247350674
2.967923585;8.679294066;61.97843036;28.85184438;10.16695139;0.206112624;-6.53680986;-3.702331914;-27.31566793;-37.96207883;-14.16566588;-44.81;-32.37714579;12.27467187;5.386086311;-9.14732776;-19.30190209;-25.56976482;3.587613666
1.641798065;8.938345583;51.29970831;24.64291755;8.982076439;0.224553593;-5.496948938;-3.380339779;-28.69480217;-38.21837507;-13.26441037;-44.53474839;-30.13466854;11.69980416;5.861782809;-10.37792783;-18.58719897;-16.37289613;4.14052512
1.839008773;9.152758286;43.83952706;22.67807483;9.345219568;0.294666206;-3.018805753;-3.927539005;-22.37510236;-35.21604774;-12.07949653;-41.08361269;-26.85865955;11.18740164;7.034718479;-11.70814402;-10.37760369;-6.579619977;4.811305354
3.4310817;11.15544004;39.34311076;21.64467155;10.54777945;0.379396405;-0.7634006;-5.432773286;-13.02086851;-29.07997156;-11.27342742;-36.18856532;-23.40830072;10.82211834;7.956579458;-13.2790064;2.462024038;-1.020245389;5.279191653
5.582142783;15.61068218;36.19671692;20.40664297;11.30653891;0.415815654;-0.141787127;-6.796861813;-7.500937969;-21.7142055;-11.87864106;-32.05651859;-20.36150891;10.60325658;7.931840103;-14.43921103;14.19517769;-0.857418207;5.254227266
7.33770364;20.95889061;32.47395327;18.67802442;11.00202382;0.36245121;-1.314282754;-6.699499523;-9.878090793;-15.65177188;-14.57431736;-30.00163989;-17.99405967;10.60202999;7.075170567;-13.58719222;19.91184763;-3.015876631;4.73907119
8.131774597;24.15874112;26.91774997;16.70222983;10.20124624;0.234428006;-3.235648229;-4.873812369;-18.62648735;-12.52312372;-18.98150339;-29.8997071;-16.50041936;10.93391946;6.175352279;-9.208977687;18.38601854;-3.210638426;4.042035948
7.910058594;22.94076866;19.35003906;14.51055415;10.016983;0.094260859;-4.631964034;-2.587480802;-28.08133493;-12.08791036;-23.53156395;-30.70259037;-16.14637633;11.58768566;5.991272038;-1.534566319;12.28624527;0.153277187;3.518557047
6.917328173;17.80500495;10.45066368;11.63741238;10.9507372;0.004161853;-5.041201645;-1.838777394;-32.76943237;-12.4292418;-26.11867276;-31.41310246;-17.14685258;12.32528107;6.590547005;6.77405948;5.91833266;4.623479448;3.276747726
5.432752742;11.94202308;1.215662016;7.638825088;12.33142102;-0.02064688;-5.05631611;-3.82693606;-31.119891;-11.19621068;-25.21245754;-31.67755908;-19.36153167;12.79849277;7.295640681;12.03877459;2.344854627;5.99124634;3.121908966
3.684414224;8.894868123;-7.518497607;2.910977735;12.88665402;-0.018881092;-5.640517557;-7.896295562;-25.79996766;-7.131718186;-20.76410674;-31.63162959;-22.12454875;12.80036768;7.275336565;12.39852619;1.90503935;2.120832604;2.792634061
1.930944661;9.798133792;-15.27615868;-1.074443012;11.9215936;-0.0460049;-7.184906732;-11.84070225;-20.82873952;-0.93399625;-14.34093108;-31.34184915;-24.46111813;12.42265708;6.273077611;9.745580549;2.881375595;-5.076931425;2.262385973
0.518726953;12.59551478;-21.88677331;-2.546364495;10.01678553;-0.125912193;-9.155840833;-13.40960597;-18.19878694;5.103506978;-8.399291998;-30.48122837;-25.6235713;11.97448028;4.861978601;8.714446103;3.425166518;-11.19861651;1.808605788
-0.228193515;14.05777433;-27.30823836;-0.740760749;8.597661606;-0.232361751;-10.60471429;-11.90182505;-16.86245944;8.476207751;-5.117963673;-28.5466112;-25.56113753;11.74381387;4.027251924;12.9770482;3.100490736;-12.97288024;1.762241606
-0.219770954;12.92854826;-31.45985478;3.306301635;8.751395021;-0.313580479;-11.02177998;-8.634791476;-14.64357667;8.028598942;-5.425254026;-25.33739975;-24.90785715;11.82215198;4.432010396;21.63605327;2.967639002;-10.75570133;2.156234689
0.298528886;11.32977602;-34.14936116;7.213190643;10.33130986;-0.335951243;-10.72148151;-5.928925088;-11.0085429;4.713605492;-8.67055202;-21.15352028;-24.4038896;12.12840199;5.95363308;28.95043481;4.39917178;-7.822646603;2.608194215
0.893977443;12.91;-35.1447622;8.723348184;12.10750015;-0.308210059;-10.40401631;-5.38461463;-7.973655396;1.070184619;-13.0005718;-16.48034194;-24.13157459;12.55601796;7.819341236;28.23337956;7.75;-7.281816524;2.580929374
1.255240439;19.14062581;-34.39405572;7.127609722;12.78224879;-0.267433019;-10.3208414;-6.760309135;-8.251259893;-0.243970416;-16.18140998;-11.49257182;-23.17769424;13.05243707;9.175330157;17.2725449;11.94284884;-9.468085779;1.825329244
1.405664359;27.11835466;-32.29664824;3.573331358;11.95940137;-0.242903238;-9.862338054;-8.275191741;-12.36047321;2.074957438;-16.50519782;-5.954344824;-20.09927261;13.54250794;9.617953011;0.969670066;15.18090012;-12.08048872;0.626080207
1.629525258;31.28404651;-29.82419803;0.046467606;10.27592403;-0.232178788;-8.020644341;-8.054304065;-17.4764756;7.413245594;-13.47888575;0.26028603;-13.99127196;13.8153706;9.319760309;-11.2868101;16.12820614;-12.72806148;-0.383557952
2.168326704;28.12725988;-28.29683035;-2.166590648;8.708618933;-0.21018389;-4.379694701;-5.58192812;-19.30743469;13.85841727;-8.080890349;6.453949728;-5.443685539;13.57394999;8.753580346;-11.93873885;14.66308291;-11.36516197;-0.710778412
2.954885596;19.9755663;-28.81525092;-3.357000672;7.784018364;-0.160753266;0.233266226;-2.080406207;-15.56987828;19.47018979;-2.44888231;10.95434799;3.356568905;12.68847562;8.312132501;-0.614998465;11.77432378;-10.29368432;-0.401778831
3.629329351;14.1303733;-31.63454911;-4.985602718;7.400833924;-0.09978796;4.059417344;0.395178601;-8.09525304;23.28384762;0.992275766;11.90934057;9.594058745;11.44392847;8.116656997;15.5964854;8.852296596;-11.74949609;-0.016867151
3.836056266;17.19151677;-35.9099174;-8.377729391;7.299100867;-0.067616362;5.503354315;0.38179277;-1.643681945;25.42316528;0.683224101;8.598399751;11.33059729;10.49484214;8.075138633;27.23500861;6.974139808;-15.3913351;-0.193122781
3.548777435;28.68672716;-40.07191598;-13.56920801;7.568321977;-0.096442656;4.160112349;-2.127120238;-0.271567523;26.43377319;-3.193385238;2.264165704;8.58956868;10.46141693;8.040194937;29.04289336;6.61151116;-18.15418828;-1.14381257
3.136689201;39.43142641;-42.66713155;-19.16781316;8.6002494;-0.180949994;0.970227982;-5.920358659;-4.21655824;26.53346969;-8.694512303;-4.308115725;3.294010407;11.4456634;7.904754977;23.06698785;7.757110985;-16.78091537;-2.493009988
3.101245162;36.88510446;-43.13530173;-23.27020846;10.51998187;-0.277102177;-2.576897345;-9.559029149;-9.882665258;25.45420869;-13.14026141;-8.329490685;-1.909157004;12.88630596;7.612605153;16.15057428;10.17209552;-10.85722356;-3.567252468
3.691058611;14.29634872;-41.99782944;-24.69620116;12.72478272;-0.330039063;-5.49797207;-12.25440647;-12.92684528;22.96183743;-14.69249691;-8.647026003;-5.157202126;13.93348815;7.165869636;14.11256827;13.49261659;-3.607561284;-3.899333458
4.701210183;-23.04829489;-40.34502361;-23.65448856;14.11074866;-0.30868607;-7.774204481;-14.00957862;-11.8551317;19.49657089;-13.51428294;-6.331825233;-6.228787608;14.08264164;6.671152068;17.35776708;17.17715305;0.400807113;-3.545035516
5.603422301;-59.60561891;-39.02847651;-21.47058089;13.89891006;-0.221556161;-9.925201967;-15.11262838;-9.132453252;16.24026816;-11.6707579;-3.81277799;-6.255604761;13.55156971;6.35364049;21.23137677;20.46474658;-1.189905064;-2.986016504
5.883160375;-78.79546004;-38.17363909;-19.70848885;12.33294376;-0.105552129;-12.18942681;-15.6049014;-8.926219251;14.41694074;-11.7190107;-3.209186101;-6.607607758;13.07074965;6.445717375;20.43856669;22.49815431;-6.678162044;-2.731406072
5.315076541;-73.43872542;-37.34389912;-19.35443157;10.55759794;-0.000363548;-14.10883984;-15.26329666;-13.43175137;14.34665655;-14.87713106;-5.054122842;-7.813666931;13.25048054;6.981330983;13.63935293;22.60602917;-11.6974751;-2.951713788
4.000851417;-50.06148048;-36.13663483;-20.52719519;9.709832176;0.071680919;-14.90003906;-14.0589426;-20.88;15.07061627;-20.0550492;-8.227279569;-9.272563198;14.06264211;7.67463977;4.455216659;20.59948885;-12.68363192;-3.415027332
2.217450779;-24.07992897;-34.63436009;-22.70820451;10.00159402;0.109644004;-14.24925616;-12.54599721;-26.86718614;14.95391057;-24.50292403;-10.97012147;-9.869333565;14.88563321;8.049007918;-1.707423271;16.92173534;-9.568287078;-3.727506118
0.26436817;-9.476710918;-33.27905079;-25.16335396;10.62494198;0.12534512;-12.7657663;-11.67257342;-27.8467684;12.86835043;-25.69602791;-12.10507234;-8.942760875;15.06998786;7.775226396;-2.159812207;12.56800256;-5.592700226;-3.646329325
-1.56354874;-10.39209103;-32.26874839;-27.25278317;10.58043362;0.131916165;-11.62381103;-12.06094035;-23.86107547;9.038207591;-23.14250985;-11.57912741;-6.844240301;14.51920407;6.954196046;1.006190864;8.785105486;-4.566653413;-3.216998601
-2.931536145;-20.26801545;-31.03662025;-28.55422061;9.672612817;0.135953174;-11.6458819;-13.36637343;-18.29733325;4.861521148;-18.7928861;-10.11254498;-4.699044959;13.76482643;6.072893649;2.853014276;6.627643745;-7.909304248;-2.670191938
-3.503079399;-28.34852806;-28.35321835;-28.88895298;8.734264456;0.134097468;-12.59283212;-14.35960822;-14.97877378;1.837272042;-15.70380301;-8.44995525;-3.603451966;13.47057147;5.622900367;-0.23241014;6.510227315;-13.77469519;-2.215547425
-3.122766084;-28.05375248;-23.08682928;-28.31545058;8.83209781;0.114151531;-13.27925269;-13.81003906;-15.08387534;0.460406898;-15.87365874;-6.904829322;-3.88333406;13.82089787;5.684257827;-7.569786246;7.954547131;-18.68733981;-1.92042501
-2.009699452;-20.95846667;-15.08245159;-27.05610496;10.1581812;0.063054098;-12.45825414;-11.53986555;-16.43526727;-0.030252303;-18.78838747;-5.480313317;-4.938725392;14.35908121;5.846440165;-14.67262894;9.722933849;-20.11163795;-1.744825003
-0.739084776;-14.07601015;-5.47030498;-25.32494779;11.64687449;-0.01813971;-9.794838424;-8.787393096;-15.65118408;-0.884566251;-21.72055042;-4.275105813;-5.733957275;14.42938998;5.566470875;-16.59878928;10.38031005;-17.90090839;-1.65044586
0.06652035;-13.44162432;3.865114982;-23.15261941;11.74213103;-0.10074839;-6.186916509;-7.498303976;-11.27499664;-2.745753471;-21.57357605;-3.666364913;-5.542624252;13.8157029;4.672746343;-11.46133396;9.060820466;-13.80403496;-1.654947213
0.140790898;-19.41644022;11.27138622;-20.39668058;9.707070779;-0.131451343;-3.219728448;-8.993801334;-5.255611776;-5.184839842;-16.9779991;-4.052792384;-4.434740049;12.97362231;3.568076987;-1.577318192;6.004935882;-9.875614021;-1.786212846
-0.27188946;-27.10229399;16.04072882;-17.01817908;6.346045278;-0.059978737;-2.193694901;-12.98218765;-1.580132512;-7.262936639;-9.213589712;-5.419805067;-3.229749584;12.61801235;2.929505505;8.236560783;2.480890595;-7.274405108;-2.004997319
-0.701232414;-30.82996546;18.36997173;-13.44273856;3.483557632;0.120633056;-3.42403641;-17.65650895;-3.203537501;-8.610908614;-1.412080195;-7.190259214;-3.009083787;13.03119107;3.146164793;13.64955747;0.055547965;-6.192007023;-2.191657879
-0.996123018;-28.61967101;18.72256972;-10.65249388;2.607339939;0.351346463;-6.221384937;-20.82433402;-9.747971221;-10.04452585;3.296610688;-8.569208544;-4.520416226;13.74334952;3.982168304;12.96356085;-0.371874291;-6.455085485;-2.215527825
-1.67277254;-23.09775424;17.22870777;-9.790819624;3.796715799;0.528025407;-9.428672561;-21.26644737;-17.75118828;-13.11643708;3.386924319;-9.130587208;-7.802303155;13.92387692;4.76478658;7.355841179;0.851838856;-7.883170986;-2.012847464
-3.693068369;-18.68483049;13.68375691;-11.45262607;5.796233078;0.562160754;-12.05913237;-19.38955976;-23.19427152;-18.92417218;-0.681112602;-9.157294688;-12.18622258;13.17261117;4.93472705;-0.352707573;2.345824883;-10.06887663;-1.590812415
-7.731626917;-17.90501336;8.141558932;-15.15931117;7.103531059;0.442782635;-13.65578529;-16.79424144;-24.31862441;-27.15462704;-7.289422738;-9.444512205;-16.63507285;11.99954144;4.472542189;-7.255720512;2.567605131;-12.10397756;-0.959616921
-13.44431766;-19.94325773;1.532895235;-19.46376687;7.104597572;0.251595282;-14.30584021;-15.1625181;-22.64972994;-36.16990445;-14.84661266;-10.72202016;-20.24132442;11.51307911;3.832323518;-11.41593978;0.755296624;-12.91799739;-0.081154676
-19.34354201;-22.21317794;-4.337766943;-22.68855578;6.330143441;0.113023541;-14.47198545;-15.28165658;-21.61429634;-44.06767867;-22.39332508;-13.14826183;-22.64910652;12.5220322;3.468776099;-12.27938854;-2.692634123;-12.1603701;1.083793168
-23.49435152;-23.02352887;-7.57244653;-23.81129053;5.741005272;0.110279582;-14.7896813;-16.80143016;-23.92413402;-49.8318364;-29.34107834;-16.2351009;-24.18360146;14.7966283;3.416895385;-10.64199204;-6.617421364;-10.7580194;2.450882477
-24.63679029;-22.78648027;-7.233092487;-22.88782204;5.793677808;0.228336097;-15.84477651;-18.71887855;-29.65951803;-53.63961489;-34.85477919;-19.19229482;-25.59;17.13878906;3.323395044;-8.235849657;-9.9388155;-10.35901351;3.731224069
-22.97776461;-22.91851992;-3.888916843;-20.7642129;6.138302598;0.367772606;-17.90786066;-20.10255768;-36.29350174;-56.15997147;-37.67649313;-21.37464834;-27.4982299;18.24285739;2.886545531;-6.894815777;-12.30873223;-11.89223755;4.507054288
-20.07891911;-23.85809004;0.773490545;-18.37795866;6.124700194;0.420163952;-20.71992137;-20.54184311;-40.44058165;-57.59326421;-36.75573616;-22.51640257;-29.93767303;17.65705486;2.253138973;-7.526583789;-14.14560051;-14.4775852;4.45283503
-17.88369794;-24.33324498;5.005434873;-16.22752229;5.518131512;0.347822248;-23.53184918;-20.15830289;-40.01;-57.44567836;-32.27839355;-22.68869529;-32.26156918;16.06657837;1.945416563;-9.52052963;-16.10681863;-15.84193464;3.555373266
-17.52976541;-22.62594522;7.947382772;-14.37294781;4.689831371;0.207621894;-25.4997209;-19.3813983;-35.37767487;-55.35543056;-26.21686807;-22.14669405;-33.5996932;14.69098189;2.342975285;-11.17446248;-18.46019163;-14.13880371;2.164460644
-18.73884872;-18.53646305;9.810019531;-12.8274925;4.141331382;0.103469626;-26.24437972;-18.76672538;-29.00913463;-52.25489627;-21.755943;-21.23821318;-33.56120511;14.32520167;3.205110662;-11.01579728;-20.83621506;-9.711491386;0.824583107
-20.16187596;-14.02652317;11.23654591;-11.86366082;3.927358343;0.107982275;-26.15838322;-18.92953888;-23.97398318;-50.67713444;-21.73146203;-20.37376023;-32.65052268;14.8210692;3.735602469;-9.053970724;-22.50299903;-5.18295697;0.001327419
-20.39240402;-11.77240371;12.43571394;-11.87871785;3.642195986;0.215183428;-26.15112496;-20.44529373;-22.33386853;-53.57869181;-26.97762719;-19.93474679;-32.00027763;15.38933653;3.213951787;-6.874577883;-22.89890627;-3.585760137;-0.113567401
-18.92612837;-12.86970169;12.83209943;-12.9183933;3.020729553;0.356481809;-26.94705184;-23.57774051;-24.27014113;-62.26317875;-35.64955171;-20.0742285;-32.53050559;15.38596666;1.668127495;-6.365668383;-21.99950418;-5.971141602;0.388479105
-16.43118602;-15.78983568;11.53841239;-14.31992393;2.497301637;0.458957381;-28.45548309;-27.92454497;-28.27120399;-74.87777013;-44.02766876;-20.55608163;-34.14486521;14.86317928;-0.034400086;-8.079939213;-20.27561021;-10.5106935;1.266156005
-14.20729067;-17.58594109;8.271559378;-14.87360858;3.01133414;0.494012351;-29.73706627;-32.2774855;-32.1120422;-86.7489882;-48.39045711;-20.84781722;-35.63768807;14.43143702;-0.819608245;-10.67043382;-18.33872041;-13.92804377;2.270112094
-13.26449193;-16.30772708;3.946094523;-13.47079164;5.074104498;0.480160957;-29.64243681;-34.94372917;-34.01269682;-92.60411651;-46.8755903;-20.50046481;-35.48652711;14.623741;-0.256551055;-11.98531124;-16.58914959;-14.1244152;3.196947166
-13.66500647;-12.49558998;0.390325992;-9.790483128;7.945684188;0.448483677;-27.64533769;-34.46797464;-33.36367039;-89.37938792;-40.26971197;-19.55554444;-32.99275959;15.38418701;1.107500944;-10.93754158;-15.1278983;-11.80506187;3.87256268
-14.53601563;-8.477577246;-0.716990141;-4.53683415;9.855324442;0.410782972;-24.21334282;-30.37600499;-30.71035113;-77.85413719;-31.34412507;-18.61027392;-28.88907912;16.14426056;2.225607833;-8.498647402;-13.94159422;-9.734611903;4.153613705
-14.68410606;-6.18822299;1.012690942;0.908852783;9.327638292;0.361047073;-20.43170274;-23.49707159;-27.135607;-62.11607533;-23.23534785;-18.40838408;-24.88983814;16.37785058;2.423228449;-6.871608294;-13.13976036;-10.27244465;3.996552851
-13.36409286;-5.529578736;4.26843848;5.138423856;6.576016279;0.302316154;-17.21610646;-15.67297911;-23.52605014;-47.28591666;-17.89241153;-19.24;-22.48263348;16.08510087;1.888831896;-7.520078125;-12.99396798;-13.31445039;3.539732904
-10.70589615;-4.728052407;6.699024237;7.248901259;3.644459663;0.262749035;-14.78255552;-9.02921698;-20.22821352;-36.98478222;-15.46920066;-20.65614408;-21.89115424;15.7493849;1.357455149;-9.816057374;-13.70857504;-16.40405331;3.089178885
-7.569193547;-2.260716859;6.260828002;7.04013828;2.917340367;0.275458001;-12.79146226;-5.196864388;-17.25778296;-32.01948338;-14.86240538;-21.78728379;-22.03490793;15.8328016;1.311265487;-11.57566372;-15.09372101;-16.88665868;2.961531496
-4.969479467;1.519091431;2.409907045;4.954291047;5.064583603;0.336732409;-10.96731273;-4.816622715;-14.75694705;-30.80547036;-14.85153494;-22.04726017;-21.51714146;16.31729389;1.480276728;-11.05796783;-16.4270821;-14.21671306;3.270274294
-3.462240089;4.61300231;-3.609756944;1.923491872;8.173129475;0.386625582;-9.56561046;-7.437863655;-13.18366712;-30.90927321;-14.97462148;-21.63352998;-19.8264291;16.73998604;1.149296405;-8.621715678;-16.69043906;-10.41961211;3.819409545
-2.86059871;5.263374214;-9.550494469;-0.849827602;9.011969112;0.342381833;-9.208486779;-11.74709376;-12.97379454;-30.55678692;-15.56011352;-21.36405911;-17.75453365;16.67583259;-0.003792492;-6.47214117;-15.10994623;-8.335827903;4.207939208
-2.434252919;3.728542339;-13.51622349;-2.285384136;5.63065483;0.166880132;-10.21322814;-16.01761557;-13.95369082;-29.26176614;-17.00412033;-21.94472975;-16.68965182;16.17354881;-1.372059152;-6.641385366;-11.68382862;-9.195345579;4.08810324
-1.442775954;2.259210727;-15.0547192;-1.978313127;-0.760889503;-0.08515481;-12.04862182;-18.69132198;-15.11521897;-27.4941943;-18.94994562;-23.27862781;-17.39989365;15.69427937;-1.797087787;-9.008021271;-7.322097978;-11.61732676;3.394084247
0.338927974;3.227018296;-15.34463136;-0.601161632;-6.302811604;-0.290910725;-13.49268069;-18.96107519;-15.13481036;-25.91110786;-20.09105559;-24.43964571;-19.3595695;15.60530748;-0.619417001;-11.2228806;-3.420538264;-12.86188211;2.376193642
2.437638211;7.047528187;-16.39897457;0.294358979;-7.226094836;-0.344841906;-13.4587018;-17.11554636;-13.35342504;-24.75589973;-18.8390742;-24.38998856;-21.19908789;15.75533342;1.5504489;-10.73432064;-1.05435876;-11.22071352;1.425685169
3.969503402;11.73852581;-19.77779503;-0.783762693;-2.815454633;-0.241024423;-11.83286382;-14.38731078;-10.41075555;-23.70162381;-14.4283684;-22.86969749;-21.87173724;15.6188532;3.159273091;-7.165560376;-0.282192919;-7.508490718;0.831403847
4.233120697;14.49551794;-25.54763654;-4.071633503;3.741591221;-0.082857593;-9.594760155;-12.25309241;-7.880419441;-22.04131017;-7.663429163;-20.69650411;-21.48829334;14.94110122;3.009778084;-2.872352065;-0.066945639;-4.455244251;0.643583256
3.233518759;13.89384423;-32.03947916;-7.995401404;7.412854774;-0.005983353;-8.068857464;-11.51352954;-7.054121059;-18.99371274;-0.729899579;-19.18007813;-21.05637135;14.25536847;1.451499627;-1.062023319;1.029209211;-4.599588037;0.713832348
1.778030305;10.84086492;-36.49531209;-9.890134398;4.842445136;-0.072396433;-7.898229361;-11.74589822;-7.820414495;-13.98754727;3.867478101;-19.1017412;-21.35062514;14.64955499;0.320158387;-3.045641989;3.754999118;-8.458815074;0.835990095
1.040075684;7.593972776;-36.24303946;-7.724054872;-3.269076345;-0.220869337;-8.591670553;-11.58814293;-8.633433984;-6.908636093;4.577586446;-20.10011437;-21.96500083;16.80266359;1.470024414;-7.04683994;7.427259379;-14.35518684;0.856173833
1.837031544;5.887450517;-29.83227398;-1.686408664;-12.67707467;-0.315421009;-9.024929622;-9.768483235;-7.720572989;1.710570815;1.504536515;-20.98226934;-21.49726078;20.05539201;5.001695575;-9.679122388;10.15442093;-19.7812378;0.687918192
4.082856737;5.885622102;-17.65819737;5.589872749;-18.55620328;-0.253928033;-8.464109575;-6.199861642;-4.597929912;10.67087228;-3.813446788;-20.70177585;-18.82282861;22.42192332;8.71323588;-8.848430201;10.03336145;-22.97787539;0.279234169
6.790918366;6.743023206;-1.88803437;10.49808878;-18.6656935;-0.049524013;-7.222654313;-2.297334389;-0.60237468;18.38542551;-9.266203491;-19.16930107;-14.37440152;21.7720171;9.435163604;-5.540719261;6.599270617;-23.48982428;-0.381373761
8.650836811;7.961311588;14.19135248;10.67653246;-14.43396844;0.179916231;-6.367840378;-0.159795687;2.093049441;23.44352605;-13.041435;-17.19241542;-10.20191525;17.42188086;5.385848967;-2.910694088;1.500063477;-21.61538862;-1.199548619
8.815564534;10.02291184;27.09943797;6.39520564;-9.374163063;0.303095025;-6.711059831;-1.094096005;2.218279483;25.22549806;-14.03311695;-15.58690009;-8.550946621;10.91012788;-2.245462351;-3.477558673;-2.219615199;-17.70010436;-1.928104179
7.38604256;13.60646948;34.02783587;0.096289481;-6.270183825;0.271244686;-7.951669392;-4.52764333;0.425191049;24.23022005;-11.80371857;-14.23675286;-10.00023535;5.252875628;-9.795608989;-6.923317695;-1.912276319;-12.165778;-2.234771742
5.286074519;18.21396556;33.4081991;-5.53758579;-5.354079439;0.14241453;-8.745260002;-8.173885867;-1.331527443;21.89835576;-6.470185145;-11.97037927;-12.71533826;3.110431918;-13.44348279;-10.44573609;2.92384588;-6.16045531;-1.886224102
3.638382621;21.75201796;25.09990114;-9.483211612;-4.718282812;0.020822709;-7.702864413;-9.450288089;-1.551437811;19.99270734;1.199294685;-7.465232382;-13.58696576;5.153065146;-11.6754124;-11.31309242;10.14038882;-1.838802574;-0.924793889
3.082571849;21.77690621;10.26304288;-12.78526744;-2.366087911;-0.031070485;-4.534176028;-7.211775567;-0.524606347;19.84017946;9.604466877;-0.520237812;-10.50793535;9.782867991;-6.117597376;-9.279703003;16.09568571;-1.482817634;0.315560549
3.480699047;17.49457763;-8.936085401;-17.21947532;1.899036632;-0.03161289;-0.39286047;-2.567151154;0.022865334;21.7934462;16.48697974;7.333195275;-4.041782436;14.3463756;-0.220558326;-6.663741694;17.76391151;-5.830268969;1.395481767
4.146859995;10.74967637;-29.66042344;-23.36238885;6.23266741;-0.041409095;2.896767883;1.846381907;-1.233157685;25.12989234;19.74112089;13.45736352;2.877568353;16.87688181;3.105777219;-6.049435856;14.4231078;-12.98999265;2.032194708
4.360943309;5.005050188;-48.75746233;-29.6891274;8.205002227;-0.088210822;4.159543006;3.659959826;-3.515404703;28.38984673;18.57394055;15.62033816;7.054510728;17.09933974;3.132054995;-7.786848951;7.84365451;-19.13466999;2.235768608
3.769875215;3.046731087;-63.219042;-33.47381465;6.669724182;-0.127087441;3.722445216;2.386475324;-4.063590591;29.99110656;14.22532239;13.36745814;7.342508761;16.11169023;1.186596283;-9.676190302;0.951096744;-20.78988363;2.212982205
2.440610844;5.26435866;-70.82172579;-32.79867496;2.570058594;-0.074105162;3.145984389;-0.290670519;-0.272269493;28.88629735;9.535425232;8.317510463;5.365218904;15.21721034;-0.81228566;-9.196746601;-4.021552769;-17.1252481;2.125371335
0.646471156;9.824846515;-70.85342176;-28.08229835;-1.821682093;0.114957201;4.03892781;-1.757043812;7.776653615;25.02866541;7.377621706;3.213241462;4.104368674;14.94823706;-1.802841046;-6.203932862;-6.604801944;-10.4742537;1.915243267
-1.335987921;14.37724482;-64.59595526;-21.92901924;-4.490373382;0.390108445;6.840686765;-0.355763279;16.59101246;19.45848611;8.862679992;0.394822367;5.493489352;14.98820944;-1.911726726;-3.443551491;-7.767842135;-4.617508188;1.35970873
-3.225902355;17.66046755;-55.14324663;-17.43483931;-4.835935164;0.626328791;10.44605604;3.401367717;21.26638094;13.93279911;12.5483279;0.671420905;8.917086887;14.83858155;-1.704259904;-4.147101671;-8.648663225;-2.119463287;0.317236238
-4.60606005;19.68147168;-46.36127677;-16.26345697;-3.670019531;0.704242538;12.89860865;7.131723573;18.91050252;10.20577538;15.30591818;3.185652131;11.75269843;14.47;-1.311661998;-8.718285446;-9.44149419;-2.75070997;-1.041954556
-4.920882153;20.63990187;-41.29068481;-17.8969572;-2.315217782;0.590171095;12.61956126;8.15879368;10.89401397;9.262766371;14.35246799;6.161191744;11.45137479;14.33665284;-0.332687537;-13.59094147;-9.312769098;-4.130970078;-2.231812071
-3.777932179;19.99421767;-40.75162587;-20.45734269;-1.682228296;0.35619382;9.328159922;5.273975209;2.080043945;10.88767103;9.086347187;7.932706263;7.472597942;14.81752421;1.485542449;-13.63683135;-7.335693334;-3.940475613;-2.707170718
-1.416064455;16.8004427;-42.95976998;-22.26352345;-2.000007629;0.130348591;4.114927885;-0.489049872;-2.516527678;13.80396628;1.454421988;7.661908062;1.600888085;15.71202998;3.607170455;-6.402705858;-3.618820252;-1.848101865;-2.206793138
1.058525769;10.99782895;-44.46049137;-22.83574347;-3.164353644;0.019104114;-1.249571643;-6.522367348;-1.164375857;16.32124144;-5.391115001;5.508272248;-3.460895465;16.33877485;4.894811378;5.33498003;0.323644169;0.353298524;-0.936380594
2.014636173;4.172529425;-41.90103879;-22.68402366;-5.138320414;0.056906875;-5.228924884;-10.2354169;3.635176804;17.13233023;-9.161928058;2.388137902;-5.968345201;16.17216693;4.567674624;15.03056627;2.300211341;0.380859811;0.535671817
0.173890811;-1.264237871;-33.62446021;-22.3113148;-7.924355585;0.206859184;-7.098582539;-10.49326779;7.341575068;15.84133951;-9.739875873;-0.427667883;-5.982684197;15.39518606;3.040876486;16.9230038;0.77290136;-2.573929252;1.589297241
-4.47506614;-3.908924822;-20.20029711;-21.47539645;-11.17421038;0.395160256;-6.966321022;-8.018353005;6.94614002;13.00390794;-8.830280037;-1.727244086;-4.682979164;14.78755812;1.757117048;10.16425849;-4.125938101;-7.15125748;1.859372603
-10.38027059;-4.40896247;-3.747497208;-19.40992776;-13.94816163;0.546092903;-5.400517045;-4.621226238;3.161227273;9.769783576;-8.318409871;-0.741628138;-2.964664711;14.98213192;2.005629486;-0.711025952;-10.54348476;-10.86995413;1.36175307
-15.08114762;-4.482307115;13.28264949;-15.77113718;-15.04668702;0.6009559;-3.003475241;-1.887012233;-0.352218785;7.401605465;-8.635654375;2.557591685;-0.666185043;15.74679016;3.700029297;-9.259357765;-15.7960509;-11.97579472;0.411109213
-16.52776825;-4.686442776;28.93261248;-11.39699081;-13.79503577;0.528737331;-0.182918326;-0.224086761;0.050464683;6.891561248;-8.389438738;7.386255436;2.916669843;15.99666944;5.23897424;-11.69958835;-17.60879596;-10.61267772;-0.567163049
-14.2846598;-3.237940623;41.72863;-8.115724328;-10.66769673;0.34038173;2.827509879;1.14867052;5.231428464;8.709813489;-5.522490553;12.42354949;7.80124911;14.63571727;4.701398237;-9.024523998;-15.02881818;-8.509805575;-1.208160286
-9.84024785;2.479192376;50.20954778;-7.654471688;-7.165747079;0.100053101;5.806672169;3.365123494;12.76207853;12.60507532;0.888628633;16.37487605;12.62253037;11.58273138;1.460559298;-5.304929255;-8.670734766;-7.593794637;-1.307752251
-5.775313927;12.64299562;52.811185;-10.45643818;-4.922924066;-0.089022988;8.398465116;6.859967932;18.8396026;17.45326872;9.544193826;18.53618782;15.25137093;8.111208923;-3.132416638;-3.990195077;-0.373059569;-8.674993982;-0.864693619
-4.269726635;23.05638823;48.57435471;-15.2878172;-4.658903232;-0.134972751;10.0932089;10.83071626;20.94321332;21.31783903;17.34601113;19.01868935;14.31489196;6.143692314;-6.625939656;-5.423204977;7.451837319;-11.1165863;-0.080177647
-5.861192219;27.10347199;38.27666118;-19.88841264;-5.77419366;-0.020001221;10.37169963;13.56874141;19.17917028;21.92376345;21.04808197;18.49512715;10.34853119;6.976052833;-7.249802928;-7.397966829;12.53372581;-13.51834034;0.705295021
-9.216042433;20.89582248;24.96681592;-22.15469623;-6.916133739;0.173374486;8.953044112;13.44147388;15.5248996;17.53155226;19.02600483;17.65529702;5.546665209;10.37350559;-5.182369401;-7.793338394;13.39399957;-14.72247405;1.158068047
-12.02742079;7.568088949;13.12455194;-21.05766349;-7.09147587;0.305580669;6.010134159;9.901703787;11.90430086;7.849100597;12.06691761;16.7558121;2.226332425;14.69824635;-2.302313382;-6.636355314;9.809621744;-14.39841826;1.134671586
-12.44570646;-3.527537325;6.682921044;-16.84161419;-6.457507815;0.27363423;2.202131866;3.898388536;8.793483517;-5.566401914;2.821946017;15.56162041;1.204233162;17.94262414;-0.671341041;-5.768441029;2.918807647;-12.96801416;0.782807944
-10.1336377;-3.265577768;7.135721162;-10.63887323;-6.156383436;0.089271409;-1.539438636;-2.5541339;5.37317679;-19.76861264;-5.571714798;13.67776428;1.385814798;18.89537048;-1.013551624;-6.690078125;-5.166858802;-11.16007813;0.454424808
-6.317380016;9.555918076;13.04911787;-3.94727199;-7.301127572;-0.121913171;-4.375266768;-7.375873475;0.840598615;-31.59262722;-10.80881371;10.99510199;0.884278918;17.65499503;-2.39856772;-8.856651414;-12.16544581;-9.616590923;0.453671979
-2.875027302;25.5608127;21.32650619;1.734083642;-9.902978029;-0.206914849;-5.858050971;-9.389475423;-4.405317196;-38.91706746;-12.04569147;7.921260439;-1.260210396;15.27331602;-3.280386625;-10.15533233;-16.49266443;-8.734372265;0.793648062
-1.115568773;30.24311479;29.26217153;5.161507019;-12.61147077;-0.095713255;-5.984898596;-8.711852381;-8.724333091;-41.3234211;-9.791467523;5.246741254;-4.174480711;12.95420053;-2.915292568;-9.100148069;-17.75080919;-8.649497011;1.167369434
-1.057436573;14.31027159;35.83280532;5.678897663;-13.54095368;0.148427005;-5.005585104;-6.41192474;-10.30185739;-39.85117028;-5.420998676;3.745314478;-5.802619745;11.44129798;-1.934486263;-6.551866485;-16.60560175;-9.221827741;1.191020913
-1.632960067;-18.63121519;41.33952481;3.595932615;-11.62547924;0.377601604;-3.185390106;-3.736980597;-8.401967461;-36.12868064;-0.672863645;3.750600025;-4.591881283;10.91620402;-1.64879412;-5.154348715;-14.20580347;-10.02106842;0.750435443
-1.599440623;-53.21876382;45.91836277;0.292845951;-7.512123991;0.467869843;-0.747840683;-1.440763989;-3.861457429;-31.50719862;2.764148937;4.929173725;-0.866248967;11.24753597;-2.77938093;-6.839422654;-11.56978932;-10.42587327;0.166401497
-0.471704782;-72.04606678;48.41848258;-2.25487689;-3.307861795;0.402231329;1.964750135;0.39168227;1.414832991;-26.70375174;3.665606191;6.351783907;3.200909535;12.21722006;-4.766936736;-10.67408909;-9.303965402;-9.881363971;0.010636976
1.185800996;-67.10019471;46.84432023;-2.434187476;-1.316610474;0.265784252;4.320966905;2.017598506;5.458883118;-22.00020943;1.711651843;6.84125645;4.997693139;13.53167286;-6.248616081;-13.17928587;-7.694868231;-8.200078125;0.680610399
2.287142336;-44.60144039;40.17073889;0.130889873;-2.628008246;0.164205872;5.495700557;3.557382636;7.056706525;-17.63054391;-2.241181617;5.482223818;3.198555174;14.74998632;-6.242429461;-11.09358843;-6.916672077;-5.722608224;2.05613769
2.156581708;-19.86098915;30.01514468;4.425734875;-6.509825409;0.137911985;4.89652105;4.77726658;6.045266823;-13.93147191;-6.349158135;2.101272452;-1.451961718;15.3744402;-4.97688887;-4.303370458;-7.072722835;-3.246284515;3.523134584
1.156736259;-6.29398761;20.54697284;8.77966657;-10.95886198;0.142532142;2.654620689;5.295153362;3.194118802;-11.13566608;-8.531361393;-2.519081295;-6.782416096;15.14456997;-3.654470059;3.635280934;-8.038377983;-1.772260107;4.371009316
0.526122858;-6.913455692;16.31516706;11.98073944;-13.9474564;0.105521319;-0.23898923;5.008065431;-0.101506371;-9.060292806;-7.496769561;-6.874801953;-10.68120084;14.28615142;-3.394436823;7.972317141;-9.337142938;-2.169328639;4.268992901
1.513897825;-14.27329898;19.37714989;13.94686476;-14.48087925;0.003031009;-2.36694999;4.352611789;-2.251107588;-7.059690522;-3.486238124;-9.402686961;-12.30606111;13.41723854;-4.302786129;6.273233613;-10.29558273;-4.810320171;3.454784687
4.420487732;-18.00262469;27.82214256;15.46651836;-12.83862123;-0.112794707;-2.669282256;4.140039063;-2.061712431;-4.38051105;1.758365795;-9.271626801;-12.2378386;13.0937484;-5.462411667;0.110532474;-10.45786234;-9.237307415;2.495602705
8.244528451;-13.35829112;36.85861141;17.26268958;-10.05034064;-0.158332214;-1.047409498;5.045820219;0.63622988;-0.691857501;5.863247164;-6.843998106;-11.66457681;13.33804373;-5.798261289;-6.367869689;-9.943965561;-14.02647267;1.826317323
11.22582591;-4.076838119;41.75559367;19.17456036;-7.183418714;-0.092125574;1.645594162;7.112338747;4.72103454;3.617750348;7.085254376;-3.481353792;-11.35855321;13.57813064;-5.014939371;-9.682968697;-9.403503129;-17.11626571;1.446091581
11.94648076;2.014606126;40.55961544;20.143507;-4.991854415;0.049308361;4.209504163;9.629334044;8.233659971;7.624792165;5.255896481;-0.768703518;-11.22072665;13.11157968;-3.787785748;-9.359170513;-9.51879252;-16.70441003;1.014013385
10.25214767;0.208053561;34.72944169;19.02189821;-3.992699187;0.184132635;5.829588192;11.49408028;9.459141111;10.41832629;1.847581963;0.361973711;-10.60818972;11.74720268;-3.091696775;-7.582150939;-10.40731184;-12.37936834;0.242748039
7.368241832;-7.319033814;27.45;15.54897559;-4.587652793;0.254467889;6.403367664;11.82896128;7.983312056;11.62203834;-0.905886819;0.034033412;-9.042425217;10.0801302;-3.319590213;-6.802293693;-11.41459562;-5.749057106;-0.763839704
5.13297545;-13.97532678;21.10923262;10.71035703;-6.867462873;0.268848891;6.297065868;10.48272031;4.951897466;11.5417179;-1.352378636;-0.894053858;-6.692621324;9.123945773;-3.991048816;-7.582498647;-11.52132908;0.085654969;-1.532050729
4.864293412;-14.76372506;15.90648159;6.206091249;-10.19737585;0.281295851;5.851815608;8.146571085;2.292179133;10.89192542;0.55056269;-1.595348668;-4.314120048;9.553340256;-4.277386182;-8.532906753;-10.10498136;2.161779095;-1.58955543
6.606782877;-10.35837849;10.4981538;3.460068359;-13.10595146;0.329884402;5.133944561;6.064956241;1.462842933;10.36365927;3.163935968;-1.891341407;-2.784254759;11.15591458;-3.817858868;-8.122425465;-7.486428622;-0.544707881;-0.871568005
9.220929858;-5.881809243;3.905776106;2.927372474;-13.9004663;0.394643142;4.137672453;5.522040093;2.683238508;10.3615898;4.16713627;-2.265466968;-2.630308413;12.94739168;-3.057040011;-6.445300332;-4.820611963;-6.405411173;0.188979371
11.19788363;-5.844531851;-3.02050459;4.154624322;-11.79875476;0.415370054;3.169701349;7.331189006;5.182098311;11.03306784;2.095036691;-3.315219053;-3.845922998;13.87697357;-2.799952301;-5.192611647;-3.373078562;-12.13188463;0.9724494
11.61968107;-9.947978317;-7.792763407;6.408576572;-7.739586356;0.352801306;2.925668689;11.4850025;8.121649587;12.43105865;-2.523883523;-5.133583295;-6.008724222;13.57315842;-3.415036866;-5.894692285;-3.690240785;-14.86596262;1.129847642
10.64230187;-13.41225903;-7.923599076;9.258004512;-4.053968668;0.234660058;4.034975708;17.04759925;11.27496957;14.55218814;-7.229851696;-7.148841099;-8.514888002;12.55050966;-4.440048828;-8.210350634;-5.259156903;-13.89650577;0.809337486
9.248373082;-11.3381746;-2.673787105;12.61624941;-2.984037934;0.14064595;6.383155031;22.34150923;14.80315282;17.1563755;-9.017988302;-8.556049183;-10.7641697;11.73729586;-4.971489429;-10.02460256;-6.89626939;-10.7802031;0.474455807
8.509317118;-3.129465339;6.403976749;16.28475491;-5.038728734;0.136494242;8.831484296;25.44769578;18.37849968;19.55162465;-6.301728816;-8.978545889;-12.26999846;11.72628152;-4.492805383;-9.389718545;-7.577275381;-7.87249399;0.484668863
8.874641283;6.841240215;16.39904275;19.50432511;-8.499574108;0.215516565;9.719506267;24.92355082;20.61191607;20.65139384;-0.203665924;-8.812657497;-12.75528015;12.35221115;-3.385113437;-6.526115238;-7.114594239;-6.504290411;0.804452726
9.919940724;12.70585378;24.61603822;21.02314681;-10.62969266;0.301595269;7.908270457;20.46983168;19.57045335;19.43762495;5.794962674;-8.97347523;-12.24853769;12.90750736;-2.639877501;-3.917164228;-6.216415113;-6.247959743;1.083037663
10.64918069;11.56724334;29.6506487;19.74132187;-9.794764347;0.313278756;3.621351054;13.18402197;14.19677289;15.60432187;7.813904312;-10.23826316;-11.10163585;12.77862809;-3.009034613;-4.215001069;-5.909091324;-5.727392635;1.015150826
10.11439833;5.235279071;31.45262342;15.48211061;-6.858847736;0.233151296;-1.582704786;5.170610711;5.506180687;9.91374266;3.991600402;-12.67933984;-9.846885923;11.95872385;-4.3385676;-7.721200486;-6.741662344;-4.099638657;0.646105276
7.9814882;-1.849597523;30.73453071;9.297232342;-4.652044562;0.120769232;-5.739762749;-1.371171982;-3.582280666;3.913900644;-4.234709927;-15.57161005;-8.932148132;11.0230133;-5.678630998;-11.73597542;-8.321034042;-1.827143292;0.339500682
4.757318627;-6.285561543;28.43888735;3.046820725;-5.787480137;0.057547001;-7.652135034;-5.107082511;-9.906773372;-0.888119285;-12.93879977;-17.77922896;-8.505530684;10.61327528;-6.081917559;-12.53491394;-9.486151834;-0.100272124;0.433389273
1.591717702;-7.717573551;25.61799508;-1.475924279;-10.48259974;0.073442397;-7.457878419;-6.017555994;-12.08811514;-3.846562866;-18.16694108;-18.30561544;-8.418212334;10.87843901;-5.396989668;-8.439948252;-9.004545017;0.43579948;0.897685363
-0.243775744;-7.843991953;23.49158576;-3.300192416;-16.15328629;0.122288601;-6.229277624;-5.080731202;-11.37143936;-5.357109103;-18.41840645;-16.66763225;-8.445283252;11.33878873;-4.368977061;-1.417016609;-6.347293271;0.349625962;1.314277493
0.025349807;-7.936189856;23.25452206;-2.474214734;-19.21471909;0.128748491;-4.985743922;-3.437632262;-10.56615194;-6.187990972;-15.41394195;-12.97839039;-8.525963845;11.28324368;-3.96810883;4.205627819;-2.061140873;0.79636174;1.218329179
2.240323966;-7.50310299;25.56817719;0.299134681;-17.75822132;0.06393216;-3.926771377;-1.636924582;-11.82598921;-6.425575103;-12.58030875;-7.844370584;-8.783705169;10.37590467;-4.539117247;4.922199962;2.489311138;2.200092773;0.511206731
5.303012997;-5.252960035;30.15335013;4.210921968;-13.01339687;-0.021353342;-2.454845669;0.522021099;-14.93112694;-4.906556744;-12.32145099;-2.210753205;-9.268519689;8.98555838;-5.512911555;0.591655352;5.855739882;3.593320573;-0.424716808
