Channel 1 - P4;Channel 2 - O2;Channel 3 - P8;Channel 4 - T8;Channel 5 - C4;Channel 6 - Cz;Channel 7 - Fz;Channel 8 - F4;Channel 9 - Fp2;Channel 10 - F8;Channel 11 - Fp1;Channel 12 - F7;Channel 13 - F3;Channel 14 - C3;Channel 15 - T7;Channel 16 - P7;Channel 17 - P3;Channel 18 - O1;Channel 19 - Pz
-27.4254256;-32.18287435;-33.19918433;-30.27981582;89.54422087;-7.279290267;20.34;-14.14472948;-23.4917959;-67.04976414;-16.7616139;2.425201252;-15.42194919;108.6739202;74.59012034;13.36413513;-18.54455925;145.8829498;26.41161341
-9.572052549;32.1931659;19.2713206;-8.295728331;97.29984806;-3.996778682;45.62288346;-4.425115392;19.15633904;-29.55745966;-8.219545953;5.037469287;-12.29106787;112.4420788;94.68838966;38.67804892;3.039247936;115.8034364;27.78981072
11.0086274;59.48497631;57.41089809;11.5668728;65.7716027;0.155368772;40.80647685;4.243171224;40.77438552;3.695183251;1.594434632;4.957101116;-3.912940192;75.22531601;73.20603009;39.56651288;24.71495114;48.36048551;16.15515696
24.69085018;42.6031058;66.8220829;20.44300128;17.64900988;2.775721608;9.665121059;7.082450238;29.11045635;11.84328079;8.436662726;3.20991175;4.16246371;23.25550057;28.65236313;18.35083581;36.87491615;-17.60614565;-0.667842643
26.2598919;4.756646808;51.5424049;17.73218172;-15.9451344;2.726926044;-25.92937143;3.629640845;-3.084652432;-5.13252826;10.05550695;1.681664779;7.008465118;-10.63413551;-7.96938531;-8.149258366;37.09605048;-49.49132806;-11.9829985
17.90643373;-20.82855278;29.00660899;10.12174045;-17.42680456;0.756206577;-42.90786607;-2.340935551;-29.53183903;-29.03598664;7.365858258;1.603742571;3.659036033;-9.801267752;-15.39133018;-21.54498993;30.62442875;-41.38530487;-11.82132092
7.078032681;-16.16204738;16.45038367;5.52336182;6.585232761;-1.274244371;-33.66772837;-5.973794175;-31.20148554;-39.35512277;3.535816576;2.82471605;-2.609798413;16.65788411;4.408846611;-15.01994693;25.39104984;-13.54588275;-2.664046899
0.98238834;10.70987462;19.30027007;7.039861816;33.05366511;-1.863236986;-9.913476575;-4.946473037;-9.885500825;-29.09671925;1.760539627;4.324702881;-7.062249653;43.70449129;30.76203209;3.108268075;25.73726625;6.580587055;7.25287813
1.87467627;35.88016851;29.68283142;11.55432208;41.44624467;-0.890442782;8.245770062;-0.774051552;15.37723861;-8.354792795;3.297087908;5.298167626;-7.072915852;50.61437572;41.99880052;17.25968737;29.68660033;5.498039832;10.57308461
6.396488093;40.40856085;34.81438548;13.42966422;28.52558259;0.532954576;8.319239444;2.926976214;24.88159378;5.876147293;6.987208067;5.723969375;-3.78077464;35.55587578;31.72894008;16.92036592;31.48189863;-9.269521958;6.070078125
8.98925945;24.31074773;27.63089894;9.694123276;8.183866626;1.129894425;-6.240184105;3.501577635;13.73518726;4.076075626;10.36185354;5.969991621;-0.778118933;14.07270418;11.48152302;3.712342307;26.88576503;-19.62170556;-1.338789752
6.401516499;3.601998614;11.26833192;2.300156189;-1.909633297;0.501323369;-21.06078931;1.074741598;-5.944236917;-9.242983088;11.37472252;5.986850913;-1.117349373;4.443684039;-0.838406314;-11.48048465;16.80826448;-14.06354084;-5.286022147
-0.178667984;-5.03;-5.124288515;-4.059263257;5.089452639;-0.672589107;-23.812611;-2.147823409;-16.71220689;-21.2732999;9.55585401;5.049299821;-5.07601391;12.82633236;3.931320717;-17.85674805;6.535594896;3.214957151;-3.192485894
-6.644805234;2.082372203;-14.58096183;-6.230149222;21.0860224;-1.334599177;-13.90845301;-4.162317154;-10.69665274;-22.8588189;5.96540029;2.424023794;-10.29438347;29.93799501;19.90394755;-12.49978949;1.547792626;17.76767374;2.152122346
-9.494252494;14.54479267;-17.2849681;-5.108725262;31.55297363;-0.980106921;-1.501224281;-4.887999539;4.748767442;-15.95762903;2.221803357;-1.650362273;-13.89847831;40.5989687;32.75316516;-0.931767939;3.515076868;18.45262305;5.543721615
-8.375298398;18.79537596;-18.6982953;-4.42153811;28.33867386;-0.022407293;2.226246675;-5.901999771;14.56491731;-10.66281996;-0.582129584;-5.71122073;-14.71975333;36.94230485;32.49022494;8.757944731;9.573098045;6.657876819;3.979560773
-5.830515227;10.33336844;-23.44346607;-7.211626427;15.75781421;0.652687411;-5.442096181;-8.64357826;9.427159348;-15.23998611;-2.370399444;-7.98879581;-13.86367038;24.04785767;21.28158426;12.42254581;15.07074928;-6.217024656;-1.027490171
-4.847052912;-3.281158374;-30.83707136;-13.30985081;5.588352603;0.48877084;-17.32699158;-12.87315553;-6.573734665;-28.41195608;-3.822339343;-7.825564852;-13.39716379;14.13677611;10.32497716;11.67998409;17.22606121;-9.598470068;-5.140219532
-6.467179458;-10.24217137;-35.87075918;-19.88183462;6.281811904;-0.295104359;-23.37540673;-16.82117553;-20.11338666;-40.56287695;-5.714921575;-6.349911199;-14.4676481;15.36506911;9.443414633;10.52629092;16.72450362;-2.66108849;-5.116936797
-9.337867381;-5.261431965;-34.22796673;-24.21173082;16.0753734;-0.962584508;-19.41533916;-18.8342665;-20.45818887;-42.36466189;-8.377006162;-5.697126128;-16.47817944;25.22264739;18.82200701;10.75010917;16.32520278;6.194314193;-1.467252111
-11.23989194;6.381032192;-26.4163695;-25.95479053;25.51524798;-0.941319724;-10.10295053;-18.93248185;-8.526523615;-32.92323965;-11.54872666;-7.31369134;-17.88313937;33.74038115;29.69465274;10.55868748;18.07873414;7.83958931;2.297531601
-11.02331315;14.43353191;-17.25171889;-26.83080375;26.38572179;-0.306702812;-4.112975265;-18.78057559;4.349332885;-20.33779127;-14.60470522;-10.7316672;-17.73787774;32.89444907;32.64296933;7.243658127;21.65980181;0.568275313;2.906880296
-9.29181816;13.15209033;-11.40835314;-28.29842721;18.78421826;0.334350393;-6.358205237;-20.04164245;6.48050964;-14.48922465;-16.8996287;-13.86863196;-16.56289369;23.57267072;25.79846266;0.790355694;25.02238873;-9.299726356;0.1037848
-7.49359665;5.966225532;-9.343880903;-29.67420439;10.34784632;0.413482896;-14.10892664;-22.58961301;-4.098074077;-18.61193378;-18.01056889;-14.63939204;-15.78601316;14.23496804;15.91219269;-5.333437882;26.43964334;-14.11469357;-3.390009766
-6.491895152;1.578469911;-7.406806745;-28.65798146;8.917505259;-0.104257338;-19.9566357;-24.25051819;-17.96541274;-26.9334556;-17.79279174;-12.55012438;-16.32028707;13.01767299;11.88923645;-7.035740867;25.92128405;-12.07893981;-4.472876836
-5.971557689;5.62359381;-1.954049843;-23.82474684;15.56064679;-0.727513819;-18.48842766;-22.43752215;-22.21549624;-30.0710208;-16.29912257;-8.965205475;-17.58264805;20.59969589;16.89101981;-3.358295393;24.81263476;-8.24965102;-2.389419369
-5.08269347;15.66606697;6.435065299;-16.64125839;24.07393992;-0.907381847;-10.6693527;-16.37970198;-11.21843804;-23.12819309;-13.66663798;-5.885032884;-17.85034899;29.99960246;25.92458595;2.455815021;24.16532652;-8.940654831;0.795017145
-3.528214884;23.8045296;12.66011871;-10.88178032;26.97478796;-0.525727681;-2.429979351;-8.071455603;8.454865131;-9.435887689;-10.05760518;-4.346811462;-15.68721559;33.04772774;30.64870054;5.619236985;23.55209245;-15.29564795;2.233422323
-1.978631082;24.07211222;11.14764713;-9.704056632;22.2602992;0.028779773;0.788267668;-1.090090332;22.58496589;2.910347504;-5.689956371;-3.841948494;-11.26076316;27.4921959;26.79214076;3.763067905;21.46343623;-22.23133443;0.895590023
-1.457314998;17.69372591;0.698926201;-12.91116669;14.88003906;0.239724438;-1.495675006;1.825243689;19.43505382;8.164651523;-0.928279923;-3.192769343;-6.46;18.53606784;17.6261651;-1.34195986;16.87219096;-23.52737309;-1.607824193
-2.375956886;11.57929097;-14.19296301;-16.93831021;11.91233851;-0.06489967;-5.017020967;0.543314409;-2.32482991;7.251167972;3.652962554;-2.001117452;-3.694030552;13.84666752;10.75679145;-5.700614929;10.45659989;-17.92946081;-2.621580648
-4.205248943;11.74781995;-26.78772277;-17.76658398;16.08987667;-0.572880346;-5.009856863;-2.66530352;-33.29254044;5.774489144;7.340019531;-1.26303595;-4.276823917;16.81550678;11.42948212;-6.703769787;4.309129774;-10.32101763;-0.935883889
-6.084730105;17.83222085;-33.33868672;-14.33574602;23.54637881;-0.789689178;-0.450036621;-5.021294593;-59.90368703;8.038380832;9.526778589;-2.505690853;-7.572939528;24.04094945;18.31953373;-5.079839039;0.360534979;-6.909439764;2.086223566
-7.711086573;23.54439799;-35.60376981;-9.482352143;27.58851637;-0.493696351;5.340019531;-5.231614043;-72.50583154;12.80972945;10.04495944;-6.170660036;-11.4464883;28.90314053;25.22628579;-3.56121951;-1.091270725;-9.174276183;3.713401522
-9.555250448;22.43345426;-38.53154661;-7.518297467;24.82653065;0.067787984;7.904847536;-4.061000045;-69.53518214;14.65859605;9.364929996;-10.71942465;-13.59261494;27.63628131;26.76565067;-3.78976994;-1.472545817;-12.49137697;2.263268321
-12.1354345;13.61240822;-45.26711446;-10.48686763;18.06044331;0.407383816;5.606438681;-3.232530948;-56.19422096;9.434080863;8.464381399;-13.38532872;-12.794403;22.36585439;22.85618167;-4.577710582;-2.60844164;-10.8148106;-1.415594593
-15.06070844;2.437629574;-53.92636285;-16.31856272;13.4819916;0.234043921;0.90881133;-3.771973427;-40.02637583;-1.328841951;8.344522498;-12.10056051;-9.365759787;18.65176763;18.23474445;-3.232429755;-5.164102114;-2.924689299;-4.660078125
-16.88270243;-4.16712823;-58.96750848;-20.49586776;14.95693004;-0.29567296;-1.842924837;-5.232446336;-26.98872727;-11.20420565;9.427776995;-7.091577428;-4.717177326;20.12986445;17.83474836;1.363060169;-8.166826496;5.850406873;-5.2239604
-16.09063698;-3.369439277;-55.92486388;-19.81867598;20.65298523;-0.72592591;-0.022876045;-6.340236679;-19.9275426;-14.21133235;11.21075367;-0.857861555;-0.532069021;25.26683434;22.39156097;6.976381831;-9.913377866;8.290929402;-3.0683829
-12.47578851;1.839679333;-45.34831118;-15.06394461;24.95075584;-0.704528759;5.288583926;-6.341732159;-18.97846638;-9.923402985;12.43792021;3.461993964;1.89530399;29.03342361;28.10350824;9.456833854;-9.366812225;2.075510145;-0.226508718
-7.62;5.963402294;-32.53296305;-10.3032994;23.70398469;-0.278827692;10.28495004;-5.79577303;-22.4756142;-3.813461806;11.7480899;4.071846302;1.933112372;27.69945269;30.3311901;6.269965743;-6.818051165;-7.734929933;1.023668255
-3.928386666;6.03049413;-23.31;-9.511217564;17.97430507;0.167344829;11.30403091;-6.136288907;-27.68475253;-2.56456572;8.435330354;1.391298176;-0.3953875;22.22298508;27.76786884;-1.009058211;-3.351377502;-13.07291814;0.025574599
-2.890617253;3.840433115;-19.54793192;-13.36550425;12.92118096;0.262792797;7.331992342;-8.440855433;-31.66657343;-8.479668542;2.881099466;-2.655697511;-4.514134062;17.20849102;23.3584965;-7.571089227;0.24867324;-10.23991868;-1.918182628
-3.997480226;3.791936669;-18.17615943;-18.88284315;13.01427769;-0.033541489;0.569291643;-12.49223872;-32.54573087;-17.79228232;-3.579488565;-6.149943675;-9.440759252;16.58152992;21.38534086;-8.995691995;4.080811452;-3.459385377;-2.883396768
-5.256297115;8.673161494;-14.43876699;-22.04535079;18.01220151;-0.419365127;-4.964239682;-16.89435215;-30.58218972;-24.13748711;-9.243769384;-8.214343198;-14.03550555;20.07;23.57446614;-4.586383042;8.70395729;-1.142376507;-2.041871047
-4.914580167;17.29179752;-6.465950039;-21.06512456;23.31317993;-0.53277077;-5.750630624;-20.06119887;-27.97700804;-23.94571068;-12.7175744;-8.928447387;-17.34572683;23.67817319;27.74846156;2.334804642;14.19381658;-8.096258368;-0.249014826
-2.958840005;25.74593658;2.772376924;-17.54320254;24.22525483;-0.268396228;-0.873791517;-21.19605882;-27.13657354;-19.03542801;-13.32961519;-8.538305675;-18.89014285;23.5666521;30.04758748;7.254224705;19.63509925;-20.78628616;0.897293718
-1.124656615;30.72474124;7.721269493;-14.73308889;20.18578245;0.149522608;6.925356153;-20.49612851;-28.57386327;-14.3727146;-11.16098915;-6.916450927;-18.69973252;19.65222551;28.49853915;7.867569499;23.56059964;-30.15047372;0.554216851
-1.410048828;31.69775033;4.70176921;-14.61437706;15.13044981;0.38302267;11.82623282;-18.57465939;-30.25642775;-13.29178484;-6.819277309;-3.809170931;-17.10395719;15.61599914;24.66068996;5.237403317;24.94650963;-29.62329433;-0.692697774
-4.354089064;30.35970562;-5.174014742;-16.34675337;13.79760187;0.276919998;7.408675659;-15.76803033;-29.1779453;-14.56690763;-1.181594937;0.484239234;-14.46911167;15.40149746;22.01375542;2.087846842;23.8675342;-21.15112503;-1.51377778
-8.535040891;28.46766286;-16.91792023;-17.27527194;17.41877272;-0.026638182;-9.583593309;-12.00199974;-23.99788273;-13.85832851;4.764960697;4.834577403;-11.12768397;19.50744332;22.74654844;0.170894913;21.25348305;-13.6071057;-1.147462195
-11.69641225;26.47121196;-25.42467828;-15.36860436;22.69164894;-0.238840992;-36.10797046;-7.282391687;-16.51076142;-8.048660241;10.02186868;7.854939019;-7.522521023;24.49596318;25.9184471;-0.778614738;18.02273533;-14.8013827;-0.089451898
-12.53070427;24.06374859;-28.86516105;-10.8535605;24.85954528;-0.184972056;-62.77727841;-2.249793541;-10.56381329;1.535673133;13.72876645;8.905473018;-4.326598327;26.12140693;28.53229895;-1.775033631;14.4096478;-24.16192326;0.447108628
-11.6206852;21.53716148;-29.10547195;-5.747967876;22.0063674;0.062457158;-78.02982702;1.830048828;-9.18559572;9.904697698;15.40294527;8.621071965;-2.268674226;23.16486648;28.34720713;-2.624870935;10.06922557;-32.77140335;-0.257506707
-10.79046557;20.02942154;-29.23906896;-1.985401714;16.67775103;0.281266376;-74.73479915;3.740896002;-12.25242854;12.45189929;15.16493275;8.423055021;-1.67330413;18.4667597;25.78987494;-1.535543709;4.785399034;-31.00927245;-1.705027821
-11.48091309;20.19473587;-30.66931612;0.00899905;13.46598377;0.315932975;-55.04425154;3.135254759;-16.60804842;8.690467864;13.77360227;9.38347983;-2.073880346;16.26272178;23.3296395;3.11583979;-0.947433708;-17.23946423;-2.612142632
-13.55873843;20.87268881;-32.23955795;1.088030411;14.86141524;0.204846615;-29.70882165;0.825761358;-18.50996648;2.488674155;12.36986269;11.41224551;-2.325825032;18.3023599;23.08549503;10.56666967;-6.049353328;0.114399883;-2.086443771
-15.53837455;19.67069064;-31.84792541;2.017501685;19.14513965;0.111744877;-11.64784958;-1.687986234;-16.37823642;-1.252475113;12.00620024;13.46193887;-1.3005978;22.28891492;24.96278788;17.38975248;-9.577925687;9.104801086;-0.455968235
-15.95188484;15.44889417;-28.77272481;2.572585694;22.12907647;0.145867916;-7.895301863;-3.076994838;-11.67805192;-0.506565181;13.19056087;14.5323404;1.269662337;24.01298842;26.94808877;19.8322882;-11.37730619;3.931571895;1.000583236
-14.63708312;10.40356367;-24.49333654;2.095774805;21.0295969;0.253852839;-15.62603994;-2.787870532;-7.415527872;2.675631028;15.68589637;14.54028962;4.454200371;21.19431833;27.09150061;16.92183784;-12.06351879;-10.45967146;1.16506759
-12.83989587;9.288474351;-21.3391546;0.884030616;16.91036151;0.285534355;-25.17087178;-1.049431454;-5.673786449;4.447817668;18.6685392;14.26261008;6.641153361;15.55007813;25.20435826;11.53216033;-12.38371681;-22.68177048;0.02488735
-12.08926608;15.8082021;-20.30488576;0.762785949;13.5552792;0.160996143;-27.67063011;1.533102875;-6.223756831;2.709092481;21.14863703;14.433894;6.611909225;11.27668109;22.74168588;8.233052891;-12.5554936;-24.32296313;-1.377207953
-12.85270692;29.1394292;-20.03849019;3.889574767;13.93164188;-0.032317492;-21.45528066;4.331057443;-7.142715519;-1.211273541;22.4188246;14.88268047;4.402965372;11.38161018;21.17886693;9.585594423;-12.17401695;-16.46308439;-1.902728745
-14.12345921;43.92735633;-17.86861027;10.62602273;17.53290737;-0.113420318;-12.34714591;6.720948076;-6.663952224;-4.00544868;22.30149481;14.5723446;1.300424946;15.17318889;20.60759253;14.02748463;-10.71231653;-8.002656091;-1.297614481
-14.25050917;54.20687986;-11.94215876;18.48897993;20.96883494;0.015225931;-8.057046665;7.948877574;-4.633713307;-3.469438338;21.0990206;12.57762936;-1.045611273;19.0739007;19.9395901;17.21692167;-8.086736076;-7.63843748;-0.328135584
-12.26742389;57.96713928;-2.703029095;23.49047949;21.14050167;0.259495958;-11.58411166;7.211927866;-2.51267669;-0.430430553;19.32807403;9.131203813;-1.72893462;19.8902865;18.41995464;15.73291738;-4.740463549;-16.56257346;-0.003250722
-8.611551164;58.09176229;7.326954029;23.08253024;18.01907259;0.405173125;-19.0999817;4.119306746;-2.128662765;2.069932458;17.43160905;5.74552429;-1.098131911;17.52940583;16.80394332;9.979539312;-1.210822082;-27.92541657;-0.634544718
-4.712308484;58.46638262;15.028309;18.30326258;14.51981421;0.310757133;-23.77910529;-0.757150887;-4.232573414;1.47775017;15.64555199;4.196807086;-0.328544163;14.78504068;16.86738311;3.834161415;2.325913371;-33.00053706;-1.591698415
-1.897768806;58.66077615;18.1403648;13.15237978;13.70225341;0.044517024;-21.92856676;-5.774370557;-7.81429944;-2.060804125;14.0676613;5.167901509;-0.441237744;14.55016268;19.59555061;1.405025424;6.019949941;-28.35430559;-1.939562902
-0.569709436;52.48976326;15.81;11.49391104;15.96283868;-0.165582707;-15.97112265;-8.83974293;-10.48209226;-5.754036918;12.82221887;7.684819057;-1.549642446;17.10638592;23.79724467;3.723623745;9.825294364;-17.96590964;-1.332578265
-0.247567899;32.77565309;8.392187176;13.97212116;18.80304406;-0.130537424;-11.81592261;-8.488932643;-9.66659128;-6.270472019;12.14473178;9.83607442;-2.878130553;19.9481467;26.63057972;8.146508094;13.03141493;-9.097373267;-0.333054262
-0.266961528;-1.007941143;-2.775572729;17.56057611;19.30385786;0.129202045;-13.19450413;-4.729834786;-4.203497749;-2.096274165;12.28071315;10.19225104;-3.452466954;20.19302554;25.79151484;10.79129699;14.41178796;-6.163500634;0.122242771
-0.394671;-38.88447695;-15.31038946;18.20805395;16.93063991;0.396481871;-18.16259641;0.94022013;4.294248396;5.600662401;13.2570175;8.775151226;-2.850593663;17.27436265;21.50957672;9.714761795;12.99624237;-8.08058986;-0.406173668
-0.820509978;-64.68649816;-25.91315357;14.39183472;14.03639785;0.445070133;-20.89897975;6.379297618;11.11306329;13.95543324;14.71916391;6.840372092;-1.42348598;13.44183986;16.54163028;6.071644649;8.851459007;-10.84628895;-1.457573029
-1.654495504;-66.38016045;-31.34244836;8.546465427;13.61439129;0.236393138;-17.09981699;9.952682081;9.984173818;20.21750829;16.01687548;5.749672831;0.11214716;11.68327991;14.06619838;2.493633893;3.1663294;-12.17537632;-2.092408893
-2.535788378;-44.84621705;-30.09713552;5.097869125;16.41679596;-0.049088466;-8.037004359;11.26050668;-3.524428284;23.07539804;16.54881077;5.930765361;1.288338908;13.04524154;15.22940717;0.488190524;-2.493843522;-13.47103988;-1.733053537
-2.81026143;-14.05640583;-23.65600662;6.732784526;20.13479439;-0.172705725;0.400741438;11.05540938;-28.33318777;22.91573779;16.16237946;6.75243449;2.170658665;15.80775292;18.40848203;-0.58190934;-7.173839599;-17.4365585;-0.651915007
-2.131767588;8.025957119;-16.00760153;12.07813123;21.42007813;-0.046840575;2.811088728;10.53598256;-56.53782403;21.29886873;15.31569979;7.285615999;3.121776622;17.19025887;20.75521655;-2.060159341;-10.94527037;-24.10158373;0.317734965
-0.885872486;11.24400778;-11.35750245;16.79377192;18.90701947;0.192021098;-1.071508946;10.5651142;-76.3528783;20.18343305;14.83766698;7.167847904;4.322641007;15.93279157;20.61345841;-3.712286367;-14.44581747;-29.60519307;0.551908705
0.030845542;-0.98951536;-11.4545674;17.17351393;14.47850029;0.307718315;-6.324550554;11.29283236;-78.49124015;21.14838956;15.39665215;6.791478927;5.511215207;13.35951222;18.7207508;-3.126930513;-18.01062982;-29.29716627;0.165920784
-0.058988677;-15.9252719;-14.52805604;13.19723458;11.62709404;0.172729392;-7.357647146;12.28956365;-62.21583785;24.64871721;17.01286268;6.735609114;6.159984265;12.01135505;17.26794784;2.240253396;-21.2076559;-22.33347033;-0.16758471
-1.009201361;-21.85376729;-16.72860716;8.440353872;12.40090728;-0.12345744;-2.883318104;12.94638269;-36.6504381;29.53745551;18.94973823;7.076765995;5.900922929;13.20072879;17.80267439;12.05870704;-23.17953778;-13.22238188;0.088600524
-1.927808063;-16.28665467;-15.01335192;6.935421348;15.68162971;-0.35622502;3.107491318;12.81543232;-15.70913711;33.35209235;20.08208874;7.286693943;4.801052124;15.78791522;19.89914544;22.05852418;-23.41520796;-8.457120194;0.799849238
-1.89370801;-5.959626171;-9.238347261;9.686533976;18.30024013;-0.358977726;5.131453618;11.73173522;-9.568335047;33.61052113;19.52697267;6.820941015;3.262161078;17.27673965;21.69973782;26.37270915;-22.15974662;-10.99610249;1.282417503
-0.693589072;0.348843806;-1.870068359;13.82529516;17.92042548;-0.155692542;1.230414926;9.77381165;-18.48982373;29.53629404;17.15634795;5.811224372;1.682840833;16.14883523;21.69099753;21.78905463;-20.02726373;-17.57152791;0.960362533
1.063395153;-0.469968893;4.292870081;15.12724358;15.06249825;0.076844891;-5.326631346;7.199852317;-33.44578894;22.95293958;13.69609741;5.151140234;0.229343993;13.23983495;20.02458244;10.53384128;-17.19056208;-21.44473562;-0.069073599
2.539651814;-4.037234787;8.352407946;11.7311891;12.48510879;0.171834684;-9.084330891;4.420209694;-43.08152008;17.39328496;10.3768587;5.818747008;-1.076598827;10.90872635;18.23568979;-0.850117021;-13.01395511;-18.34540013;-1.099159189
3.422123622;-3.455909989;11.56547966;5.875177877;12.57096604;0.109010841;-7.275479622;1.958497093;-41.783696;15.78689934;8.34968825;7.991051705;-2.088026614;10.83051979;17.75263251;-5.892589724;-6.659916171;-10.37041214;-1.454868663
4.141939178;3.884417499;15.45888985;2.13998315;15.14503087;0.00804612;-2.048314989;0.333656495;-32.84314879;18.39052841;8.166252069;10.71926156;-2.425880979;12.49584251;18.65787046;-2.560029297;1.718247468;-4.322954128;-1.118576484
5.350137989;13.80937021;19.55816856;3.629103408;17.69490061;-0.001994334;1.861675569;-0.127897294;-24.65266811;22.66941081;9.54053058;12.46318257;-1.739653367;13.78547665;19.80228274;5.696466226;10.26509539;-5.864381502;-0.753360151
7.115812954;19.13770153;20.88206613;9.230731983;17.73362214;0.091935142;1.662002715;0.543090392;-23.41809349;25.36440287;11.4579363;12.06547533;-0.16294157;13.01576871;20.01835881;12.85187137;16.02899056;-14.55704786;-1.085066591
8.582744984;16.09268344;15.87322297;14.19849913;15.10559843;0.181751464;-1.087763752;1.918562017;-28.46019572;25.12672243;12.57657618;9.421309504;1.47299154;10.490597;19.16434213;14.73969985;16.68487825;-24.08805617;-2.193847629
8.442997299;7.589458906;3.328539624;13.57620557;12.13487197;0.150477137;-2.388459203;3.291449987;-33.73067571;23.50428736;11.79200964;5.419210086;1.983157185;8.109261725;18.00790504;11.57164164;12.17460819;-27.41696053;-3.36133487
5.890222783;0.656276851;-14.04790851;5.760628571;11.51353403;-0.00993758;-0.06273563;3.909440018;-33.78726125;23.37983146;8.776067125;1.353559971;0.599961826;7.454056672;17.19181775;6.888819455;4.977479652;-22.35903265;-3.634424824
1.302195764;0.485293928;-30.8198383;-6.470196324;13.87326624;-0.186870965;3.866521382;3.246827758;-28.76780128;26.16494617;4.251868034;-1.645098363;-2.366151358;8.231120667;16.46146677;4.225968499;-1.311442294;-12.91393713;-2.634873247
-3.884179341;6.388832237;-41.93411065;-18.00573462;17.22666035;-0.249172789;5.0982832;1.237386563;-24.00382471;30.2316323;-0.197493514;-2.816647203;-5.520596722;8.592441775;15.03846497;4.402347844;-4.14199262;-5.522175734;-0.924300708
-8.000280192;12.97908071;-45.50284733;-24.70864965;18.73423829;-0.164156844;1.501204301;-1.610729974;-24.78237966;32.09101533;-2.800579687;-1.738935966;-7.135681758;7.054225491;12.7927531;5.476876901;-3.391128134;-3.811993958;0.38745537
-10.04857719;15.1734445;-43.32043877;-25.46680799;17.16191883;-0.020173858;-4.264585884;-4.302743313;-31.09715128;29.44788298;-2.471266844;1.598207644;-6.197411661;4.163245671;10.93944439;4.982887406;-1.049424649;-6.408144872;0.466793524
-10.0643722;12.43039312;-38.9927398;-21.83010652;13.83439491;0.062069548;-6.727920285;-5.69388474;-37.2187215;23.51599163;0.59712398;6.51780143;-3.042047397;2.240528638;11.33793416;2.243521719;0.429862327;-9.300459102;-0.652904304
-8.801367803;8.638483816;-35.30823135;-16.11864057;11.3155175;0.041247328;-2.606812962;-5.001872419;-36.59038965;18.45745321;5.010479542;11.51166208;0.848255872;3.315617612;14.8287725;-1.200352212;-0.175232286;-10.08957003;-2.15600085
-7.114582562;8.1509974;-32.80787093;-9.868154764;11.10544072;-0.016406288;5.8091815;-2.269342621;-27.76217063;18.19731683;8.923712209;14.64985291;3.730695795;7.104800466;20.11392106;-3.165089307;-2.307811076;-9.970420782;-3.078833334
-5.537536874;11.80212475;-30.30490225;-3.730333164;12.45851794;-0.01573689;12.28028715;1.51124184;-16.07188168;23.15286405;11.00479875;14.529168;4.548600531;10.9451575;24.3749974;-2.791581749;-4.435614957;-11.76045189;-2.954959613
-4.256063894;16.45388369;-26.50394404;1.630554233;13.30923515;0.062413205;12.04830349;4.767502291;-9.475072025;29.61523632;10.99070241;11.15347384;3.327644773;11.87366944;25.31639326;-1.150686375;-5.386366097;-16.18162141;-1.999871243
-3.298028237;18.2003989;-21.19965651;4.98693808;12.33325301;0.135432288;6.178977959;6.083358625;-12.05817089;32.39947136;9.50342884;5.997835568;0.850993927;9.087085383;22.96635278;-0.115222091;-5.127075225;-20.26369996;-0.797155009
-2.641739457;16.05518919;-15.20472828;5.141547661;10.1817049;0.100363451;0.661267876;4.912966774;-20.80528937;28.70127274;7.347941011;1.064215906;-2.038695154;4.621242333;19.65476241;-0.671008016;-4.501516036;-19.64962138;0.161759168
-2.151350093;12.72081106;-9.409568326;2.137144938;8.775530289;-0.054876793;0.850875925;1.850636333;-28.33660645;20.11651411;4.897357359;-2.425369878;-4.956034278;1.633517535;18.11476035;-2.187883959;-4.325481366;-12.78180823;0.704823203
-1.513476982;11.90593403;-4.063183661;-2.217543505;9.3903343;-0.220401497;6.313485797;-1.715826492;-29.13360876;11.30020034;2.060648937;-4.679997402;-7.97945263;1.781444487;19.29311177;-3.157785857;-4.670804342;-3.030733464;0.889097037
-0.380461705;14.83830143;1.030966778;-5.268827692;11.37252528;-0.250569584;11.06192829;-4.362543048;-23.81593258;6.454929225;-1.20034002;-6.808038903;-11.25658545;3.97164199;21.72372738;-2.575326034;-4.87513877;3.407253052;0.805537212
1.310388527;19.2117581;5.697625703;-5.311786457;12.6995244;-0.093921789;9.350707184;-5.34265975;-17.904291;6.473090029;-4.342411106;-9.565053184;-14.609195;5.513805822;22.95317352;-0.693795791;-4.148685582;2.20620797;0.517189155
3.121126403;21.40169395;8.8613066;-2.80622324;11.85284942;0.151659574;1.827576024;-4.850129505;-16.4580293;8.830624767;-6.273131239;-12.47974657;-17.476765;4.581584098;21.71662943;1.382585013;-2.209391287;-5.779935075;0.147401299
4.263091478;19.73956631;8.929487655;0.020618647;9.249729802;0.312648974;-4.026456258;-3.734067086;-19.55786267;9.989903851;-6.022841471;-14.14751342;-19.21539113;1.769832211;18.94710887;2.706868352;0.526015259;-15.33971226;-0.06839331
4.073075441;15.78273914;4.84720172;0.872836312;6.899117726;0.280809503;-0.419816248;-2.903864074;-22.64657981;8.15041677;-3.52776249;-13.45749162;-19.47379421;-0.584795839;16.79633387;3.098215784;3.226498546;-20.97878601;0.08469717
2.464579273;12.53954789;-3.033863482;-1.00180291;6.597777948;0.098726279;12.51366565;-2.816261516;-21.19403379;4.211619442;0.183064395;-10.66799199;-18.33680541;-0.617153464;16.64058304;2.894281776;5.090275848;-20.67914608;0.569731007
-0.013607557;11.5119888;-12.96376941;-4.536255338;8.322853745;-0.083074101;24.33460567;-3.325924885;-15.19583653;0.5445959;3.653908797;-7.33814529;-16.15619467;1.366020731;17.90940903;2.285261332;5.637215588;-16.37637499;1.021230776
-2.562144092;11.4580198;-22.63138146;-7.963298293;10.28097203;-0.1358488;20.97960042;-3.920767424;-9.250402275;-1.035206167;6.049983773;-5.112915043;-13.26211076;3.214370914;18.75230563;1.023538807;4.785982721;-11.34032201;0.974996101
-4.636815225;10.03309084;-30.16035988;-10.22773145;10.54476345;-0.052782684;-3.996933956;-4.137923929;-8.140019531;-0.348150103;7.735708197;-4.387763719;-9.82979487;2.932130644;17.84292108;-1.174820993;2.832241486;-7.316674279;0.25975777
-6.164548298;6.652166801;-34.61;-11.47529672;8.767328219;0.064993388;-42.61863587;-3.88929277;-12.09919343;1.597416996;9.86714376;-4.026088577;-6.008081294;0.49426058;15.60606135;-3.996663168;0.398771902;-4.05918761;-0.795254873
-7.33830649;3.699941405;-35.86946436;-12.36569804;6.426873772;0.114233059;-76.24932913;-3.516773152;-16.3281429;3.738674579;13.2903131;-2.406986999;-2.156798387;-2.152619585;13.75272915;-6.407425389;-1.714600638;-1.183123989;-1.565165265
-8.246784365;4.747926903;-34.33442156;-13.06346498;5.422954085;0.083118153;-87.81216053;-3.562394279;-15.39337908;5.569891332;17.64711761;1.088341168;1.079375519;-2.857842774;13.62322681;-7.290902135;-2.855198004;0.134001671;-1.615426213
-8.727988672;11.27394184;-30.76144898;-12.98809527;6.343174869;0.046179537;-73.43200953;-4.386996506;-8.518564548;6.87468345;21.46299953;5.452288106;3.005668659;-1.174663992;14.9374973;-6.34244331;-2.893538201;-2.194327764;-1.061214982
-8.589939824;20.87273129;-26.28842479;-11.58098579;7.978493927;0.072325609;-44.65670117;-5.849428407;-0.731708899;7.260892788;23.19710866;8.856918684;3.295459249;1.285123144;16.11712099;-4.408034752;-2.346614898;-8.593651118;-0.472743182
-7.952702226;28.70039044;-22.27913107;-9.280849737;8.482995379;0.141880346;-19.69711609;-7.243437703;1.500484968;6.304244364;22.42630148;10.21001953;2.280048828;2.293315777;15.8176185;-2.919402997;-2.035954404;-16.0924989;-0.38882331
-7.313458811;31.04022754;-19.77924527;-7.616536104;7.067378527;0.158810824;-10.61170853;-7.576126628;-3.617107306;4.247220534;20.19718898;10.10958238;0.85565658;0.888552908;14.16324781;-2.858346834;-2.439326273;-19.72321967;-0.857280312
-7.184303377;28.00366386;-18.84446548;-8.11499481;4.667814347;0.050125218;-16.18710875;-6.08772136;-11.01132223;2.351947843;18.24932735;10.3498192;0.020108167;-1.959309926;12.50292522;-4.078118264;-3.230775566;-16.40165937;-1.41163635
-7.582815278;23.15471297;-18.32091883;-10.86918283;3.020895515;-0.14420165;-25.31210083;-2.741984094;-12.83946172;2.174112644;17.73617464;12.38192606;0.324932644;-4.367872355;11.97737681;-5.488159047;-3.446044246;-7.950606935;-1.510462754
-7.859127403;20.52420255;-16.43950758;-14.05323443;3.053359097;-0.284489068;-27.18877519;1.621458884;-5.57438466;4.145405424;18.47246316;16.03776231;1.598164426;-5.179340745;12.36610866;-5.898776284;-2.226486344;-0.252282383;-1.046084569
-7.100019531;21.63601378;-11.95654449;-14.96676575;4.092217806;-0.246712686;-19.73731467;5.619261532;6.241523514;6.793797774;19.27997143;19.59897003;3.10745056;-4.701570202;12.40292577;-4.855228601;0.431839449;1.198544765;-0.456722938
-4.849212047;24.93531729;-5.077472668;-11.91948121;4.593347261;-0.03949226;-9.830575004;7.991662449;13.31212919;7.610462799;19.08273325;21.13923783;4.033266087;-4.012133952;11.25963375;-2.905793703;3.577545415;-4.27738141;-0.328158048
-1.56664867;27.73474655;2.499269308;-5.5260213;3.657404216;0.187298506;-6.184039877;8.219057832;9.558397622;5.103996489;17.80445861;19.99558845;3.930242233;-3.686099619;9.656235612;-1.236497085;6.003014737;-12.00269351;-0.83769757
1.577711254;28.62856221;8.441323022;1.588966676;1.888140797;0.258973602;-11.58817691;6.712088274;-2.065044772;0.29923281;16.34401463;17.15802698;2.900607503;-3.286628837;9.334172414;-0.992632327;7.198614249;-15.88496785;-1.550649231
3.446116872;28.19018338;10.92274826;6.439079572;0.794896003;0.12076414;-20.99741813;4.478100935;-11.32364792;-3.828353789;15.73077662;14.33370861;1.432366879;-2.096136521;11.24484042;-2.643281217;7.739128158;-13.47938482;-1.774757414
3.637307597;27.62559519;9.30659562;7.434668109;1.320561677;-0.115512608;-26.43926222;2.522597643;-9.165200275;-4.748466358;16.25534755;12.56971766;0.080229611;-0.253665612;14.2187546;-5.5845576;8.710811164;-7.760989551;-1.175843014
2.615992511;27.04040286;4.095366684;5.034360353;2.893465524;-0.265382632;-23.8843547;1.405437021;3.89940484;-2.6085553;17.33365912;11.62426868;-0.774338436;0.985020118;15.62969301;-8.106420993;10.60612024;-4.096450319;-0.109062015
1.219332682;25.21713717;-3.53289308;1.032315388;3.904061879;-0.225136855;-16.05550068;1.207730348;16.71434668;-0.220124614;18.15763743;10.53443185;-0.972430276;0.276032417;13.72522916;-7.897194014;12.62393691;-5.209010504;0.643465971
0.007002691;21.15585632;-12.09511514;-2.742465909;3.172766577;-0.0512291;-9.229128807;1.810469229;15.22905699;-0.571799274;18.47112942;8.746317398;-0.502562817;-2.428962474;9.528187389;-3.162889844;13.04259412;-8.743106137;0.517653992
-0.987491243;15.76853408;-19.8995508;-5.271628081;1.050769916;0.101261273;-7.444733486;3.140437739;-6.613303846;-3.90958462;18.73548316;6.728730569;0.558715134;-5.553256097;6.29713642;5.995813935;10.46384508;-9.664121214;-0.35995927
-1.951009544;11.86635299;-25.14336022;-6.30504893;-0.866142209;0.121993528;-9.438866509;5.11692984;-41.34019517;-7.037185747;19.56545886;5.546931204;2.027570781;-7.10529258;6.628891308;16.82456823;4.972617521;-5.281858437;-1.285338823
-2.805074521;12.18767568;-26.37174055;-5.840761027;-1.153387284;0.039610322;-10.6940382;7.366898639;-72.25375044;-5.72888897;21.03080312;5.871837023;3.585081168;-6.42140089;9.619037049;24.66475716;-1.73121941;1.788720832;-1.581381972
-3.081940086;17.13603475;-23.25371106;-3.846456124;0.185710451;-0.01699151;-8.209056286;9.061438995;-84.46579627;1.58378394;22.5468077;7.401099838;4.854853933;-4.808959146;10.85694813;25.27407366;-7.377231078;5.609172061;-1.170975692
-2.351516588;24.28194272;-17.12652933;-0.516143723;1.75293671;0.048740861;-3.35095785;9.182083863;-74.47229298;11.99833551;23.48482693;9.223485044;5.599412697;-4.374646772;5.817882665;17.5266827;-10.55805886;2.210275258;-0.624241837
-0.831800365;30.14040465;-10.69743139;3.313228558;2.02267841;0.200377403;-0.271484583;7.154298903;-51.45898562;19.95386086;23.88070537;10.7161623;5.895645899;-6.003084098;-5.84101573;4.630402378;-11.46384653;-6.562961643;-0.644850685
0.430668219;32.70231694;-6.829260503;6.19608461;0.675199476;0.296646346;-1.654769717;3.397008119;-30.03425462;21.39007813;24.44982538;12.03975982;6.104591201;-8.337742646;-18.77716479;-7.312771366;-11.40824508;-14.25635446;-1.446600664
0.108649353;32.56519107;-7.07147357;6.757256208;-1.200534684;0.226032992;-5.973799581;-0.707441537;-20.36823663;16.88022431;25.75356442;13.70152994;6.590491261;-8.814427531;-25.00915675;-12.78838628;-11.60963913;-15.18311043;-2.560313632
-2.459551449;31.84100523;-10.89466238;4.557600613;-2.172124455;0.024383875;-8.851261027;-3.52741513;-22.94412048;11.09057625;27.25113695;15.61374453;7.372809422;-5.956310471;-19.58536286;-10.17404086;-12.25051656;-9.295240467;-3.230637957
-6.653861764;32.03715301;-16.14447957;0.436832577;-1.781942994;-0.137865007;-7.173999157;-4.14460583;-30.8130106;8.946701439;27.25536539;16.65641461;8.009475751;-0.914768782;-4.558394545;-2.564555775;-12.5383963;-2.213495041;-3.051288163
-10.81752801;32.91933066;-20.37087483;-3.978195117;-0.909986977;-0.097352204;-2.03580513;-2.885546142;-36.31064476;11.67007813;24.12189482;15.3579469;7.874762073;3.202093129;12.0055365;4.507959761;-11.61522209;-0.31898723;-2.291269713
-13.23946735;33.26475682;-22.09567329;-7.227030111;-0.888704883;0.151395117;2.268635413;-1.024776752;-36.44135236;15.9854614;17.85897219;11.24579047;6.681708549;3.756301532;21.45331628;6.841678224;-9.461158978;-5.188006582;-1.645079678
-13.17045748;32.52398265;-21.22224495;-8.707344939;-2.231326266;0.430988055;2.251228681;0.125591567;-33.28458439;17.12572084;10.76345385;5.666308395;4.853185632;0.717663078;20.36315697;4.129043752;-6.990649212;-12.25012654;-1.640369689
-11.1457907;31.57838573;-18.51881392;-8.663213718;-4.162295458;0.512862659;-1.510905684;0.064051363;-30.4068201;13.04260666;6.288736518;1.182018695;3.395354772;-3.346937031;12.37689422;-0.413076643;-5.267864431;-14.81930322;-2.218302603
-8.436529532;31.78966418;-14.79941675;-7.657450118;-5.361231946;0.301782185;-4.911952521;-0.72707385;-29.24735414;6.223516418;6.751592165;-0.163332447;3.27797646;-5.449314474;4.826119511;-2.835161754;-4.535686739;-9.912507172;-2.830938338
-6.118227771;33.35043335;-10.52706921;-6.106409352;-5.196969602;-0.079277271;-4.168247017;-1.355658311;-28.58832955;1.584492069;11.55097181;1.6229308;4.725836407;-4.648689343;3.005639161;-1.411063496;-3.912138176;-0.745978224;-2.942944339
-4.488453105;34.72679304;-6.048914788;-4.275129378;-4.292810894;-0.376286562;0.573548415;-1.331666953;-26.85070136;2.273403282;17.34864228;4.439233693;6.949510745;-2.68628085;6.626142966;2.409463022;-2.048720443;6.188696435;-2.487862119
-3.209551357;33.91559346;-2.04328053;-2.595135988;-3.913087432;-0.395023241;5.223333701;-0.951863516;-24.38668632;6.984702376;20.22415667;5.651086741;8.560772403;-2.277274095;10.97422305;5.482996122;1.746149756;6.752564509;-1.895017753
-1.927717782;30.35935116;0.422591203;-1.816712105;-4.767446061;-0.144207632;5.394551221;-0.976385335;-23.35230831;11.05792677;18.27514834;4.04271542;8.419725056;-4.611820335;11.39506005;5.441851535;6.786763416;2.470934455;-1.692517606
-0.757129963;25.58102513;0.42342452;-2.682818438;-6.357073917;0.178615424;0.42180658;-1.91038822;-25.40379051;10.38189083;12.74714702;0.599191738;6.329158584;-8.288373462;7.170886256;2.187296853;11.23942432;-1.280048828;-2.0508718
-0.202419221;21.8038067;-2.100358522;-5.333511541;-7.459559151;0.340065918;-5.900900404;-3.515002253;-29.66195259;4.765092397;6.89813207;-2.479896474;3.097065833;-10.59561167;1.701386912;-2.459238769;13.13199423;-0.363898443;-2.654981804
-0.631207271;19.90200099;-6.063173153;-8.996672677;-7.278390849;0.238437871;-8.555594805;-4.954684926;-33.08194558;-2.038135226;3.553120057;-3.665364057;-0.039082362;-9.952517224;-0.794455114;-6.221371769;11.44337829;4.467063002;-2.984233298
-1.817522392;18.8755592;-9.708063714;-12.33429118;-6.174856272;-0.039262024;-5.619948826;-5.442139203;-32.98517303;-5.552852862;3.275538515;-3.280087891;-2.161350256;-7.298127845;1.042283433;-7.548137153;6.598483917;8.617860925;-2.731695646
-3.007502292;17.61150413;-11.53660528;-14.24492905;-5.310290957;-0.299430481;0.186760449;-4.832209292;-29.40503088;-4.228826748;4.498620814;-3.001810142;-3.033911295;-5.194411301;4.806568062;-5.784299552;0.173998947;8.260531612;-2.006817414
-3.487821353;17.20076771;-11.0379383;-14.49761149;-5.554074845;-0.384698172;4.079411005;-3.677606584;-25.05145056;-0.432458388;5.322085643;-4.157285382;-2.874096057;-5.477882966;6.738675879;-0.789061539;-5.871759867;4.110849275;-1.190950734
-3.184409185;21.00977148;-8.740039063;-13.69634431;-6.689845141;-0.266505734;3.543555903;-2.722737211;-22.91128539;1.910218579;5.346532171;-6.310737414;-1.833900136;-7.596710355;5.097942874;7.083074294;-9.955455751;0.803869794;-0.623990021
-2.775244384;31.4677561;-5.649440325;-12.64880302;-7.655041471;-0.033538254;0.509610268;-2.276708508;-23.66747728;0.842712654;5.975153891;-7.396929415;0.272922054;-9.136064019;1.493565198;16.41251349;-11.30202185;2.426739338;-0.413041602
-3.197362663;45.86978686;-2.582438612;-11.7182864;-7.57106891;0.190731733;-0.578115358;-1.987685393;-25.24420603;-1.990048828;8.97305937;-5.342084468;3.703597745;-8.051002124;-0.839420461;24.36434018;-10.02790822;8.384213842;-0.492437559
-4.92350903;55.34298076;0.120420143;-10.71449592;-6.585868909;0.325377477;2.985065989;-1.188212964;-24.81067382;-2.909204568;14.57229521;0.133779346;8.197464042;-4.588758309;-0.081408452;27.55258816;-6.985965756;13.54614569;-0.807263752
-7.566268832;49.31583649;2.404836617;-9.352884616;-5.739658614;0.354704144;9.481597183;0.493994642;-21.36484964;0.524903219;20.79162211;6.992980126;12.62857262;-1.170508198;2.602984701;24.07500645;-3.450240993;12.73826734;-1.391510954
-10.10028057;23.32285853;4.153787659;-7.77568431;-5.988007465;0.304656429;14.14712336;2.767026591;-16.58036679;7.407258563;24.61030583;12.05925876;15.32683984;-0.341381808;4.283204066;15.31081401;-0.670949229;5.616627705;-2.251977427
-11.51241191;-15.5869309;5.068613382;-6.581562952;-7.302618245;0.213564912;13.42315542;4.834459552;-13.25751577;14.27495976;24.0837778;12.99179785;14.96588823;-2.619599517;3.020406198;5.773163093;0.605858769;-2.519814295;-3.197347804
-11.3882839;-50.82068505;4.88997191;-6.299239929;-8.688339829;0.122546766;8.264443289;5.93475825;-12.88448068;17.95412289;19.71654903;9.603652714;11.42054285;-6.137357538;-0.40114908;0.605557431;0.440097656;-4.89322019;-3.83384756
-10.04083654;-65.48012004;3.72311845;-6.804756494;-9.093780585;0.075524478;3.450510339;5.82743186;-14.51291141;17.94739485;14.03129774;3.692651358;5.952369151;-8.336352064;-3.291058692;2.263985515;-0.391248118;1.104981441;-3.796911407
-8.16707337;-53.02822319;2.133364383;-7.283383066;-8.365472802;0.105930302;3.392538494;4.875879182;-15.83248056;16.42415695;9.734980857;-2.267481605;0.545684796;-8.151166679;-3.573344132;8.843886859;-0.876953475;11.62862765;-3.045912094
-6.356924488;-21.82348503;0.888788468;-6.858564666;-7.370362739;0.209182072;8.117301943;3.724611784;-15.30003906;16.07588488;7.956436751;-6.48136224;-3.167482712;-6.733061255;-1.655408521;15.45123955;-0.36648228;19.4061615;-1.953485551
-4.820792957;10.02836503;0.533655633;-5.376567412;-7.196885456;0.328741868;13.09274636;2.874138354;-13.32453544;17.89586194;7.863717093;-8.350832145;-4.670206082;-6.148811513;0.035822264;17.70571679;1.114923318;19.47329135;-1.076604776
-3.463529033;26.12620099;1.103402424;-3.633288819;-8.194214899;0.382358479;13.26258943;2.480557434;-11.53627482;20.79066244;7.77413251;-8.123050783;-4.550340369;-7.346051829;-0.643246187;14.76526944;3.02705272;12.77845639;-0.771967354
-2.145946756;21.57601005;2.153641941;-2.771450257;-9.730699471;0.319374182;7.889663405;2.46757176;-11.01968131;23.10160503;6.688089743;-6.302278796;-3.842716063;-9.307495913;-3.567161466;9.609386321;4.782142117;4.823376652;-0.964426099
-0.874157312;4.519690688;3.025273757;-3.295469094;-10.85068829;0.164160581;1.857829236;2.769511991;-11.28997911;24.35954554;4.970354228;-3.420986528;-3.289262186;-10.16174103;-6.48790809;6.466710409;6.119568319;0.829632211;-1.256213295
0.214547148;-11.048099;3.132820726;-4.518734574;-11.16258722;0.004067609;1.887256174;3.45300125;-10.95440251;25.50875741;3.755444425;-0.192045643;-3.046735032;-9.161102463;-7.144289776;7.476081881;7.097175;1.73476936;-1.278220474
0.994832725;-15.37621093;2.131189446;-4.939222874;-11.10191517;-0.074402207;10.42769988;4.622510279;-9.293991201;27.42;3.765755525;2.405972384;-2.933979587;-7.60211148;-5.373794934;11.15411092;7.765562687;4.258458238;-0.983767568
1.456599492;-8.593679118;-0.024794479;-3.292978958;-11.34749364;-0.049952933;22.22782564;6.231475511;-7.107775057;29.2401407;4.64767843;3.462212738;-2.863926512;-7.734153639;-3.288403339;13.69039179;7.882048813;4.49889474;-0.645197207
1.674985737;1.484285851;-3.041691058;0.511973522;-12.00645757;0.023678919;26.79385697;7.996600147;-5.9282577;28.3656992;5.362659709;2.715696448;-3.017613761;-10.59405473;-3.357906902;11.86216374;6.983163462;1.514791563;-0.577407476
1.698771113;6.622048168;-6.259519255;5.275610991;-12.41373521;0.070638583;15.45534104;9.498177177;-6.376720522;22.35321934;5.18938979;0.836802326;-3.624600917;-14.77343644;-6.145792665;5.277494358;4.797593214;-2.275185055;-0.84502514
1.478563437;4.343746353;-8.739691153;9.24750077;-11.78784549;0.060538831;-11.94295606;10.37124782;-7.342306964;11.22521043;4.382734929;-0.960120683;-4.6113538;-17.35768805;-9.74575571;-3.538806508;1.644812807;-3.858414182;-1.20981804
0.898631307;-1.447005734;-9.568270523;11.13959604;-10.12483091;0.029311889;-45.70103616;10.42327016;-6.916308924;-1.886900361;3.90482721;-1.746012255;-5.504152414;-16.32780941;-11.42336311;-10.88512541;-1.566118146;-2.626755124;-1.351410736
-0.133012773;-4.958114099;-8.308634148;10.69773775;-8.430494197;0.035371444;-71.51500345;9.608492638;-4.284510387;-12.5084232;4.507990723;-1.483320335;-5.726135096;-12.34118382;-9.991573853;-13.89260323;-3.808602405;-0.691942346;-1.152717975
-1.627899799;-3.717910824;-5.347092704;8.552562718;-7.982131571;0.094014718;-78.88930102;7.942624625;-0.745449464;-17.71786103;6.014286961;-0.905118769;-5.048847667;-8.273216111;-6.814955254;-11.50172656;-4.556895205;-0.377129189;-0.794889151
-3.530039063;-0.166482256;-1.850164992;5.637645494;-9.235882337;0.154312218;-67.11011573;5.497403217;1.261072687;-17.92092865;7.421674507;-0.799963976;-3.799781703;-6.837252934;-4.58455438;-4.315372988;-4.087539973;-1.533486803;-0.587107919
-5.747018087;1.160538881;0.739141724;2.687063601;-11.37872895;0.143320325;-44.98910249;2.516282238;0.361087051;-16.15549791;7.708114676;-1.363777019;-2.634119464;-8.305394333;-4.984565657;5.880729619;-3.237366517;-1.46944002;-0.694158899
-8.127550553;-2.098265899;1.427413218;0.0910322;-12.97768711;0.038083505;-24.91462683;-0.465116698;-2.340843602;-15.57750637;6.605259162;-2.20048026;-2.061776653;-10.3073982;-7.312077788;16.35543417;-2.806310955;2.320600313;-1.006092002
-10.3887282;-8.202988213;0.199035834;-2.001432494;-13.18365511;-0.102981703;-15.43690957;-2.669828696;-4.080669501;-17.17155385;4.693675341;-2.928296348;-2.1317129;-9.905390488;-9.211353633;23.71692664;-3.047559245;9.253959404;-1.254742825
-12.08875583;-13.09644363;-1.978493712;-3.599435383;-12.42105651;-0.182488805;-17.18082203;-3.367343934;-2.900784259;-19.40253775;2.817956632;-3.758382939;-2.524752691;-6.175760964;-8.79682268;24.91855218;-3.589515486;15.51203508;-1.256347395
-12.74653497;-13.96878578;-3.681033108;-4.895519789;-11.93991939;-0.145245241;-24.20989257;-2.265800974;0.445074364;-19.85109041;1.418616531;-5.419579737;-2.933942959;-1.091005883;-6.261481952;18.97434218;-3.786929324;17.03304081;-1.054030088
-12.09705503;-11.37992661;-3.772884034;-6.236309639;-12.63437404;-0.025240374;-29.17438909;0.243361956;3.009302974;-17.32023315;0.390305353;-8.422426827;-3.358972608;2.041924003;-3.607614455;8.243805159;-3.192695123;13.02272333;-0.838155276
-10.32728539;-8.311278446;-1.942036194;-7.872813914;-14.20369109;0.085465886;-28.33493252;3.173254588;2.314315678;-12.7140816;-0.476886287;-12.32381091;-4.039158401;1.247089218;-2.844628236;-2.149773996;-1.803344064;6.745035309;-0.733564893
-8.093129916;-7.327690414;1.249067779;-9.605310389;-15.42509217;0.119031134;-23.1955739;5.337457201;-1.171366102;-8.179157895;-0.995445792;-15.73717348;-5.106215827;-2.591938968;-4.315070304;-7.034343963;0.050156726;2.774226066;-0.664549814
-6.236681369;-8.510950646;4.764982452;-10.69278774;-15.29235289;0.090630038;-18.2362024;5.835563106;-4.125751318;-5.43616411;-0.597049742;-17.21612399;-6.320278792;-6.556311516;-6.592161841;-4.464177029;2.023084739;3.137726617;-0.43150135
-5.33422597;-9.83688084;7.659575363;-10.2872439;-13.9764157;0.079493731;-16.97788878;4.37230058;-3.237036712;-4.711153766;1.07208839;-16.34882488;-7.189502169;-8.06871128;-7.913565299;2.883828888;4.02689493;5.833424381;0.068832967
-5.35291236;-9.328776677;9.448407222;-8.185305176;-12.71805985;0.149067026;-19.45867907;1.286856439;1.543492572;-4.943084318;3.526033305;-14.14685047;-7.409480863;-6.774072973;-7.758885542;9.512673435;6.26822761;7.045679367;0.68824226
-5.655937408;-6.826163643;10.09967489;-5.272750291;-12.73411622;0.280083618;-22.76315493;-2.643019515;6.390570015;-4.79526145;5.453108857;-12.35053915;-7.223574159;-4.426724742;-7.148249817;11.00369585;9.052765262;4.973189199;1.095557454
-5.382811472;-3.804034102;9.720224624;-3.127462563;-14.12320087;0.379942314;-23.79037174;-6.456935102;6.600528618;-3.466221974;5.526522643;-12.16259173;-7.32145566;-3.075385422;-7.49133833;7.131072378;12.4831714;1.672881939;1.028790175
-3.983051118;-1.635815115;8.221294581;-2.886957261;-15.76687537;0.362329224;-21.83613611;-9.205573225;0.968956999;-0.728488838;3.455121378;-13.40389102;-8.277806194;-3.259045322;-9.151313771;1.768489609;16.21731543;1.146107651;0.520136489
-1.569740732;-0.120561662;5.263844458;-4.18957289;-16.32459404;0.225825785;-18.9285446;-10.08157377;-6.250305475;3.531665163;0.427757142;-14.74540304;-9.964527741;-3.773345368;-11.08724064;-0.365052435;19.42223941;5.399907237;-0.107247271
1.135060793;2.278941241;0.584390089;-5.12091349;-15.43050222;0.059557118;-17.79084855;-8.566040833;-8.008784743;9.582674064;-1.486124151;-14.79717516;-11.45952327;-3.064307404;-11.87061947;2.454444533;20.99527172;12.17157419;-0.485330633
3.233290933;6.757373861;-5.495616072;-3.419645891;-14.01616845;-0.030502836;-19.24836144;-4.63281383;-0.237469688;17.56779364;-0.625274801;-13.16673328;-11.61140717;-0.850243801;-11.07060802;7.59100043;20.02122894;16.56086414;-0.497890762
4.189419058;12.71269991;-11.77105809;1.814973684;-13.47056995;-0.008813345;-21.32014997;1.065460999;13.66153713;26.98018839;3.176069984;-10.67833967;-9.882169669;1.550886258;-9.679997178;10.21985124;16.29143903;15.24078826;-0.383111693
4.13168838;17.96586053;-16.39262399;9.193890545;-14.39166823;0.066965792;-20.82195821;7.19487596;23.55099124;36.49242884;8.451252936;-8.666036896;-6.825485769;2.457406581;-9.181690725;7.236258827;10.59458903;9.47693659;-0.546118463
3.723308304;20.52219345;-17.64127961;15.69996758;-16.0420846;0.10647602;-16.19498857;12.05012296;18.75865431;44.40606313;12.97315941;-7.981758224;-3.803658337;1.443065495;-10.14207521;-0.259495749;4.525276939;4.154432879;-1.216803191
3.687204716;20.29014143;-14.83892497;18.58170531;-16.98217483;0.072539121;-9.185605654;14.13762767;-4.273991348;49.39816809;15.00589743;-8.499117956;-2.120181644;-0.174247736;-11.65964329;-7.82926922;-0.195697236;3.574196093;-2.217763482
4.294284013;19.18611882;-8.822448828;17.14140714;-16.30614172;0.011623186;-3.862296752;12.79410749;-38.39727165;50.99355974;14.12663328;-9.391075079;-2.191895675;-0.440307915;-12.19521925;-11.08826443;-2.551155862;7.727638122;-3.032506371
5.153542247;19.50207065;-1.622227857;13.09614737;-14.39417749;0.000832192;-3.619704496;8.514076557;-69.13623225;49.49645714;11.2032198;-9.808340944;-3.349236862;1.515361944;-11.02172813;-8.823371439;-2.687676849;12.39223734;-3.142473413
5.449025582;21.96340538;4.518859316;9.238195164;-12.55657426;0.063233219;-8.529959126;2.766976092;-83.10790939;45.62093777;7.714069757;-9.351659925;-4.371069957;4.675796988;-8.953327991;-3.441781084;-1.666942455;12.98986505;-2.400063477
4.474965842;25.16453732;8.209284776;7.409402764;-11.93821816;0.135452737;-15.20960198;-2.649606249;-75.9305697;40.24081507;4.943255177;-8.054031475;-4.322826274;6.95299067;-7.673709016;1.330161583;-0.646517951;8.756363331;-1.171427485
2.12;26.83087499;9.419922989;7.321894446;-12.66927186;0.123951886;-19.36411351;-6.400565893;-54.39534402;34.38792344;3.49659328;-6.097368568;-3.091107525;6.899537645;-8.265479617;3.3706031;-0.063952772;3.455988638;-0.138936238
-1.016719335;25.75284662;9.187272192;7.087315103;-13.9583319;0.001390198;-18.97450027;-8.123582761;-31.65296196;29.22969969;3.248745336;-3.683396721;-1.300975102;4.833968977;-10.2681302;3.304867601;0.571845453;1.957745177;0.113635765
-3.946206286;22.69573806;8.797983864;4.978132877;-14.93629261;-0.148931343;-15.54933797;-8.386767131;-18.90877678;25.72959956;3.567978014;-1.207177576;0.208685397;2.453820204;-12.10578992;3.204682884;2.126508501;5.727490917;-0.537686609
-5.819619252;19.55563552;9.045646837;0.988422381;-15.40831126;-0.190987259;-12.48213096;-8.152984117;-19.24229824;24.10070763;3.633833267;0.542551403;0.894468666;1.343691466;-12.48537101;4.312096015;4.971299347;11.32159271;-1.685698187
-6.307331849;17.60874266;9.997923718;-3.061746994;-15.83663763;-0.054211367;-11.99454222;-8.114569538;-27.31030534;23.56053303;2.767808671;0.552403275;0.664492118;1.704418832;-11.50538605;5.926813137;8.517802168;13.3385256;-2.655555631
-5.595269833;16.4778125;11.25986292;-4.969213022;-16.65921605;0.19059304;-13.32636526;-8.331410982;-34.40271671;22.787727;0.746979123;-1.812729749;-0.293588566;2.358706409;-10.50405508;6.340890022;11.56400556;9.309454029;-2.929560554
-4.062372983;14.74744102;12.35796559;-3.99549783;-17.68429314;0.370909967;-13.70753729;-8.380319324;-34.78;20.87106641;-1.998208283;-6.184374079;-1.723836056;1.927974582;-10.82550741;4.766016006;13.19333755;2.21709344;-2.456577419
-1.940154759;11.64102054;12.88955672;-1.641455018;-18.19348044;0.343567653;-11.16632917;-7.852747898;-28.85081927;17.99359918;-4.465774695;-11.10318949;-3.317373962;0.081678311;-12.63761808;2.341466056;13.48767531;-1.671607469;-1.649282079
0.752843865;8.184089512;12.42282765;-0.68997388;-17.66095492;0.111355012;-6.568688857;-6.786830596;-21.51527142;15.20958742;-5.514345352;-14.66807493;-4.577829306;-2.217729124;-14.84307442;1.242114123;13.43529345;2.071534627;-1.08229063
3.959617566;6.696586273;10.44389812;-3.191295709;-16.36724729;-0.173507599;-2.955330882;-5.680186257;-17.62438978;13.4494301;-4.472719031;-15.53676528;-4.796830169;-3.602805951;-16.10562529;2.702131076;14.06261435;12.24979748;-1.104429354
7.266808824;8.921303818;6.612607569;-8.885467377;-15.26460539;-0.325181368;-2.704425258;-5.066292525;-18.29863082;12.6438861;-1.557812896;-13.59528629;-3.326784342;-3.465754055;-16.01808888;5.774382795;15.473087;22.75635987;-1.632312914
9.860039063;14.34154306;1.228449905;-15.24389167;-15.16629235;-0.265819598;-5.111716832;-4.99712368;-20.70155084;11.83281343;2.207722118;-9.865228218;-0.037946662;-2.379479253;-15.36334621;7.976471925;16.59081523;27.15955048;-2.259877895
10.88789155;20.18618112;-4.526163166;-19.11682401;-15.99999039;-0.078317993;-6.729064099;-4.873532497;-20.93656714;10.23839291;5.563903967;-5.800695374;4.398092508;-1.488239343;-15.29312799;7.280528246;15.86840854;23.36514087;-2.58996834
10.02254855;23.28158381;-8.943600191;-18.80265247;-16.83987485;0.069198968;-4.353906903;-3.810775622;-17.39653368;8.308518872;7.702380582;-2.541587054;8.698776855;-1.495969812;-16.2381455;3.726617492;12.45416487;14.68434018;-2.533759949
7.795686701;22.37956795;-10.66543547;-15.07277292;-16.72142994;0.059977216;1.93438419;-1.306215415;-11.85758876;7.627175638;8.617067927;-0.606635163;11.59273388;-2.160570365;-17.56151241;-0.693418337;6.940218765;6.784967274;-2.352970418
5.403523933;19.12869777;-9.498343926;-10.47548289;-15.50827926;-0.087756051;8.52409673;2.281104095;-7.679579351;9.56338743;8.908544616;-0.053235746;12.48098833;-2.661182968;-18.22884155;-3.702654819;1.128831768;3.355808864;-2.421077895
4.048383239;16.86227247;-6.535942109;-7.494281929;-14.01466127;-0.253650818;11.24439497;5.811826049;-6.855631557;13.77048384;9.233858752;-0.744732705;11.68471633;-2.400734838;-17.81281159;-4.471144812;-3.004251793;4.041190008;-2.900908636
4.235759644;18.07361633;-3.436843029;-6.925499669;-13.26310768;-0.326842693;9.033440951;7.971764346;-8.440582589;17.97680936;9.826455545;-2.389745523;10.12071344;-1.479949697;-16.87070216;-3.976194815;-4.398849042;5.907529045;-3.601733155
5.500489107;22.50586804;-1.370863221;-7.612690605;-13.55234086;-0.295411279;4.953076433;7.981895418;-9.56965917;19.49280532;10.40831462;-4.380879774;8.662484062;-0.47464046;-16.36481687;-3.836402029;-3.332062699;6.609840821;-4.13178794
6.742758835;27.356877;-0.421299401;-7.633827948;-14.18687938;-0.239828134;3.443062798;5.937515432;-8.05462436;17.30540596;10.48825721;-5.765853639;7.65400774;0.169393608;-16.71541891;-4.78489911;-1.011520475;6.264809845;-4.216905791
6.93253388;29.48909101;0.139574013;-5.967446373;-14.11167799;-0.245534118;6.149943651;2.607750536;-4.278813923;12.95136945;9.766083276;-5.605066495;6.888678376;0.498459761;-17.40882943;-6.146703845;1.222661118;6.619578909;-3.914833251
5.704763947;27.95710944;1.00859853;-3.346464001;-12.86527261;-0.319819456;10.19415396;-1.063855605;-0.801163194;9.293441468;8.34466802;-3.567904011;5.988579103;0.859631803;-17.52835563;-6.669592058;2.481621335;8.750587766;-3.541134304
3.482225738;24.84457714;2.209528955;-1.656696616;-10.98093443;-0.388685813;10.76908943;-4.340815729;-0.074056985;8.160840553;6.658886997;-0.291758401;4.82958175;1.429108078;-16.67736959;-5.816684838;2.419016993;11.74626637;-3.370446373
1.119736124;23.64165597;3.204273988;-2.356087928;-9.485232523;-0.372654279;6.02266775;-6.727068813;-2.272577321;8.929546248;5.252069601;2.877121761;3.674462029;1.99598048;-15.38544595;-4.286415002;1.021423834;13.62866772;-3.377116894
-0.620041504;26.31958718;3.60446872;-5.14699369;-8.977817271;-0.26798956;-0.26180565;-7.78579911;-5.095971321;9.39687829;4.586185312;4.664116395;2.955101186;2.236545776;-14.590525;-3.325984362;-1.525619809;13.46114849;-3.253662016
-1.398271164;31.41606853;3.756275533;-7.963505917;-9.148120021;-0.156490656;-1.182030695;-7.081113873;-5.687458191;8.248404109;4.960644524;4.622547353;2.93469822;2.175422942;-14.69063692;-3.545991778;-4.739749556;12.43547693;-2.705329736
-1.290667271;34.85949977;4.561485328;-8.356008433;-9.155125475;-0.133708706;7.030609606;-4.434304741;-3.007080162;6.824249083;6.485672307;3.310138576;3.545898514;2.308144285;-15.09266417;-4.365963051;-7.714872465;12.79019837;-1.766603057
-0.560368322;33.21301711;6.60186922;-5.285577575;-8.477858273;-0.220302551;20.17518533;-0.321739681;1.370043945;8.314065994;9.042382144;1.784593584;4.512971755;3.188778606;-14.72755191;-4.580709233;-9.286572275;15.59096274;-0.846069453
0.55215785;26.95929924;9.335135932;0.015421028;-7.40954115;-0.336785718;27.33818883;4.000015259;4.675557597;14.76920723;12.25019925;0.84762138;5.610225808;4.84531653;-13.07507409;-3.481939255;-8.559949644;19.56462521;-0.428817135
1.888066235;21.01493437;11.1763491;4.810388704;-6.723697301;-0.365471314;18.25461354;6.923084331;5.31329613;24.50269557;15.52628204;0.618537727;6.808614283;6.613101951;-10.72655423;-1.48796249;-5.485475067;22.19475821;-0.668546751
3.323771672;21.44868297;10.56833608;6.745537154;-6.844612062;-0.246694857;-8.423863785;7.318229093;4.099100223;32.49303443;18.2682098;0.682691084;8.189315588;7.620529803;-8.916373867;0.263977567;-1.02552807;22.10011024;-1.22
4.745938348;30.31089413;7.257479098;5.486448068;-7.341654932;-0.027542629;-42.5030909;5.232543265;3.329726884;34.00118139;20.06742779;0.562918439;9.727955006;7.53781196;-8.416095514;0.936889862;3.286131507;20.43024009;-1.478960566
6.099830789;42.41447809;2.70915751;2.881238908;-7.269320793;0.175965119;-67.88430259;1.933686083;4.574836751;28.66125011;20.80551863;0.054580233;11.17219383;6.90477352;-8.809422064;0.672591873;6.132880884;19.88035684;-1.055071717
7.437097823;47.13266854;-0.778812775;1.514231519;-6.066843406;0.267976442;-72.7942183;-0.787497076;7.222276438;21.4494414;20.57642207;-0.798810347;12.14905096;6.695510734;-8.848446284;0.34944021;7.026136389;22.16408465;-0.092869716
8.86078496;34.94102518;-1.650588207;2.7415689;-4.175271097;0.237781239;-57.27401831;-1.615065175;9.114781962;19.2173419;19.53703277;-1.905713097;12.42924888;7.468209996;-7.600753109;0.711194773;6.360671556;26.28789084;0.832257941
10.37439158;4.713759603;-0.131581274;5.721897783;-2.760398178;0.151698744;-32.55527751;-0.356131757;8.692561648;25.23229922;17.85052751;-3.166082564;12.12794701;8.853787162;-5.343735635;1.699917618;4.965155191;29.29900823;1.167137084
11.77576531;-33.48948743;2.110083008;8.207549026;-2.746437171;0.088403847;-13.03062489;2.138088029;6.628336368;36.22449382;15.77122961;-4.266701459;11.65954927;9.863756136;-3.361451475;2.566158089;3.546358378;28.90872902;0.812925374
12.74173435;-62.8962911;3.427790913;8.48361525;-4.012682971;0.078956369;-6.927741386;4.622846839;5.34231808;44.7747437;13.73289882;-4.529066549;11.45536574;9.770019531;-2.794651918;2.573934256;2.422930369;25.61480634;0.181476982
13.08895395;-69.59610364;3.611615079;6.900397168;-5.476727395;0.099786374;-12.34208432;6.158256681;6.72342439;45.52708555;12.24780226;-3.17788582;11.641511;8.780287581;-3.582529529;1.607849868;1.638390621;22.33335068;-0.162906086
13.00353992;-51.1662733;4.097089293;5.712916479;-5.993626727;0.113318337;-20.77700585;6.398727359;10.13352887;40.17999844;11.5958541;-0.013890127;11.91441672;7.89226563;-4.485297913;0.175581274;1.226730529;21.79615323;0.032960646
12.9975506;-18.43708317;6.769836458;7.263394642;-5.270381531;0.109007553;-24.58190008;5.421209158;12.67929066;36.66583163;11.54301585;4.03328896;11.71708649;8.03333851;-4.206577655;-1.067844588;1.340297289;24.04092194;0.533211471
13.54259102;11.09203064;12.29651649;11.9041027;-4.000175325;0.104707908;-22.23421109;3.415276301;11.7479535;42.42395404;11.40821357;7.09785385;10.61336231;9.235606756;-2.61386777;-1.7272713;2.145789522;26.30673987;0.857995069
14.61329702;23.92499712;19.29668323;17.35695209;-3.148813611;0.113492342;-17.88952741;0.591644599;7.628116013;56.8026755;10.55829327;7.423923423;8.6236674;10.5816933;-0.926174621;-1.649056918;3.62946839;25.51007813;0.722472595
15.50597584;18.1609248;25.01;20.14276596;-3.094240658;0.117782488;-16.57842922;-2.636521038;3.699980052;69.09413273;9.010956194;4.605917;6.305779505;10.98476508;-0.647874927;-0.668085714;5.508902987;21.12031465;0.280698088
15.14171891;3.01480189;26.95710018;18.07799656;-3.41598691;0.084471228;-19.64704122;-5.479514102;3.681377436;64.87740503;7.625613628;0.032580854;4.515192564;10.13030295;-2.17434679;1.402697588;7.311714439;15.81441764;-0.032234231
12.71389607;-8.945050082;24.36849682;11.92587706;-3.479209128;0.010055084;-24.1296317;-6.929017035;8.135289033;36.83848277;7.604115342;-3.961856131;3.965539749;8.758898658;-4.335794195;4.37180125;8.526259012;13.21145364;0.092555198
8.262649123;-10.91828252;18.41019362;4.874286007;-3.187297938;-0.051579447;-25.94272091;-6.277020174;13.43466923;-7.887201552;9.57611602;-5.725976073;4.827260767;8.040794161;-5.344825315;7.274063458;8.718145784;14.59665111;0.549736108
2.777620622;-5.750799548;11.20018094;0.18698035;-3.125738078;-0.016198204;-23.59866546;-3.652088245;14.52658119;-49.99838327;12.96131814;-5.477400149;6.593316915;8.579947823;-4.36230311;8.595462177;7.620619561;17.53411945;0.905044579
-2.258100557;-2.196483943;4.480207704;-1.169010284;-3.932689774;0.161616402;-19.15888831;-0.123633895;9.501901196;-69.3018391;16.18513716;-5.068649435;8.30803522;9.89890626;-2.310092773;7.229516847;5.277164472;17.72746905;0.770597761
-5.595420844;-7.019674465;-1.087806229;-1.059658595;-5.517999477;0.434628072;-15.97645704;2.795672748;2.014139766;-57.53756982;17.69564147;-6.438184804;9.059961698;10.83078993;-1.180593151;3.487191472;2.222025207;12.71763332;0.132201614
-6.767914089;-19.33639803;-5.681243966;-2.453349922;-6.943979929;0.67743995;-15.64154958;3.969322254;-1.060676516;-23.74347224;17.06349071;-9.933413642;8.47968114;10.46559607;-2.394174026;-0.797020129;-0.487173927;4.375970768;-0.655692375
-6.164075437;-31.47419213;-9.600547918;-6.79718748;-7.169159925;0.768164394;-16.93583414;3.243871782;4.535576901;11.77038985;15.30746201;-13.864838;6.955179425;8.846675701;-5.59735789;-3.389367367;-1.599273833;-1.95083505;-1.18481034
-4.656821083;-35.28382493;-12.81073252;-12.6088321;-6.006113861;0.677437546;-17.45222724;1.457285867;15.65264126;30.67075492;14.14538908;-15.71454341;5.419961915;6.864761226;-8.931379868;-3.259477836;-0.339817297;-1.116740118;-1.318384301
-3.082000134;-28.57956066;-15.07027413;-16.44675604;-4.375963357;0.493484863;-16.04222759;-0.109204705;22.33932189;27.80506595;14.71502943;-14.09493149;4.821369695;5.502742302;-10.54409986;-1.358557649;2.954333474;8.083482109;-1.232830537
-1.879151734;-16.54378186;-16.34832681;-15.53055512;-3.548818003;0.360023193;-13.70834029;-0.427390977;14.28376373;12.7821346;16.75813084;-9.91032172;5.588191349;5.113613126;-10.06138004;0.157401267;6.75313178;21.87766215;-1.158630426
-1.029182008;-7.208533443;-16.97452141;-9.954307187;-4.006670016;0.372637841;-12.27410769;0.874402572;-11.20746913;1.498563959;18.91878792;-5.764977413;7.435377207;5.321323708;-8.789828347;-0.304485203;9.037030011;33.84208086;-1.091023079
-0.219324857;-4.933144629;-17.2911259;-2.739209826;-4.966807032;0.512025532;-12.3450795;3.554623434;-45.7165349;4.361983906;19.91963391;-4.038447662;9.630311738;5.541177877;-8.525904937;-2.479068217;8.45391228;38.79223329;-0.768842493
0.916225066;-7.241915304;-17.14394855;2.330468928;-5.049503285;0.662678596;-12.6374034;7.061669539;-73.83153904;19.85275052;19.65888786;-5.11322839;11.52782423;5.576221041;-10.02513799;-4.541898153;5.18649674;35.52842756;0.041143288
2.583391512;-7.431958557;-15.79775024;3.407636452;-3.536934634;0.698856693;-11.28143783;10.7904178;-82.46978414;37.4893619;19.31895652;-7.131175678;12.98487725;5.733038656;-12.42610003;-4.762732646;0.905168345;26.85550094;1.223574484
4.672623416;-0.576230551;-12.53397523;1.742316287;-1.097363372;0.570791694;-7.739975371;14.14352501;-69.03721481;46.97731738;20.37519558;-7.457837931;14.34947366;6.392445812;-14.05409285;-3.068090214;-2.203760867;17.34782011;2.286541199
6.68257164;12.11054245;-7.555721166;0.462530437;0.709167378;0.330248912;-3.433757294;16.49760596;-42.74832325;45.97972528;23.30007813;-4.707074442;16.03913155;7.492955926;-13.84154428;-1.109117093;-2.684292975;10.66963174;2.699843249
7.787835276;24.03461957;-2.448193228;1.997004837;0.741377397;0.086128459;-0.498436247;17.27139182;-18.31955186;40.68511212;27.02736836;0.22606442;18.04897657;8.457279125;-12.13031704;-0.739361678;-0.496498848;8.088136027;2.328189444
7.112981113;28.30481898;0.321893625;6.163127064;-0.750448657;-0.067364022;0.068498655;16.16028865;-6.642927949;39.45894274;29.64066985;4.862165023;19.80225618;8.662471408;-10.23230062;-2.250591062;3.250544782;8.626841567;1.573561989
4.1660777;22.88586403;-1.304437394;10.33825487;-2.363307719;-0.095742371;-0.917187806;13.38356265;-8.918314873;45.33078382;29.76386197;6.949324517;20.50267802;8.031362228;-9.228413685;-3.9902059;7.195603845;10.21757237;1.076100344
-0.771346711;11.75157468;-7.679258706;11.4691561;-2.787129418;-0.019800991;-1.873146818;9.707808898;-17.8254802;53.6160541;27.56125769;5.965628921;19.75003906;7.191141728;-9.09727294;-3.792667648;10.51335781;10.93054708;1.208959064
-6.561948335;1.413572816;-16.97377104;8.307223121;-1.94439003;0.118478772;-2.036496335;6.154210372;-24.05493145;56.407211;24.56793586;3.224728828;17.9470777;7.023456654;-8.887010437;-1.01845783;13.05167107;9.748601423;1.79456663
-11.57159175;-4.071658438;-25.84242286;2.222971468;-1.002894984;0.283000945;-1.940206262;3.546765221;-22.93946946;49.8828382;22.50566425;0.647386145;16.15115431;7.972758408;-7.678594846;2.627362695;14.88120231;6.804809059;2.286939036
-14.33809532;-5.553104798;-30.84013822;-3.834143981;-1.259454565;0.444939082;-2.373582118;2.194454083;-16.54010042;38.11093512;22.03306952;-0.72918483;15.42988882;9.696425773;-5.427913735;4.324862759;15.80267031;3.160385614;2.260384961
-14.20082679;-7.024894376;-29.82161316;-7.263510974;-2.916153245;0.57038426;-3.078324308;1.901560354;-10.4815638;30.03315383;22.39366966;-1.342643888;16.15927529;11.34142374;-2.975348225;2.456067269;15.32032863;0.196235771;1.775941714
-11.54198512;-11.54295823;-22.67611781;-7.173306749;-4.866339482;0.619221251;-2.759503635;2.250503183;-8.798077171;32.05983768;22.17392355;-2.457194223;17.76527629;12.19139888;-1.322038699;-1.960807963;13.10673567;-1.183426226;1.305791564
-7.520445456;-18.42565836;-11.19951097;-4.395166402;-5.683256751;0.565356522;-0.575382815;2.911024296;-11.03878516;42.44706434;20.50077717;-4.936846815;19.10085175;12.1276682;-0.906627387;-5.994085721;9.508807173;-1.098987862;1.29003418
-3.480601128;-23.96163187;1.677688297;-0.50974134;-4.902658061;0.422599469;2.477003896;3.75083695;-13.49449114;52.29371034;17.71303412;-8.473493171;19.20179946;11.54469015;-1.509301546;-7.118435782;5.599759542;-0.549971254;1.729466332
-0.383804783;-24.74683264;12.92148967;3.150695217;-3.421158028;0.249751549;4.054317309;4.722768493;-12.90101643;52.63927997;15.04037928;-11.81532323;17.90930223;10.86391446;-2.726185807;-5.18603521;2.683939526;-0.57692932;2.186131955
1.458449862;-20.64735286;20.34879322;5.863959093;-2.644793129;0.123401351;2.814669306;5.700473809;-9.229520508;42.07228128;13.66110426;-13.67938214;15.96242944;10.14027583;-4.39943454;-2.388969747;1.630567871;-1.353702286;2.195671555
2.294740469;-14.90570939;23.26433825;7.354194274;-3.173506018;0.094038761;0.444674042;6.460875058;-5.357854473;28.58650743;13.97042112;-13.53633923;14.54370413;9.140727022;-6.504457369;-1.280073242;2.528961766;-2.021263355;1.718981132
2.637170598;-11.42760386;22.59396377;7.646393331;-4.23763248;0.156317575;0.931569067;6.853874831;-4.241312048;23.78253025;15.61435248;-11.68814141;14.6128822;7.804782593;-8.64984682;-2.588931309;4.844551533;-1.50728047;1.215583112
2.964872532;-11.57610384;20.40754022;7.216059967;-4.411304822;0.254792004;6.928676406;7.004301011;-6.209866028;33.54791142;18.11364522;-8.739110586;16.44556036;6.603936143;-9.85599363;-4.721810804;7.828833607;0.341375823;1.253167913
3.550048828;-13.03630564;18.93050579;7.122832229;-2.947368723;0.320764946;16.04847054;7.33157005;-8.676280758;52.34696075;21.3819848;-5.059108613;19.58885798;6.366710642;-9.087228526;-5.33604555;10.79542988;2.394150863;1.98559775
4.410571229;-11.52545674;19.43626363;8.614113933;-0.497883506;0.314814495;20.75986729;8.304992757;-8.362581623;65.81463951;25.5912631;-0.742061685;23.15151442;7.605827278;-6.248581356;-3.548927956;13.12060064;3.121742926;2.962627528
5.338479014;-3.952036148;21.58663134;12.1692049;1.454237987;0.247996611;13.04251587;10.07238772;-4.078741177;60.25650588;30.50831276;3.982871533;26.18579955;9.874982025;-2.748340492;-0.790948578;14.17956221;2.041340028;3.457028517
5.972827121;9.221013504;23.63668885;16.68613449;1.934721334;0.170978433;-9.148722313;12.23052079;2.227360075;32.47518602;35.00415576;8.394570565;27.96858604;11.75911072;-0.9190995;0.471620879;13.51069631;0.369894822;3.047956975
5.914672402;23.79252489;23.45073447;19.70673419;1.349366747;0.140638488;-38.72294568;13.93961283;6.902091399;-7.061071317;37.37232572;11.4391951;28.14138584;11.66172816;-2.512848752;-0.988067285;11.21056952;0.109700699;1.973426636
4.868792698;33.63612559;19.76370166;18.87472358;1.073587419;0.184870053;-62.7410882;14.35977705;7.265596436;-40.05049059;36.40114947;12.36414631;26.76117467;8.921528569;-7.360260842;-3.930190652;8.196366898;2.216693006;0.956900916
2.755025242;33.33869073;12.93087006;13.72307119;2.135906155;0.284712582;-70.41623413;13.15787439;3.448150807;-51.28661989;32.40753179;11.29633589;24.2837478;4.464990861;-13.29922387;-5.616990441;5.935272184;5.500384855;0.655363999
-0.27633106;20.51310511;4.706788165;6.371037158;4.225266724;0.382858069;-60.16996853;10.75658419;-1.893906229;-37.42874507;27.31858807;9.216971414;21.43123881;0.45778833;-17.53696161;-4.194607454;5.64468898;7.445396983;1.185833148
-3.932848294;-2.877935337;-2.793920454;0.368012765;5.965555423;0.414917206;-40.4748296;8.132353639;-5.580019531;-8.13383299;23.55128735;7.274184534;18.90910477;-0.907122544;-18.46436112;-0.432135578;7.484395081;6.473876435;2.103224676
-7.897569805;-30.57380416;-8.283696043;-1.652796201;6.219780006;0.348468712;-23.81489656;6.241520753;-6.030193905;20.56290057;22.39400821;5.950058594;17.06063281;1.267837251;-16.55939706;2.729666363;10.39776465;3.721495297;2.810048828
-11.87654144;-53.77392776;-11.89136879;0.2021409;5.199747778;0.20843262;-18.31038793;5.403106608;-4.024483039;35.73316377;23.06504441;4.753446874;15.66686318;6.016412177;-13.74115184;2.504892712;12.81734866;2.571734954;3.025265582
-15.54685483;-64.52678226;-14.81504924;3.232703839;4.299715732;0.070638507;-23.1902678;5.035148939;-1.762860036;33.76891752;23.19449168;2.694453597;14.07177051;11.08174588;-11.77050242;-1.463117413;13.7529807;6.018939314;2.924572449
-18.48457785;-59.63667046;-18.305483;4.233482633;4.748282651;0.021332366;-31.07697986;3.965559252;-1.122669328;20.1259228;20.44302544;-0.845311786;11.60943511;14.2734706;-11.00880743;-6.780991217;13.42325623;13.91526729;2.879867646
-20.19340789;-42.95429977;-22.65175452;1.958396811;6.313917812;0.102961498;-34.6626539;1.196102559;-2.443950051;4.016644259;14.12302641;-5.560683374;8.073447088;14.73932627;-10.46406876;-10.20138723;12.92086084;22.51084188;3.076221302
-20.27403817;-24.09890592;-26.80454402;-1.944458301;7.330111955;0.280911603;-32.19897164;-3.31653634;-4.617237386;-7.599324645;5.683434743;-10.43237113;3.901351552;13.34387813;-8.936296219;-10.15213756;13.18444094;26.94632138;3.362542213
-18.63129608;-13.55626988;-28.8512404;-4.252897535;6.142640893;0.45770073;-27.71;-8.375283375;-6.219669232;-12.8641268;-2.236719323;-14.49875229;-0.067865578;11.93822439;-6.18903089;-7.821092598;14.13733224;24.87744759;3.446739299
-15.5441145;-16.69976338;-27.03982812;-2.694878705;2.746943699;0.530930236;-26.47176761;-12.01371004;-6.707867387;-13.82219744;-7.444081404;-17.51710967;-3.093049208;12.03343235;-3.150467224;-5.96717709;14.73321781;18.32246556;3.219192202
-11.50810136;-30.56940517;-20.74950535;2.311096964;-0.894171808;0.458636287;-30.07852622;-12.52176078;-6.714128374;-13.22007813;-9.334428478;-19.94144005;-4.923127516;13.77584946;-1.058924661;-6.529174507;13.89622108;12.15347318;2.881503672
-6.949827311;-45.83082256;-10.87741451;8.027144228;-2.270842809;0.286539786;-35.29173095;-9.436278709;-7.234874986;-12.18283974;-8.825553692;-22.2404345;-5.806930228;15.90789514;-0.380857035;-9.052763172;11.57913578;10.37406342;2.758000292
-2.04518012;-52.87120372;0.524905971;11.49899451;-0.364864099;0.116674409;-37.25237696;-3.872340911;-8.405225906;-10.2022366;-7.322182414;-24.17161399;-6.152132745;16.72231284;-0.461382705;-11.19820628;9.035637482;13.16673472;2.976798728
3.183130708;-47.94736574;11.10971887;11.65946201;3.43211431;0.039409008;-33.86253047;2.042696053;-8.958064756;-6.701803749;-5.641766817;-24.70642855;-6.14327925;15.33275988;-0.159731581;-10.82163442;8.02981378;17.0731187;3.332921072
8.541863658;-35.11902764;19.09503906;9.793441771;6.368583288;0.078038453;-27.424753;6.294940897;-7.015484053;-2.345495197;-3.727864475;-22.77645229;-5.648980251;12.36015567;1.149241337;-7.846685125;9.572651064;18.08088253;3.473264566
13.39231339;-22.72396285;23.70827173;8.139051292;6.531336361;0.184354864;-22.34443459;7.960506058;-1.7930714;1.122646062;-1.229399995;-18.29894292;-4.491495176;9.54045943;3.089998459;-4.385351378;13.16278441;15.00733306;3.237287365
16.71823129;-17.17150407;25.09398405;7.925383385;4.367563201;0.282964724;-21.23097276;7.434233318;5.124028878;2.20632995;1.71632825;-12.63199193;-2.830575604;8.526560135;4.675711957;-3.050977613;17.10468441;10.39271006;2.835300934
17.59840093;-18.73939238;23.90072966;8.521769047;2.25302386;0.324953663;-22.93981997;5.842615334;10.24133962;0.841399579;4.278891719;-7.987214997;-1.297765393;9.744819947;5.147131974;-4.859988714;19.62882506;8.262052045;2.690368079
15.8194442;-22.35075202;20.90498356;8.333548939;2.472480346;0.308607825;-24.09372399;4.143024724;10.46855483;-1.613230166;5.520559192;-6.121949133;-0.709940416;12.14017803;4.510102679;-8.379653974;19.94663522;10.73116633;3.077226047
12.19661483;-22.34894222;16.90034867;6.554319588;5.31241166;0.257588839;-22.41216352;2.595805045;5.790663829;-3.493575559;5.240765251;-7.223484271;-1.538904262;14.00014878;3.393525291;-10.72823701;18.49800012;16.30977078;3.879458214
8.311554473;-17.24345281;12.791071;4.179297599;8.849955468;0.185437624;-18.70170134;0.955135293;0.063294073;-4.035791665;4.281311718;-9.804992787;-3.532986862;14.24675882;2.502908864;-9.601509125;16.33908172;21.21736102;4.682339528
5.749298864;-10.66366582;9.618281281;3.367992791;10.57076394;0.084862159;-15.81703346;-0.873244855;-1.29015547;-3.677627858;3.942805979;-11.7053303;-5.794450793;13.22614425;2.23928393;-4.820621052;14.27154762;22.46524783;5.118738998
5.265774599;-8.007769697;8.299438908;5.691775203;9.419123008;-0.047336527;-15.78411583;-2.339139163;4.4292489;-3.331502351;4.94472791;-11.47392099;-7.282310684;12.39575712;2.750235094;1.608117579;12.41027029;20.07258019;5.162008137
6.392750648;-11.77934725;9.150433735;10.7597905;6.574158779;-0.177464917;-17.87974653;-2.406771041;13.99157671;-3.387171675;6.800467786;-9.153462674;-7.397464206;13.14546696;4.14938864;6.789344069;10.4139176;16.6778853;5.112831568
7.730564871;-19.5110546;11.54790835;16.38518387;4.378561966;-0.234449031;-19.40217125;-0.29730868;19.03855614;-3.354899216;8.17748446;-5.954448045;-6.258771153;15.65698172;6.467372668;8.597491834;8.024722984;15.09432708;5.303590789
7.760593472;-25.85532506;14.1053882;20.15033759;4.407482048;-0.154201535;-18.26932459;3.767842018;11.18565627;-2.424238332;7.99965441;-3.167950568;-4.522919441;18.68406713;9.275881124;6.671494696;5.379355325;16.01855663;5.791081551
5.703685769;-26.92062864;15.40930188;21.08374488;6.316922456;0.062741882;-14.92376906;8.455133491;-11.67119348;-0.394123745;6.400078125;-1.218569688;-2.934864384;20.43044493;11.4487697;2.340200802;2.864116569;17.77884177;6.306873793
1.944217693;-23.18334965;14.91086906;20.12744928;8.350443466;0.331589174;-11.79568167;12.00267242;-42.45531155;1.872835286;4.710499525;0.411613511;-1.956648908;19.85721089;11.58056344;-2.240515126;0.749841357;18.12018302;6.495034299
-2.185164579;-18.67044869;13.36105534;19.13171668;8.936789677;0.527030095;-10.94530062;13.24761724;-68.11953967;2.895493061;4.444832251;2.404212398;-1.700668074;17.42731384;9.000685227;-5.157180479;-0.985790203;16.29897678;6.213329195
-5.094793272;-17.30693738;12.4214514;19.32342165;7.94968148;0.563608054;-12.18811497;12.27148592;-77.38075446;1.59408861;6.078434206;4.699736571;-2.112370819;14.74225678;4.606267502;-5.531770364;-2.485812367;13.6535871;5.633465911
-5.702805454;-19.61180497;13.64579351;20.53575537;6.615858097;0.452256659;-13.44653716;10.22249806;-67.83510627;-1.889206485;8.632045338;6.294250037;-3.151297957;13.38483796;0.636066217;-3.792681213;-3.713338176;12.28244562;5.072837376
-3.877607053;-22.45187894;17.49254739;21.72785311;6.298108095;0.288038477;-12.88081544;8.485588004;-47.36876073;-6.169992968;10.43988932;5.968439937;-4.767006601;13.86908836;-0.723425296;-1.364939078;-4.376528353;13.10827509;4.732788389
-0.375522649;-21.86592431;23.02885136;22.17933269;7.315373139;0.177913365;-10.66353615;7.824970545;-28.71350127;-9.399673674;10.50594391;3.37612483;-6.702713312;15.4621882;1.051139465;0.113578338;-4.18795094;15.01810944;4.583533061
3.630919439;-16.41909592;28.49968486;22.21832444;8.808648864;0.164943936;-8.676783517;8.080670982;-20.99546329;-10.29950566;9.333120134;-0.427862388;-8.367632479;16.92103365;4.32621165;-0.280065918;-3.200735766;15.72422811;4.475810273
7.146408461;-8.26251767;32.32701885;22.84507489;9.645158256;0.206800745;-8.486162496;8.528960408;-24.35238804;-8.803731344;8.500139982;-3.530510243;-9.005620435;17.4801067;6.498459247;-2.197782757;-1.853264479;13.53530419;4.338315244
9.755542432;-1.165151233;33.83745824;24.64524357;9.44095645;0.221003279;-9.649686123;8.51923686;-31.33152977;-5.994021563;9.275749726;-4.432873196;-8.146644797;17.29932759;6.037505681;-4.257366626;-0.6244628;8.621344349;4.251236634
11.65497799;2.631223082;33.28566105;27.01451929;8.774039183;0.155899825;-10.09392105;7.866084306;-33.59327307;-3.468465508;11.38528444;-3.101973525;-6.049356477;17.09544451;3.729641892;-5.017703758;0.40187447;2.958395639;4.328466296
13.34464231;4.001697985;31.30826622;28.40929873;8.487812044;0.029447095;-8.244032355;6.767250308;-28.48715337;-2.561883191;12.98968807;-0.987992815;-3.764289878;17.37424989;2.008652624;-4.051348414;1.636535951;-0.775595705;4.546259739
15.18539095;5.706035163;28.34416167;27.41382116;8.831512436;-0.090755886;-4.812409583;5.446385844;-20.4502092;-3.810420971;12.00668118;0.02202802;-2.660535992;17.96943126;2.833841787;-2.282478214;3.609104072;-0.502494797;4.716779809
17.08796398;9.524790406;24.48644227;23.71655503;9.272695182;-0.142649673;-2.389235312;3.911733414;-16.53052363;-6.842117204;7.817070118;-1.073239738;-3.632236463;18.26534952;5.884806611;-1.245314495;6.430161591;4.373594344;4.657387652
18.50745909;14.29544352;19.7907641;18.21957025;9.116571573;-0.111362612;-3.065466357;2.044187092;-20.08054913;-10.65319629;2.026343741;-3.775974046;-6.469312629;17.85428925;8.702052342;-1.791747941;9.591588815;12.59658207;4.395108519
18.73068325;16.54932127;14.65798959;12.30143436;8.279715545;-0.027089995;-6.281073086;-0.121634568;-27.93909779;-14.09695104;-2.384896037;-6.598415387;-9.832818725;17.00639285;8.806857359;-3.318720909;12.32564699;21.1406061;4.184748684
17.27066858;13.24849763;9.882908556;6.969061929;7.438673059;0.06944968;-9.015560425;-2.248666469;-33.27985077;-16.36945254;-2.982780436;-8.232278868;-11.92370531;16.517908;6.064944796;-4.251591898;14.23071659;25.92973609;4.28319241
14.12943453;4.422116989;6.307422719;2.629855909;7.401989653;0.157105169;-8.313178985;-3.869615015;-31.47371439;-17.29710548;0.48397604;-8.438552569;-11.49345182;17.06126207;3.162087756;-3.481647881;15.59459603;23.43271519;4.665842924
9.788864603;-6.363428791;4.397052564;-0.46184926;8.315842201;0.234649099;-3.918455588;-4.74679134;-23.87555841;-17.312986;5.895189989;-8.005886529;-8.60382766;18.5924279;3.509698243;-1.554451172;17.08171833;12.77038332;4.958876462
4.971077763;-14.03763418;4.121643963;-1.715494166;9.478445601;0.29985271;1.40170821;-5.085565897;-16.3915247;-17.15119078;10.12345829;-7.917302886;-4.66627571;20.31428692;8.098987573;-0.470552743;19.0141012;-2.909237453;4.691647483
0.347278436;-15.05150426;5.219514188;-0.339794358;9.957674189;0.336842825;4.199952219;-5.377996228;-14.24771004;-17.43949931;10.95801348;-8.496235619;-1.712430426;21.22242442;13.93691431;-2.054728733;20.87011029;-17.20070734;3.685516684
-3.625506838;-9.322849816;7.554549016;3.881093514;9.43988289;0.329449503;3.252957995;-5.979253324;-17.59923889;-18.4320287;8.269039103;-9.262691;-1.308815457;20.7922087;15.67139065;-6.125420608;21.48230195;-23.6029667;2.24951035
-6.686792313;0.002592792;11.19347858;9.87711998;8.514365909;0.286791285;0.397552625;-6.769578833;-21.74905768;-20.02931523;3.735547704;-9.578732855;-3.744741447;19.28938993;9.525789557;-10.05094569;19.83665398;-19.42930005;0.995005491
-8.668328395;8.515472346;16.11635661;15.44167129;8.125957015;0.249617087;-1.405160551;-7.203068102;-21.6204031;-22.02957782;-0.477754575;-9.467466053;-7.95679321;17.52768504;-3.335282182;-10.30603941;15.85459881;-7.765536205;0.400216793
-9.447889694;12.82007813;21.85474509;18.35194822;8.706999422;0.261952095;-0.881635097;-6.730156883;-16.39667729;-24.38764151;-3.047175234;-9.840663526;-12.20571236;16.33159012;-16.72403539;-5.043682009;10.53229133;4.254035519;0.474208021
-9.024771574;11.86963052;27.45767342;17.69743751;9.796896002;0.328456474;0.570167528;-5.269072818;-10.17543919;-27.26052157;-3.951842071;-11.88294874;-15.06800829;16.12581631;-23.01978361;4.23603143;5.331064501;10.00064226;0.792889809
-7.642738175;6.957157742;31.89733919;14.3770256;10.49772587;0.398116581;0.637575188;-3.353307572;-8.105292868;-30.79503384;-3.977066723;-16.06952785;-16.1283137;16.87544856;-18.06447413;13.28746974;1.313902223;7.618165244;0.868288435
-5.813297738;0.733876216;34.60307208;10.33669909;10.33318236;0.396648957;-1.210226894;-1.832629595;-11.55234422;-34.82570537;-3.866458152;-21.620116;-15.97126942;18.27452764;-3.941003666;17.69143726;-1.306527712;0.879862141;0.536668829
-4.151228888;-4.105315882;35.65704098;7.131339762;9.706830695;0.28673752;-2.89169836;-1.343955369;-16.73427357;-38.73263235;-3.835408687;-26.84606209;-15.53812978;19.93187845;12.30740119;15.60629011;-2.931599232;-4.010405976;0.048867159
-3.081686526;-5.94326693;35.46897231;4.948223008;9.536222526;0.106145384;-1.774023293;-1.925862006;-18.14054748;-41.59796601;-3.692984498;-30.1320344;-15.32978301;21.42645394;23.06284849;8.769613433;-3.965374903;-3.210361792;-0.186942613
-2.596023455;-4.812848912;34.23065225;2.842051038;10.4092205;-0.05215117;2.30508374;-3.020547134;-13.68237379;-42.58798173;-3.262323593;-30.8093181;-15.0263125;22.32125821;24.54773677;1.139096877;-4.413226663;2.065023537;0.036083084
-2.225732639;-2.189199396;31.68665581;-0.081863149;12.04697762;-0.105836168;6.231515158;-3.817467336;-6.81762602;-41.33643556;-2.620058594;-29.31105145;-13.78865706;22.28584242;18.38285191;-3.7186633;-4.013094259;6.927554036;0.57594971
-1.27278588;-0.010951551;27.49822335;-3.585428674;13.56124083;-0.042954315;6.309197495;-3.678344295;-3.494666304;-38.11342647;-1.966628231;-26.60566584;-11.01337281;21.31996263;9.628716603;-4.594172896;-2.693521745;6.980039063;1.10836234
0.824779215;0.626036134;21.92146692;-6.26359775;14.24898507;0.07291723;2.258933746;-2.386101706;-6.458808453;-33.70393626;-1.348549469;-23.45374387;-6.970679005;19.87713732;3.125366932;-2.739342386;-0.853203265;1.795812078;1.424750549
4.190258127;0.293571647;16.16160597;-6.608842593;14.17598782;0.154686684;-1.453894113;-0.13320127;-12.10090088;-29.08057526;-0.577575055;-20.07910031;-2.818502701;18.69027878;0.833486794;-0.394261655;0.847241605;-5.031066018;1.577656212
8.418180973;0.899856641;11.95549549;-4.295903122;14.0182268;0.155950517;0.990095215;2.657742491;-13.10745854;-25.04028126;0.558500808;-16.39926266;0.076942502;18.34019005;1.709010257;0.898316903;1.999323734;-9.062660192;1.753776736
12.71816063;4.272826745;10.55892476;-0.622008511;14.34188113;0.094787164;10.90304702;5.533939448;-5.150504839;-21.96332848;2.038070856;-12.45558086;1.071481309;18.86902175;3.552221133;0.9497743;2.770425051;-8.574278916;2.021060886
16.196215;10.60797775;11.86018981;2.268863644;15.03254522;0.022995338;21.8885021;8.149880813;7.992983063;-19.77976903;3.616008039;-8.567879389;0.765559151;19.76019539;4.968842683;0.375173447;3.705337864;-5.517422012;2.211846484
18.13287364;17.98605105;14.32850022;2.773565273;15.43183695;-0.024612811;22.97330268;10.34178193;15.71307108;-18.13378774;5.138688053;-5.080361827;0.712328035;20.33;5.942715693;-0.34145246;5.165641359;-3.319042429;2.064824105
18.15028168;23.44779007;15.90890106;0.774514258;15.05144089;-0.051862273;6.676687576;12.15866121;8.012230229;-16.64645938;6.851093019;-2.009775313;2.462056467;20.23176085;6.991476987;-1.22570417;6.92316038;-3.715122878;1.492207654
16.23168757;24.89919513;15.26028676;-2.502441195;14.16511247;-0.077086645;-23.9664042;13.83698468;-16.33157568;-15.12302882;9.326526265;0.980538001;6.564798895;19.67033765;8.082582508;-2.427073799;8.300388223;-5.52197613;0.711326104
12.62492005;22.40521626;12.47432166;-5.478763665;13.67392054;-0.093811066;-55.41363362;15.69007813;-47.38429903;-13.57695118;12.97549895;4.18385095;12.19596494;19.16819083;8.456816998;-3.665835594;8.748700539;-6.335832932;0.103723546
7.704795158;17.87548031;8.814939469;-7.218882133;14.32040653;-0.063091618;-71.5811302;17.9273159;-69.76512399;-12.06820625;17.51290848;7.383443362;17.64553199;19.10377856;7.442924875;-4.227249734;8.335128687;-5.39489322;-0.077663749
1.878589417;13.44630416;5.748905356;-7.719574419;15.95944513;0.047324359;-64.40751406;20.48660426;-72.56406754;-10.51477616;21.8759997;9.799211601;21.32181284;19.4255575;5.330719877;-3.591572645;7.668900062;-4.743024623;0.113179278
-4.413851412;9.936658318;4.015266532;-7.462743897;17.57861318;0.212061916;-39.27518946;22.98565547;-56.31134066;-8.698639859;24.74861531;10.59026197;22.58748222;19.76869999;3.336125792;-2.073405889;7.302724909;-7.399170411;0.411735548
-10.62545373;6.66124198;3.35696343;-6.801701688;18.09676756;0.339976104;-11.20407313;24.83675038;-32.064616;-6.551410291;25.33406202;9.538846269;21.90204922;19.83362894;2.611738433;-0.759566648;7.13973828;-14.06310664;0.614732715
-16.05031214;2.673273085;2.966034745;-5.772745778;17.25935402;0.329695115;5.340058594;25.47390673;-13.59316976;-4.529761919;23.78555149;7.324620175;20.26295144;19.66195918;3.223475394;-0.680122533;6.404971956;-21.42304635;0.761946719
-19.91465056;-1.772060016;2.169298938;-4.415346185;15.8461457;0.150364533;5.468019382;24.58397706;-8.577109036;-3.701669214;20.97360995;5.107022973;18.42698609;19.5643272;4.104288477;-1.911577281;4.255041495;-23.9350789;1.051310514
-21.65022011;-4.954206701;0.805505787;-3.155582055;15.0114759;-0.121365876;-4.625115676;22.2505693;-14.98276126;-5.282340111;17.82024258;3.719320575;16.49899511;19.79378755;4.113050837;-3.451188822;0.525049883;-17.98477602;1.573571725
-21.23513305;-4.970491967;-0.893226929;-2.748339773;15.34134873;-0.346806281;-13.98939381;18.97560095;-24.44184283;-9.777633968;14.77706661;3.128017111;14.13967172;20.29422601;3.276512064;-4.045784064;-4.033599913;-5.162023721;2.13907842
-19.36561882;-1.486104569;-2.669541798;-3.719721107;16.44490991;-0.423186367;-15.5193859;15.57982037;-29.2071814;-16.31357751;11.85931734;2.604727913;11.14599983;20.76622886;3.045874044;-3.284748526;-8.242302979;8.108043092;2.393312829
-17.25581789;3.630373124;-4.476715931;-5.774407166;17.39809206;-0.356481972;-10.1379261;12.98791774;-27.15888498;-22.76413549;9.118709103;1.459276699;7.884113038;20.97389333;5.215070478;-1.982542129;-11.29722349;14.51219623;2.140192022
-16.07804895;7.461683085;-6.419074798;-7.743396532;17.59200489;-0.248876466;-4.084880192;11.91929713;-21.64767814;-26.79943294;7.027031645;-0.291749034;5.203458895;20.97739309;10.33159153;-1.474034956;-13.19718501;10.51073859;1.57226469
-16.32936568;8.118233739;-8.544929155;-8.23224855;17.2067583;-0.211018564;-2.563892959;12.56975317;-17.37450701;-27.26614863;6.329489382;-1.883638895;3.896335297;21.05134021;16.94357071;-2.416263627;-14.44755279;-1.638715246;1.163647461
-17.53394202;6.041527014;-10.7423878;-6.542995959;16.91920002;-0.27274677;-5.48068573;14.44689067;-16.31348129;-24.94285162;7.440672787;-2.406661383;4.13530476;21.36673635;22.39586304;-4.161526364;-15.34425751;-15.71498959;1.281738537
-18.53070655;3.476511996;-12.82348488;-3.186405426;17.1794157;-0.366788346;-8.502779686;16.51664781;-16.89642795;-22.05608096;9.928092235;-1.521007148;5.336335516;21.76324537;24.6243655;-5.290379139;-15.52885474;-25.53720169;1.849327912
-18.22003906;2.609260964;-14.65904365;0.408703174;17.77289176;-0.396378006;-7.746867869;17.66899837;-16.43321611;-20.82020682;12.61280047;0.325372644;6.558295106;21.86616079;23.56238115;-4.865075375;-14.26825;-28.13012063;2.376250579
-16.3051378;3.977303359;-16.18765613;2.786549507;18.07788395;-0.324965909;-3.458646348;17.28441071;-14.03936794;-22.02342029;14.30151626;2.331553733;7.135089224;21.46475951;21.06909578;-3.294079349;-11.24779948;-24.18557546;2.368118575
-13.52428632;6.45541298;-17.29361687;3.328180997;17.73927101;-0.208238908;0.555055653;15.55353149;-11.35470939;-24.69555124;14.59642706;4.014490203;7.069454477;20.78794683;19.47049068;-2.005743043;-7.160772891;-16.33580043;1.775438955
-11.19366258;8.685393174;-17.72599635;2.518051522;17.07396843;-0.141500318;0.839227673;13.31369198;-10.69292188;-27.09230865;14.12069053;5.516131879;6.915582438;20.37454702;19.88736036;-2.175623145;-3.494369384;-7.253389624;1.083095115
-10.35524168;10.54305233;-17.20360292;1.499989792;16.78700132;-0.171990987;-2.353945169;11.4823052;-12.63774913;-28.21373476;13.96594871;7.303065621;7.272061238;20.60647136;21.63354315;-3.625011869;-1.578543627;0.91567592;0.933215607
-11.11087686;13.2555725;-15.63334646;1.291326575;17.25788968;-0.257305893;-5.405809942;10.46736157;-15.41148851;-28.65469839;14.81658139;9.574863035;8.286483208;21.31513212;23.04839931;-4.913719416;-1.618540031;6.035438323;1.580767208
-12.59944817;18.06274581;-13.1995895;2.19104926;18.09862806;-0.308775905;-4.8919229;9.97327733;-16.51684556;-30.12088683;16.46875079;11.94950276;9.534670127;21.84949777;22.97298424;-4.624668309;-2.506692181;5.824511104;2.644308965
-13.61967796;24.68476175;-10.17363381;3.709193351;18.45208028;-0.280068359;-0.876391329;9.337273522;-15.01684404;-34.01862235;18.10835264;13.71674752;10.33336709;21.59815508;21.63710489;-2.750299227;-2.618059876;-0.997288959;3.379599017
-13.4464238;31.07030941;-6.593677372;4.970244481;17.79695877;-0.217520197;3.193270541;8.128509756;-12.31847713;-40.26963959;19.0523222;14.40978875;10.22487082;20.53334769;20.30875058;-0.908669521;-1.014266762;-12.96737649;3.26310121
-12.26772217;34.75753693;-2.175149938;5.274510175;16.51368301;-0.220991456;3.83811884;6.535548411;-10.80394924;-47.30350051;19.27397129;14.14844555;9.274477799;19.28817967;20.12169307;-1.059051593;1.851190982;-25.36415632;2.404246067
-10.96702525;34.72056984;3.334003386;4.470412006;15.64395414;-0.345488001;0.910265553;5.231681636;-11.65062106;-53.20805078;19.25970763;13.43164777;7.994325096;18.66629298;21.13374044;-3.696835634;4.448670667;-32.10360903;1.445043429
-10.45840734;32.11878477;9.572979262;2.950932691;16.00594641;-0.531851461;-2.262564614;4.821442734;-13.85928888;-57.08253485;19.3706065;12.59262676;6.99017087;18.98569335;22.38264727;-7.066886199;5.251439587;-29.2645714;1.036919939
-11.08590119;29.32581068;15.31661791;1.31223508;17.44146772;-0.635434502;-2.108731551;5.307797091;-15.32041941;-59.51118413;19.34055907;11.46952658;6.59978605;19.82266166;22.80426149;-8.2097248;3.770117564;-17.84440732;1.337231313
-12.50411392;28.11745128;18.96534047;-0.103169146;18.89112486;-0.53826364;1.655655439;6.008471274;-14.85209061;-61.84102018;18.41856409;9.652667553;6.747076429;20.38503556;22.15867488;-5.18012326;0.825932338;-3.578008969;1.939444944
-14.05990084;28.58345535;19.59303363;-1.476492964;19.26765247;-0.254110941;5.610687609;6.000964708;-13.28985639;-64.93924555;16.06694882;7.106570391;7.048074741;20.1936746;21.1681921;1.252589982;-2.041896149;6.316770853;2.270514005
-15.31592037;29.59340361;17.78892806;-3.367404926;18.37461243;0.065116223;5.829409956;4.768304666;-12.63532538;-68.48549107;12.5971727;4.552024036;7.040019531;19.47648968;20.80445123;7.820714318;-3.523595516;7.34777349;2.090187581
-16.28694632;30.19302871;15.51419325;-6.166610749;17.05912428;0.234801073;1.713528723;2.57023959;-14.08200246;-71.3325623;9.142222735;3.141987423;6.376033111;18.93324044;21.40240231;10.8525428;-3.173887096;0.092947637;1.655223381
-17.23303244;30.49142299;14.87094155;-9.478444854;16.45932776;0.174610259;-3.240339837;0.27917967;-16.76818662;-72.53587358;6.92361797;3.584415066;4.915500007;19.090649;22.39097157;8.744889537;-1.416692994;-10.75402423;1.422168022
-18.23284885;31.1780404;16.57378327;-11.94497012;17.01134541;-0.032358606;-4.651972375;-1.187076465;-18.43870052;-72.1262641;6.383117681;5.417985509;2.73705895;19.83310278;22.85163164;2.992953222;0.899385313;-19.72293766;1.576032427
-18.93685065;32.22632322;19.28398608;-11.84700071;18.09237545;-0.206617787;-1.538113794;-1.437065619;-17.45786985;-71.00824195;6.878768138;7.116676893;0.121111291;20.53106594;22.3798711;-2.954634188;2.976436207;-23.85772331;1.823086777
-18.74035059;32.23523639;20.43;-8.288815735;18.60446598;-0.212387073;2.485266578;-0.819161209;-14.37912208;-70.17977688;7.183034716;7.061168145;-2.495540876;20.64049821;21.47361249;-6.103021855;4.29917277;-23.86123485;1.644021121
-17.26131662;29.32973162;18.03609206;-2.217627446;17.96391426;-0.059508105;2.547018017;-0.183229773;-11.64065586;-70.0344964;6.373789544;4.68512129;-4.623111379;20.20962065;21.10459443;-5.760314092;4.650829627;-22.73247106;0.786203694
-14.74731138;23.0179826;12.25568129;3.582433265;16.61;0.111570282;-2.439916344;-0.374828077;-11.58664629;-70.33291806;4.429240005;0.908651527;-5.877173644;19.8081806;21.8475025;-3.533027686;4.088584175;-23.24693286;-0.448587181
-12.07539478;15.30126855;5.443086984;5.816851953;15.59397567;0.145596115;-7.877541174;-1.754514839;-14.46959549;-70.72823615;2.136240063;-2.49737234;-6.118739055;19.92785913;23.32158528;-1.675722127;2.950264277;-26.12851071;-1.394362655
-10.31058775;9.761617969;0.641450083;2.671285654;15.64029548;-0.00567179;-7.118337108;-3.962190446;-18.11254718;-71.1992843;0.499423052;-4.134863778;-5.477796901;20.40997913;24.4275718;-1.261271681;1.786291743;-29.93031379;-1.547351183
-10.11384273;9.05695525;-0.455935433;-4.835000442;16.53444432;-0.250169725;1.956260677;-6.004784345;-19.50804759;-71.89292998;0.1808184;-3.851940956;-4.2289608;20.46718401;24.18976035;-1.654016767;1.101332889;-32.33010647;-0.988553494
-11.39419628;12.76657678;1.391249363;-13.1860509;17.37212005;-0.430356007;13.18481769;-6.632757027;-17.0314719;-72.554115;1.345105252;-2.627079892;-2.60224439;19.34813827;22.51668844;-1.573079837;0.99135816;-31.74268331;-0.340202022
-13.41747703;17.45164761;3.581600255;-18.35394555;17.41294018;-0.44058031;15.24565941;-4.891480438;-11.50074808;-72.24222405;3.843247087;-1.625781679;-0.671465094;17.09821013;20.27800786;-0.649590266;0.963724338;-28.24010129;-0.281947825
-15.2671302;19.07219287;3.526828484;-18.1901124;16.74276222;-0.294569349;0.118816429;-0.649555162;-5.341720142;-69.84205269;7.387475265;-1.232504404;1.596612151;14.73188685;18.66321757;0.025797272;0.179796695;-23.42330384;-1.019609598
-16.33738901;15.94319215;0.409772492;-13.60645762;16.1484972;-0.098572129;-29.50505713;5.160939879;-0.684514;-65.09972271;11.50340448;-0.829774866;4.185507083;13.59869872;18.35110029;-1.044912015;-1.961288234;-19.5241417;-2.136048173
-16.56320967;9.900291132;-4.356294109;-7.741577229;16.34771629;0.036726536;-60.14805912;10.80788427;2.009188688;-59.27327337;15.40831424;0.549232377;6.912480021;14.40654709;19.1244317;-3.993491357;-5.310514815;-18.29878612;-2.934990696
-16.30569831;4.763571704;-8.180314661;-3.754318062;17.30451563;0.070159203;-75.69498795;14.50751669;3.786568366;-54.64900025;18.14119949;3.274184107;9.46432451;16.67771923;20.16474762;-6.737857098;-8.961153431;-20.23054051;-2.987368262
-16.04011229;3.36858045;-9.013059393;-2.874908089;18.26498582;0.03723885;-68.16275873;15.31031913;5.872591189;-53.09437761;19.03842588;6.65268735;11.55785268;19.07881187;20.72035888;-6.072322619;-11.81285801;-24.36222485;-2.438878555
-16.07934077;5.547921449;-6.529567637;-4.092419844;18.4643645;-0.000985204;-43.14039093;13.59346803;8.450689425;-54.72337668;18.22294163;9.291595623;13.07871865;20.36427575;20.60043157;-0.118737744;-13.30207487;-28.81443002;-1.850175093
-16.48151645;8.577599912;-2.090432465;-5.55021514;17.83412167;-0.014230523;-15.80429164;10.79530898;10.5853775;-57.80014487;16.60996519;9.968944745;14.06739904;20.19356775;20.1630842;9.704392831;-13.71909716;-31.73688049;-1.726553575
-17.13318088;9.529438074;2.285455326;-6.392517707;17.04871952;-0.017508644;-0.5060223;8.501185649;11.21118004;-60.06742577;15.26822363;8.354520678;14.56389892;19.21583175;19.90637929;18.89692147;-13.83774329;-32.1876662;-2.130410579
-17.89474299;7.475356073;5.097279067;-7.517871497;16.87934544;-0.041334476;-1.672596991;7.45419307;10.17995951;-60.50319378;14.56361043;5.114902956;14.46529036;18.42921266;20.05515847;22.43691094;-14.14273053;-30.4388221;-2.675953795
-18.69854497;3.799088459;5.92494931;-10.66803557;17.47304695;-0.094145104;-12.46608567;7.151389573;8.395456707;-60.09758602;13.8050251;1.446642146;13.55484236;18.38580503;20.4606096;18.04353414;-14.29086467;-27.56373953;-2.880142282
-19.56357663;0.617679988;5.190336091;-16.69827179;18.24044133;-0.153956081;-21.49020873;6.288715705;6.962653074;-60.99889829;11.77499955;-1.546833574;11.70983907;18.87020424;20.81416652;7.842438938;-13.27644117;-24.66974717;-2.564586205
-20.5569253;-1.090125905;3.495190524;-24.55555512;18.4549463;-0.193080592;-21.79502277;3.713960212;6.185151301;-64.70334719;7.789469683;-3.240260319;9.115541536;19.22605605;20.92359395;-2.818506177;-10.20568508;-22.38443796;-1.988347199
-21.74525021;-1.982732475;1.081227364;-31.87214165;17.98750866;-0.207279527;-15.21170627;-0.800389091;5.348102403;-70.75112391;2.426982288;-3.537804698;6.273035106;18.96450778;20.80874737;-8.644154767;-5.078472451;-20.93174418;-1.629113296
-23.15459646;-3.22965992;-2.279225744;-36.69358707;17.46361588;-0.219023944;-9.302405371;-6.472257793;3.474149807;-76.97097006;-2.719915867;-2.748664055;3.743656428;18.11933749;20.59121836;-7.522877184;1.049659824;-20.54905551;-1.809124661
-24.73684365;-5.038838435;-7.009025167;-38.88234218;17.66947213;-0.252346674;-10.21305727;-12.06797536;0.344756771;-81.03802478;-6.121813183;-1.451727183;1.80283401;17.11306948;20.34628468;-1.435661498;6.665977621;-21.64721407;-2.461275488
-26.34783964;-6.352265201;-13.31168399;-40.00276502;18.75169059;-0.305297777;-17.59200424;-16.59137404;-3.152056378;-82.05197768;-7.359200669;-0.356532372;0.281260992;16.35075639;20.08208347;5.290180601;10.69566631;-24.38650442;-3.194619227
-27.75801458;-6.000132295;-20.84170533;-41.77866087;19.97593181;-0.347860715;-25.44510728;-19.5854233;-5.666522697;-80.88427619;-7.288450483;-0.081950866;-1.255490264;15.9493346;19.84201362;8.949902179;13.00042819;-28.03071879;-3.580381052
-28.70980587;-4.116521035;-28.58294464;-44.42999236;20.3144092;-0.347778743;-27.60699709;-20.94908762;-6.449105478;-79.11731814;-7.219420186;-0.876185082;-3.106832642;15.80553738;19.77957656;8.517334419;14.11991049;-30.86905928;-3.432110338
-29.00209432;-2.304526523;-34.99316779;-46.30828653;19.3650532;-0.299479591;-22.86367899;-20.61888224;-5.890438852;-77.56616709;-7.834644432;-2.463419619;-5.12475507;15.84440748;20.08091993;5.554091176;14.51645932;-31.13407876;-2.891333587
-28.55056386;-2.219515886;-38.43031464;-45.16313568;17.77294853;-0.228407997;-15.50868008;-18.52917248;-5.07905757;-75.64788411;-8.772519294;-4.198153901;-6.742448623;16.13476812;20.77943969;2.439530187;13.98636128;-28.39457536;-2.293753541
-27.38120422;-3.817251106;-37.76929086;-40.00471397;16.74555516;-0.166867636;-11.27689804;-14.90629915;-4.794613852;-72.05763092;-9.172107076;-5.477382255;-7.332691742;16.7409722;21.64435208;0.530797758;11.75874396;-24.22500198;-1.940638923
-25.56502472;-4.978513123;-32.94928708;-32.03193845;17.05837915;-0.124836479;-12.45764536;-10.53240423;-4.842469587;-66.06803955;-8.601475379;-6.105000801;-6.625760882;17.49373879;22.28522646;-0.372483516;7.233316151;-21.31118143;-1.935264445
-23.15503812;-3.064843457;-25.1080178;-23.87978598;18.41163009;-0.084044272;-16.35646303;-6.564733214;-4.3080772;-58.28517503;-7.467399501;-6.299616475;-4.877975668;17.97585062;22.42279953;-1.15726375;0.769709398;-21.42607048;-2.1685424
-20.19135944;2.816432227;-16.12034783;-17.82673177;19.69795737;-0.021375712;-18.11743461;-3.899200927;-2.474486463;-50.24599392;-6.534632295;-6.344022076;-2.692665362;17.80797447;22.10898229;-2.187338966;-6.135289361;-23.85285101;-2.429090458
-16.7840302;10.82530286;-7.736277379;-14.42265858;19.94228106;0.060617564;-15.15364479;-2.560806866;0.44075773;-43.28580842;-6.07430221;-6.228890891;-0.671863947;16.99344809;21.6982206;-2.932053889;-11.49907498;-25.73067952;-2.547035714
-13.20790964;17.65570104;-0.843598589;-12.5811348;19.09174005;0.126035234;-9.281945803;-1.699172516;3.390009766;-37.69922449;-5.560195575;-5.685649712;0.817308162;15.97368528;21.57396213;-2.675946119;-13.92524591;-24.32433362;-2.482262343
-9.914638329;21.07792476;4.64094832;-10.91835044;17.98402406;0.130415962;-4.904646031;-0.311820002;5.326028988;-32.87339209;-4.320270145;-4.637897335;1.624207634;15.28856243;21.84589168;-1.486424097;-13.36333747;-19.5064379;-2.314753358
-7.41546285;21.61372686;9.180848716;-9.106154013;17.56098483;0.057747244;-5.077609689;1.828759578;5.987249002;-28.15802858;-2.569812135;-3.635786185;1.659250628;15.11525164;22.26814596;-0.394388007;-11.03669728;-14.30923965;-2.153383641
-6.083713146;21.89837306;12.80596035;-8.084833513;18.05239276;-0.062768062;-8.987439432;3.824189637;5.930806167;-23.60811889;-1.738013356;-3.737817672;0.833452509;15.10947683;22.45011608;-0.535804999;-8.602782949;-12.81175458;-2.025539031
-5.99335938;24.2732826;14.76735085;-9.039064481;18.84828948;-0.175974517;-12.91487112;4.240854886;5.828814877;-19.93932241;-3.521875833;-5.746296887;-0.806902363;14.72721695;22.18898482;-2.047119641;-7.132209901;-16.85245614;-1.825703753
-6.894595;28.69271061;14.00996596;-12.13045358;19.13269647;-0.240988072;-13.63003906;2.228345408;5.747873562;-17.83;-8.285008274;-9.351423763;-2.903332945;13.76605798;21.65183155;-3.809474195;-6.585648333;-24.23260058;-1.37237236
-8.337990579;32.74816551;10.1373231;-16.15935376;18.66506725;-0.259414157;-11.14130984;-1.731801837;5.14290199;-17.31336011;-14.20725892;-12.99316736;-4.834560351;12.63568103;21.25922867;-4.383711364;-6.08836212;-30.07089901;-0.552167451
-9.863655089;33.74962417;4.069733557;-19.47068639;17.98781503;-0.268956065;-8.470248199;-6.087455517;3.578911635;-17.86050918;-18.1730685;-14.78127164;-6.091510625;12.07717166;21.36561469;-3.342460701;-4.741349323;-30.45619607;0.544752631
-11.14299027;31.00146738;-2.25217376;-21.3;17.88793898;-0.308883535;-8.83225392;-9.309787106;1.420179664;-19.02643979;-17.97921978;-13.92350529;-6.743871602;12.53513819;21.9918657;-1.75110899;-2.36274255;-25.55326776;1.612770737
-12.01491593;26.27273338;-7.052515682;-22.36080895;18.62963642;-0.386413973;-12.81191955;-10.9432136;-0.323748137;-20.93842177;-14.19836009;-11.54526696;-7.573893872;13.71722344;22.81551338;-1.256867619;0.354876087;-19.57918055;2.284934712
-12.44499589;22.1039176;-9.980475355;-24.13526667;19.67220805;-0.470655476;-17.96195306;-11.75929588;-0.994667971;-24.04324685;-10.08644413;-10.1047376;-9.629607001;14.74454905;23.41401868;-2.531830464;2.347426394;-17.50345004;2.368278082
-12.48059897;19.53988696;-12.45661006;-27.45881152;20.12736565;-0.516920727;-21.00833395;-12.90740461;-1.166557716;-28.28042472;-9.367884025;-11.66581245;-13.4076104;14.80087856;23.56276652;-4.511325078;2.953151652;-21.00919377;1.990360099
-12.24481394;17.37862337;-16.70437122;-31.60113917;19.52999934;-0.500024414;-20.58483848;-14.7949592;-2.323370287;-32.49619405;-13.46075849;-16.26684296;-18.25246391;13.75469936;23.36333992;-5.261327349;2.392006841;-26.96177291;1.528783991
-11.94226879;13.62573337;-24.02242035;-34.62666513;18.22304995;-0.430194527;-18.10588662;-16.64766703;-5.260124144;-34.80640749;-20.27531085;-21.67729602;-22.50439511;12.23935579;23.1255294;-3.840896415;1.604820436;-29.70931157;1.353102311
-11.81379438;7.806222877;-33.47230633;-34.74371498;17.027903;-0.341403438;-16.17052315;-17.10824223;-8.517104041;-33.79609509;-25.58273392;-24.83419055;-24.41505496;11.12882389;23.11738247;-1.482139343;1.558756222;-25.49291169;1.564996782
-12.01653357;1.956031113;-41.95475955;-31.54789528;16.5280652;-0.263999023;-16.0884956;-15.34189436;-8.599817994;-29.63280397;-25.96530038;-23.94305126;-23.24813744;10.85144666;23.38053634;-0.812127122;2.499346009;-15.53498616;1.942010244
-12.49182065;-0.733295253;-45.73751299;-26.1927665;16.62619772;-0.203464453;-16.78350425;-11.69734556;-2.547522568;-24.12672975;-21.12021895;-19.66883002;-19.77468527;11.10697521;23.73357698;-3.489747495;3.673624997;-5.39245341;2.137988432
-12.93420537;1.474670216;-42.51061076;-20.43020608;16.74983002;-0.139460424;-15.96488411;-7.380136004;8.698012888;-19.58554157;-13.81539939;-14.52109695;-15.769782;11.19490544;23.93221107;-8.172004101;3.736321674;-1.080202636;1.982459197
-12.93003906;7.272232722;-32.67492418;-15.35859256;16.4644935;-0.043002506;-12.38374576;-3.46431812;18.96202379;-17.30589785;-7.661858726;-10.942374;-12.84822047;10.64245056;23.84870691;-10.75456657;1.592975358;-4.936837051;1.628850297
-12.21162106;13.18656432;-19.07089335;-10.86617879;15.88848734;0.101575137;-7.078318764;-0.133384181;19.46374789;-16.85721004;-4.550158662;-9.613638842;-11.48098673;9.587925178;23.5445463;-7.137851535;-2.860968557;-14.28306725;1.418633831
-10.86445317;16.23866236;-5.371615442;-6.10175517;15.52293418;0.283034167;-2.517543984;3.189606132;4.474808037;-16.6693987;-3.739848532;-9.278212302;-10.9026094;8.616299604;23.20839825;3.372382301;-8.578681209;-23.65094925;1.569686549
-9.329906001;16.14104985;5.801898449;-0.459644937;15.6897445;0.463659239;-0.487540995;6.974589167;-23.66355676;-15.38811017;-3.128895305;-8.128880141;-9.935870802;8.228542407;23.02690722;16.72518916;-13.86972846;-28.64505591;1.959929586
-8.172598334;15.19752574;13.8817577;5.757517678;16.14957234;0.592168675;-0.663026436;10.7981417;-54.15657541;-12.89995374;-1.427862666;-5.537931661;-8.055235027;8.425309883;23.08129322;26.19698553;-17.23623271;-28.48189794;2.211793567
-7.751862178;16.0701792;19.96403805;11.44128656;16.29113773;0.62416412;-1.117026913;13.38580331;-73.18607416;-10.30240065;0.674704343;-2.675520701;-5.843596018;8.751813018;23.31993557;26.66041932;-18.01096316;-25.58884339;2.029087271
-8.015441256;19.40432164;25.45763755;15.31074712;15.72003906;0.543396435;-0.23244838;13.4892454;-72.14877852;-9.022221006;1.267804141;-1.536400671;-4.503885027;8.727162706;23.59738537;18.03875801;-16.45122489;-23.06016463;1.504728481
-8.557181212;23.34959559;30.77907232;16.49637896;14.67378548;0.374832177;1.766358476;10.8547345;-53.24521651;-9.937174238;-0.910503542;-3.247870664;-4.859560611;8.255335725;23.7407467;5.392599876;-13.34250016;-22.25666018;1.11290667
-8.898453624;25.28046216;34.9690422;14.71370459;13.84068736;0.180124604;3.043968742;6.447400951;-28.3491649;-13.19096442;-5.226132751;-7.12355018;-6.688784023;7.664064479;23.61172146;-4.473968111;-9.483443713;-22.33637966;1.346401859
-8.799979299;24.07915584;36.40238746;10.13854426;13.72937271;0.032335541;1.893481958;1.739631066;-11.61548357;-18.63611536;-9.646969234;-11.26984057;-8.950166744;7.372416024;23.15134214;-7.433904603;-5.430233039;-21.67375166;2.265876122
-8.399915194;20.92768154;33.99847671;3.317491389;14.17853058;-0.020430557;-1.629775909;-2.323263367;-10.74925359;-26.23951132;-12.52195026;-14.21419302;-10.70775033;7.512517507;22.40132681;-4.322407041;-1.5936506;-19.618582;3.335382655
-8.108252015;17.99058308;28.03493813;-4.769286003;14.48587983;0.018285611;-5.666288199;-5.811458734;-22.89043081;-35.90108677;-14.03833051;-16.14680784;-11.96754493;7.840257099;21.49252944;0.393317647;1.543114055;-17.04524257;3.720999252
-8.357804829;16.31200768;20.00492958;-12.73559597;14.05734445;0.095516778;-8.121138869;-9.391483677;-37.76355108;-46.82686295;-16.04682542;-18.69384283;-13.69414836;7.980311252;20.59465843;2.308092734;3.408308579;-15.4264443;2.870211387
-9.387758588;14.92343435;11.67116681;-19.20003906;12.97399322;0.142145222;-8.410843274;-13.44104638;-45.49444581;-57.16922071;-20.38603761;-23.39112744;-16.9474844;7.74716681;19.84106403;0.231491418;3.631939616;-15.46989733;0.952092892
-11.171116;11.97549863;4.04293804;-23.49036137;11.92980305;0.117276388;-7.824320814;-17.51996604;-43.24346587;-64.51626504;-27.15086271;-30.14192637;-21.82096252;7.243697248;19.26522242;-3.463417267;2.415786426;-16.5707917;-1.181619637
-13.46499996;6.791094236;-2.968876402;-26.10154348;11.57556986;0.033821181;-8.210247389;-20.65368041;-35.99123245;-67.06296038;-34.39352938;-36.97820835;-27.06191969;6.679275283;18.78907314;-5.242673199;0.610855786;-17.43589682;-2.50973002
-15.88510199;0.871860847;-9.990613603;-28.3670391;11.87794745;-0.05275707;-10.20666346;-22.12769047;-31.45386209;-64.61447456;-39.50465654;-41.37141867;-30.7376339;6.125220425;18.27789361;-3.421474337;-0.679400723;-17.17084393;-2.477014539
-17.94453122;-3.12671855;-17.18378873;-31.379477;12.12003906;-0.084432561;-12.60508813;-22.03942172;-33.5430721;-58.60984462;-41.09336162;-42.05543367;-31.48396544;5.470905035;17.63558941;0.620722866;-0.763670838;-15.84932982;-1.313848328
-19.09894583;-3.529642713;-23.61443542;-34.90922594;11.58867366;-0.040577434;-13.38339972;-21.11103174;-39.58661199;-51.11976881;-39.80372083;-39.89885272;-29.40187973;4.623922434;16.88489822;3.786687551;0.174321356;-14.21948359;0.163506592
-18.88569297;-0.920056152;-27.54109189;-37.24432896;10.33401319;0.049912153;-11.43968302;-19.9760839;-43.19630498;-43.60496385;-37.4663629;-37.13958765;-25.92963942;3.734219219;16.1790161;3.846285925;1.183419998;-13.02627808;1.105325288
-17.16659255;2.603275254;-27.47684424;-36.24851864;9.269031883;0.130572867;-7.474548142;-18.64321838;-40.02099993;-36.38370148;-35.41697928;-35.61790527;-22.80526443;3.177307329;15.72544441;1.085354034;1.18218979;-12.64601037;1.138082368
-14.33884929;5.448948688;-23.27319071;-30.9466832;9.438310277;0.154949264;-3.295627711;-16.65051562;-31.43638915;-29.10578304;-33.46826051;-35.4246183;-20.91815322;3.256961989;15.65290098;-2.197731203;-0.317304223;-13.22892093;0.502799458
-11.30927885;7.886755212;-16.41335645;-22.4271107;11.0466572;0.112599924;-0.25796016;-13.73649932;-23.1813;-21.65118962;-30.36650688;-35.00170013;-19.89544972;3.873737528;15.89321784;-3.724253391;-2.911650672;-14.93609889;-0.218192971
-9.135134881;11.43152524;-9.252415757;-13.29858029;13.10761809;0.028669726;1.719598241;-10.32601813;-20.29611458;-14.55194862;-25.22327381;-32.54054985;-18.66128321;4.478004095;16.15847425;-3.010852436;-5.621854056;-17.79890686;-0.544258803
-8.473816154;16.88023471;-3.701776869;-6.055980192;14.08246868;-0.056709245;3.740163231;-7.282512314;-22.78236971;-8.551059625;-18.58265881;-27.51110532;-16.44801365;4.40319358;16.05545215;-1.494967796;-7.548412764;-21.26437712;-0.38894258
-9.174293469;23.00023227;-0.257790055;-1.5907385;13.03733868;-0.110817351;6.63266253;-5.096345478;-25.67212753;-3.777284901;-12.17030882;-21.12402373;-13.43235787;3.34623991;15.30264159;-1.095454046;-8.360833456;-24.01332368;-0.033875584
-10.31157005;27.32538372;1.985606683;1.018973524;10.38292179;-0.118881427;10.0743166;-3.293542112;-23.38242692;0.576075297;-7.582961166;-15.44520999;-10.53417272;1.618559976;13.93632682;-2.550452184;-8.293465626;-24.5304718;0.141080683
-10.69673411;28.4828008;4.422577019;3.334905955;7.589793377;-0.082885761;12.94634347;-0.747707605;-14.60725675;5.61862587;-5.115453695;-11.95276858;-8.623532573;-0.037623144;12.3666466;-4.905207792;-7.743090602;-22.18860757;-0.05490255
-9.567214272;27.84185306;7.833855237;6.018193146;6.115378069;-0.017395414;14.48419912;3.21294644;-3.608321808;11.62946082;-3.763941243;-10.68686964;-7.844202763;-0.931400596;11.20965429;-6.429810642;-6.874637224;-17.96306927;-0.517333394
-7.020391417;28.68334958;11.87982725;8.210814365;6.412163842;0.052320085;14.99739604;7.808703974;3.134921149;17.4224348;-2.364450454;-10.56516654;-7.616753457;-0.84399086;10.95814069;-6.050492853;-5.585415373;-14.01267634;-0.962807179
-3.918534468;33.31637104;15.44882705;8.32467232;7.777208135;0.093633825;15.39170416;10.88255338;2.051255384;20.87837336;-0.811406627;-10.46645172;-7.281204343;-0.099717627;11.67954724;-4.077413647;-3.819150528;-12.25493596;-1.15288324
-1.353367499;40.63436298;17.45038356;5.521520372;9.069555975;0.077820326;15.98613105;10.19223792;-4.891449445;20.354994;-0.252088586;-10.13671039;-6.794600782;0.714683428;12.94508729;-1.751765695;-1.882181082;-12.97807577;-1.056493763
-0.049728543;46.49817177;17.3633294;0.583408341;9.61700166;-0.002552716;15.92017109;5.030646723;-12.11325499;15.91659681;-2.088851361;-10.23861829;-6.861983135;1.13208938;14.06381891;-0.171485846;-0.398312327;-14.62313615;-0.847403719
-0.094887923;46.94492181;15.16081822;-4.598247652;9.555599881;-0.122736659;13.93348331;-3.082487112;-15.10780184;9.414955967;-6.685462839;-11.6384712;-8.365312314;1.014684995;14.49089027;0.42221772;0.133901279;-14.97954627;-0.755739982
-1.107578724;41.58192411;10.84146615;-8.497763554;9.418237853;-0.234611471;9.890584498;-11.23448482;-13.87329;3.342254861;-12.91924145;-14.61472604;-11.54929549;0.504131075;14.14490288;0.486925499;-0.169847462;-12.88571483;-0.887492268
-2.628804345;34.08864848;4.160343297;-11.13887829;9.465254436;-0.294657228;5.490836519;-16.89678723;-12.31585624;-0.667610124;-18.95087835;-18.62206469;-15.63460813;-0.167464466;13.41671922;0.481209437;-0.497909973;-9.095506921;-1.139375721
-4.384610276;29.13520268;-5.04533363;-13.95579412;9.423697157;-0.293108693;3.182187598;-19.32902152;-14.37007813;-2.571799236;-23.50885631;-22.68583378;-19.19288071;-0.828580992;12.86337902;0.382984047;0.171732955;-5.64424216;-1.268099328
-6.231004834;28.2827973;-16.13316552;-18.39974723;8.850914343;-0.261538228;4.008114981;-19.61222891;-20.31132604;-3.413961946;-26.56660706;-25.97827152;-21.01721598;-1.405686771;12.80725816;-0.143441786;2.321928106;-4.261437124;-1.067883803
-7.897022451;28.6229895;-27.19930208;-24.41294343;7.714595965;-0.250683963;6.386283206;-19.41513113;-26.39817801;-4.089546858;-28.87961773;-28.08338178;-20.84245179;-1.897059307;13.12948027;-1.191205104;5.438609915;-5.113028236;-0.532965063
-8.83301403;25.72887069;-35.46643135;-30.02669844;6.57551922;-0.293647419;7.283418961;-19.56769237;-28.00333623;-4.407034341;-30.89161129;-28.85706997;-19.40118512;-2.357429275;13.39917367;-2.302882931;8.221656294;-6.821117246;0.115579528
-8.387152354;18.59496417;-38.48353137;-32.45746024;6.15302211;-0.381998343;5.132394843;-19.57145588;-23.4259732;-3.158336699;-32.06951895;-28.20092131;-17.81847682;-2.895619744;13.22631315;-2.773332198;9.356122555;-7.632924123;0.570796657
-6.243316023;12.0251468;-35.44437969;-29.9081274;6.662719726;-0.47254367;1.940342253;-18.31751072;-15.15249704;0.917883339;-31.30434611;-26.09340051;-16.83046127;-3.629279717;12.56240676;-2.296369463;8.318390636;-6.723908537;0.658629493
-2.798174034;13.60806184;-27.75193043;-22.7689663;7.559358826;-0.5182344;2.245599285;-15.27053611;-7.67448451;8.055528032;-28.01903536;-22.86734921;-16.39499096;-4.580420448;11.72665945;-1.323851387;5.665268527;-4.633453359;0.475391274
0.85138799;26.94978773;-18.4138463;-13.41765831;7.960019531;-0.498363135;9.085118076;-11.06069114;-3.924445814;17.05218322;-22.96070197;-19.37183505;-15.91694259;-5.59210095;11.15785909;-0.755596181;2.634665871;-2.645954696;0.330187016
3.381606038;46.5297091;-10.61199573;-4.874338977;7.393253672;-0.42611034;20.0057638;-7.021602142;-3.38749755;25.76983476;-17.91643749;-16.68938675;-14.83858125;-6.378052935;11.10151603;-1.20244285;0.376813497;-1.783557057;0.519278413
3.917669627;59.07533803;-6.289992438;0.685892926;6.203317403;-0.332139596;26.82457337;-4.154327611;-3.262779438;32.15688514;-14.53775991;-15.49774963;-13.11458291;-6.717564858;11.4719704;-2.47271006;-0.635223036;-2.254013662;1.095003796
2.499487327;51.64094173;-5.514279368;2.64902119;5.23628146;-0.242408053;20.33963598;-2.456355894;-1.32679366;35.15281741;-13.24331792;-15.57766689;-11.24526395;-6.655175445;11.96782355;-3.7418609;-0.652106769;-3.643409;1.810394714
0.055696967;21.1255131;-6.81056905;1.716680981;5.078595479;-0.169627221;-2.797135686;-1.168881607;2.164926552;35.03729648;-13.1043941;-15.95345419;-9.913459106;-6.51613355;12.31195013;-4.252518424;-0.219381213;-5.446770544;2.293069588
-2.082105812;-21.82584452;-8.100078125;-0.806758853;5.525886673;-0.121205982;-36.11813842;0.345007049;5.067797485;33.17161014;-12.77547653;-15.6645161;-9.55036795;-6.681713428;12.40890933;-3.920765168;0.324918184;-7.334285106;2.320063477
-2.821567863;-58.00825009;-7.6444159;-3.585650011;5.756428145;-0.109004924;-65.81818179;1.911621815;5.577656096;31.3493088;-11.66168869;-14.60342442;-10.14894154;-7.284656698;12.31590968;-3.322383312;1.029094953;-8.96944385;1.977663916
-1.750335683;-70.9274125;-4.602476701;-5.48325461;5.054408728;-0.145189456;-78.67169519;2.645376712;3.855673813;31.03519096;-10.36463886;-13.72697002;-11.40434635;-8.084295339;12.1013386;-3.102122958;2.093890427;-9.751027915;1.578740229
0.813788175;-56.64016639;0.849403341;-5.685512789;3.440554358;-0.224961234;-70.22021354;1.698223073;1.595171042;32.73789284;-10.1123284;-14.40871083;-13.01146455;-8.64996486;11.75287747;-3.366093658;3.483079436;-8.967484637;1.410165201
4.103260805;-25.55321666;7.680429478;-3.974515879;1.658090195;-0.314428516;-47.54154374;-1.040710433;0.160565214;35.73926523;-11.74232289;-17.39889799;-14.87709846;-8.716249304;11.22375592;-3.614944351;4.748726034;-6.409753808;1.52649117
7.291380755;4.773582401;14.31834056;-1.047448437;0.54152173;-0.361816107;-24.61188352;-4.896442052;-0.739871372;38.35701884;-15.11729533;-22.20590994;-17.12284178;-8.409177925;10.55227311;-3.265889272;5.250246646;-2.925038248;1.76406828
9.777426141;20.58678003;19.07887542;1.5268337;0.337402331;-0.330293705;-13.49412913;-8.978582232;-2.541651231;38.73648487;-19.38344555;-27.39920845;-19.9274232;-8.139934701;9.90918311;-2.266019728;4.619578577;-0.280228918;1.95052876
11.27421746;19.21963517;20.67629172;1.978569827;0.567411844;-0.228280159;-17.42122062;-12.77879914;-6.087328152;35.86036836;-23.7070852;-31.59688253;-23.3416781;-8.25043366;9.498190113;-1.21367907;3.121392187;-0.202147365;2.10203174
11.74076053;8.389347582;18.66410317;-0.627231651;0.520198907;-0.109941752;-30.22110929;-16.22875715;-10.52682105;30.23336092;-27.75379873;-34.34619256;-27.1739617;-8.719866313;9.386881154;-0.852606756;1.625092663;-3.16974834;2.405420764
11.26729161;-0.937806163;13.58168657;-5.686358196;-0.102968505;-0.040434709;-41.80468537;-19.21701193;-14.03456377;23.78428216;-31.50961553;-36.19847977;-30.96617811;-9.194042133;9.428547451;-1.377862069;1.180039063;-7.840715748;2.98371886
10.00185274;-2.403392453;6.693623182;-11.26752242;-0.976143592;-0.050099792;-45.25902632;-21.11998179;-15.58951054;18.9660255;-34.72672021;-37.94962672;-34.04630046;-9.312832006;9.363101593;-2.177636561;2.457011992;-11.61807908;3.666150261
8.145091467;2.556700057;-0.537917534;-15.18708859;-1.53462664;-0.113397144;-40.49782939;-20.91713941;-15.85213341;17.55390252;-36.6474249;-39.70959634;-35.65910447;-9.040488751;9.020387381;-2.267093383;5.397495818;-12.07986461;4.01570087
5.980737159;7.549242192;-6.922290421;-16.22896516;-1.566424071;-0.170200487;-32.54381856;-17.90990407;-16.01706832;19.85867284;-36.37577138;-40.60287146;-35.18055117;-8.698223785;8.44712298;-1.074504565;9.261034917;-8.398096554;3.654057465
3.882406522;7.036874069;-11.68940997;-14.66773742;-1.439003683;-0.17307739;-26.65586556;-12.45400921;-15.71991287;24.79687272;-33.60750137;-39.37025223;-32.36746843;-8.669300749;7.841094367;1.065762404;13.00372192;-1.882689136;2.637246654
