Channel 1 - P4;Channel 2 - O2;Channel 3 - P8;Channel 4 - T8;Channel 5 - C4;Channel 6 - Cz;Channel 7 - Fz;Channel 8 - F4;Channel 9 - Fp2;Channel 10 - F8;Channel 11 - Fp1;Channel 12 - F7;Channel 13 - F3;Channel 14 - C3;Channel 15 - T7;Channel 16 - P7;Channel 17 - P3;Channel 18 - O1;Channel 19 - Pz
27.72037499;2.066763771;39.003856;29.12193008;-48.38101443;8.57949725;-23.71539126;4.21126299;25.86869242;64.62101912;4.743086378;-21.17553916;5.053043465;-54.56079233;-36.46802226;-0.661025945;42.51109534;-142.857882;-37.06090024
33.39731519;-82.40234806;16.4327621;13.94509652;-87.84894783;7.212172683;-90.42086874;-6.08266342;-34.47608601;-0.860083008;2.484198536;-30.90600856;2.4538055;-91.36607888;-81.75197567;-26.51699048;34.80614963;-155.1228186;-51.26473611
26.97068394;-131.5403538;-4.663447536;-2.275718918;-84.27898779;3.19946001;-120.5904316;-16.27729053;-78.28261087;-65.63705479;-1.643690841;-29.37679743;-4.665458399;-82.8391117;-84.55273697;-39.27416788;18.29643591;-106.2229943;-44.82111546
13.8656044;-120.5225149;-10.89556684;-9.570862652;-41.4813829;-0.994326328;-102.1085982;-21.07027313;-82.0604891;-97.05195999;-5.430383458;-20.1881287;-12.59057827;-35.35381586;-45.90779548;-30.84435539;3.512419451;-24.0423098;-21.83980131
2.872545807;-63.25919768;-0.412230483;-4.341432708;12.1134152;-3.043417248;-53.97037421;-18.76477065;-49.05780835;-85.24369289;-7.41892582;-11.2869344;-17.24856376;20.40666224;7.047853348;-8.842597086;-1.357976694;43.99184174;3.264237865
0.015285872;-0.897079834;16.75879928;8.477995148;44.05999787;-2.299075081;-11.23950628;-12.16898112;-5.882892872;-48.07387765;-7.822614742;-9.228114903;-17.06155832;51.53584915;40.9690072;10.00154672;4.247871711;63.7919327;16.08878232
4.864478152;28.15909353;27.09363349;19.36970874;40.20077129;-0.021194071;0.386562847;-6.220857868;17.52656241;-16.30615209;-8.07149907;-14.84310333;-13.75281617;45.3499593;39.43349947;13.21459957;13.85037734;36.33715399;11.99924651
11.81114589;13.83909365;23.81929721;21.15793718;12.22463794;1.766624633;-19.0117103;-4.353689975;8.996247422;-11.06363742;-9.529066401;-23.45643762;-10.71228637;15.71242451;12.19317689;1.997511644;19.45891942;-7.028624159;-1.818535536
14.92798539;-22.70175724;11.14791261;13.73173478;-13.99123442;1.829077445;-47.57798354;-6.446533353;-19.45045256;-30.64355503;-12.42900507;-29.10627324;-10.41346857;-10.23046248;-15.20323083;-10.632995;17.47800346;-30.47056683;-12.96651086
12.43296257;-48.9239403;-0.214559594;3.323693664;-18.94808081;0.481733041;-61.12114351;-9.736693728;-43.49584783;-55.50136342;-15.76769317;-29.15657997;-12.92073087;-13.37196045;-21.98889603;-11.10820041;10.54869883;-19.91414259;-13.45871152
7.408738096;-46.40679318;-2.046920923;-2.650837354;-2.774738683;-0.918438459;-51.6523901;-11.61348422;-46.20293452;-65.74977338;-18.10576378;-25.68729224;-16.42466341;4.676872686;-6.597043432;3.356278663;4.447443884;9.854813991;-4.873972044
4.630142365;-22.25753613;5.303468034;-0.993584448;18.02251251;-1.207659722;-30.94508794;-11.81238193;-29.76465003;-56.50194854;-18.60702695;-22.94727774;-19.03654472;26.14775766;15.24;22.45844359;3.086832311;30.61996196;4.369420139
6.417135862;0.523146069;14.21155202;5.620292435;25.89305034;-0.320380452;-18.16719207;-12.25980551;-11.12505739;-39.50439631;-17.57932505;-23.40862831;-20.20156077;33.39705064;25.31497515;31.14256621;5.800573919;24.54942712;6.622042861
10.93403289;3.633336315;16.70396455;11.50502603;16.30026839;0.813937033;-23.30300612;-14.93662986;-6.624862113;-31.39180731;-16.2216441;-25.86837481;-20.66906379;22.85545776;17.631373;21.63369816;8.775344782;-2.868017795;1.000866771
14.07963668;-12.51965588;10.96814183;12.63396288;-0.421161012;1.177562729;-40.168626;-19.78128661;-18.98536323;-39.43453976;-15.83810955;-27.01108289;-21.33692092;5.94518335;1.438278953;-0.456401554;8.899256351;-29.67401854;-6.769069441
13.09901121;-31.72323048;2.269552497;9.348151357;-9.438925235;0.538046803;-53.56522488;-24.48632771;-36.76793657;-56.53564636;-17.06916435;-24.7750515;-22.20898764;-2.196829198;-8.365389932;-20.52781545;6.483550591;-36.56821381;-9.832163576
8.797650248;-37.36703819;-1.931252929;5.298641793;-4.205943548;-0.434898834;-53.06076393;-26.30941288;-45.39013433;-68.571384;-19.5866504;-20.41864731;-22.42776906;4.362186358;-4.195687327;-26.03416982;4.626218483;-21.84272687;-5.973317939
4.640608711;-26.28594112;1.822058837;3.964542671;9.083166119;-0.832153348;-41.19654839;-24.28278725;-39.46850649;-66.79618597;-22.35142824;-17.49108249;-21.23559749;18.52687358;8.837990475;-15.3459984;6.066238252;-0.6508231;1.055514152
3.722717972;-9.786522021;10.59035295;5.822997633;18.13685624;-0.314088326;-29.80902614;-19.94135419;-26.17170436;-54.56669067;-24.19941446;-18.69543569;-18.8452475;27.57437718;18.6842684;2.145082888;10.48846912;9.147296383;5.267993168
6.274833082;-2.40499373;18.0029775;8.344631521;15.60685353;0.635747994;-28.78522196;-16.03884755;-17.71592018;-43.341993;-24.38989382;-23.4265016;-16.34176477;24.40921297;17.2151754;14.04113181;14.65919503;1.714835835;3.623210847
9.713519759;-9.126549057;19.62708638;8.454522223;4.811568293;1.183868947;-37.59096433;-14.43990437;-20.39814285;-42.29996064;-22.84554933;-28.09016826;-14.70395952;12.86152926;6.589746324;14.25799745;15.17800357;-13.48693841;-1.792278817
10.97147003;-22.03144846;16.14217065;5.150905848;-4.168028241;0.886210508;-46.62256998;-14.97350687;-29.81937892;-50.86112467;-20.03537429;-28.87528586;-13.89456338;3.216983091;-3.720330454;6.478745389;11.37029881;-21.37213497;-6.084057148
8.978787005;-28.32606629;12.00229538;0.125918402;-3.788765776;0.041613122;-46.39608959;-16.06918281;-35.84450852;-60.15443991;-16.65410091;-24.62235941;-12.92003906;2.793307707;-5.723092469;-0.187588417;5.83303487;-14.57084947;-5.959236415
5.231721299;-21.87346595;11.22053406;-3.871268229;4.693534345;-0.613461849;-35.98285106;-16.40393613;-32.19074506;-61.3917057;-13.32547081;-17.50166643;-10.85525402;10.1056106;0.557866725;0.940328252;2.264297612;0.988948692;-2.297067629
2.178585251;-8.05526532;14.0935516;-5.300457747;13.10081076;-0.558529515;-23.40436058;-15.99070414;-21.9085815;-53.43014471;-10.47735804;-11.17027102;-7.903062419;17.25611224;8.129021806;9.225861492;2.524119379;12.20032789;1.103942745
1.022918084;1.637448389;17.4616978;-4.780246855;14.03057119;0.09321115;-18.19743634;-15.78877924;-14.19047933;-43.13052009;-8.375087477;-8.130167469;-5.470790155;17.65062742;9.945041993;18.13804572;5.404223954;10.4542739;1.140628902
0.895863666;-0.188728285;17.84356214;-4.122573306;7.236641603;0.749879847;-23.13095927;-16.35405103;-15.81320331;-38.79474107;-7.180058594;-8.429266732;-5.093475163;11.77631145;5.093894906;20.97608899;7.986906802;-1.378454841;-1.960596276
-0.004954027;-10.92761644;14.44392735;-4.547924225;-0.732976861;0.88796236;-32.30198577;-16.9404202;-25.05118852;-42.88802168;-6.918373829;-10.44637807;-7.076111631;6.099320627;-1.082260127;15.8221803;8.241232279;-12.15235619;-5.173669372
-2.486794882;-21.02151736;9.49610316;-5.742916473;-2.796886144;0.488614425;-36.8129046;-16.01531082;-33.3449311;-50.39530869;-7.381857519;-12.67043473;-10.03673192;6.612458082;-2.456505065;6.056089255;6.576294406;-12.40074191;-5.611218039
-5.448870933;-22.55912694;5.978989301;-6.488107247;2.409001202;-0.002778023;-32.59430182;-12.79343252;-32.96666803;-53.81853309;-8.112812383;-14.74740116;-11.81721734;13.20940265;2.187442433;-3.09831655;5.144776638;-2.256236931;-3.084525531
-6.79502635;-15.59902979;5.013114258;-6.105049485;9.753299393;-0.11649318;-23.48181086;-8.372869427;-23.74843201;-49.98342775;-8.599402027;-17.0404692;-11.08540929;19.92390168;8.356931632;-8.43144663;5.707131107;9.081497427;-0.064194137
-5.318460261;-7.078347895;5.25976622;-5.291350015;12.59036241;0.221508145;-17.26807037;-5.315261217;-13.03838809;-42.57773331;-8.616917789;-19.47226272;-8.349689435;20.53020748;10.30698866;-9.83544673;8.034849022;11.2965504;0.716592345
-1.859106067;-4.019735381;4.623160125;-5.567638815;8.724888389;0.65844848;-18.68937217;-5.84292287;-9.177549699;-38.46608829;-8.446812831;-21.0328479;-5.558360079;14.22577315;6.372437267;-8.493954936;10.21049811;1.326285593;-1.284725123
1.291536418;-7.481378722;2.457443229;-7.87548615;2.049600042;0.770537727;-25.63615749;-10.06910145;-14.38765838;-41.39234657;-8.70794322;-20.54301638;-4.589038058;6.293651094;0.296766889;-4.724250033;10.43490541;-14.57948864;-4.090009766
2.217009933;-12.39778073;0.176236554;-11.62970236;-1.295686917;0.460225481;-31.57138622;-15.73892012;-23.20298772;-48.75129136;-9.812609456;-17.91324334;-5.816223559;3.343245292;-2.416211852;2.060625442;8.663851262;-26.15652002;-5.136665804
0.866332941;-12.814644;-0.216712215;-15.09183775;1.500919623;0.034554376;-31.51542065;-19.76300283;-27.51016268;-54.09539439;-11.42598743;-14.57362575;-7.868471741;7.553816708;0.440832486;11.31890554;6.64756245;-26.89960833;-3.603232976
-1.026817752;-7.35784776;1.798266285;-16.73831712;7.644277011;-0.089445293;-26.09894759;-20.37500536;-23.52579985;-52.87392649;-12.43143062;-12.51180752;-8.734953545;15.02189727;5.955683239;19.71611809;6.413564301;-18.06869974;-1.028711717
-1.463220479;-0.090226646;4.56147968;-16.43087415;11.5522969;0.230235598;-20.36831798;-18.24902616;-14.63479735;-46.22017426;-11.59755572;-12.70257828;-7.335164604;19.45730681;8.987415087;22.18589463;8.568461733;-6.444360136;0.214552312
0.190969454;3.539503385;5.586665436;-15.39990717;9.964214949;0.73428058;-18.91934989;-15.76661138;-7.926376702;-39.60422099;-8.573549741;-14.34639527;-4.345439459;17.71838599;6.924156676;15.52777269;11.85894259;1.4408017;-0.904986595
2.808106205;1.581774495;3.759904036;-15.09706995;4.679035898;0.99623413;-22.00318531;-15.09457731;-7.830419044;-37.83197593;-4.455863956;-15.63470131;-1.691093674;12.25990374;1.919379571;1.688704397;14.26587467;3.587952871;-3.238135683
4.579807386;-3.096277548;0.444082022;-15.92239329;0.647978051;0.794543734;-25.93255111;-16.61425156;-12.55738611;-40.96586782;-1.352111543;-15.36681956;-1.137273556;8.553860809;-1.291662086;-12.38348129;14.60183385;2.38725283;-4.617298971
4.580222126;-5.838185258;-1.463568932;-16.88401405;1.394375955;0.289979427;-26.95802439;-18.85887056;-16.25518581;-44.65656637;-1.07267907;-13.95254659;-3.044749065;10.06240891;0.188180919;-18.84731277;13.26444461;1.167070923;-3.860338483
3.488816138;-4.395760321;0.289832795;-16.420199;5.980243052;-0.134303573;-24.73974385;-19.85695806;-14.6173634;-44.30669151;-3.804314273;-12.88926741;-6.160356928;15.32916589;4.865604598;-14.24818615;11.64553739;1.013195341;-1.772482775
2.937638778;-0.433228574;5.685705998;-13.66003906;10.11155794;-0.208747823;-22.26256786;-18.7101564;-8.762202269;-39.17631653;-7.765090199;-13.20173419;-8.506647213;19.60556862;8.402986449;-1.960867317;10.87148996;0.509251511;-0.307800264
4.115281702;2.644931622;12.56830348;-9.117101058;10.14702312;0.014520003;-22.58360712;-16.18187213;-3.998323441;-32.84101175;-10.21162603;-14.29451323;-8.667224984;19.27943171;7.687258063;10.2037329;11.01395823;-1.942244196;-0.748326035
6.812331507;3.057960546;18.24143117;-4.359262886;6.274422739;0.250611985;-25.71936404;-13.97737463;-4.799277744;-29.84140295;-9.186741912;-14.30771156;-6.576119185;15.00627856;3.625819262;15.52351528;11.3439879;-5.784713937;-2.590154957
9.631140801;1.92680011;21.14329613;-1.032935735;2.088190663;0.262190163;-28.63565619;-13.43656679;-10.64692387;-31.71437364;-4.805354038;-11.70842406;-3.367414064;10.84969828;0.179182003;12.89426928;11.21792248;-8.221233349;-4.096534299
11.08117837;1.5581989;21.39785441;-0.025439096;1.174380762;0.064626405;-28.21818733;-14.69812024;-16.47308403;-35.9253512;0.835214144;-6.723015203;-0.523249948;10.44750837;0.647680654;7.030365579;10.69372377;-6.426199236;-3.928515773
10.61271581;2.826733483;20.15216183;-1.271567175;3.938536023;-0.121292975;-24.29095727;-16.85427815;-17.20812149;-38.42561781;5.053209244;-1.334102363;1.028234216;13.80531605;4.681900676;4.366273351;10.35660616;-0.098871936;-2.32842245
8.811663292;4.429420167;18.56110857;-4.104462848;7.493956883;-0.103566431;-19.81197224;-18.75824092;-12.28128555;-37.30438137;6.285680877;2.182364374;1.300009766;17.54209385;8.706534838;7.941814987;10.63745567;7.770891229;-0.816091964
6.745308851;4.644217677;17.28931684;-7.691754576;8.51207658;0.092486946;-18.11957107;-19.71517811;-6.042725463;-34.20830292;4.916143968;2.943778589;0.988720058;18.1577852;9.260178303;15.18197638;11.35108922;12.52078786;-0.751068606
5.110690794;3.550078125;16.6467199;-11.2366627;6.279003694;0.257205304;-19.86257576;-19.57169963;-3.78334339;-32.42413568;2.743163016;1.974021493;0.871727452;15.20824038;6.127381668;20.10109363;11.88859609;10.6279698;-2.115512997
3.872994878;3.198719846;16.81524822;-14.0107781;3.177089439;0.210144598;-22.4626401;-18.36159309;-6.955387136;-33.60095346;1.611487548;1.190496159;1.303299525;11.53129673;2.428303065;18.03261916;11.81570351;1.845970073;-3.602601447
2.561307668;5.418860969;17.69984744;-15.47578929;2.298583817;-0.016299105;-22.53195374;-16.0484961;-11.87007813;-36.21410703;2.257413714;1.804213895;2.08744197;10.48034885;1.674890777;9.17867871;11.24566882;-10.54264795;-3.862703951
0.83397824;9.526450253;18.57156366;-15.56483957;4.522309323;-0.200746887;-18.9505704;-12.71211199;-13.03124527;-37.12862509;4.111573996;3.479079555;2.705667949;12.82701037;4.547603444;-1.631092161;10.62505891;-21.33796117;-2.723822392
-1.199883439;12.50880449;18.10924605;-14.87390794;7.761887884;-0.142855366;-13.80807871;-8.988193919;-8.153071699;-34.71517315;5.981895097;4.826515746;2.669326628;16.16162715;8.319551682;-8.588718076;10.19376407;-25.95805231;-1.286598382
-3.092309846;11.82642928;15.15738202;-14.45199448;8.988940112;0.138066823;-10.48683105;-6.225831192;-0.424273373;-30.5844082;6.912744163;4.628019285;1.758799405;17.22251758;9.382950884;-9.064647555;9.720547267;-22.67049341;-0.865361542
-4.387441824;8.187392226;9.746874502;-15.19710847;7.069877022;0.404120499;-10.77672271;-6.003887238;4.014702079;-28.33273044;6.557747528;2.656317521;0.058905846;14.9082254;6.526236845;-5.179311372;8.829923138;-13.48614056;-1.789628178
-4.84264648;5.362043157;3.464852225;-17.27155882;3.781794981;0.40409299;-13.64082402;-9.202278079;1.246052967;-30.43863784;4.977528774;-0.49627532;-2.137866488;11.20411561;2.002303271;-1.805253659;7.607529988;-3.186839791;-3.15565575
-4.421472646;6.831086139;-1.343807684;-20.02120474;2.128251559;0.099891844;-16.54421893;-15.26904196;-7.03988584;-36.09258718;2.302042099;-4.174497764;-4.431669138;9.263818483;-0.508053932;-2.695621178;6.828907567;3.234752309;-3.705219763
-3.199666806;12.29114848;-3.077777344;-22.49336729;3.570531989;-0.289376733;-17.8504268;-22.27033427;-14.86252121;-41.84850629;-1.294199879;-8.11356838;-6.360078125;10.50088315;0.863151619;-7.678216845;7.464503062;3.485647661;-2.981348048
-1.358975259;17.55187744;-1.929104311;-24.12373021;6.729503972;-0.466199854;-17.96635739;-27.78546366;-16.8701813;-44.4437372;-5.315558829;-12.15828882;-7.44177621;13.37341718;4.631125979;-12.87670477;9.808933723;-0.554244736;-1.702201767
0.747411169;18.35419442;0.390817802;-24.99620991;8.698945502;-0.29973707;-18.34041561;-30.11873073;-12.69927282;-43.27203639;-8.806243887;-15.69341894;-7.312807916;14.90597685;7.406744135;-13.61839946;13.01089755;-4.043785414;-1.053236568
2.638566828;14.74384755;2.051001083;-25.46018913;7.707607698;0.074235404;-19.58288568;-29.08604709;-7.098574661;-40.43253448;-10.72454915;-17.60565173;-5.961199691;13.46810293;6.925982933;-7.823419521;15.50880175;-2.647475865;-1.591047845
3.961327438;11.60812181;2.483545752;-25.49571019;4.685510613;0.377857732;-20.74472651;-25.93334653;-5.734111433;-38.5169071;-10.68453243;-17.0613869;-3.914166425;10.23827351;3.922776385;2.484982425;16.11128789;3.97905205;-2.770068359
4.79753862;14.16885566;2.624060075;-24.48867434;2.3569044;0.42320671;-20.47493074;-22.51213988;-10.23747677;-38.25986792;-9.443576517;-14.45604282;-2.166177049;8.061486067;1.265788073;12.42460083;14.87397162;11.35818629;-3.490529108
5.701156574;22.03305276;3.863896467;-21.7301016;2.755913073;0.249140791;-18.76479148;-20.26924385;-16.70646563;-38.13773143;-8.587607982;-11.52371333;-1.759693749;8.816136695;1.28186496;17.21275884;13.04888081;13.04276901;-3.121785271
7.302283602;27.42;6.659880355;-17.26469954;5.44751004;0.055171538;-17.33076978;-19.63978373;-18.98412298;-36.10655098;-9.497389178;-10.24295771;-3.196064618;11.72414739;3.744442127;14.81076336;12.13173849;5.410207722;-2.051096329
9.703691012;20.16595456;10.00471705;-12.30456268;8.019245444;0.007411538;-18.0633792;-20.10239466;-14.03067722;-31.7258303;-12.33694276;-11.30288456;-6.059869873;14.11212294;6.273955937;6.707024402;12.76486339;-9.113276329;-1.283157614
12.16338263;-3.74317964;12.17908317;-8.703792336;8.312317688;0.097037863;-21.00659586;-20.72556495;-4.876987769;-26.66945985;-15.87813278;-13.44147454;-9.17925155;13.87106371;6.645482398;-3.301414679;14.34692349;-23.06117882;-1.499264649
13.41494266;-37.02825037;12.0915447;-7.768509993;6.323159546;0.171510175;-23.9591301;-20.78274868;1.474721093;-23.21253541;-18.34047101;-14.33954279;-11.29694284;11.34951786;4.816232348;-11.23111376;15.59373524;-28.75;-2.455187777
12.48814119;-64.27588028;10.04391472;-9.297462126;4.088973038;0.096360587;-24.2932854;-20.06058413;-0.257596556;-22.16763898;-18.59459832;-12.42663103;-11.82389151;8.987539339;2.852377638;-14.56947143;15.52600278;-23.49666745;-3.24760992
9.449990724;-71.86925824;7.319573445;-11.64997077;3.751685069;-0.108806783;-21.37211909;-18.74977762;-8.854066178;-22.1948571;-16.7719962;-8.102930175;-11.12234462;9.074268871;2.922027969;-12.77673992;14.08071128;-11.3391981;-3.165619111
5.485273029;-57.47656776;5.046435148;-12.85682172;5.621830591;-0.283564113;-17.2084072;-17.09717445;-16.75879943;-21.07695778;-13.83136255;-3.318610621;-10.07468597;11.6806634;5.264246145;-6.878798392;11.9466493;0.037151454;-2.326393016
2.213800325;-31.78999573;3.385336726;-11.95466425;7.983722439;-0.270773908;-14.58552253;-15.12908164;-15.53819177;-17.7282983;-10.53194417;0.142267227;-9.246112351;14.60350496;7.984102889;1.157732907;9.907404649;4.789653213;-1.528481641
0.72628682;-11.02520212;1.728718291;-9.533725279;8.739100357;-0.055884064;-14.32774085;-12.66221172;-2.831746483;-13.08403834;-6.771893759;2.172709648;-8.311769408;15.31666406;8.796463082;8.844503336;8.326902593;2.622577277;-1.493670866
1.033423208;-5.81134609;-0.368809;-7.113205571;7.324382288;0.223099362;-14.3729723;-9.576280659;14.44757598;-9.121893494;-1.906296008;4.29520918;-6.261698149;13.15651605;7.077379552;13.53296305;7.166647354;-1.968775168;-2.215480839
2.28718745;-14.77693182;-2.477695111;-5.889096497;5.155745268;0.397078492;-11.70825012;-6.105133226;23.4826657;-7.022240737;4.248222284;8.066351776;-2.292278852;9.833142659;4.371823193;13.11172241;6.367958231;-3.965854211;-3.000891286
3.528220083;-27.25723941;-3.526109744;-5.870939335;4.259117504;0.40364422;-5.473616988;-2.873866575;13.69096969;-6.230903005;10.68589575;13.34376396;3.296144836;7.90409992;2.969163865;7.070871084;6.108597161;-1.916333668;-3.133639006
4.335874248;-32.36598858;-2.807069225;-6.060302252;5.398523441;0.319179939;1.748836946;-0.602676143;-15.70224529;-5.275392023;15.54057087;18.00769191;8.951395666;8.632171613;3.901215406;-2.676262204;6.635164646;1.469904161;-2.525959507
4.903795071;-27.02628443;-0.836645568;-5.445693466;7.420216173;0.266562104;5.898795218;0.322654421;-53.90374429;-3.489585581;17.33549375;19.49240837;12.68173555;11.09339632;6.162118508;-12.07920659;7.858759006;2.427281755;-1.766946427
5.583901642;-17.00570625;0.782943105;-3.934388414;8.365605487;0.293280162;5.018980468;0.073612395;-84.13153351;-1.925444255;16.15717634;16.88415398;13.2807314;13.1940273;7.759969658;-16.67301707;9.186750276;-0.016925915;-1.553307493
6.380774482;-11.00532958;0.49442521;-2.440685235;7.284979276;0.334911728;1.105384971;-0.806773117;-93.2067726;-2.493147482;13.72041733;11.78860685;11.0622979;13.55630545;7.539886639;-14.00437213;9.859361288;-2.961994721;-2.050773208
6.872104054;-13.27931974;-1.968902846;-2.088981195;5.087065025;0.292375159;-1.697112024;-1.866324706;-79.1284659;-6.060848843;12.16119809;7.176268391;7.563043065;12.56639407;6.096185703;-5.252805128;9.556644426;-2.332736687;-2.770469375
6.610254354;-20.80221588;-5.251121203;-3.230118244;3.686457282;0.1430813;-1.050248089;-3.090442481;-51.86953698;-11.28725116;12.46109489;5.13054416;4.469486022;11.75827033;5.022704673;5.216597027;8.726268362;3.005084073;-3.04690899
5.610132484;-26.65926292;-7.272511546;-5.099293792;4.269043339;-0.023169741;1.230793432;-4.800019531;-27.01838383;-15.37159852;13.76348589;5.367145294;2.618334621;12.24658388;5.308306473;12.35647781;8.276832368;9.420344683;-2.652236543
4.445311084;-26.11304389;-6.702663253;-6.38605237;6.258626597;-0.079013324;0.971703035;-7.14167759;-16.45949344;-16.19749427;14.15761933;5.740199302;1.811542179;13.70638371;6.419520457;13.50708852;8.833524896;10.83529322;-1.980652895
3.823647988;-20.06710747;-3.910174738;-6.23545559;7.881417097;0.024525568;-3.759145239;-9.60728936;-22.01847466;-14.05783362;12.32400581;4.259438427;1.478758137;14.78288802;6.893848339;9.97881924;10.16876829;3.535222702;-1.657113276
3.983925277;-13.4672754;-0.713225095;-4.879002777;7.763264305;0.209088374;-9.604815016;-11.07741594;-35.81254169;-11.4487453;8.724643436;0.872684881;1.512062952;14.44980329;5.821897373;5.97923762;11.31209656;-10.38859114;-1.956443329
4.4342588;-10.70383556;0.835379797;-3.435048833;6.099524121;0.333422725;-9.947183704;-10.49272082;-46.51494567;-11.06033172;5.372857822;-2.493432917;2.491520664;12.99967521;3.785252745;5.529617409;11.28490252;-23.86482092;-2.572000588
4.283968636;-12.30093195;-0.273197206;-3.095196149;4.385476106;0.314245333;-1.118804071;-7.702048994;-46.97220297;-13.63150413;4.34577419;-3.618867268;5.094320226;11.76436338;2.364507274;9.481736018;9.873581792;-29.48914625;-2.926351037
2.930029297;-15.46877165;-3.515623924;-4.354035109;4.024460676;0.196307974;12.34653402;-3.788288022;-38.10600427;-17.43540741;6.192129522;-1.909635227;9.225638219;11.87490555;2.687411931;14.76081791;7.80947123;-24.52982898;-2.71193355
0.559081159;-17.37339001;-7.34839449;-6.819711753;5.111202694;0.110966812;18.67946698;-0.500393125;-26.96372493;-19.7586275;9.453727946;1.101277465;13.673515;13.23239644;4.375744078;16.44368804;6.207528616;-12.56831438;-2.156240848
-1.936026879;-17.73259028;-10.23589723;-9.627556925;6.459399031;0.161354449;6.622976859;0.88552215;-20.94035087;-19.07227899;11.63980864;3.060029297;16.64891798;14.61402416;5.864944744;11.28298196;5.718928892;-0.69278457;-1.784464764
-3.566628788;-18.41887378;-11.4638236;-12.03459611;6.770630428;0.334204968;-25.35339912;0.445759984;-22.60978354;-16.09153984;10.90029251;2.729809104;16.82201234;14.76940699;5.797747493;0.241810498;6.073721276;5.464748477;-1.923805848
-3.922974612;-20.84183147;-11.293244;-13.74209424;5.824704413;0.511092791;-65.7384514;-0.468788191;-28.69234624;-12.95127528;7.19164342;0.882224891;14.06504398;13.48567101;4.218196392;-11.73295224;6.359413044;5.112305249;-2.416498847
-3.418465252;-23.96721622;-10.52105831;-14.82305826;4.615002307;0.56400544;-95.99787894;-0.2485924;-33.34545883;-11.33107536;2.206650555;-0.568631463;9.394184207;11.69322047;2.496216791;-18.57565165;5.790288877;1.854248173;-2.792120795
-2.956592599;-25.02853304;-9.856360822;-15.47248956;4.363465846;0.451384875;-102.2460125;1.784223786;-32.81188641;-11.15297538;-1.714996611;-0.342561437;4.285389969;10.60011457;2.078864706;-16.71089367;4.355575049;0.234747969;-2.715587304
-3.307695671;-22.22259951;-9.524954571;-15.85350919;5.368949334;0.238310358;-84.24446864;4.928404767;-27.80753858;-10.84810427;-2.836901722;1.140058594;-0.004049865;10.69997687;3.21148946;-7.091301141;2.863472937;2.230291088;-2.285087578
-4.661611916;-16.67834552;-9.275579782;-16.09916337;6.74926391;0.034928003;-55.11472273;7.726446475;-22.16116846;-8.795593818;-0.671296896;2.344755777;-2.63688407;11.52845963;4.762357948;5.504503553;2.379814561;6.307834186;-1.91584842
-6.632186277;-11.65951191;-8.695763157;-16.32034912;7.277951542;-0.085856108;-32.0468047;9.121976246;-19.27220156;-4.626449652;4.133293926;2.296038307;-3.023577526;12.2833594;5.264153799;15.25893709;3.493460822;9.34547202;-1.940608617
-8.616557583;-9.638448062;-7.598825268;-16.49612167;6.513018849;-0.123463619;-24.97197588;9.194312411;-19.48203322;0.62553228;10.27444587;1.767678424;-0.773954074;12.62867838;4.206088651;18.32120071;5.912347947;9.447616984;-2.310163084
-10.16874684;-9.992534385;-6.241233128;-16.33778386;5.181054306;-0.120655988;-31.39857457;8.891850791;-20.3749217;5.442730822;16.20947467;2.813351089;3.926849786;12.90678357;2.435214133;14.30254379;8.60920513;7.267345041;-2.662923594
-11.10994372;-9.593823928;-5.2344037;-15.35527287;4.494354151;-0.110472188;-40.54712405;9.048764629;-19.40800733;8.866461159;20.40723067;6.916881249;9.820699758;13.62165168;1.367264073;5.740105861;10.35974403;5.006781629;-2.677029387
-11.37635787;-5.890653767;-5.185026855;-13.2130308;5.055012075;-0.091193356;-42.74522025;9.580727619;-16.36619562;10.81016213;21.64408695;13.30384819;14.63867976;14.77763871;1.76626358;-3.685750971;10.32156866;4.311455394;-2.363440722
-10.83931822;0.315042849;-6.273429312;-10.14066639;6.346102719;-0.045008406;-36.46171247;9.586488864;-13.48030317;11.61576735;19.47176214;18.93;16.08775459;15.76986686;3.177601314;-10.87725908;8.36397484;5.050928295;-2.033517725
-9.322595771;5.059277227;-8.0590203;-6.990358873;7.241120283;0.02821951;-27.95539467;8.273171508;-13.21874352;11.52148559;14.63;20.345432;13.29372258;15.94548648;4.447867529;-14.13360328;5.054314581;5.943752471;-1.991567747
-6.816014448;4.430445044;-9.690891001;-4.747942286;7.030605953;0.100454058;-24.8;5.87334353;-15.82560294;10.63255508;8.964119216;16.10781244;7.620983802;15.27297422;4.778349771;-13.0766021;1.373128296;6.185067662;-2.254288497
-3.660621533;-1.904335763;-10.42205551;-3.787080619;6.023749965;0.137534098;-29.24344895;3.691527459;-18.86090938;9.307618295;4.642641976;7.934021504;2.046915577;14.43659614;4.338016299;-8.277849166;-1.696191472;6.322818022;-2.555430919
-0.47142914;-9.985809547;-10.06359423;-3.482171968;5.207302982;0.12850294;-36.83081478;3.152574284;-19.19741809;8.349104575;3.024133905;-0.28588817;-0.679710954;14.2279252;3.941532236;-1.082187644;-3.54287879;7.411816848;-2.612902573
2.211697117;-14.42559482;-9.006072;-2.609512454;5.31429823;0.091869031;-40.84568102;4.603861789;-15.74701278;8.578245303;3.913992017;-4.894824018;0.161048187;14.79719427;4.182256694;6.39877384;-4.118496813;9.228286786;-2.392470118
4.288952325;-12.52319167;-7.750487351;-0.339657058;6.169570361;0.054936974;-38.25106306;6.887246273;-10.5286052;10.08759723;5.784178063;-4.58266426;2.86229982;15.48639723;4.871470834;11.54775173;-3.846032395;9.432145623;-2.121939098
6.159904004;-6.209579916;-6.316731638;2.941855217;6.89180679;0.030439587;-31.96579193;8.099559816;-7.106242467;11.9420876;6.863567549;-0.817310883;4.649268243;15.43274023;5.284015939;12.07621591;-3.28739848;4.924796269;-2.05870828
8.370680954;-0.233545624;-4.069693593;5.726354005;6.735706257;0.014967591;-27.85296946;6.989409212;-7.681777193;12.7934563;6.350937099;3.4993945;3.78893933;14.40254092;4.922860496;7.218854475;-2.770720375;-5.310039063;-2.245226298
11.07901662;1.81098213;-0.216904926;6.447037988;5.788420364;0.007397076;-29.41036622;3.903232556;-11.27798139;12.0109611;4.890928571;6.017759354;0.835093296;13.07797726;4.042867252;-1.434213863;-2.237775441;-18.21606899;-2.484072551
13.7498391;0.25047057;5.335512327;4.748744329;4.892266146;0.022093813;-34.87151937;0.541640168;-14.52507184;10.33632214;3.994693942;6.168642991;-1.933369729;12.50384794;3.435603598;-10.21644815;-1.431388463;-27.61149163;-2.542627888
15.35649733;-1.34482734;11.46689711;1.922264318;4.880102745;0.077185792;-39.0212244;-1.273035203;-14.37960528;9.375574646;4.865041116;4.990105741;-2.388758611;13.16934037;3.692152821;-14.9492197;-0.269984709;-27.99432075;-2.378354511
14.99207143;0.472288944;16.19656056;0.047961519;5.821991753;0.167572477;-37.8471384;-0.859772961;-10.5255599;10.24626761;7.498725123;3.983245845;-0.222308679;14.54641309;4.645361706;-13.11236919;0.929348053;-18.65729275;-2.167582641
12.47400658;5.956954799;17.7869777;0.424516296;6.952625469;0.254012197;-31.87303016;0.958619833;-5.539718086;12.50942052;10.68595518;3.993395504;2.90805899;15.51057523;5.508449734;-5.379384681;1.625833503;-4.863460381;-2.120769349
8.509877575;11.99512592;15.83876571;2.502794923;7.33033105;0.288130925;-25.44483669;2.575983044;-2.802941309;14.35289852;12.83801213;4.858399809;4.795825538;15.28610685;5.571656722;4.546550116;1.536472232;5.271628405;-2.27412484
4.304408471;14.82880974;11.5434485;4.226259571;6.638343972;0.25676948;-22.88080897;2.762747103;-3.958174979;13.94127505;12.99627156;5.8459261;4.455235997;14.09093723;4.814369115;11.92852354;1.018997279;6.298369142;-2.462022619
0.891098339;13.21929844;6.855358952;3.591267087;5.436907994;0.203672514;-24.98184732;1.378726519;-7.948700245;10.82247266;11.32624288;6.343893067;2.805086554;12.92255269;3.891373251;13.77328167;0.958103259;-0.643378348;-2.490307374
-1.344959378;9.329203487;3.168698367;0.236787263;4.673165618;0.200715124;-28.79913272;-0.77764137;-12.21865414;6.215175293;8.852039361;6.24169403;1.790039063;12.68275732;3.537882564;10.67;2.131481174;-8.627460186;-2.332995316
-2.659802808;6.687605021;0.480309455;-4.209882846;4.894278426;0.285869716;-30.53173455;-2.680465911;-14.84640528;1.978097939;6.739232296;5.829694;2.761388102;13.41114496;3.952508978;6.371828082;4.493969621;-10.17788254;-2.156343255
-3.547775494;7.132041804;-2.349239141;-7.351060784;5.833930361;0.420186459;-28.76593969;-3.692204363;-15.75523665;-0.785633039;5.668615328;5.448767114;5.484757238;14.28543978;4.699088669;5.183136201;6.969175122;-3.166013165;-2.148380108
-4.312455491;9.405077126;-6.472734618;-7.868302922;6.688475053;0.505997977;-25.23989372;-3.675460699;-16.14102107;-2.255173339;5.649812912;5.231788868;8.522706076;14.36491388;5.166171212;8.764367208;8.006203737;7.17462496;-2.32506628
-4.94166183;10.52777214;-11.96472236;-6.538358949;6.80490234;0.458281618;-22.74159597;-2.729105622;-16.89200639;-3.168185515;6.237026703;5.097248986;10.54231216;13.41114486;5.122377236;14.59010925;6.573537948;11.91156148;-2.507507225
-5.31237149;8.62156434;-17.60298767;-5.593971111;6.185126673;0.273673701;-22.31956805;-0.979828176;-17.58446177;-3.66367327;6.865019051;4.910554588;11.36595315;12.07555273;4.860048828;17.38367706;2.888473267;5.225687607;-2.496889084
-5.456716514;4.654869122;-21.66475941;-6.930984505;5.413092151;0.040013123;-22.42699612;1.318186727;-16.96995494;-2.92523094;7.070155418;4.631048334;11.90532849;11.31440147;4.838214022;12.8337607;-1.660582022;-10.73560397;-2.278978287
-5.593147658;1.62807035;-23.10253442;-10.59550474;5.120397769;-0.123191242;-20.67959221;3.550456328;-14.41473896;-0.072204405;6.574281189;4.338925832;13.14798537;11.56288715;5.20344843;1.117695;-5.354194133;-26.78384088;-2.056703291
-5.882583215;1.992002132;-22.21705269;-14.75804102;5.472753596;-0.146721724;-16.45809902;4.770019531;-10.85947607;4.532140557;5.348496363;4.164149571;15.16905956;12.38774404;5.65134245;-12.41121894;-7.141147484;-32.90124159;-2.069622904
-6.166195688;5.598777881;-20.38162446;-17.1717245;6.09411102;-0.052663093;-11.85347151;4.155856524;-8.322456399;8.935238708;3.717042165;4.198741498;17.03936888;12.90015254;5.739918734;-20.22149152;-7.103554948;-25.19354372;-2.36037279
-5.995036675;9.937388683;-19.10314709;-16.90837806;6.443900525;0.072943872;-10.02453211;1.618030836;-8.318017045;10.81273997;2.399696301;4.44758935;17.6460258;12.5492169;5.33372764;-17.49554194;-6.132605094;-8.430598045;-2.70103809
-5.004441927;12.35565606;-19.14797525;-14.96090515;6.288946054;0.147399523;-12.42109614;-1.967196089;-10.56556335;9.373957083;2.321515234;4.823861228;16.63601684;11.60618724;4.750128403;-5.548620645;-5.16074366;7.610976732;-2.749747139
-3.340659588;12.24552849;-20.3149477;-13.26126084;5.869100969;0.142729818;-17.35977662;-5.167894829;-13.13023242;6.26332282;4.149712825;5.176128279;14.64582621;10.9388362;4.478611778;8.794923196;-4.578697034;15.06816924;-2.304943449
-1.737433483;11.26578859;-21.8885059;-12.98780255;5.646106618;0.086602096;-21.23736657;-6.803293675;-13.89648454;4.459247456;7.764353075;5.340266579;12.6821316;11.28958542;4.748345077;17.64989185;-4.230244415;12.88778853;-1.447210402
-1.098085655;11.47192906;-23.31756597;-13.61570287;5.87939631;0.024672717;-21.34864528;-6.557185306;-12.1439274;5.886812539;12.02472203;5.207586391;11.2893788;12.67466348;5.346378587;17.30570453;-3.856913768;6.24966708;-0.468099393
-1.865734802;13.11595461;-24.5877384;-13.51296456;6.397381625;-0.015343542;-17.90865467;-4.965051245;-8.950797178;9.712330731;15.09901322;4.784395121;10.27558342;14.38688432;5.836002166;10.50420564;-3.509142109;1.529661003;0.329563302
-3.687016263;14.19621727;-26.06895967;-11.55153966;6.748107618;-0.029524506;-13.62746448;-2.863837012;-6.187340975;12.88244779;15.30391533;4.212291153;9.181456162;15.55681019;5.947941626;4.083097819;-3.531379867;1.22936896;0.785820338
-5.670804302;12.2822638;-28.02797403;-8.317158493;6.592204248;-0.020283473;-11.32511943;-0.818738578;-5.034784557;12.62177711;12.04759656;3.738837375;7.953725931;15.77396984;5.774193326;3.711149944;-4.153950414;2.929618194;0.891752196
-7.056688064;7.050160021;-30.196144;-5.822021286;6.007907873;0.016159714;-11.7019971;1.001420651;-5.266018397;8.847698014;6.321902248;3.653788355;7.111159322;15.26752214;5.605634811;9.632145797;-5.096612181;2.634186076;0.698945884
-7.747603236;1.176077137;-31.69606379;-5.894518116;5.455256267;0.080939551;-13.11600678;2.48598552;-5.760442767;4.373492195;0.372945827;4.205371559;7.220836013;14.5655966;5.602761439;16.59855194;-5.58811864;-0.905311164;0.251739647
-8.254672248;-1.484497672;-31.38388922;-8.572892101;5.419901118;0.155279425;-13.38306049;3.212308911;-5.640897081;2.557748886;-3.376782438;5.491675242;8.21235888;14.00736025;5.638463592;18.0101393;-4.847014934;-4.923893342;-0.394996633
-9.097067858;0.849699669;-28.43433115;-11.88239876;6.009825766;0.201437621;-11.87557689;2.498211783;-4.979255961;4.279741671;-3.616333794;7.332017068;9.256894396;13.57351926;5.468427527;11.07362662;-2.668607508;-5.512167759;-1.123354227
-10.18342496;5.934748112;-22.87439516;-13.26096695;6.821109315;0.190461547;-10.04758578;-0.085908384;-4.539213736;6.857150935;-0.904248218;9.187491095;9.418880959;13.16245879;5.053281721;-0.96583171;0.341817238;-1.827704942;-1.758709272
-10.74576342;8.804302014;-15.77136002;-11.53211152;7.192979344;0.133638779;-10.00776238;-4.181760791;-4.949869909;6.030410422;2.613615972;10.26176908;8.529535173;12.98442259;4.696774714;-11.19895569;3.083105847;2.438271932;-2.158648856
-9.936757964;5.711397188;-8.900777545;-7.843555783;6.682190742;0.083366478;-12.50934057;-8.610784819;-6.159545046;-0.431838842;4.450593744;9.865268355;7.455737398;13.59428624;4.828475211;-14.16193745;4.604694473;1.963419715;-2.306828662
-7.613427544;-2.267028043;-3.963361073;-4.804040894;5.414046881;0.093753209;-16.18747268;-11.98;-7.635543321;-10.45003906;3.293816853;7.929890856;7.435592561;15.39500477;5.595653785;-9.742871255;4.643814225;-5.350814173;-2.314609743
-4.626015588;-9.104173891;-1.71635878;-4.495060463;4.042483641;0.170667573;-18.70223153;-13.52292411;-8.990528271;-18.70361724;-0.157172312;5.340078125;8.995997373;17.97146555;6.627046974;-2.946491765;3.71993731;-15.96314055;-2.320347818
-2.311918427;-7.904156347;-1.551706844;-6.925670881;3.329129954;0.256741785;-18.73529946;-13.55049487;-10.3177833;-20.41107614;-3.619318571;3.721491889;11.39079416;19.89554723;7.207765254;0.177140962;2.777395396;-23.14225912;-2.378947164
-1.560262912;3.408874553;-1.892841566;-10.11821266;3.63441825;0.27049815;-17.06316876;-13.17589929;-11.87795288;-14.92371905;-4.716415117;4.622777953;13.0924185;19.38268835;6.763912119;-2.7923713;2.64681099;-22.43612288;-2.442930687
-2.198939066;19.07575677;-1.28714066;-11.69368458;4.689693433;0.171421796;-15.79130432;-13.52705889;-13.51025002;-6.290563889;-2.585169661;8.495104434;12.96940056;15.51844945;5.289936379;-8.950512654;3.648569562;-15.49759528;-2.439804551
-3.215734272;27.97467309;0.469762187;-10.65828335;5.818372107;-0.002730274;-16.47261593;-15.02600929;-14.48491039;-0.330619989;1.492457973;14.15395794;11.17580212;9.213250449;3.384192689;-12.52228266;5.504993923;-8.832105828;-2.351142634
-3.6398418;20.57180465;1.998308412;-8.009638011;6.437024645;-0.159044891;-18.78777113;-17.21500364;-14.09381907;-0.517356875;4.89829395;19.20607304;9.007702535;3.07264083;1.857962135;-9.427498673;7.521862916;-8.363169197;-2.204900239
-3.350800259;-4.146443331;1.159059646;-5.796166249;6.451980627;-0.21531129;-20.92027778;-19.16912966;-12.48079764;-5.868495132;5.394653098;21.29636296;7.853117782;0.059322466;1.205401024;-0.42150257;8.889866473;-14.40322299;-2.000038147
-3.129579654;-36.73971653;-3.40994115;-5.496175677;6.251026638;-0.155649643;-21.23934512;-20.13070994;-10.84128173;-12.32578092;2.549727684;19.41346712;8.117571589;1.716999791;1.317453025;9.44973982;8.969155522;-21.38436065;-1.673019217
-3.89538028;-62.21776792;-11.08384329;-7.02771203;6.31616218;-0.033576149;-19.76899584;-19.92853639;-10.61077598;-16.25298729;-2.133176261;14.38551817;8.997808052;7.149155317;1.631874977;14.44260656;7.48478145;-22.64776959;-1.179354407
-5.760935219;-68.906426;-19.28297965;-9.059142174;6.790459789;0.074025052;-18.15562961;-18.99029157;-12.22601049;-17.06532449;-6.435557167;8.239479089;9.229203909;13.51565484;1.59098546;11.92682075;4.605884519;-16.1948334;-0.624114387
-7.709216879;-55.46843569;-24.8306998;-10.18139815;7.361846486;0.119417655;-18.20439674;-18.05893956;-14.57970765;-16.93873709;-9.037154577;2.907440204;8.11685659;17.7734704;1.065577962;3.710360663;0.898040382;-6.422342944;-0.280621575
-8.198528913;-31.35420691;-25.77611723;-9.881901095;7.548692316;0.101709643;-20.31341001;-17.84329507;-15.81154009;-18.16266603;-10.28616981;-0.785128166;5.980785827;18.48839964;0.44011399;-5.699033098;-2.840384358;-0.325528632;-0.410315619
-6.25138022;-10.42491057;-22.472911;-8.593580296;7.12360082;0.045242764;-23.18760024;-18.75068303;-14.9089842;-20.70954696;-11.57664461;-3.184181184;3.72217309;16.47875397;0.303211471;-12.18673935;-5.806452306;-1.471704491;-0.996620383
-2.194428454;-2.196424035;-17.22944263;-6.994273563;6.29971599;-0.030559299;-25.04148717;-20.72955793;-12.75372395;-22.27437845;-13.90922167;-5.033136524;2.00127338;13.91041429;0.97289391;-14.09818985;-7.403956107;-7.008241376;-1.640842239
2.500686412;-6.689818886;-12.8442208;-5.35818086;5.53018459;-0.118149753;-25.16626246;-23.2315452;-11.5704645;-20.7117419;-16.8713422;-6.609103588;0.804593847;12.61262075;2.213862016;-12.14411211;-7.372398263;-10.32743886;-1.778009125
6.124412634;-16.11818283;-11.0584783;-3.580498836;5.129983541;-0.204598212;-24.43269531;-25.35304691;-13.06010296;-16.5480616;-18.91573937;-7.503776088;-0.255459245;12.93063126;3.380598458;-7.903058353;-5.821916616;-7.057781771;-1.098680464
7.693338966;-21.64164358;-11.88607818;-1.74370093;5.084664213;-0.257804668;-24.2898522;-26.19350872;-16.73221586;-13.0925996;-18.71652267;-7.151093297;-1.284285868;13.93108151;3.913171748;-2.588080305;-3.202117258;0.877353196;0.154726377
7.315148609;-19.90264025;-14.050347;-0.517902761;5.210715093;-0.240460028;-25.2065003;-25.31069654;-19.96195516;-13.78876603;-16.44338644;-5.521774925;-1.794865248;14.62618462;3.824215893;2.946517682;-0.220887973;6.722173669;1.291661975
5.823475453;-14.58873325;-15.99051534;-0.843441678;5.465660393;-0.144213398;-26.03400443;-22.99133041;-19.93766069;-18.99261141;-13.81415035;-3.277725076;-1.09003418;15.03510645;3.766732348;7.442812235;2.30899204;4.651229149;1.635957117
4.094901422;-12.32867274;-16.67193776;-3.081079659;6.037750502;-0.01002037;-24.9513226;-20.09275989;-16.00412479;-25.06574343;-12.78095488;-1.213666881;1.005167048;16.08312683;4.545669407;9.00811837;3.714765836;-5.127033344;0.994678761
2.590590433;-16.59846481;-15.81158377;-6.424419736;7.065536755;0.091233803;-21.19929207;-17.49960153;-10.38836428;-26.82500189;-13.8704782;0.482239784;3.770981637;18.41952286;6.377079786;6.12058173;3.743249848;-16.29977045;-0.241014685
1.349326195;-24.62641583;-13.68147983;-9.243280364;8.253946699;0.106707773;-16.02826986;-15.57127084;-6.500976512;-21.52810767;-15.5568299;2.398351876;5.988301648;21.28679031;8.478532446;-0.799830984;2.725076216;-21.430394;-1.432251074
0.242707282;-29.64078587;-10.88048028;-10.23265453;8.845649852;0.037394556;-11.90877238;-14.02156852;-6.056654317;-11.16110567;-15.26635938;5.244460499;6.814735012;22.64120112;9.421538963;-8.768637314;1.470866865;-17.71945675;-2.165250615
-0.837546745;-26.43299627;-8.251437084;-9.476749076;8.130399784;-0.070282312;-10.58116253;-12.35191002;-7.439370723;-1.100605262;-11.30724821;8.901935253;6.404368178;20.67;8.124938603;-13.5242955;0.885251643;-8.760527063;-2.458084491
-1.989877268;-15.63870821;-6.784950388;-8.50695268;6.136515107;-0.168250783;-11.6072992;-10.48452335;-6.917502578;3.808348347;-4.247005096;12.0719995;5.742048333;15.53830776;4.803416616;-12.13064994;1.487195661;-1.095753402;-2.560672557
-3.364058403;-3.344152393;-7.290952221;-9.208866397;3.858315764;-0.243553321;-12.73243356;-9.024067947;-1.981263452;2.600574793;3.333843675;12.98398808;5.839748466;9.800784757;1.088303496;-5.053094249;3.129371709;1.188001095;-2.590546656
-5.077854486;3.510166228;-9.906889405;-12.37512866;2.675132713;-0.313425894;-11.81803063;-8.848398777;5.912598446;-1.655016741;8.524437568;10.7255064;6.978907775;6.88315036;-0.919702967;3.952817149;5.106201952;-0.822134391;-2.390260401
-7.007700746;2.145982861;-13.82629243;-17.00785492;3.319433511;-0.386948924;-8.696873295;-10.30402829;11.77266777;-4.793455726;9.919850315;6.151767351;8.607955838;8.646790758;-0.074919478;10.24285352;6.58354419;-2.789816563;-1.756070471
-8.692411768;-4.51693597;-17.59535732;-20.88747027;5.236945471;-0.437256458;-5.302303141;-12.67625424;10.85512519;-4.926180589;8.268969801;1.570668816;9.907652938;13.93651591;2.963428853;11.33629349;7.062780654;-1.476926397;-0.795933461
-9.545283582;-10.70056039;-19.89851284;-21.94489987;6.952054403;-0.419259209;-3.90308214;-14.44883174;3.051539479;-3.390667887;5.581201496;-0.670734691;10.46959155;19.34492346;6.157882745;8.431642647;6.581511248;2.588342591;-0.013047771
-9.270654347;-12.35765437;-20.30485696;-19.41683343;7.22474934;-0.320143686;-4.977753124;-14.24973184;-5.866505566;-2.697450412;3.538819493;0.300109109;10.49482702;21.67419777;7.537317148;5.295726848;5.559867706;6.279137524;0.043975052
-8.123889033;-9.743080806;-19.41215718;-14.04942291;6.058644225;-0.190399868;-6.663244345;-11.79724217;-7.865872682;-3.598124824;2.499598191;3.36677341;10.40911821;20.17721345;6.575731011;5.35099535;4.457753466;7.283271108;-0.71199252
-6.731785026;-6.21106878;-18.28201471;-7.429880369;4.675762675;-0.114666237;-6.376271002;-8.113799545;0.937812223;-4.117629441;1.750642852;6.252877645;10.33083231;16.82082826;4.437395783;9.0784228;3.512666981;6.207164576;-1.723817659
-5.578717544;-4.753432575;-17.62881782;-1.136328892;4.435322888;-0.138705756;-3.24311727;-4.827951621;15.81807834;-1.503430631;0.579290699;7.041755661;9.921700312;14.44300254;2.918934915;13.58639804;2.715026483;5.390870121;-2.161965246
-4.608579923;-5.496900923;-17.40410893;3.677158776;5.617527603;-0.21816217;0.867532652;-3.094781037;24.88703512;4.731832031;-0.896382781;5.284853432;8.742783167;14.40969117;2.983306403;14.61800376;1.965975756;5.904528066;-1.579428242
-3.336874979;-6.191009246;-17.04749577;6.225752039;7.159555395;-0.244662543;2.787881727;-2.948079401;16.3770534;11.61644634;-1.861593901;2.008908746;6.742102162;15.73463949;4.107672221;9.566579148;1.237901642;6.080212679;-0.288948317
-1.413783113;-4.876928202;-16.09320841;6.00634942;7.614094701;-0.137389975;0.844921009;-3.524296263;-12.83187474;14.71113313;-1.69592748;-1.190111695;4.391635718;16.29871996;4.951797544;-0.558924103;0.608077925;3.361902962;0.882620712
0.872106814;-2.027874383;-14.55419469;3.022194602;6.492005091;0.077001771;-3.46375249;-3.889456045;-53.54056764;11.70259132;-0.732988155;-3.166844243;2.354193085;14.95925413;4.695446274;-11.47964238;0.183791396;-2.258587732;1.259992794
2.664368695;-0.120959426;-12.77949311;-1.851123852;4.758441357;0.272218482;-6.559205834;-3.749734203;-88.58306458;4.439856634;-0.151830111;-3.656768946;1.02187467;12.60273839;3.808359938;-18.00299112;0.030025558;-6.909509025;0.820719246
3.200964562;-1.10752293;-11.01331731;-6.889348172;3.982040879;0.320360896;-5.870078125;-3.49325771;-102.8355556;-2.471712032;-1.071190837;-3.029425897;0.370400866;11.21484689;3.542933032;-16.86867905;0.1710814;-5.584974352;0.097218362
2.512395876;-4.243961773;-9.157108048;-10.23573434;4.873062429;0.199483491;-2.235900134;-3.621124222;-92.34;-5.349940454;-3.636739434;-1.819052925;0.225018868;11.89071337;4.626657894;-8.422806764;0.630068359;3.029525156;-0.398768138
1.495409113;-6.413359034;-6.991018963;-10.95657773;6.560525226;0.015080068;0.672432242;-4.139234206;-66.36143219;-4.140206;-6.887896873;-0.507646059;0.594518196;13.69713857;6.40485448;3.674538061;1.422833818;14.1161984;-0.661254687
1.214774454;-4.750875263;-4.601337107;-9.628255747;7.336761559;-0.087581617;-0.345085129;-4.468642497;-41.0109982;-1.751844502;-9.494421586;0.389301486;1.655963711;14.50529376;7.307125725;14.32422041;2.488203981;19.5012482;-1.110661196
1.991397058;0.771076577;-2.505340137;-7.895149063;6.25130136;-0.045355122;-4.824242174;-3.934810881;-28.92075303;-0.739742452;-10.70481086;0.275451844;3.357361637;13.04817985;6.284359384;19.32079801;3.636645511;13.91614098;-2.035292051
3.087511611;7.158443448;-1.244017197;-7.250553142;4.090934463;0.075176774;-8.591349259;-2.374441058;-32.07767925;-0.577534625;-10.70926609;-1.239362116;5.070191029;10.24836882;3.900584832;17.02460448;4.611371345;-0.421631742;-3.132071739
3.322666484;10.83027157;-0.776196881;-7.974584127;2.769979065;0.147552293;-7.296611733;-0.309185703;-42.41421328;1.706342544;-10.18366215;-3.849154554;5.777001754;8.474759341;1.994048776;8.793292002;5.248107709;-15.0669348;-3.659906064
2.130563114;10.53661478;-0.297781403;-9.07721126;3.599318471;0.108242359;-0.635210164;1.46440959;-49.03100214;7.976035768;-9.514234592;-6.351716154;4.807859795;9.316290628;2.103497865;-1.783159566;5.597107252;-21.75314418;-3.12664894
0.13152329;8.194153114;1.203217159;-9.266026291;5.999637623;0.017147852;6.672170429;2.50300555;-46.30389252;16.01717429;-8.44472669;-7.12183149;2.554949063;11.93347702;4.044504468;-10.4037705;5.872791022;-18.73163942;-1.866209949
-1.323005563;6.957891479;4.02257671;-8.090544849;7.91136902;-0.003212941;8.573149097;3.020655622;-36.98735688;20.52540158;-6.446189714;-5.096907503;0.471730177;13.63660524;5.984069973;-13.75645403;6.24577248;-11.71716893;-0.893605869
-1.275377157;8.335429029;7.237876338;-6.276325961;7.632737877;0.105677318;3.304544313;3.627941621;-28.65841928;17.88469448;-3.415596046;-0.60134334;0.190233612;12.32157015;6.048669072;-10.81641917;6.65432693;-8.669526308;-1.07481207
0.029990536;10.98614169;9.160235442;-4.988050764;5.446549869;0.26770625;-4.054458915;4.757538423;-26.99912846;10.60700394;-0.006247261;4.662568984;2.352017945;8.586416232;4.062523496;-3.238338398;6.818200308;-12.9393543;-2.328793966
1.402531485;12.27177605;8.502196384;-4.711390887;3.483387448;0.331648564;-5.08261372;6.277147426;-31.48007813;6.73364565;2.753453385;8.556068783;6.068416317;5.481865097;1.797187707;5.426694719;6.458218693;-20.66264764;-3.624510867
1.836990878;11.06717191;5.396476351;-4.769487645;3.829798323;0.21305194;4.485392163;7.599696543;-36.57511471;13.41143449;4.227751043;9.770632468;9.477533367;5.925459855;1.406893257;11.48281536;5.521365848;-24.48637342;-3.845005707
1.515937928;9.133481086;1.467734571;-3.901005526;6.548250145;-0.012781377;19.29408731;8.164420308;-36.92576169;29.28813596;4.64075554;8.546450117;10.99477057;10.0079625;3.409558152;13.02155395;4.190019531;-20.13689757;-2.771782475
1.736910554;9.630995438;-1.120921879;-1.362618184;9.47040388;-0.160810071;26.20456976;7.870139838;-31.81363837;42.52;4.827783094;6.364772979;10.2978233;14.68668105;6.089055835;10.93784311;2.659866682;-9.978858302;-1.276696487
3.746203314;13.99534218;-0.956718275;2.439359023;10.07503085;-0.093796331;13.24262305;7.124380621;-25.27250986;37.55639695;5.501310072;4.883212039;8.326834617;16.31673023;6.975971104;8.269694524;0.917730023;-0.617553255;-0.505484129
7.463183232;20.04061125;1.880206821;6.322224904;7.815580049;0.152133348;-20.57573137;6.517019896;-22.13208113;6.805668551;6.685897295;4.900140261;6.405701973;13.87445284;5.144246391;8.076142498;-1.21545528;2.951382034;-0.788371001
11.24971783;23.2522316;6.013620084;9.298209241;4.732984768;0.391752207;-62.33814366;6.413932213;-23.73919643;-41.52923729;7.798295842;6.044023814;5.281722881;9.957360911;2.203842086;11.13518237;-3.758627347;1.158868003;-1.318758899
13.02197806;20.48534186;9.605749674;11.20426567;3.670856181;0.449026309;-92.36509534;6.767874121;-27.1381639;-86.32153682;8.248139847;7.297367729;4.850087891;8.526251235;0.9566905;15.09948552;-6.258944778;-1.666275807;-0.958037499
11.83622453;13.04119321;11.20924531;12.42966598;5.634493741;0.308608764;-96.86805737;7.213492197;-28.2287428;-106.2601625;7.973275179;7.860959026;4.644694351;11.29901665;2.822690818;15.93772219;-7.857686941;-2.278764371;0.557519184
8.630412453;6.337225528;10.23661369;13.10567067;8.745723872;0.121679654;-77.05211706;7.294997844;-25.82791902;-93.82022431;7.421225759;7.687380951;4.486912944;16.0476976;6.387077681;10.88911195;-7.799026781;-1.786050433;2.189686625
5.489559111;6.019953948;7.059509771;12.68856197;9.890383628;0.059870101;-47.90285719;6.652432358;-22.82526745;-60.2617957;7.0364497;7.342756161;4.619193398;18.46156488;8.530600721;0.872603578;-6.020251034;-3.84436709;2.466931247
4.047092637;13.28752404;2.907252952;10.49252116;7.664108785;0.153917456;-27.55456633;5.126766861;-23.35;-27.77026153;6.785930166;7.391204808;5.238072599;16.03181487;7.26597975;-9.595904665;-3.307149288;-9.608108444;0.926901797
4.354089641;23.02914638;-0.435959378;6.73379579;3.881944594;0.271203763;-25.19111413;2.847803057;-28.57627316;-14.39198171;6.206448536;7.827977714;5.993037692;10.46900252;3.720217462;-15.25465269;-0.810189234;-14.80727741;-1.240225794
5.113073606;26.45843553;-1.281372222;2.996547986;2.087034705;0.256251556;-36.30560277;0.321149869;-35.11694989;-22.76284515;4.937021508;8.006224824;6.084939499;6.347548973;1.311444057;-13.84592808;0.734057923;-12.61490067;-2.090715685
4.973353072;16.69333525;1.03958627;1.426708416;4.248003181;0.099210933;-48.18624273;-1.59393107;-37.66202616;-40.53652452;3.209631117;7.11413624;4.996920344;7.048847738;2.669811348;-7.934494348;1.433587355;-0.339059614;-0.68545059
3.689866031;-6.382393852;5.511520824;3.132012637;8.67211988;-0.037529036;-50.55190203;-1.943644671;-33.62736319;-51.33972005;1.78736599;4.857875712;3.19481819;11.62986629;7.03154312;-3.149248151;1.942695654;16.29074488;1.894072535
2.146372306;-35.19484252;9.729697844;7.146823228;11.257228;0.026505729;-42.71342412;-0.138881118;-25.61923277;-47.22902411;1.360686191;1.853285365;2.040268251;15.56523875;10.61574712;-3.876754638;2.690201726;26.03305507;3.340823353
1.331967434;-58.16075324;11.30991295;11.00842402;9.19503306;0.295633382;-32.14824185;3.640990489;-19.34248424;-33.14354172;1.952046144;-0.593791791;2.818924098;14.8587046;9.893790722;-9.612533797;3.342902329;20.72587744;2.175319252
1.324288289;-65.81160509;9.601470635;12.63880043;3.810136331;0.559053551;-26.74912941;8.402523301;-18.6550749;-20.8382942;2.913158196;-1.247331158;5.62629906;9.855760237;4.935087654;-14.99871314;3.041323334;2.466324503;-0.763049953
1.280744845;-55.85344555;6.351104042;11.99501562;-0.266118451;0.567330746;-27.97024926;12.7390684;-22.15720097;-18.31233614;3.565734648;0.206531133;9.085540196;5.173508332;-0.294069601;-13.88928356;1.251671552;-17.21139061;-2.867471559
0.42714258;-34.39083423;4.537871957;11.01036336;0.840639968;0.275044931;-30.63519726;15.44727305;-24.48716961;-23.83258657;3.912621799;2.791558101;11.22580609;5.597301512;-1.214086024;-4.502452861;-1.531662463;-26.11089363;-2.051994995
-0.973962167;-12.70216263;6.036244332;11.77219838;6.496403905;-0.084149062;-28.88316384;15.97852674;-21.32225411;-29.05370466;4.721609373;4.697395536;10.86070693;11.56365361;3.257457542;8.499303289;-3.940387736;-20.95067073;1.21234166
-1.715007029;-1.293890897;9.91464751;14.48251296;11.71652373;-0.186865304;-22.29114684;14.49703195;-13.63378691;-27.67;6.813206653;4.381166608;8.354061291;18.4523009;9.503567872;17.05723452;-4.714438994;-9.508452124;4.072734186
-0.811295745;-4.378855089;12.91645193;17.06608663;11.471497;0.077935053;-16.3723101;11.6285933;-7.210626149;-21.48132871;10.1199381;1.639160736;5.172498528;20.58999836;12.2291949;15.89657983;-3.697866691;-3.367574147;3.750690282
1.354714137;-17.79879216;11.9871478;16.92582983;5.470277959;0.475635165;-17.08858353;8.170208889;-7.613982623;-18.46031255;13.36378864;-2.131720261;2.664279395;16.48795118;9.197933831;7.015674707;-1.937588404;-7.587512808;0.195572699
3.118153189;-31.70471893;6.906429798;13.40610286;-1.072736107;0.613902478;-24.69015606;4.936347922;-14.95562144;-24.79051824;14.73506642;-4.7995285;1.144002776;10.43552227;3.401858573;-1.436527433;-0.726588718;-16.48219374;-3.558381685
2.952908971;-36.66629776;0.764909676;8.739054142;-1.840984921;0.31086938;-32.89425629;2.674602227;-23.33296719;-38.30850953;13.11835;-5.003318578;0.025947285;8.678033788;0.466770975;-1.530053711;-0.410947122;-19.31139991;-3.926037595
1.001897094;-29.63521481;-2.332782373;6.430515924;4.629945176;-0.191734574;-34.46072409;1.874871516;-25.78212856;-49.53782259;8.915635379;-3.235826054;-1.252598;13.4231815;3.394341747;7.630648839;-0.082249633;-10.69399201;-0.125949188
-0.794902574;-15.86703597;-0.593233719;8.280538903;12.93215637;-0.4015324;-28.12411531;2.4615214;-20.58561923;-49.67082526;3.803785051;-1.603820673;-2.509813915;20.26719831;9.419405745;18.33147291;1.455807618;3.921657819;4.724022026
-0.322607527;-5.193953038;3.911390158;12.58890086;15.09010698;-0.024855277;-20.2722638;3.627005034;-13.21981818;-38.50679632;-0.394031227;-2.28610152;-3.06045002;21.87091475;12.17616346;19.81913617;4.248827664;13.03298655;6.079050628
2.642605888;-4.868780073;6.933384151;15.27267042;7.893229264;0.699973266;-19.37411739;4.111169748;-11.79788777;-25.15763799;-2.849210324;-5.761909944;-2.689093238;15.0005448;7.629948172;7.157251263;6.659136123;9.899394751;2.116553314
5.846196128;-13.99569836;5.709571169;13.18267635;-3.295957669;1.126984431;-27.93554789;2.911415187;-19.66226768;-20.57173119;-4.036152754;-10.217159;-2.317397575;4.492371692;-1.515113847;-13.63981413;6.455071195;-0.792331987;-4.135373948
6.234645143;-23.94110077;1.469372718;6.896584083;-8.334726627;0.744814625;-39.47715673;-0.03513737;-31.69830418;-28.19341454;-5.069281141;-12.7572832;-3.51864807;-0.128603712;-7.375492209;-28.86301637;2.796008421;-7.22;-6.964935034
2.661207657;-24.95339369;-1.549473869;0.501837495;-1.202041822;-0.30279749;-43.8831476;-3.78230946;-38.11719332;-40.95049642;-6.698973696;-11.64727979;-7.120058594;6.820148293;-3.735692277;-27.00959786;-2.595537217;-2.315108697;-3.004761888
-2.758220019;-14.28943857;0.025171542;-1.680989907;13.56816638;-1.208800588;-36.84588382;-7.089857119;-32.99866158;-47.44192171;-8.790862208;-7.852683785;-12.1277951;20.88829835;7.58675418;-8.000779571;-6.334047879;7.904579481;5.162576137
-6.099673282;0.634844816;5.205100574;1.174999177;23.27526304;-1.106091944;-24.84383415;-9.417167329;-20.30883879;-42.16744513;-10.61434962;-4.525099327;-16.11844407;29.78734631;16.97409547;15.73013876;-5.932578678;8.499356394;10.38842127
-4.98331773;7.250634754;8.782486846;5.416278924;17.44933665;0.155594222;-20.37450869;-11.34563845;-11.65569568;-30.87722675;-11.55334562;-4.618115144;-17.01648784;23.5602444;14.69262014;27.84119015;-2.062180264;-9.88468124;6.842780668
-1.06012789;-2.163908036;5.444202947;5.721147818;-1.90657354;1.718016972;-30.64755361;-13.96103414;-16.83159244;-26.05054749;-11.5530104;-8.384035798;-14.84803051;4.577550145;0.159341057;20.35270359;1.496333578;-38.7446856;-4.226596846
0.738555608;-23.15838505;-5.304050457;-0.403596758;-19.40471278;2.238804681;-49.35384603;-17.6095797;-34.66;-35.95604997;-10.9520396;-12.78969919;-11.87069546;-11.72795291;-15.3680365;0.243888601;0.521600893;-54.16729016;-14.03264985
-3.974573953;-40.82438548;-17.63037353;-10.12236211;-16.93998673;0.90903506;-59.49495744;-21.09392857;-52.14429509;-56.51778434;-9.964888472;-13.5332306;-10.74207805;-7.573864906;-16.1531569;-15.1068572;-6.212368061;-34.705226;-12.32590898
-14.99601;-40.22339102;-23.00816884;-17.00027527;11.49537193;-1.811374119;-46.33167749;-22.16309901;-53.55461887;-73.24480988;-8.39014505;-8.307495959;-12.11691176;22.47687297;5.425207173;-10.74320108;-15.44111382;18.64814041;4.216293423
-26.65412624;-18.09020474;-16.51552873;-15.81580435;52.67619546;-4.365890853;-10.53708713;-19.13367076;-32.85498835;-72.22554586;-5.859239386;1.15186299;-13.74416852;64.63225856;40.94853109;14.20021173;-21.26567403;77.66451539;27.97897719
-31.23309781;13.3518417;-0.903516821;-6.735908958;81.41880711;-5.130058594;29.58029921;-12.44935013;0.396279057;-51.48844202;-2.377919214;9.911156781;-12.05341199;93.4117167;69.82233395;44.8901389;-19.21758407;103.8058774;44.56851678
-24.43660382;34.09863528;14.97201427;4.488892687;77.90523397;-3.563016718;49.77325112;-4.846368831;26.84494715;-23.39633839;1.4019308;13.09594847;-5.159069427;89.09816426;73.08708303;60.80051941;-9.576609799;75.85787976;42.65699192
-8.823647715;30.40332687;22.38834892;10.56924864;42.34939066;-0.61453846;37.24684385;0.227511282;30.88597375;-5.835464427;4.506762752;9.210820513;5.120278318;52.31284542;47.19613093;50.1898852;2.591756235;7.290188437;22.3142127
7.514295258;4.747113942;18.94378125;7.898481146;-4.339452963;1.933790612;0.433503913;0.905909026;11.75971206;-8.99382961;6.32210292;1.082290986;14.02907879;4.431491886;7.1938937;18.51090079;10.79680906;-61.0731225;-4.59272432
16.22708026;-25.8816563;9.937880964;-1.00862686;-34.83387372;2.706353156;-36.6621287;-1.794299095;-16.23936367;-28.0788568;7.026958373;-6.220652854;17.06899969;-26.92639689;-23.47436999;-15.29616411;11.44269407;-88.8068097;-22.46975211
14.12734556;-42.19319974;3.960112519;-9.603073602;-34.12849142;1.628401249;-51.46086597;-4.707859811;-34.45438504;-47.52241409;7.371494115;-8.860843598;13.25828894;-26.71126917;-29.08662754;-31.75149796;5.968902829;-63.69356825;-22.62379984
4.859393742;-36.06536573;6.250724522;-12.15419797;-8.87523821;-0.162328896;-38.27075652;-4.8116665;-33.11498733;-53.06603968;7.972408791;-6.510570388;5.918489465;-1.682341336;-11.73458598;-23.57745866;-0.632830716;-8.805429594;-8.61370447
-4.216529136;-15.21957682;15.04027517;-7.616124137;19.20984548;-1.260609752;-10.71991877;-1.386381412;-17.14856519;-42.09084441;8.747280415;-1.909281314;0.314052385;26.33206586;11.8293239;0.613371774;-3.62798535;36.03474905;7.382022608
-7.392145942;3.951982486;23.53007813;0.235535682;30.16499969;-1.029280598;9.971667299;3.546359921;-0.748331444;-24.39693135;9.003172162;1.642089131;-0.088023729;37.3184683;23.56059792;23.52924931;-1.736022447;43.68097915;14.00367793
-4.202341401;9.265245814;25.60220895;6.10462207;19.68783034;0.055795918;11.11310596;6.783437849;4.259135818;-13.54790923;8.118299416;2.686984722;4.091357261;26.94444504;17.10550319;31.30805645;2.546684297;17.4734627;8.582320605
1.163711597;1.135946953;20.50763228;7.075382509;0.014480528;0.941048885;-3.470478638;6.261578484;-3.175159598;-16.24331174;6.218950071;2.089157085;8.968718991;7.383536876;0.747756095;21.68588357;5.408662035;-15.11294555;-2.252013343
3.716361648;-9.558081331;12.90412987;4.165644051;-11.66142154;0.90309388;-18.883434;2.40064875;-14.23876737;-28.11686762;4.238567972;1.528237984;10.56769436;-4.243031053;-10.95537365;3.224681959;4.786714321;-26.2519192;-8.952913653
1.526570179;-11.49103632;8.598762885;0.755962363;-7.119497634;0.078357917;-22.40704705;-2.417508139;-18.72584783;-38.55463993;3.272624857;1.621195232;7.810103497;0.289892199;-9.296630795;-12.39537739;1.62424966;-9.285686935;-6.81529349
-3.300583542;-2.100795087;9.78912046;-0.388404058;7.653409636;-0.762656576;-13.27096664;-5.650633296;-13.47334218;-39.74353068;3.752606939;1.424036602;3.094311494;15.11843387;2.511013369;-18.40585259;-1.407257086;18.4355426;1.046111408
-6.887146566;11.30504928;13.70344365;1.013461678;19.1109385;-0.92944938;-1.516111151;-6.203124815;-3.979339797;-32.28737195;5.124275828;-0.327609084;0.228287387;26.84774604;13.45206828;-15.63543266;-2.369442461;31.8511746;7.289711933
-6.888973761;18.64032351;15.43464877;3.201890599;18.10277126;-0.37634675;1.928697145;-4.708265725;1.343371246;-23.32102386;6.293508267;-3.523636929;1.520954493;26.33964568;14.63298275;-9.212244532;-1.554261645;18.98532573;6.89327234
-4.123205357;15.67978065;12.23623517;4.273007025;6.912544628;0.33436039;-5.190760171;-2.543562177;-1.298709439;-19.60630945;6.46818751;-6.23939182;6.300359748;15.66786034;6.362813102;-3.293603901;-0.897150921;-10.62040427;1.020848516
-1.465766206;6.897187292;5.57316479;3.663899819;-3.885002165;0.579313822;-15.27478738;-0.620696166;-8.285077934;-21.9388241;5.719547276;-6.109384512;11.78327661;5.095550754;-3.128840065;1.489910482;-2.031789539;-35.25930255;-4.673168656
-1.27075416;0.672212758;-0.564373489;2.102333825;-5.154839748;0.21811261;-18.35037591;1.016064352;-12.44977341;-25.38624788;4.851589196;-2.392700292;15.3020287;3.600498458;-5.456894987;6.431250367;-4.783595867;-38.89311349;-5.315440679
-3.575037871;1.683791287;-3.27939123;0.474854058;3.21771557;-0.331930259;-11.0981037;2.629363195;-9.693661504;-24.4560511;4.747595819;3.098440712;15.99216174;11.4631393;0.775419872;11.45738904;-7.369740808;-22.38694985;-0.882136602
-6.408984858;7.324756674;-3.027757908;-1.041565929;13.07727104;-0.51631901;0.496937861;4.01045647;-2.387880071;-18.17270946;5.753107465;7.126813569;14.7730619;20.91624367;9.425199992;13.8156955;-8.015390353;-0.120552787;4.26363142
-7.646013943;10.92109388;-2.699325551;-2.755739519;15.7211735;-0.154750772;6.768570697;4.345857762;3.152048216;-10.63034589;7.548984804;7.391056666;13.0228671;23.54638095;12.75781396;10.15316102;-6.50130473;13.2215021;5.556614313
-6.658636814;8.33170682;-4.639621937;-4.581403913;9.433821921;0.412581705;2.898214027;2.887715702;2.494938369;-6.962362135;9.508204363;4.226137084;11.34900722;17.5554975;8.282366821;0.03849795;-4.311664511;13.50696856;2.215490498
-4.476583596;1.730192077;-8.462093414;-5.633324819;0.394454712;0.65192924;-7.212342018;-0.235476466;-3.102204319;-8.716819823;11.14651815;0.276678626;9.505827644;8.707111761;0.53128287;-12.43914096;-3.328420981;7.17972189;-2.401040207
-2.593429675;-2.700019531;-11.57475882;-4.893698578;-3.309426747;0.32302851;-14.81289321;-3.89370647;-8.128753021;-12.82470738;12.2882623;-1.559213874;7.276162052;4.692652817;-3.383252082;-20.69784845;-4.258416291;2.414563157;-4.089205924
-1.676745317;-0.706845702;-11.75232047;-2.344470664;1.12833602;-0.311118092;-14.12053469;-6.704678144;-7.919238828;-14.80748446;12.90901312;-0.236254714;5.217443679;8.318008037;-0.155467545;-19.90019787;-6.132036574;0.844066874;-1.584903111
-1.30037554;6.120595871;-9.25012398;0.654991316;9.168895946;-0.724318762;-7.07259537;-8.017875197;-2.720616466;-12.9962567;12.93109286;2.914276304;4.395008741;15.49413026;7.058141513;-10.1632325;-7.22186303;-2.46715961;2.530087891
-0.724252736;12.03201103;-6.502670215;2.328973512;13.43299865;-0.587705046;-1.067627215;-8.254651889;2.790416924;-9.817571902;12.24123314;5.499934722;5.308948579;19.39261497;11.7828965;3.577066107;-6.514621737;-11.72294366;4.410344619
0.207313499;12.62727935;-5.772763506;2.048059094;10.39306505;-0.040178179;-2.070282748;-8.306165952;3.859762717;-9.109279081;10.90880253;5.987902163;7.098606399;16.66897301;10.07005859;14.69423482;-4.473116783;-23.76666171;2.502320019
0.94826861;8.909984171;-7.020601879;1.035017894;3.237673189;0.455258528;-9.370039063;-8.561138301;-0.168318121;-12.15181097;9.321787498;4.641201557;7.930696677;10.15570855;3.783640174;18.55445351;-2.519805113;-29.21461707;-1.161541196
0.939567015;6.084056756;-8.005623747;1.407738762;-1.375451055;0.521570776;-16.50394117;-8.491155419;-5.519508217;-16.21686661;8.002411188;2.87257029;6.391755504;5.916185125;-1.380131313;14.38158906;-1.787445885;-20.73580699;-2.974338863
0.316737405;8.330601023;-6.508220676;4.262189565;0.555588148;0.174209902;-17.2293264;-7.221576676;-7.583341049;-17.01872282;7.183742704;1.810906998;2.715818214;7.644888949;-1.094219423;4.716683029;-2.240655274;-0.75816063;-1.107234781
-0.128589071;14.62364424;-2.566589881;8.484739789;6.963376106;-0.232498132;-11.07352998;-4.599270716;-5.052063723;-12.80622942;6.5134999;1.442281525;-1.281248314;13.53277198;3.911422863;-6.387083824;-2.8530885;18.95302808;2.874505481
0.287457079;19.65025019;1.390515085;11.46796119;11.88915062;-0.345012705;-3.629351519;-1.761861682;-0.927982614;-6.305855596;5.209620527;1.00626021;-3.608292197;18.20696135;8.805583089;-14.99230185;-2.573039235;26.11311006;5.520885207
1.421321168;19.01258851;2.676585718;11.25486628;11.01620642;-0.117304701;-1.585160346;-0.590539557;0.320065918;-2.667054127;2.630946333;0.102270395;-3.708890045;17.70558229;9.138928956;-18.2276293;-1.183272743;17.6949759;4.658332188
2.373600884;13.71251213;0.7994987;8.298705477;5.451828486;0.182628988;-7.043612763;-2.38110841;-3.251836336;-5.162792772;-1.145883723;-0.666951514;-2.903681186;12.89418889;4.721398286;-14.94215852;0.641719611;2.152828831;1.298773762
2.332174728;9.459243714;-2.025331642;5.242749147;0.462549266;0.248524402;-16.03067354;-6.772865512;-9.471372539;-12.40166419;-5.20236669;-0.178621163;-3.247276088;8.398500542;-0.456775114;-6.313264271;2.012278997;-7.860126465;-1.380108313
1.401287844;11.21788717;-2.793560924;4.790227224;0.530284788;0.024401508;-22.17425681;-11.81719957;-14.08384829;-19.45652221;-8.236943618;2.059148489;-5.722371555;8.284178031;-1.940327216;4.130614502;2.55163886;-5.930039063;-0.971452183
0.607557079;18.11033682;-0.337675158;7.427488047;5.328219163;-0.25823946;-22.02509332;-15.17493092;-14.39167948;-21.87748817;-9.298234292;5.21643024;-9.275762321;12.52054456;1.321349174;11.8519983;2.546310404;3.511117633;2.009690265
1.026918677;23.76801886;3.703690745;10.97510361;10.19537321;-0.31471567;-17.37099318;-15.55360962;-11.23875742;-19.11383223;-8.292733595;7.632787124;-11.52303388;17.3080041;6.334927162;13.83083553;2.487752806;10.09739696;4.673341581
2.803868806;22.26687971;6.42276316;12.42417713;10.50812082;-0.082674145;-12.90218329;-13.35118725;-7.801111901;-14.52370292;-5.958979739;8.117662747;-10.57929002;18.70706781;8.970854562;10.68528659;2.526597116;7.223457296;4.430576289
4.959573331;14.30034847;6.264791252;10.54287533;5.872533866;0.220331472;-11.77685341;-10.14031405;-6.586248587;-12.20663978;-3.392339155;6.919174565;-6.556585261;16.09506662;7.592956597;6.473546668;2.375456266;-2.246380002;1.333483051
6.183907043;7.467055885;4.360039063;7.023979873;0.374361406;0.305816513;-13.22014555;-7.514650865;-7.483903347;-13.57729972;-1.475560565;5.490733439;-1.551628025;12.36328445;4.158785684;5.775842306;1.712600166;-9.189198713;-2.014521193
5.919424062;9.580816046;3.405609075;5.143154939;-1.202502513;0.089313834;-14.05427593;-6.199207436;-8.467618269;-16.59262018;-0.542910499;5.249781188;1.833563793;10.91506659;2.03463464;9.988494001;0.646157381;-7.160039063;-2.833838101
4.783747932;20.49316493;5.184129609;7.012588775;2.339401159;-0.227349055;-12.29661703;-5.960543598;-7.953484934;-18.01295367;-0.371402476;6.41743412;2.25996251;12.43539138;2.76945747;15.83506468;-0.243564277;1.247272538;-0.640913388
3.974952124;30.03671603;9.017215818;11.73819172;7.67462497;-0.34307083;-9.201255105;-6.141536361;-6.365679336;-16.40176692;-0.385146345;7.946902211;0.382639608;14.44354611;4.849432284;17.65145171;-0.346196306;6.499522837;2.396496937
4.211056847;24.99760491;12.52992658;16.05911157;10.07862793;-0.139987546;-7.847779651;-6.225002679;-5.42429583;-13.12320423;0.077880978;8.572491816;-1.888163491;13.9147227;5.439042835;11.94340733;0.454614563;0.885534907;3.478506752
5.147485599;0.193963736;13.92679628;16.97097938;7.664844354;0.200418909;-9.801937744;-5.997346632;-6.011568767;-10.6351527;1.508187148;8.021330612;-2.880251563;10.38254808;3.29529323;0.58105735;1.653219774;-13.90535793;1.694450874
5.755043403;-35.45962723;13.57931366;14.16615893;2.908152868;0.356624763;-13.20867931;-5.376764498;-6.886480909;-9.908810524;4.003203478;7.306235229;-2.214029595;6.559009332;0.039218115;-10.20003906;2.502315475;-27.2845332;-1.219136612
5.266638204;-63.60834526;13.40284646;10.27230594;0.212224969;0.15895706;-14.25643175;-4.274791446;-5.662101214;-9.503522153;7.157521491;7.851745083;-0.724469173;5.890649657;-1.379172313;-14.48079243;2.562704536;-28.17942596;-2.507172046
3.815760318;-68.98836848;14.6256211;8.698888298;1.875872911;-0.249721243;-10.69485951;-2.711406514;-1.195915689;-7.140371705;10.18401101;10.23580529;0.475048187;9.334595149;0.487731337;-11.33196629;1.960254301;-14.26726439;-0.886531815
2.217578374;-50.34212027;16.1344054;10.86528067;6.152408679;-0.530350438;-4.098890542;-1.01774178;4.92439366;-2.207250703;12.29244767;13.6436585;0.900685432;14.33983751;4.154074119;-5.550268475;1.180778851;5.824991009;2.346028696
1.154432401;-21.17403886;15.11402729;15.05483591;9.055720998;-0.438876886;1.294703768;0.217865476;9.354932197;3.245553735;13.14059879;16.47803923;0.875066867;16.97060108;6.511580619;-3.647557044;0.646273411;19.21272079;4.528017733
0.561341987;0.247958711;9.566607833;17.76923663;8.112678337;-0.036009877;2.181655779;0.562050647;9.689644062;6.024626197;13.03316227;17.5626176;0.987429931;15.24920885;5.650146378;-8.276249986;0.465263183;18.7137624;4.008989428
-0.216900843;3.775000524;0.455286068;16.429753;4.566369192;0.365536312;-1.024009579;0.183757383;6.472759862;4.471063275;12.66460287;16.91102962;1.439631756;10.74490326;2.570965217;-15.75285385;0.525901293;7.885498916;1.541551564
-1.674427207;-6.760663669;-8.593534767;11.26193226;2.072581578;0.464614179;-4.702766947;-0.137565248;2.685792333;-0.14034094;12.55013135;15.48525639;1.874629578;7.086806994;0.232206088;-18.91337748;0.749075168;-2.6924577;-0.505186649
-3.537452419;-18.64821923;-13.96723488;4.9696215;3.199913823;0.213794667;-5.314064901;0.415890166;1.151944955;-4.736000544;12.58675713;14.2774693;1.776140369;6.84900332;0.840382813;-13.10199396;1.187291839;-4.371950802;-0.317119864
-4.89410001;-21.43845541;-14.88079459;0.62406445;7.016768756;-0.163487279;-2.439439691;1.955376116;2.200206794;-7.049139564;12.13943655;13.58288321;1.017383027;9.607099421;3.887191834;-0.35699001;1.855358184;2.946594167;1.798802569
-4.950155963;-14.77062472;-13.84891812;-0.466602326;9.967782047;-0.380128046;1.123431876;3.621479463;3.677598967;-7.326988759;10.63543497;13.0448385;0.054327988;12.74852783;6.6964428;11.79805782;2.492220401;11.67521959;3.81703916
-3.709381868;-6.976086296;-14.33104328;0.691553645;9.175906226;-0.323677585;2.167975063;4.118636883;3.224272239;-7.658291128;8.194028129;12.27589336;-0.386131467;14.05936886;6.915510024;16.13618457;2.556668476;13.53136639;3.908786941
-1.951706994;-6.593523399;-17.55788029;2.008617325;5.100515243;-0.120239542;0.109417458;2.697465296;0.648505742;-9.662822225;5.727747296;11.34619071;0.159683465;13.59684204;4.630333533;11.41838716;1.544552128;6.434486383;2.08165672
-0.544330389;-14.6281213;-21.32088812;2.133958248;1.126957306;0.013079084;-2.545085647;-0.187838165;-1.820644991;-12.77163284;4.352193473;10.64427252;1.559241263;13.20957516;2.192413546;3.301649432;-0.60904469;-4.282059098;0.083987585
0.259218635;-24.11075293;-21.83097688;1.397254424;0.506009473;-0.024991678;-2.627299655;-3.101636365;-1.62391455;-14.72026696;4.528743606;10.30461173;3.160584798;14.37472327;1.989149425;-0.353927654;-3.393000043;-10.76512412;-0.259147802
0.882438443;-26.77249043;-17.07322985;1.292422167;3.465169998;-0.145627909;0.699976258;-4.584775855;1.664584054;-13.77215573;5.636069101;9.862064271;4.160140244;16.56824418;4.258553471;4.005052736;-5.984548484;-9.050816782;1.295570048
1.823051986;-20.51720109;-8.753431663;3.134780296;7.10103961;-0.183656633;5.175993882;-4.113402001;5.813299638;-10.55609437;6.359603695;8.572909474;3.987062075;17.75815925;6.942158968;12.60122733;-7.706034589;-1.665069252;3.257294937
3.000225423;-11.07434919;-1.129637348;7.033423824;8.084805462;-0.076319466;7.55054937;-2.341070497;7.845917026;-7.751037294;5.63230093;6.152626665;2.516742289;16.48555474;7.639466198;17.26825079;-8.312934188;5.203490587;3.828015341
3.721209167;-6.673562636;2.294385204;11.85706795;5.665297274;0.070221145;6.540383711;-0.505972923;6.617170003;-7.846653015;3.402111848;3.208149131;0.099498855;13.44284003;5.796610544;12.00799808;-7.929150099;6.992884144;2.547419898
3.34107919;-10.75255057;1.41225956;15.99046304;2.247984943;0.089233894;3.877767341;0.457967643;3.673096561;-10.99474469;0.637538371;0.875977638;-2.534225507;10.9533213;3.107084777;-2.064086914;-6.774164473;3.977769359;0.653112941
2.003462727;-19.17852487;-0.694688816;18.17262643;1.095121386;-0.071353931;2.54239367;0.404941551;1.637263716;-14.89657087;-1.396546627;-0.075137563;-4.476078987;10.80443809;1.819063389;-17.24214229;-4.989143834;0.199250506;-0.116200229
0.728219923;-24.18345419;-0.528806006;17.89209996;3.315027721;-0.279679783;3.911128647;-0.217444641;1.686579077;-16.81858287;-1.984502991;0.133649338;-4.968268771;12.51299629;2.598083729;-24.68467101;-2.717266189;-0.3138609;0.88128523
0.687570317;-21.21806814;2.940984131;15.34260943;6.897478892;-0.329187036;6.520058594;-0.919520036;2.522629366;-15.90684173;-1.276385756;0.554476745;-3.793878526;13.7353636;3.967692861;-20.48300386;-0.291452725;3.403845389;2.663447978
2.264230844;-12.5691052;7.709480467;11.24684524;8.621803093;-0.12929841;7.550706834;-1.528256642;1.811003802;-13.7387439;0.06806893;0.46109008;-1.522043349;12.50652313;3.827409361;-7.837992014;1.755765487;9.094855537;3.598406997
4.715548138;-4.765707897;10.78583278;6.718742283;7.029603192;0.199291746;5.560996351;-2.103563363;-1.304931723;-12.69851232;1.465588361;0.102204037;0.62374341;9.216997914;1.577968685;5.834222289;2.968748818;13.40305996;2.916132055
6.749500571;-2.453153758;10.88403177;3.040261427;3.72691733;0.416875408;1.836668057;-2.648278021;-5.073125845;-13.75037798;2.649876375;0.49381484;1.311160624;6.415608738;-1.186082101;14.11692734;3.316601649;14.04941516;1.342164024
7.514103972;-4.409617918;9.32922816;1.196382772;1.863945772;0.365939722;-0.902776999;-3.027384544;-6.572165713;-15.67843491;3.414114671;2.344056687;-0.20774548;6.530393957;-2.104835711;15.02576641;3.259501573;10.50426817;0.311909095
7.143031194;-5.17336324;8.480598099;1.320112308;3.235627416;0.103032314;-1.160276778;-3.220673854;-4.463143442;-16.43348732;3.261980434;5.055007581;-3.681835051;9.574177608;-0.289766149;10.59780681;3.397742445;3.440232947;0.568915579
6.41535925;-0.526559196;9.255295261;2.495404857;6.669626416;-0.15474616;-0.08932188;-3.590679884;-0.468640267;-15.23003906;1.509583211;6.790923764;-8.002368405;12.98600681;2.725490409;3.957744516;3.962753257;-5.766020157;1.499952585
5.8956469;8.34835628;10.1173476;3.247089093;9.139000219;-0.218299998;-0.282877297;-4.739105457;1.926033457;-13.3430798;-2.072084855;5.736564646;-11.80997434;13.83457497;4.247338258;-3.061529452;4.606753196;-14.90198378;1.820485993
5.380185656;15.83899267;8.50354655;2.514535194;8.529738556;-0.081219228;-3.060799136;-6.911193218;0.507641813;-12.81014444;-6.617574685;1.610788489;-14.16983655;11.42813661;2.787718687;-9.833896938;4.72688535;-20.88600546;0.918938646
4.166181899;17.00877601;3.392348641;0.420633106;5.517482883;0.09309781;-6.885642674;-9.439773259;-3.607757078;-14.26851172;-10.25856158;-3.819703596;-14.90906591;7.956010179;-0.60276352;-15.20764661;4.083819742;-20.83902514;-0.46152222
1.873162719;12.08934299;-3.356521896;-1.794520121;2.879333141;0.131691835;-8.52858096;-10.85172357;-6.821244756;-16.03890503;-11.15092041;-7.742874485;-14.4864807;6.544710806;-3.241761792;-16.59016551;3.167612708;-14.06635877;-0.887990174
-0.98582454;6.265853359;-8.188345706;-2.67502504;2.935492393;0.008747023;-6.013389022;-9.775086075;-6.140078125;-15.44940709;-8.800932306;-8.129733274;-13.58618427;8.459022604;-3.143147813;-11.39091589;2.929690883;-3.331819984;0.362258468
-3.262713127;5.026587722;-8.610631853;-1.597502454;5.490621934;-0.142403698;-0.621462299;-6.053571268;-1.798411608;-11.28536794;-4.639442796;-5.02965037;-12.74493299;11.97021972;-0.676883713;0.17852593;4.031330576;6.168501641;2.505447146
-4.066096819;9.372996405;-5.159672857;0.85288354;8.121367611;-0.165922559;3.981109365;-1.156140701;2.928500826;-5.114847722;-1.245487641;-0.400272695;-12.19510834;13.91566012;1.894447835;13.65769709;6.206293036;9.948311873;3.858678141
-3.481356772;15.21743432;-0.898041905;3.431226323;8.469465002;-0.036465931;4.807103011;2.580867604;4.562819919;-0.173857119;-0.651760866;3.305844968;-11.89829531;12.54120901;2.521067843;22.14136774;8.294569748;7.288453082;3.338993943
-2.448710573;17.38367785;1.088747755;5.181858131;6.385925966;0.114872632;2.064473756;3.430141465;2.394534228;1.301912777;-2.947290517;4.658450914;-11.65361437;9.061223349;1.170830338;20.51343108;8.981856884;1.712431747;1.480106138
-1.89574855;14.41141674;0.028630762;5.963772546;3.975014677;0.124146842;-1.161793539;1.394902118;-1.03997067;-0.055907871;-6.247853875;3.78044705;-11.2229457;6.539375943;-0.278853345;9.040618715;7.702767562;-1.695066047;-0.001545328
-1.917582331;9.710513742;-2.309511851;6.169575705;3.567056228;-0.048988703;-1.77771216;-1.881000655;-2.341586182;-1.393886347;-8.092989914;1.705572864;-10.48846098;7.120573006;0.108743812;-6.500809942;5.02116523;-0.113584593;0.259585568
-1.770124672;8.069376625;-3.538045204;6.023124936;5.547765394;-0.277942201;0.520365708;-4.349876037;-0.305112995;-0.279194915;-7.235836774;-0.682142953;-9.619036281;10.12426168;2.489088595;-18.38172243;2.213178643;5.05013921;2.021151562
-0.695858872;10.8716696;-2.902223644;5.221766096;8.050473205;-0.379548043;3.068081114;-4.993322988;3.092883928;2.998100415;-4.494376069;-3.17586343;-9.10991942;12.70883743;5.100147321;-21.56395854;0.402388143;9.551360219;3.608490676
1.187765626;14.59253575;-1.848911376;3.325430375;8.748428858;-0.277316216;2.81231125;-4.375124122;4.591239606;5.553255047;-2.070087891;-5.921597366;-9.547560697;12.47905905;5.919152819;-16.14203442;-0.083834958;9.800333336;3.3963898
2.803400848;14.0953682;-2.486140193;0.525336096;7.037272942;-0.069136308;-0.758866737;-3.967019666;2.626260004;4.421307038;-1.915425371;-8.746519194;-11.14370262;9.662553948;4.54939542;-6.206624913;0.301562354;5.59670389;1.284698763
2.984777315;7.731138213;-5.411902732;-2.019834219;4.570973713;0.060970843;-5.054614421;-4.872851037;-1.319983519;-0.722931073;-4.406628215;-10.90925421;-13.35531564;6.898738599;2.590573733;3.434780925;0.88150739;0.061224975;-1.155318286
1.561121409;-0.566740731;-8.921600992;-2.765575703;3.678316384;0.006109577;-6.700980091;-6.994595108;-4.148227767;-7.046460265;-8.247735666;-11.55862868;-14.97952215;6.859286818;2.169454728;9.897794887;1.328279315;-2.873114387;-2.006759985
-0.344454946;-4.363327578;-10.33520137;-0.931408268;5.163650746;-0.17188892;-4.578344654;-9.239053211;-3.925047566;-10.74429911;-11.51873536;-10.45981746;-14.82159006;9.864719516;4.001120757;12.52461088;1.798071468;-1.202353726;-0.638333863
-1.154870551;-0.400300327;-8.289696378;2.721159863;7.550701587;-0.301757021;-0.757187665;-10.47654079;-1.426385939;-10.07583684;-12.93868089;-8.271871208;-12.5471089;13.6262846;6.757497228;11.48545403;2.602466747;4.19269172;1.78906724
-0.16409162;8.246085928;-4.002778325;6.206550511;8.467329426;-0.255840608;1.51255244;-10.39422947;0.886514194;-6.666289173;-12.3957934;-6.081774734;-9.061959535;15.29451349;8.292654276;6.705905798;3.785145372;10.61187946;3.36091467
1.781185389;14.56753519;-0.427476245;7.579346124;6.87379706;-0.058901521;0.844243921;-9.578560892;1.331522205;-4.015273327;-10.5303058;-4.602076542;-6.022416954;13.92986637;7.571089719;-1.58674759;4.995308579;15.26769131;3.047470195
2.873312469;13.68030967;-0.027585371;6.207989957;4.059407647;0.1403095;-1.081250887;-8.881213083;0.478539006;-4.569810556;-7.956488128;-3.754709689;-4.738627634;11.19048388;5.534765936;-11.42740079;5.729285959;16.28756041;1.497693529
1.773603845;7.220175353;-3.015808932;3.102623415;2.480373565;0.202145423;-1.27028517;-8.71025986;0.259956978;-7.890221377;-4.89903912;-2.999658281;-5.277665684;9.701734678;4.159605018;-18.78067919;5.674941939;12.80743396;0.33671203
-1.27592538;2.034171136;-7.403195486;0.107257545;3.510270589;0.1111173;1.565207739;-8.853664894;1.716290784;-11.37246135;-1.499955891;-2.067933145;-6.497811785;10.67054482;4.622784599;-19.48189761;4.845952005;4.972938625;0.659567721
-4.568345428;4.103670272;-10.6369269;-1.346134995;6.174648144;-0.025628668;5.638477599;-8.882816021;3.734884187;-12.69787958;1.647353716;-1.376328707;-7.035719835;12.92434633;6.281287215;-12.36805007;3.443059039;-5.626861376;2.09526757
-6.177503645;12.9734669;-11.36629667;-0.962487768;8.030153773;-0.084477324;7.722689003;-8.652195991;4.143984725;-11.73003906;3.410200473;-1.691529575;-6.468030017;14.17463824;7.360500248;-0.936839559;1.654375636;-15.69126046;3.245074467
-5.324880577;21.75596223;-9.983061534;0.630702803;7.377959408;-0.032133865;6.259134272;-8.388549058;2.118710395;-10.2260094;2.71784786;-3.309279104;-5.666374221;13.24391753;6.65158757;8.383009635;-0.367807039;-21.1958536;3.03036017
-2.803485099;23.03215679;-7.792713637;2.638129366;4.787571499;0.062266807;2.940132846;-8.326463395;-0.590483291;-9.813665328;-0.583612308;-5.486492824;-5.992603524;11.15473914;4.614681889;10.57560062;-2.35047627;-19.73371875;1.683745646
-0.210779003;15.70575096;-5.816368008;4.630534884;2.554142006;0.109834411;1.167068237;-8.321438947;-1.070319506;-10.26818635;-5.359266253;-6.685072405;-7.965971875;10.0978382;2.89304566;5.800635866;-3.799371718;-12.63444815;0.491517117
1.289288099;6.701880595;-4.314297253;6.459897212;2.608317997;0.091182658;2.78444863;-7.893335093;1.857727905;-9.761968273;-9.682811772;-5.515039487;-10.54842416;11.29474812;2.752845595;-0.570877537;-4.172850173;-4.741413973;0.568042461
1.648750675;5.536081168;-3.225462579;7.839688301;4.795879772;0.064935409;6.238647333;-6.709150217;6.092059905;-6.837289921;-11.89612441;-1.686973118;-11.75271893;13.78482377;3.944602834;-2.04775454;-3.271513983;-1.285769974;1.822032535
1.601921433;15.86263496;-2.789406573;8.196951151;7.076151817;0.092838232;8.050557532;-5.043328407;7.853300331;-2.169619607;-11.48354341;3.71869333;-10.18896214;15.27710504;5.034691767;3.718197175;-1.515379818;-3.889365186;3.065387602
1.751171425;31.01517606;-3.545622564;7.068827052;7.416169487;0.162589575;6.307265056;-3.723473539;5.247260656;1.668166546;-9.183919135;8.818810009;-6.320102304;14.26914278;4.835895366;12.64843633;0.198824295;-8.991014728;3.13812769
1.948812357;37.69409618;-5.680771978;4.679078051;5.621055451;0.190884878;2.779848188;-3.527524561;0.462538066;2.376028116;-6.366850335;11.8860915;-2.339069422;11.45912811;3.535286997;16.979938;1.037399026;-10.4267944;1.987207478
1.497642659;25.51751818;-8.475435829;2.046276032;3.438075614;0.107823962;1.395471505;-4.52348632;-1.795347925;0.104870922;-4.211458214;12.07387446;-0.653814706;9.144312841;2.443593694;11.1918493;0.784943102;-4.490413356;0.700221888
-0.084948774;-4.681063814;-10.57586645;0.362169719;2.884750374;-0.060197189;4.269154949;-5.936760436;1.395838053;-2.413854847;-3.250323036;9.584053016;-2.1186125;9.168628969;2.640212254;-3.349106595;-0.022423218;6.579325128;0.479161021
-2.483503411;-40.22571693;-10.99578147;0.093592204;4.37816679;-0.19574817;9.105588294;-6.687821335;8.020078125;-2.066410849;-3.435349802;5.39323208;-5.416427687;11.31148499;3.858626357;-18.70161902;-0.503888883;15.80868158;1.520778246
-4.718543599;-64.34576063;-9.957540057;0.611307226;6.393209191;-0.188023507;10.86205413;-6.157922696;12.40905677;1.948292338;-4.457144145;0.838559068;-8.115442083;13.57620649;4.719979098;-25.60701701;-0.067193592;16.76612007;2.843411945
-5.86521655;-66.77111137;-8.728521628;0.751225265;6.938051765;-0.036221242;6.647946638;-4.54568628;10.38038277;7.289842325;-5.966126582;-2.767861676;-8.581957815;14.06508993;4.105503164;-19.90099743;1.218360515;8.759377064;3.210773297
-5.716220747;-49.70080585;-8.505412221;-0.116445507;5.452063698;0.139684865;-0.593239767;-2.552116344;3.775198789;10.30849526;-7.596385663;-4.517199027;-7.225772899;12.67633687;2.329453221;-5.35810082;2.763501636;-2.377029172;2.285095564
-4.839696485;-25.32252861;-9.315745228;-1.442201043;3.355106981;0.197292551;-3.627279011;-0.732071062;-0.205753631;9.025289485;-8.962263338;-4.275843472;-6.077915992;11.06633538;0.93286656;9.103853498;3.940645428;-8.722917376;0.937173772
-4.04519442;-7.273916757;-9.954959208;-1.892076359;2.73851607;0.094825851;2.695125785;0.875382993;4.748539256;4.735966139;-9.794311226;-2.852842358;-7.044319669;10.97117275;1.237893305;15.73112411;4.48025128;-6.412355325;0.430303054
-3.769010169;-2.419638404;-9.067263058;-0.49447634;4.409645755;-0.071330129;15.34237192;2.52609316;17.07233066;0.89933054;-10.13732124;-1.684025043;-10.25212072;12.51644193;3.030426106;13.07703728;4.488245131;1.539836738;1.240845222
-3.889837225;-8.336061276;-6.426352118;2.444866278;7.096985748;-0.149730738;23.08425112;4.236046695;26.00733269;0.309219927;-10.35250748;-2.016114869;-13.8319441;14.1291719;4.678354056;6.306451018;4.162215893;8.01258886;2.612148726
-4.037257824;-17.18992938;-3.254688408;5.48702221;8.554293394;-0.064400605;13.8558131;5.524733061;18.35500421;2.986827226;-10.79481961;-4.033857963;-15.32076643;14.12585976;4.654375175;2.69796968;3.54526768;7.771559028;3.25658833
-4.010398224;-22.16430592;-1.261940414;7.18409296;7.562223514;0.12276894;-15.4792324;5.761610044;-11.01830803;6.524714593;-11.38621087;-6.594615116;-13.57103379;12.44274385;3.059228066;5.927988101;2.575549813;1.650355458;2.556674783
-3.889444528;-21.52275911;-1.231488055;7.23593299;5.010797667;0.270850417;-54.71022516;4.831006433;-53.0964062;8.426794451;-11.51535489;-7.904559173;-9.660849211;10.81953409;1.658011308;13.44881719;1.361184894;-4.484955697;1.152648217
-3.787788368;-18.06902972;-2.392016486;6.681112166;3.090537624;0.283408914;-85.46783129;3.45796055;-88.61554022;8.275315811;-10.48768834;-6.756793217;-6.112075841;11.20391797;2.290485799;18.74780712;0.358737159;-4.921721023;0.365974173
-3.568656595;-15.56366431;-3.102611164;6.958155768;3.338095032;0.184161548;-92.96106151;2.783970927;-100.0548797;7.814891267;-8.244729738;-3.432119649;-5.056756381;13.85090262;5.074322193;16.53083472;0.204449848;1.084287637;0.977439131
-2.865684823;-15.54444896;-2.200205898;8.665558354;5.303605863;0.080235103;-75.84758493;3.460825143;-83.2961488;8.993969268;-5.721989552;0.463779129;-6.770875478;16.93469281;8.110958977;6.778322152;1.278270097;8.893123494;2.474269004
-1.406505094;-16.87497195;0.213770407;11.11425219;7.017513694;0.054299768;-46.88990846;5.031267844;-50.32294099;11.86435241;-4.40368777;3.148570586;-9.63148722;18.11676921;9.083986921;-5.327287529;3.359190023;12.58431949;3.459650984
0.696974668;-17.64883492;3.21521038;13.05384321;6.795571573;0.091025044;-23.9010031;6.198479639;-20.86570853;14.3387083;-5.282542634;3.915424311;-11.4025822;16.67703454;7.372856149;-13.34780349;5.688253545;9.84992656;2.867089157
3.008697892;-17.23992428;6.230709271;13.88870272;4.733005474;0.106407342;-17.76790695;5.847318329;-9.164942489;14.07633867;-8.01269856;3.495154671;-10.77515486;14.23066337;4.730058594;-14.25200751;7.419827584;3.479449451;0.897764938
5.135517288;-16.64297452;9.753384864;14.23902001;2.56340763;0.046740764;-26.32146607;3.996544687;-15.53654775;10.78615333;-11.00804778;3.249811737;-8.029644628;13.30299519;3.789127262;-10.25977899;8.112275202;-1.573870882;-1.14707267
7.022318566;-17.11299501;14.84114394;15.28062322;2.064052929;-0.044948354;-38.03035806;1.853293738;-28.47021867;6.798586953;-12.53148073;3.889271056;-4.506547684;15.0030252;5.641910858;-6.643508458;7.882866052;-2.652883127;-1.975141459
8.842661047;-18.65793881;21.80327797;17.42378159;3.486501447;-0.06632309;-41.8874604;0.862961445;-34.81796065;5.270273606;-11.98484834;4.808732537;-1.518070516;17.91422618;8.660217728;-7.387092652;7.149801935;-1.337031398;-1.362511743
10.56305005;-19.8779701;29.31138141;19.56143797;5.415478538;0.034454127;-35.49013491;1.509463446;-29.74638642;7.505589433;-10.35988892;4.626704961;0.363705762;19.26914275;9.726682124;-12.1348788;6.234374407;-1.32240569;-0.245864671
11.6384151;-19.24041834;34.88258579;19.69932723;6.121515356;0.184705322;-25.42667695;2.87909265;-19.01052938;11.72118524;-9.419100959;2.483645419;1.209461777;17.41251545;6.916661764;-16.70894486;5.184782709;-4.473510824;0.184080249
11.24433829;-16.52572415;36.50274655;16.59;5.124305104;0.231462981;-20.59021604;3.403131044;-12.68141527;14.38623187;-10.19679713;-0.99917004;1.172018108;13.35330158;1.316814644;-16.62519679;3.942028425;-8.866441347;-0.462359513
8.964582752;-13.07497581;34.12293181;11.04578315;3.545946441;0.07709347;-24.49424266;2.214567767;-16.18737736;13.07574002;-12.01337347;-3.939792772;0.15583824;9.976188578;-3.670765442;-10.74056027;2.632648601;-10.6622727;-1.509926863
5.362127374;-10.60862789;29.79591144;5.747642931;2.989385683;-0.213442183;-32.81973257;0.008903378;-26.08023319;8.479390516;-12.84979112;-4.468674541;-1.933263427;9.564723435;-5.033684834;-2.159633692;1.658179548;-7.998192713;-1.930918863
1.851670492;-9.68102611;26.30386376;3.534532023;4.030549547;-0.440061035;-37.60532238;-1.340904438;-33.47108851;3.916669531;-10.86973302;-2.069699556;-4.662725822;11.81763993;-2.586273758;4.247090516;1.459074193;-3.157661592;-1.332102142
-0.164948173;-9.145099548;25.33236976;5.404820968;5.721984114;-0.421483929;-34.00779455;-0.176768362;-31.65049307;2.784585698;-5.941563519;2.039252673;-6.905397122;14.1308326;0.950422944;5.684551238;2.158362259;-0.853382056;-0.300499666
-0.283390415;-7.108432516;26.55420501;9.755053532;6.524370441;-0.151014899;-23.90215993;3.600507145;-21.35283084;6.023743041;0.034388817;5.73228932;-7.357922124;13.91734988;2.300009766;3.5587859;3.423532644;-4.071245604;0.17995515
0.596824349;-2.584097928;28.18520408;13.45956912;5.753207824;0.182075947;-13.74773083;8.275521076;-9.632347435;11.56665538;4.286986593;7.320890005;-5.423648973;10.9256501;0.395100442;2.186145474;4.694773661;-11.24383934;-0.33648987
0.946283278;3.532668767;28.39953138;13.9936949;4.184186301;0.332806378;-9.078409375;11.36099668;-3.866341928;16.02758534;4.976602418;6.411769135;-1.746317928;7.509060989;-2.806593417;5.091630504;5.590959337;-17.39506716;-1.351311601
-0.22566662;8.959771647;26.44081315;11.03792182;3.283623364;0.191699554;-10.46059788;11.17359655;-6.18888237;17.119756;2.312717057;3.770940829;2.085361675;6.603735606;-4.113060717;11.82964686;6.13860461;-18.32540418;-1.907214341
-2.611468149;11.60308843;22.71959766;6.451737938;3.82215929;-0.130180607;-13.99859051;7.817054308;-12.74428884;14.90694978;-1.78767926;0.519829123;4.478805565;9.183740083;-1.90244344;17.90596539;6.6321149;-14.13832094;-1.490727931
-4.8434214;10.99569328;18.13143336;2.769642935;5.181589814;-0.392326115;-15.35570727;2.943018375;-17.73539417;11.18339885;-5.15134622;-2.567574103;4.724883851;13.403333;2.489973055;17.99999809;7.275763915;-8.975354799;-0.502709606
-5.523168748;8.552296904;13.38683556;1.42849114;5.983808669;-0.415185638;-13.47465737;-1.425270353;-18.32549395;7.861927761;-6.761758973;-5.162137889;3.203529398;16.13933397;5.952193604;10.10311499;7.958479043;-7.23420223;0.131010523
-4.223315364;6.539208083;8.891966987;1.996801371;5.420224505;-0.212618086;-10.91684929;-4.111156673;-16.24672762;5.8504531;-7.119361221;-7.016572251;0.858490777;15.55824634;6.249599704;-2.604424049;8.38090297;-9.706820267;-0.171027129
-1.708714665;6.598407027;5.025717149;2.793994951;4.017074471;0.03735705;-10.99563563;-5.259561951;-15.2638804;5.134631998;-7.439447959;-7.694951513;-1.53642953;12.49487992;3.825604236;-13.67809085;8.410517796;-13.11841143;-1.113356422
0.712233474;8.883641922;2.264137921;2.237604221;3.124359745;0.148796765;-14.60946229;-5.929756038;-17.28840347;5.532361628;-8.48803808;-6.76802348;-3.716583347;9.53855904;1.243803549;-17.82061296;8.307751614;-13.42514926;-1.814529925
2.114590433;12.28527142;0.876044944;-0.144139441;3.626493129;0.073602157;-19.59903089;-7.280945634;-20.77567417;7.066895195;-10.04574262;-4.304157023;-5.707562301;8.744685136;0.865278795;-14.54951009;8.569563957;-9.773766863;-1.634161574
2.430382302;15.37808682;0.513165451;-3.643516221;5.099187066;-0.081792433;-22.92165253;-9.958102784;-22.61477952;9.535908728;-11.35860787;-1.128500811;-7.413838251;10.02007813;2.856825602;-8.38;9.491413846;-5.395511849;-0.758048767
2.204121917;17.29383574;0.266223677;-7.043879143;6.206447718;-0.169371774;-23.40993266;-13.94625036;-21.44924216;11.90328038;-12.05780462;1.501817894;-8.513055398;11.51710336;5.238919415;-5.341816637;10.82963988;-4.508670518;-0.005457913
1.987169501;17.96199504;-0.657353734;-9.35169893;5.960078125;-0.132520608;-22.57767649;-18.73705341;-19.20521333;12.48729799;-12.65233861;2.622592482;-8.788881226;11.52612571;5.81492597;-8.37678281;11.88765726;-8.022514991;-0.056970215
1.957158263;17.77593878;-2.167857689;-10.08485705;4.655342092;-0.041912232;-22.91501261;-23.51637089;-19.42546442;10.16005859;-14.1153042;2.117849722;-8.539511311;10.0638133;4.173875823;-15.02560844;11.99058882;-12.08226737;-0.834354454
2.031940562;17.16752061;-3.214672782;-9.146662618;3.603193619;-0.012432745;-25.41822088;-27.27375359;-23.99133888;5.627915559;-16.91309618;0.663058822;-8.561130434;8.73799658;1.976150814;-19.15406009;10.97015358;-11.06714513;-1.603194348
2.230369664;16.48477709;-2.6332854;-6.668109908;3.908420218;-0.087048675;-28.65016055;-28.97461759;-31.2316728;1.495485418;-20.35078876;-0.865315436;-9.579870919;9.10843039;1.338765499;-15.51467148;9.263639125;-2.652205433;-1.678672054
2.814690709;16.12694762;-0.278937793;-3.081971712;5.432793067;-0.197381285;-30.07899234;-27.93266952;-37.09510093;0.707382561;-22.87707136;-1.998657876;-11.56030859;11.12832167;2.849738989;-3.859787499;7.558119013;9.470039063;-1.052124732
4.018045411;16.56910784;2.579014333;0.705791541;6.907882503;-0.23398434;-28.3479303;-24.26481395;-38.31749127;4.400642929;-23.1956321;-2.821732308;-13.52961958;13.12198278;5.028416042;10.37276078;6.294767005;17.78645033;-0.348211975
5.630495734;18.03912058;4.082736337;3.412490429;7.090540466;-0.156207847;-24.40129037;-19.07796068;-34.84007813;10.8854954;-21.32589924;-3.621508395;-14.18693703;13.30171611;5.697115959;19.3403161;5.449014678;16.51049529;-0.173506456
6.915866644;20.07019555;3.248462073;3.913822963;5.888854936;-0.036713938;-20.57100199;-14.10923352;-29.52698491;16.69646774;-18.73198561;-4.441827955;-12.89992006;11.41407888;3.994312511;17.79675272;4.73628601;6.022553303;-0.503078774
7.052303462;21.46306925;0.844472957;1.940884415;4.422183757;0.001730678;-18.6034268;-10.92021312;-25.64444843;18.99620439;-17.33424011;-4.980243044;-10.30014881;9.012516758;1.202966845;6.423971022;4.005441692;-7.386613854;-0.712634385
5.785554234;20.96195102;-1.125920872;-1.60578538;3.973843384;-0.100329037;-18.44368148;-10.12777789;-24.39748571;17.47158536;-18.09520078;-4.897775227;-7.944691299;8.124318393;-0.342430724;-8.660318293;3.424251794;-16.18789655;-0.2349301
3.732590485;18.28556021;-0.983768562;-5.07149783;4.81770954;-0.278537967;-18.73436111;-11.19238869;-24.53312105;14.24296622;-20.24296482;-4.216227675;-7.240078125;9.524529179;0.717490645;-19.72819605;3.272647055;-16.86751468;0.80053548
2.027714463;14.6444078;1.293310467;-7.000648331;6.002469748;-0.392107513;-18.35288406;-12.907199;-24.04501779;11.92556202;-21.75925275;-3.420029297;-8.437312573;12.14078301;3.603303161;-21.96014543;3.543105082;-11.67195538;1.597243975
1.553718504;12.08998921;4.082424509;-6.996663607;6.274881496;-0.338117432;-17.4530116;-14.22239644;-22.21404886;11.48078334;-20.83251879;-3.183691166;-10.48482286;14.05253517;6.09406896;-15.78504271;3.749897505;-5.871673372;1.417595452
2.36081952;11.96862329;5.463506337;-5.8873809;5.264535585;-0.134908712;-17.1039422;-14.80811167;-20.14747607;11.61306785;-17.24686747;-3.989976148;-11.86563894;14.12270728;6.429570948;-5.843764786;3.18067309;-3.267737948;0.347535471
3.724388888;13.67617281;4.766657239;-5.086018971;3.821867084;0.093002553;-18.02710893;-14.99460676;-19.53046686;10.12356166;-12.6885949;-5.953761927;-11.76837917;12.80366572;4.736017595;2.354127212;1.43047526;-3.789417046;-0.646933499
4.761579337;14.94023313;3.027230235;-5.612785182;3.203765716;0.210025024;-19.74656146;-15.23587582;-20.94535076;5.986315284;-9.703583723;-8.90318046;-10.67625738;11.49191288;2.774298313;5.717256051;-1.210798387;-4.811088516;-0.4992671
5.080915468;13.73855225;2.013853253;-7.464207959;3.880106369;0.16266701;-20.97604081;-15.60605152;-23.36778853;0.357816479;-9.994475576;-12.49564731;-9.919906796;11.14618702;2.314855915;4.832784024;-3.850306757;-4.418576449;0.992234595
4.955369646;10.45931579;2.721240187;-9.734811321;5.08306213;0.000475069;-20.82111166;-15.76560971;-25.21041428;-4.300607685;-13.22739445;-16.1631754;-10.55866294;11.48961932;3.611591914;2.79860667;-5.514938345;-3.33840432;2.88243175
4.948958206;8.318165121;4.644041679;-11.34119606;5.520670639;-0.176940055;-19.60520978;-15.39883172;-25.80893215;-6.185646037;-17.1849601;-18.97283633;-12.47795817;11.47632121;5.276011487;2.765053597;-5.716097688;-3.821678016;3.783595094
5.384558945;11.12497704;6.414736525;-11.78786547;4.586852884;-0.289507774;-18.53862918;-14.69659638;-25.90761034;-5.514985246;-19.18756173;-19.72506155;-14.40982969;10.47302181;5.564066465;5.869254872;-4.653053403;-6.821027237;2.992978777
6.121212023;19.65531247;7.165999617;-11.427883;2.9389123;-0.306790645;-18.58649988;-14.3993043;-26.73355858;-4.175815345;-17.84044732;-17.48850186;-14.85615414;8.959490296;3.871869026;10.67337402;-2.958855763;-10.43058728;1.086656863
6.776542505;29.45156638;7.353873703;-11.06782934;1.905921676;-0.233056127;-19.63543794;-15.27699311;-28.60818214;-4.026007618;-13.94094052;-12.33764913;-13.20146223;8.069254121;1.149671836;14.14527025;-1.248430846;-11.29467596;-0.537518951
7.117236442;32.36134207;8.290672753;-11.24323784;2.27988198;-0.085835928;-20.71757248;-17.41354103;-30.44876365;-5.321979393;-9.945397518;-5.719678403;-10.17767589;8.443616653;-1.015580378;13.41058263;0.164302724;-7.769111164;-0.78816255
7.226416938;21.53765319;10.80827712;-11.71706897;3.61091451;0.09961767;-21.00154682;-19.87790841;-30.63671243;-6.571248366;-8.360372717;-0.009299836;-7.358019149;9.543190541;-1.726348274;7.321921992;1.217642725;-1.811583995;0.269509017
7.318185394;-3.239653094;14.25344638;-11.59068327;4.652051804;0.252146816;-20.54194897;-21.12042271;-28.44399079;-5.864319412;-10.13242532;2.615684633;-6.088374922;10.11681596;-1.326612405;-2.810373397;1.867338828;2.381096159;1.53924475
7.429759165;-33.89854555;16.72647224;-9.986047511;4.527445702;0.27516541;-20.07094015;-19.90049558;-24.7169802;-2.523737776;-14.09181731;1.289980092;-6.648480479;9.402349061;-0.807752018;-13.55265801;1.947400631;1.985826357;1.850073242
7.328741537;-57.87188359;16.39321545;-6.845955788;3.530314388;0.105741322;-20.09684656;-16.13358654;-21.22739742;2.280883894;-17.78143677;-3.164712176;-8.209986374;7.907768143;-0.763038423;-20.62523656;1.272388047;-1.784685761;0.906617223
6.736437361;-65.32054173;12.79333861;-3.27589761;2.811801514;-0.214991408;-20.26247923;-11.05892057;-19.30234756;6.384407997;-19.07441431;-8.804156629;-9.538825152;6.993617169;-0.921114024;-20.71552384;-0.129491086;-4.508955071;-0.553923587
5.63450289;-55.05500353;7.110873006;-1.111019737;3.262506943;-0.529963394;-19.63891026;-6.575653264;-18.9272597;8.187166726;-17.48296425;-13.59285935;-9.86657679;7.606621974;-0.639443341;-13.15094529;-1.895673588;-2.381091401;-1.468121185
4.327662408;-35.06111263;1.280803551;-1.891733957;4.641847275;-0.648430101;-17.67521617;-4.15877911;-19.00220886;7.689681324;-14.3148677;-16.18846577;-9.302428117;9.337462289;0.224155824;-0.617842056;-3.460402997;4.197252165;-1.352209854
3.176294858;-17.22168514;-3.254428774;-5.861604106;5.775719669;-0.477655603;-14.84451914;-4.049988964;-18.3757584;6.30203052;-11.64642224;-16.12298382;-8.561909346;10.7091758;0.992939901;11.65560795;-4.348278149;10.46038581;-0.626608067
2.252759;-9.905399408;-6.155824025;-11.66090977;5.642207595;-0.103800105;-12.30245332;-5.228532999;-16.6766515;5.7307902;-10.87613556;-13.6019584;-8.304479187;10.47787757;0.763585825;18.14465099;-4.402491307;10.90058074;-0.140848514
1.274427902;-13.50752365;-7.855119735;-16.99032327;4.333024664;0.2519622;-10.84574429;-6.142729023;-14.30348231;6.86435667;-11.85663053;-9.374680291;-8.613003603;8.780799025;-0.652556475;15.72946232;-3.78936166;3.754959661;-0.387361989
-0.086633704;-21.70914316;-8.803669415;-19.88258456;2.9904562;0.380973647;-10.1742003;-5.690636785;-11.79306929;9.398420095;-13.14023567;-4.812835343;-8.976363613;7.07893613;-2.376405664;5.407381851;-2.817382487;-7.381410976;-1.115542555
-1.790043945;-26.97676834;-9.06979588;-19.77149094;2.771021538;0.230504363;-9.202401209;-3.810802329;-9.308559374;12.26189071;-13.07688804;-1.842013631;-8.729733099;6.92079848;-3.102067105;-8.066859391;-1.746041888;-16.20034339;-1.637980766
-3.313976871;-25.91853807;-8.553628325;-17.63595077;3.792557798;-0.066969584;-7.16256482;-1.350578417;-6.720811465;14.35597224;-10.9488601;-2.288354546;-7.586220649;8.617575604;-2.200155059;-18.57357713;-0.724417029;-18.42676519;-1.481631771
-3.994169685;-20.68824599;-7.408720704;-15.1164546;5.039184505;-0.300193082;-4.451872153;0.611575521;-4.060078125;15.08688363;-7.385183245;-6.734503595;-5.871634945;10.99932889;-0.291538629;-21.78145757;0.150109967;-14.79627019;-0.766977926
-3.549594786;-16.0295304;-6.085180094;-13.24105956;5.312097077;-0.335678424;-2.384445946;1.464641831;-1.738692256;14.51383228;-3.874720939;-13.67479152;-4.323219168;12.44848514;1.246702338;-17.26529824;0.76995302;-9.942273527;-0.010748258
-2.334180692;-14.93474231;-4.885591216;-11.70658708;4.345779258;-0.202279242;-2.040157165;1.305517794;-0.254504134;13.23149861;-1.829849553;-19.88305933;-3.624130557;12.27035837;1.425373531;-8.378089186;1.037941852;-8.321668871;0.390829845
-1.075183997;-16.58796261;-3.532302548;-9.265559805;3.056263108;-0.045235736;-3.282315082;0.62783402;0.289738233;12.12426805;-1.882428806;-22.14498801;-4.002166888;11.18774203;0.435781195;-0.029470332;0.938630319;-10.70547817;0.470778584
-0.307702483;-17.93165818;-1.32536658;-4.926678686;2.691273011;0.001108667;-4.886218786;-0.210205938;0.27240979;12.00434969;-3.804606761;-19.363937;-5.145401429;10.56637935;-0.592937517;4.213665618;0.560371665;-14.10535057;0.518691717
0.012778343;-16.99743783;2.104129669;0.979581321;3.667416822;-0.087591156;-5.675733413;-1.265827846;0.087328574;13.15716394;-6.92547969;-13.50221037;-6.461404316;11.12553243;-0.631250117;3.940784276;0.023648961;-14.94269308;0.655862866
0.393138316;-14.8108173;6.119504405;6.754276783;5.168778846;-0.229534889;-5.588838837;-2.807139474;-0.381384852;15.0184207;-10.59079153;-8.475637772;-7.489757158;12.31843042;0.351539401;1.629576944;-0.61377859;-12.48018412;0.636893426
1.300350458;-14.21376457;9.231622719;10.40974444;5.879291529;-0.324561255;-5.633513747;-4.819692895;-1.694775573;16.33379068;-14.30871464;-7.60488164;-8.19607089;12.91237713;1.406769368;0.643076689;-1.362198174;-9.413579388;0.112676729
2.728717568;-16.84264487;10.13806967;11.08019155;5.178095764;-0.338687086;-6.748690629;-6.689550055;-4.130886332;15.91974729;-17.59679277;-11.39674707;-8.9610619;12.18499701;1.487170372;2.870424719;-2.192268267;-9.11710717;-0.899957787
4.213383547;-21.1505444;8.842131855;9.66050124;3.703933469;-0.312678229;-8.667225051;-7.41253847;-6.986541553;13.62428679;-19.83704801;-17.28604914;-10.26950645;10.60926229;0.375276258;7.486355682;-2.926876452;-12.05979968;-1.842592254
5.25253386;-23.36518056;6.832806694;8.136380902;2.776681117;-0.2994072;-9.937516358;-6.254695214;-8.742846056;10.73536446;-20.40696507;-21.53558628;-12.29133016;9.405802536;-1.160281816;11.49494045;-3.279742979;-14.72759059;-1.98081142
5.732022719;-20.59550406;6.026746187;8.087640107;3.210228356;-0.300572892;-9.189227937;-3.387232321;-8.180880248;9.337564611;-19.04525959;-21.86112399;-14.62609589;9.403633998;-2.081593587;11.60317836;-3.06321004;-12.27322171;-1.03470267
5.959105388;-13.36038416;7.248836838;9.513079854;4.598617901;-0.267817747;-6.505077981;0.02675408;-5.540952215;10.9094572;-16.13443541;-18.82003906;-16.40146103;10.27926594;-1.997601871;6.250481909;-2.407813561;-2.86284039;0.495153373
6.287710715;-5.314553285;9.505525638;10.89355367;5.711356395;-0.165414583;-3.55989974;2.442706374;-2.572841613;15.16806179;-12.60043722;-15.00777993;-16.7089243;10.87177112;-1.463690754;-3.340174395;-1.779217595;9.934824472;1.641911207
6.70317609;-0.399877195;10.70990192;10.44542589;5.615572861;-0.028372507;-2.266391904;2.867170098;-1.200993117;20.12832437;-9.434600092;-12.83183496;-15.13970445;10.26483056;-1.433396794;-13.57950219;-1.722314941;18.95244524;1.698374639
6.771460133;0.140754729;9.316131559;7.581077599;4.492154826;0.048082269;-3.072988418;1.468324393;-1.828817929;23.46;-7.166677827;-12.68696682;-12.08972637;8.627846712;-2.386736971;-20.1052223;-2.496921502;18.3199458;0.745938911
6.01516134;-1.592857481;5.541222802;3.433613139;3.418208495;-0.013946033;-4.47783458;-0.572354395;-2.817277275;24.15619613;-5.673768645;-12.91278269;-8.614621302;7.053213027;-3.910634769;-19.759307;-3.883722786;7.807693101;-0.461841599
4.378048363;-2.244393647;1.183560122;0.046303374;3.350422405;-0.198989657;-4.299106267;-1.864297937;-1.792374751;23.19096015;-4.446390238;-11.40076193;-5.884995677;6.567015346;-5.063894842;-12.08550072;-5.316451969;-6.712256703;-1.145685878
2.35429675;-0.076421057;-1.78082536;-1.124290546;4.266550158;-0.396492146;-1.650342696;-1.698430463;2.177834885;22.60195756;-3.074410119;-7.4119717;-4.554758832;7.241789989;-5.158279517;0.263078204;-6.232328734;-17.0915498;-1.103147851
0.664633018;3.837264638;-2.638625272;-0.224777787;5.24634832;-0.481849091;2.141345929;-0.413638078;7.417684533;23.72146312;-1.563480822;-2.123008181;-4.431517099;8.214102515;-4.261764056;12.40919685;-6.358667967;-18.20744193;-0.754134524
-0.229940468;6.939959895;-2.253536826;1.216348536;5.381341452;-0.413774179;4.5651505;0.964914657;10.67167733;26.02138923;-0.263770646;2.41234585;-4.661076414;8.546377614;-3.034140887;19.17696507;-5.726826337;-10.91977116;-0.634697327
-0.356038868;7.630559;-2.099372518;1.5210132;4.635737269;-0.264700193;4.068830395;1.488061825;9.666485251;27.56508615;0.474400515;4.871138711;-4.313257051;8.091978633;-2.11640343;17.36631404;-4.459769347;-0.753276427;-0.842037803
-0.038845598;6.557014145;-2.947845412;0.116479492;3.848722346;-0.15826875;1.43715867;0.867858522;5.12745202;26.71752309;0.597802605;5.46244201;-2.997696691;7.549989707;-1.648123014;7.397423328;-2.581956615;6.398102451;-0.956666894
0.466169421;5.729743768;-4.367979088;-2.128793014;3.893271605;-0.168348666;-0.851232924;-0.491467221;0.472921455;23.67350963;0.363186463;5.377904402;-1.120977508;7.68792369;-1.29822696;-6.573467752;-0.061085619;8.198741196;-0.503855394
1.13558568;6.479215747;-5.385929565;-3.660163678;4.805775884;-0.265683622;-0.772282272;-1.934139314;-0.714716955;20.47100201;0.102171439;5.56426291;0.369197268;8.508181557;-0.692057132;-18.37437228;2.953967878;6.67624284;0.497710344
1.990138054;8.259151778;-5.577925352;-3.414220938;5.724494962;-0.353909534;1.469347425;-3.042839158;2.550823629;19.4125488;-0.017058075;6.000678101;0.58151264;9.183775878;0.21323083;-22.73383036;5.953258019;5.738097374;1.438461663
2.800252605;9.356596013;-5.507393121;-1.50209237;5.705858109;-0.357505334;3.633536404;-3.790196064;7.926248431;21.17855526;-0.021090047;6.069314984;-0.752723807;8.847925591;1.134723837;-17.94658086;8.17504689;7.702208631;1.590271532
3.070178575;8.687538908;-6.083030215;1.033386804;4.651826466;-0.281599188;3.478954539;-4.303647889;11.64371206;24.21692807;0.030392357;5.51956961;-3.076580207;7.493560426;1.77813719;-6.760207538;8.978789936;11.62767884;0.73261602
2.418860229;6.849030336;-7.474708866;3.057150712;3.465090633;-0.193994039;0.86670679;-4.530751397;11.47902796;25.95302512;0.195297731;4.97301481;-5.265256427;6.108020698;2.109344098;5.171654297;8.199611972;14.53629279;-0.636464309
1.042015246;5.399171325;-8.684506928;4.043928802;3.263120738;-0.152943354;-1.940216604;-4.145022873;8.344579285;24.84475896;0.608704484;5.396492717;-6.179140456;5.866640716;2.326071789;12.49674876;6.191512066;14.23268109;-1.703039771
-0.228879913;5.13260798;-8.287990613;4.14320539;4.361258821;-0.152127611;-2.099826142;-2.7862192;5.268278982;21.59526893;1.279548616;7.013011882;-5.210789848;7.0905123;2.6053323;13.15929803;3.527855374;11.26685751;-1.998726335
-0.450404447;5.149415486;-5.755820326;3.713079588;5.959119428;-0.134182528;1.401077605;-0.420192261;4.74145707;18.53872961;1.93909713;8.732019591;-2.565205;8.917003102;2.920919465;9.329099275;0.630170009;8.451080429;-1.737131761
0.685631248;3.759740037;-2.154753962;2.860048828;6.823674406;-0.05684736;6.815070314;2.498948293;6.744134914;17.73937902;2.134069671;8.76906696;0.830790966;10.00311047;3.12134892;5.655668675;-2.342349693;8.418151451;-1.543148767
2.519959642;0.432027679;0.499631698;1.434288194;6.350635173;0.054813212;10.9707206;5.207963701;9.067247005;19.39772958;1.53759439;6.04416228;3.723987274;9.652603738;3.162433415;5.961815122;-5.260114248;11.28096025;-1.843739229
3.865613061;-3.145959931;0.79348201;-0.54941957;5.046518489;0.123398866;11.72849983;7.0203724;9.498083206;21.85781846;0.234014908;1.181635545;5.055631428;8.376004978;3.218907407;10.54593374;-7.70637622;14.3157804;-2.483801517
3.931588532;-4.114026675;-0.915707198;-2.515830873;4.015923524;0.09033684;9.490840744;7.644443074;7.843117723;23.13298703;-1.274887912;-3.798708121;4.391907891;7.402712402;3.531183917;15.8949332;-8.949691898;13.94185323;-2.90647116
2.985443813;-0.853164204;-2.734841811;-3.407281405;3.953039277;-0.022832743;6.584322009;7.252690546;6.008386306;22.60323042;-2.374330317;-6.912746037;2.084369403;7.59774169;4.133764876;17.02371802;-8.338523205;8.467455839;-2.709651467
2.169538133;5.360445316;-2.733974717;-2.277488397;4.574377304;-0.123014209;5.193588301;6.33265302;6.16314876;21.45204488;-2.723579525;-7.608314479;-0.916386177;8.746080332;4.753873339;10.91017109;-5.851459091;-0.48200472;-2.049030186
2.569107691;11.04339129;-0.486930558;1.008172381;4.993144058;-0.121352885;5.708566064;5.474854164;8.724415269;21.53882026;-2.427797705;-6.983660772;-3.51894503;9.808570507;5.009339653;-1.229353463;-2.33473325;-8.886402332;-1.511595981
4.274176982;13.06984454;2.623501791;5.496545871;4.643471121;-0.011402027;6.841481786;5.207108401;11.992274;23.73932129;-1.880981691;-6.682155336;-5.003211797;9.8729487;4.732806667;-14.30271173;0.843451552;-12.86898295;-1.581319165
6.221724948;10.95412411;4.588029055;9.532515831;3.854034431;0.120172654;7.200926755;5.859462799;13.70537957;27.1814036;-1.442884418;-7.433460891;-5.32093372;8.928886256;4.114449923;-22.10205176;2.537936572;-11.00690695;-2.195551712
6.985011535;6.92918817;4.455174102;11.58409133;3.518543294;0.162508027;6.721485359;7.405363277;13.03218637;29.95932802;-1.2387916;-8.483061226;-5.024340809;7.8059124;3.53;-20.73295213;2.452911582;-4.893387659;-2.801802975
5.897495318;3.875533175;3.125280042;11.00472649;4.181641342;0.071932567;6.589918109;9.325462883;11.16944696;30.61583406;-1.23851489;-8.359275427;-4.880784541;7.398590524;3.23062572;-10.68061914;1.205053552;2.189739626;-2.859628679
3.611452738;3.052012136;2.61515983;8.305789864;5.427901407;-0.09103099;7.806963379;10.65921971;10.06718291;29.08428175;-1.5025919;-6.273402674;-5.42492575;7.924292063;3.198900983;3.547628943;-0.192752806;7.327431124;-2.325408829
1.640800781;3.636660132;4.415264196;4.839777205;6.187263145;-0.209268606;9.855791522;10.37121596;10.55763172;26.36905897;-2.322113289;-2.931872567;-6.725377842;8.862542872;3.287731804;15.77272774;-1.012256755;9.317806461;-1.681266839
1.251036015;4.265001224;8.274988339;2.124493659;5.704271112;-0.200176246;10.86709621;7.928990379;11.68714818;23.4255924;-4.070039063;-0.078748475;-8.470313763;9.545260377;3.449419743;21.03662204;-1.155720219;8.67241669;-1.492942848
2.564864307;4.809174854;12.3577373;1.177606815;4.273443787;-0.075061023;9.251510278;3.742735099;11.85465046;20.3830488;-6.847067267;0.819530396;-10.23460341;9.770591086;3.762798893;17.5683442;-0.979892058;6.718105241;-1.908214735
4.548030672;6.471174336;14.58305016;2.15620388;3.033053778;0.077902018;5.335194215;-0.89778306;10.58792243;16.8294219;-10.21069538;-0.357390071;-11.67545935;9.853492866;4.198329178;7.127709158;-0.839539962;4.722527814;-2.547177898
5.822146536;10.06947519;14.06925191;4.4089503;2.971726776;0.166473088;1.433450912;-4.452931433;9.140741052;12.78350123;-13.24087187;-2.394865945;-12.51438952;10.12839975;4.393338526;-6.057739725;-0.775257972;3.578730998;-2.863510621
5.62700981;14.4182918;11.60965538;6.862947636;4.04114842;0.159556648;0.158674534;-5.970472919;9.226879732;9.268195299;-14.94592067;-3.724485206;-12.40583145;10.47262034;3.774484355;-17.04592063;-0.579308612;3.863571672;-2.626007244
4.216244286;16.84490681;8.955459612;8.54372496;5.191942831;0.095541247;2.360630215;-5.566475614;11.07913958;7.766560361;-14.75610618;-3.501663226;-10.94302813;10.37931692;2.041679399;-21.91395919;-0.107660403;5.778222472;-2.078749717
2.492622203;15.8115157;7.586787006;8.985820876;5.315935592;0.037676477;6.475473663;-4.2021081;12.8256667;8.956168693;-12.79417301;-1.950029297;-7.947617357;9.524932101;-0.395220396;-19.01003906;0.499634698;8.839098622;-1.657540535
1.291484737;13.19511804;7.909606983;8.347724097;4.247447325;0.02288494;9.84856681;-2.916490192;12.04127398;11.91769136;-9.784339776;0.12618578;-3.890896506;8.237270345;-2.51385337;-9.46481258;0.906563854;11.75331417;-1.558456687
0.906391207;13.50672328;9.319276232;7.196181928;2.914446318;0.04684167;10.870324;-2.090605778;8.216577633;14.69161864;-6.707547271;2.054868228;-0.060234296;7.328424251;-3.375464174;3.180298047;0.883088187;12.98702933;-1.577849125
1.130635808;19.86164456;10.8431018;6.111304677;2.500039063;0.087735435;10.07307036;-1.300670996;3.780966098;15.83996998;-4.43488951;3.568537603;1.83863115;7.378313552;-2.900068359;14.19715731;0.523200138;11.90879052;-1.365351444
1.611499728;29.81230943;11.73933651;5.370097656;3.374480251;0.135266838;9.298948375;0.13696899;2.405155468;15.66056473;-3.504967441;4.536153124;0.557252724;8.1392599;-2.015783394;19.40882929;0.168443049;9.618086413;-0.826446357
2.117221099;35.11662993;11.67441124;4.900475541;4.765013157;0.192990579;9.789448657;2.377429174;5.782329473;15.88655685;-4.055498936;4.637687669;-3.859609425;8.685502886;-1.942065803;16.79793079;0.108042861;8.493561235;-0.267576475
2.524541897;26.7904692;10.58156946;4.489286706;5.457048878;0.25550662;10.99020087;4.673159447;11.72665414;18.01430677;-5.832137791;3.48552791;-9.895814244;8.25268743;-3.133244934;7.301049846;0.332580684;10.41303472;-0.128917423
2.681207354;2.291238271;8.538566764;4.033165242;4.883219242;0.291328316;11.16358616;5.764847372;15.57845164;21.70379685;-8.238810678;1.151333462;-15.28415333;7.024115373;-4.789323525;-5.561725348;0.559733818;14.85374528;-0.553556426
2.414984223;-30.79219405;5.826223726;3.605437029;3.612421825;0.257573533;9.207674191;4.790939671;14.07707955;24.76992114;-10.48011152;-1.484627002;-18.24181924;6.096207302;-5.43242134;-17.03951106;0.493811381;18.53650618;-1.209392041
1.744529629;-58.14174189;3.007036162;3.29764375;2.807834276;0.138911358;5.947893015;2.039602028;8.464518703;24.95334756;-11.84570052;-3.099425297;-18.42908048;6.569579555;-4.139380818;-22.9008116;0.073835506;17.31918143;-1.549513756
1.048561906;-67.48880214;0.773919465;3.018692724;3.164206885;-0.025400268;3.638258361;-1.060442977;3.880048828;22.03061884;-12.06336409;-2.896529985;-16.98529495;8.534937879;-1.398938516;-20.93247296;-0.501529756;9.257108279;-1.284754825
0.910892402;-56.61721433;-0.435202744;2.486613366;4.297786792;-0.156549017;4.056358478;-2.781862711;5.130396766;18.3613201;-11.51045607;-1.404420393;-15.62742899;10.88268605;1.183418039;-11.74131968;-0.955222162;-3.432849777;-0.638061096
1.659243566;-34.63126963;-0.749761851;1.46403894;5.131288849;-0.186885908;6.893410566;-2.239303822;12.22374282;17.19331485;-11.07978261;-0.320723404;-15.45882958;12.17003906;2.141885097;1.343970934;-1.109580211;-15.22438085;-0.147982953
2.973995642;-15.46274029;-0.77404724;0.030986949;4.898440035;-0.10672863;9.913601279;-0.052607329;19.68751474;19.98811951;-11.69452943;-1.354959834;-16.33019717;11.8270117;1.32079158;13.30581911;-0.883622941;-20.63512986;-0.203058279
3.980609551;-8.4569792;-1.088771112;-1.390205798;3.834880415;0.030793019;10.77851661;1.947963984;20.7865538;25.00585239;-13.73043874;-4.905537649;-17.16618151;10.63863207;-0.056510884;19.24993213;-0.152189469;-17.77734446;-0.731688962
3.859475677;-12.99259539;-1.733006095;-2.339128357;2.929518706;0.149482385;8.934973985;1.82644451;13.51297058;28.46697042;-16.71990097;-9.645264676;-16.94292797;10.04889365;-0.498781915;16.49177758;1.313799923;-9.501530455;-1.318029485
2.520798526;-20.76084295;-2.115633428;-2.711093645;2.986591982;0.200079346;5.915443506;-1.228878071;3.228672353;27.47558021;-19.5627415;-13.41784036;-15.53088403;10.87493494;0.426311691;6.014998531;3.667577287;-1.275291163;-1.612695094
0.755949862;-23.29141816;-1.455074312;-2.867071483;3.879076968;0.180879024;3.847697481;-6.328248929;-0.905864695;22.34241672;-21.13795008;-14.79003906;-13.75950999;12.56656416;1.729363611;-7.650649919;6.668882207;2.587937115;-1.638618201
-0.334332679;-18.45786247;0.613307378;-3.301273936;4.681951603;0.118881789;3.589640225;-11.33043967;6.426489942;16.35925622;-20.93496653;-14.04729037;-12.69279336;13.6853363;1.940385514;-18.44887378;9.538966874;1.514555325;-1.70817623
-0.218726508;-11.02918045;3.770843089;-4.114081537;4.548260171;0.036908552;4.207388709;-14.05581296;20.91174859;13.17391554;-19.30665073;-12.84978296;-12.72366403;13.19783096;0.516525992;-21.87846144;11.22735369;-1.733744742;-2.051788647
0.602707782;-7.521922599;7.293857576;-4.770569945;3.503204812;-0.059517743;4.219671703;-13.52402602;29.83949805;13.93980076;-17.20208287;-12.84245635;-13.21937582;11.43672376;-1.582356022;-17.3860712;10.99868424;-3.823118818;-2.539345409
0.976461204;-10.20844761;10.59711855;-4.435861181;2.416280613;-0.166402373;3.342577822;-10.45920664;20.4239379;16.61331994;-15.57934873;-14.34362732;-12.99645816;9.854855398;-2.742156351;-8.473940493;8.934373735;-3.515061929;-2.782617006
0.048611535;-15.40272651;13.54278162;-2.686856903;2.182317927;-0.259379166;2.974490134;-6.756178856;-10.39491918;17.93461381;-14.88549239;-16.14655198;-11.24599203;9.759657273;-2.26931598;-0.306532542;5.941677176;-2.072868044;-2.528191048
-1.972463447;-17.12247344;16.25657353;-0.022846746;2.878891671;-0.295468715;4.857593706;-4.251318743;-52.00338945;16.31647539;-14.90732317;-16.54627572;-8.18882007;11.1333161;-1.262457738;3.644356534;3.212207856;-1.340520737;-1.953058402
-3.884608596;-12.55914057;18.66775446;2.304749643;3.68763263;-0.243508103;9.147088302;-3.59032493;-85.50851849;13.09873487;-15.02655721;-14.72849368;-4.969220913;12.59637923;-1.872731317;3.583747498;1.502002432;-1.488127168;-1.552646042
-4.36806736;-4.472353936;20.25473451;3.085552329;3.656484681;-0.116426562;13.80827162;-3.93724088;-95.23350275;11.09891183;-14.65938093;-11.41812936;-2.891270763;12.58478023;-5.427346186;2.603670689;0.755928705;-0.640874135;-1.699589835
-2.988378742;1.406582882;20.28743294;1.967315463;2.600178562;0.02806206;16.11649696;-3.726662007;-78.49459808;11.82703726;-13.58883927;-8.335270073;-2.585703886;10.74131733;-10.95766552;3.800995614;0.333500783;3.186553757;-2.282244454
-0.541450448;1.420636658;18.38795319;-0.367459686;1.307400293;0.124922417;15.03998348;-1.952519839;-46.92435741;13.96052381;-12.02442788;-6.965576471;-3.70317037;8.311071768;-15.46917066;7.632687095;-0.376852647;9.632167932;-2.779820767
1.512292397;-3.060511095;14.91853704;-2.825041633;0.859832661;0.148140798;12.29956527;0.915117903;-18.5952037;14.547833;-10.4262847;-7.631209991;-5.292576857;7.168839255;-15.92491517;11.66537923;-1.456583785;15.40757859;-2.72965464
