Channel 1 - P4;Channel 2 - O2;Channel 3 - P8;Channel 4 - T8;Channel 5 - C4;Channel 6 - Cz;Channel 7 - Fz;Channel 8 - F4;Channel 9 - Fp2;Channel 10 - F8;Channel 11 - Fp1;Channel 12 - F7;Channel 13 - F3;Channel 14 - C3;Channel 15 - T7;Channel 16 - P7;Channel 17 - P3;Channel 18 - O1;Channel 19 - Pz
0.407661461;115.4619636;40.89445381;28.08453684;98.26290097;2.954638805;36.24367419;4.397291055;41.22213694;70.41425035;-15.22577622;0.924111028;-9.695591352;45.59674801;86.87813535;83.16932894;18.62584942;29.68616891;37.76949942
11.97591764;87.34727134;35.28311729;33.35766064;60.20886787;4.988214886;31.76520676;7.670533931;35.74198097;70.87168278;-7.889151816;-0.882884213;2.250344427;5.922049698;59.5126447;72.62324582;25.09319579;-18.97290031;8.593858666
16.86414061;28.89218171;12.10640562;24.52460542;-2.519348171;4.46659423;12.79565734;6.545938077;13.64510206;39.73920121;-2.014860807;-5.434204004;10.92163678;-30.49576409;3.37056585;34.6502222;20.63318552;-52.0459002;-18.99194327
12.18742311;-24.88290619;-12.70388436;9.378435234;-51.94;1.820024414;-5.802728399;3.945133301;-6.878311645;-0.207063077;0.937543208;-9.269612338;12.04279911;-41.40658064;-47.45881275;-5.386306593;8.182747939;-49.34653841;-28.56207815
1.629612198;-44.4063028;-23.01115273;-0.863575083;-62.16029017;-1.097426307;-10.78385913;3.560133072;-10.50170774;-21.92316611;0.848424655;-9.967998906;6.471404005;-22.97356025;-65.01841196;-24.0998023;-4.254553758;-15.71166646;-16.86212544
-7.350240422;-25.23946316;-13.80913288;0.341793406;-35.95903598;-2.387279747;0.202552709;7.037622158;4.603724544;-13.22621915;-0.710265915;-7.459931367;-0.441903115;8.420780175;-46.29584721;-15.63563773;-9.515534755;23.46243702;4.658111089
-8.976008822;11.08297694;6.115908094;10.70279865;0.201186508;-1.475817819;17.84921396;12.80055034;26.64741592;15.62074602;-1.355517238;-3.716142774;-2.918474258;29.31805996;-12.7713092;6.736572977;-6.254642698;41.66780981;19.18655941
-3.088012992;34.85338606;21.83221474;21.7534285;17.79017484;0.576905949;29.13606029;17.39661657;40.06393895;41.24886706;0.486136958;-1.169396081;0.996309631;26.74269402;7.891136568;23.06664269;0.736131345;30.4175469;17.21638341
5.326939705;30.37180378;23.82652455;25.8101593;7.143465242;2.018238791;27.40162485;18.24887589;37.19329433;45.6127221;4.399610679;-1.068864322;8.302783054;6.602650462;2.888226391;22.49888323;4.826438636;3.540425721;2.72308188
10.35970414;5.645708616;14.37765205;21.55504725;-18.01358861;1.795484493;16.63206591;15.59715504;22.83589346;28.90745141;8.214923077;-2.881483943;13.74768632;-12.88629727;-18.25712611;9.947306602;2.829904281;-15.67885588;-11.41881698
9.640367609;-16.71130911;4.235065954;14.09345213;-34.43554296;0.286341698;7.071356751;12.13504193;8.94872005;7.371106552;9.57823467;-4.986663177;13.98927438;-16.55187344;-34.3410788;-0.517550163;-2.91438647;-13.31320964;-14.38848891
5.580348778;-18.80500603;3.036395478;10.03390491;-29.12714034;-1.155191186;6.328156866;10.74876597;4.654711026;-1.193231365;7.69975734;-5.976056954;9.840401716;-3.70493381;-31.10130556;1.222911256;-7.030463345;5.575502919;-5.643518925
2.740823768;-1.118667153;11.62448273;12.03432;-8.850984775;-1.380604861;13.47189552;12.26854344;9.893219998;8.246550013;3.907360316;-5.559193862;4.989216267;13.00919182;-12.14899621;13.14049082;-5.79283222;23.25572162;5.841908746
3.812009757;19.72828276;22.28041354;17.25383799;7.32963405;-0.348272405;20.66028311;15.03130796;17.2650502;25.25250329;0.544773432;-4.528211996;2.582129258;19.30137035;5.906359197;24.07678487;-0.058368262;25.10241236;9.904479398
7.595291151;25.96644463;26.00280775;20.53299522;4.980087891;0.959344001;20.36757203;16.47770986;19.52691018;34.12857493;-0.908143;-4.000106793;2.698788033;11.08137756;8.638462516;24.33624948;5.777740786;11.23371754;3.666726583
10.45315023;13.31532284;20.25208517;19.14363314;-13.93477914;1.447048111;11.80591211;15.32667816;15.838067;27.6374921;-0.952804994;-4.616750249;2.753684724;-3.226026786;-4.257031241;14.11269849;7.605673499;-5.108044875;-6.780227953
9.700321487;-6.535184735;10.67542426;14.93345635;-33.77038798;0.821672079;1.238987946;12.48617219;11.61697093;12.52844664;-1.491806573;-6.257875458;0.212878898;-10.95898795;-19.98472191;2.627622477;4.834964529;-9.910078125;-12.28535319
5.906977261;-16.68078846;5.797729274;12.26378313;-39.13060471;-0.250067139;-3.666054618;10.03231388;12.76814825;2.766492407;-4.029093547;-8.323143994;-4.938480162;-6.286167337;-24.66476084;-0.594574849;0.449046448;-0.262980871;-8.587321058
2.231897214;-9.234874435;9.620906393;13.86815282;-27.64780502;-0.804910019;-0.317181725;9.265561453;19.80834739;6.964842872;-8.177904155;-10.22216737;-10.16155558;5.461915999;-15.22403109;5.865456252;-1.846196701;14.16870083;0.510127252
1.565153017;8.847217658;18.50533779;18.39751914;-11.01981971;-0.433592437;6.996335391;9.592901702;27.11233708;21.07507067;-11.78275682;-11.67119173;-12.67780786;13.32061267;-1.025233344;14.62788761;-0.716828176;20.47761385;7.020125578
4.084502692;22.51265164;24.68986906;21.71100933;-4.185632451;0.42374361;11.19050736;9.196327889;27.74042073;32.33488828;-12.61736204;-12.6657485;-11.95672337;10.60485132;5.317886185;16.7081486;2.065367292;13.86539483;5.870827069
7.310497265;21.52287235;23.05898012;20.60181589;-12.45454724;0.94518899;8.538169166;6.856963423;19.45869746;30.56514399;-10.26818008;-13.28389628;-10.11942718;0.383076321;-0.887488701;9.77654639;3.593750668;1.153630105;-1.055035189
8.461428115;8.566046652;15.24795884;15.61368484;-27.52445266;0.689929547;1.55823997;3.296674231;6.757132014;16.81476209;-6.609115076;-13.54365694;-9.929849501;-7.893947365;-13.14873574;0.040634924;2.499593366;-5.993730154;-7.140472712
6.923879669;-3.690151277;7.816469757;10.56769389;-35.2187991;-0.035443883;-3.579097897;0.821532354;-2.673108527;2.093353848;-4.41946256;-13.40201406;-12.21977179;-7.090916905;-20.6744744;-3.668565992;-0.077443334;-1.564807003;-7.125756943
4.667920843;-3.454826981;6.451232735;9.364196111;-27.78038108;-0.50443221;-2.561392742;1.511553389;-3.82453269;-2.256931189;-5.245708793;-12.82447618;-15.07755057;1.497812833;-18.5175485;2.016664292;-1.887497596;9.934124023;-1.531596799
4.336864506;10.64970613;11.36871162;12.89662776;-10.17202919;-0.257649065;3.511382818;5.440206165;2.278690582;6.049483167;-8.247613201;-11.82233756;-15.52747074;9.79510405;-11.60179956;12.11015698;-1.822457806;18.10334078;4.286392411
6.78963194;28.73420496;17.68191225;18.61285434;4.51468035;0.485448237;9.402128392;10.39117118;10.1793336;19.0241918;-10.94828983;-10.4356806;-12.19692461;10.44616427;-9.296387194;18.0210751;-0.856918756;16.13050676;5.234001774
10.28180539;37.31608132;19.98822042;22.83104869;6.056058331;1.046919194;10.41297015;13.31721807;14.68669859;25.87425999;-11.21925738;-8.71283998;-6.599310344;3.258491175;-15.96071542;15.41762388;-0.880241646;6.539155221;0.971519275
11.95724322;28.83683655;16.90186023;23.60717627;-5.003833441;0.917915707;6.247806643;12.40151821;14.5368716;22.23272799;-8.829025769;-6.723124739;-1.902799409;-5.03073049;-26.39403051;7.988437325;-2.647485217;-1.609551935;-4.109818487
10.28569095;5.879569442;11.66081411;21.73420264;-18.79529822;0.213688943;0.855981373;8.162684504;12.26381353;13.1643702;-5.320295402;-4.579733856;-0.283201323;-7.096347846;-30.41316745;3.782886158;-4.871809924;-1.103761351;-5.121559875
6.314100581;-21.93411479;8.651726381;19.33240887;-24.93664635;-0.446305852;-1.278077876;2.869696162;11.03728497;7.837474255;-2.465055455;-2.43581841;-1.194696739;-1.552883608;-22.344136;7.629197125;-5.356293244;7.146449978;-1.114525525
2.709157596;-44.63345921;9.263237319;17.63882002;-20.8212808;-0.506007222;1.051145942;-1.141322144;11.63614039;11.08271824;-0.776049376;-0.469894527;-2.059981659;6.123459883;-6.746812982;16.64389277;-3.113221167;15.36841269;4.243758015
1.50810274;-56.75348455;10.80234158;16.10584659;-12.62772214;0.034792005;5.090623866;-2.913210152;12.12103829;19.39847099;0.555090544;1.082650303;-0.739326938;8.82369832;4.877508882;22.929414;0.531549865;16.19880851;6.163090547
2.547973301;-57.85806924;9.228394497;13.47340907;-8.98513539;0.640164225;6.848853095;-3.098496866;10.04631604;24.57022843;2.276472751;1.849610372;2.418701741;4.245372202;3.559542475;20.93852063;2.932718224;9.212688783;3.076919914
3.847685971;-50.32844949;3.013294019;9.553745353;-13.35760326;0.734411831;4.546540063;-3.043303697;4.848371441;21.19488984;3.630931726;1.30711383;4.760540513;-3.252037966;-9.752036989;12.70646703;2.373286173;0.956178737;-2.076903365
3.470559404;-37.4927105;-5.406450773;5.863665777;-21.6690242;0.215943314;-0.222316237;-3.623838013;-1.756658355;11.22478684;2.393253594;-1.021743262;3.601094579;-6.834468374;-25.18684212;6.0840724;-0.441947759;-1.223542411;-4.646636381
1.166483056;-23.34329263;-11.77362899;4.434763649;-26.6012361;-0.469205212;-4.328009442;-4.739211396;-7.418276285;1.747859219;-3.34237292;-5.156459819;-1.369056437;-3.429672386;-32.19972986;7.478386534;-2.993004622;4.23550681;-2.464644875
-1.587987101;-12.52470589;-13.67034128;5.923302811;-24.19376002;-0.742780539;-5.950078125;-5.680039063;-11.01687714;-1.525688279;-13.00882991;-10.29354793;-7.603844592;3.65102422;-27.7698086;15.6538197;-3.119281649;11.98847651;2.341445432
-3.044151461;-8.881812144;-12.37717396;8.82716888;-16.86912431;-0.410108316;-5.781943319;-5.882943515;-12.9937079;1.049891911;-22.99624268;-14.86361129;-11.55632597;7.9171083;-17.70262563;22.30596588;-0.839772997;14.87152403;5.423252601
-2.736578423;-12.93085834;-11.39165138;10.58696518;-10.68071404;0.186229529;-5.741414001;-5.40795676;-14.12188736;4.242822968;-28.50598095;-17.18748552;-11.32011238;5.643160786;-10.55881718;19.1245456;1.761632388;10.38216691;4.149300059
-1.770637294;-20.68888305;-13.11116874;9.603589876;-9.773376188;0.495881307;-6.73598949;-4.855659117;-14.26063445;3.443904661;-26.71451703;-16.4581519;-7.917844825;-0.875808186;-10.13145836;5.252371519;2.423747566;2.713575337;-0.173577622
-1.696494147;-25.82505601;-16.72505802;6.380290089;-13.12890595;0.258482556;-7.77573859;-4.930321317;-12.51097923;-0.94321568;-18.93050478;-13.41388971;-4.302915813;-5.586865898;-13.17263932;-11.40986472;0.645845042;-1.271904092;-3.673028141
-3.084336447;-24.17228303;-19.11336116;2.833647617;-16.14130038;-0.282073783;-7.230207896;-6.03167475;-8.602305714;-4.307707049;-10.01702108;-10.13824664;-3.037370976;-4.245600167;-13.84732624;-20.30204432;-2.034991752;1.728917726;-3.466786809
-5.09453326;-17.03888513;-17.78226207;0.503749134;-15.0928436;-0.625279043;-4.834804439;-8.076489651;-3.949857827;-2.829212878;-5.33439527;-8.960661978;-4.571463;1.815907862;-10.1730386;-16.56808114;-3.59847371;8.679165206;-0.122984856
-6.347742885;-10.25222783;-13.12088695;-0.644868918;-10.296138;-0.479388982;-2.304308053;-10.50661341;-1.056202309;2.323867691;-7.306790276;-11.08220127;-7.352839712;7.042768656;-6.159458089;-4.650433063;-3.447150268;13.19167004;3.097980062
-6.205926097;-9.375422453;-8.026357601;-1.769229778;-5.337591301;-0.014193184;-1.802023537;-12.39760424;-1.571925182;5.768778735;-13.9956299;-15.81422049;-9.369671249;6.757090099;-7.69269198;5.745927675;-2.904047222;11.36322341;3.347445904
-5.264528431;-15.00628991;-5.382361068;-3.575416512;-3.61048499;0.319578965;-3.677272085;-12.70459731;-4.761268306;3.043934129;-20.58263766;-20.95212467;-9.640581024;1.3145605;-16.22042495;7.670234753;-3.858837726;5.123468579;0.707580081
-4.657707072;-22.22558831;-5.724234062;-5.221562993;-5.585631123;0.222616963;-5.720771317;-10.71401296;-7.898743505;-4.733876066;-22.59227711;-24.04799694;-8.472776008;-4.376464826;-26.38962599;2.086162283;-6.818382812;0.229318759;-2.117610582
-4.9002796;-24.75144244;-7.087229994;-4.832442116;-9.144253225;-0.174809885;-4.855820167;-6.569036183;-8.401830889;-11.22629671;-18.57977902;-23.74671601;-6.586821199;-5.393862285;-30.10889915;-3.906465806;-10.16404574;0.94519248;-2.497838438
-5.388250587;-20.22095666;-6.970941994;-1.226931965;-12.15993591;-0.442690234;0.103925404;-1.482809227;-5.888151491;-10.19387002;-10.60481221;-20.35003906;-4.207413609;-1.201427019;-23.53054771;-3.779374693;-11.33760132;6.311187692;-0.357950063
-5.020461482;-11.99759818;-4.52179024;4.718729402;-14.47667336;-0.262465424;7.105038611;2.711935054;-2.3661583;-1.087348325;-2.502299208;-15.35351409;-1.063302289;4.027969401;-10.69045269;2.839742456;-8.956806628;11.25204194;1.847362106
-3.336839255;-5.986061902;-1.039955954;10.3774832;-17.33197427;0.264223425;12.24103501;4.583113011;-0.427322822;10.18178752;2.594577349;-10.406452;2.817673313;5.322145763;-0.493003544;10.37942849;-4.037785228;11.30268398;1.559869926
-1.09293675;-5.386166789;1.410181309;13.17838127;-21.04885488;0.695344534;12.79912684;4.049933351;-1.071573995;16.11853751;3.813763695;-6.454303955;6.504953043;1.40887598;0.359385107;12.68931603;0.717075826;6.557559672;-1.381197133
0.274012663;-8.112822179;1.81829563;12.40999872;-23.65610665;0.645464273;9.39197152;2.497284699;-3.047544384;13.91770396;2.470241152;-3.554560636;8.569282931;-4.249095757;-7.611347582;8.492706518;2.943675743;1.362045249;-4.504870791
-0.191538335;-9.119068731;0.824155974;9.523919644;-22.19042011;0.139655672;5.36349231;1.818401247;-4.138406522;7.598552826;0.840896549;-1.289507106;8.271944239;-6.697765731;-17.80579926;2.140133935;2.257552043;0.240401016;-4.942940424
-2.208574662;-5.360058594;-0.22676275;6.763056639;-15.69019731;-0.396043137;4.010029297;2.999838014;-3.06910674;4.153978823;0.815605913;0.697208571;6.43224396;-3.963290156;-23.45318701;-0.660132799;0.230486263;3.884109754;-2.059200383
-4.550759435;1.251961288;-0.628724416;5.367981724;-7.001249519;-0.500283731;6.009930426;5.32792585;-0.286729911;7.206215822;3.147560537;2.465272685;5.026927608;1.300970506;-22.84878929;2.015944217;-1.114694873;8.760729918;1.929252935
-6.064641092;5.641568971;-0.723967604;4.883568454;-1.365893528;-0.073896809;9.190429938;6.908447087;2.901931997;13.84879164;7.379988292;3.900393486;5.687854903;4.371962352;-19.51010265;6.960887521;-0.914727334;10.47549949;3.87394345
-6.479694443;4.409930066;-1.160826589;4.013553886;-2.643294836;0.538711055;10.66892021;6.177181685;5.724933967;17.44421671;12.15899091;4.929960732;8.320866695;2.771988975;-17.73045074;9.254079233;0.119907565;7.673202162;2.390943861
-6.346286717;-0.845071331;-2.008309277;2.078073327;-10.26097108;0.848234558;9.377096388;3.238495253;8.343966871;13.78299989;15.71877111;5.560299498;11.0712882;-1.608707839;-18.15184598;7.030140684;0.627358016;2.999489113;-1.075574343
-6.297320615;-4.911266896;-2.795440153;-0.317422453;-19.51763678;0.630982515;6.779906498;-0.070439045;10.90200018;5.017611317;16.52043087;5.722495756;11.75101908;-4.427571739;-17.61416653;3.09562949;-0.141442615;0.499693587;-3.675972169
-6.440138663;-3.849903466;-3.422970316;-1.947590498;-25.03561526;0.096526861;5.318593524;-1.515359122;12.4126941;-2.175963257;13.97257681;5.149145326;9.576261673;-2.98064913;-13.18977239;1.967903272;-1.834618638;2.043604156;-3.661247507
-6.475202842;1.138784641;-4.799042891;-2.222718997;-24.51667067;-0.316305518;6.127211169;-0.192345508;10.9923066;-2.554875347;8.888833907;3.480772177;5.767822772;1.31619702;-6.186968949;5.214907804;-3.532351986;6.004591738;-1.683850208
-6.33889717;4.560194621;-8.18798302;-1.773186542;-19.82194355;-0.317096795;8.095499798;2.720834413;5.597437453;2.95818455;3.23511473;0.553360942;2.518619088;4.289222792;-1.906633745;9.547591273;-4.595276924;9.095957662;0.162553926
-6.584553703;1.567317247;-13.59491473;-1.805884915;-14.81436687;0.019398412;9.004157574;4.818967215;-2.280853189;8.009746917;-0.911465393;-3.393359448;1.215025444;2.908204362;-5.038583411;9.569277445;-4.986780967;9.325432506;0.487439208
-7.948178486;-7.444192905;-18.7296373;-2.889307081;-12.13890509;0.368715385;7.559327807;4.29782338;-8.842347664;6.399278206;-2.618760411;-7.799473696;1.412188596;-1.861177874;-14.89900503;2.789717189;-4.934136458;7.237833953;-0.173946898
-10.39848063;-16.83203468;-19.88050778;-4.375046466;-11.75101649;0.473328301;4.442294101;1.35618935;-10.42061329;-2.379050864;-2.648087804;-12.09811093;1.388898377;-5.845146124;-25.13595759;-7.623277183;-4.535004199;4.560300765;-0.17614552
-12.6183175;-20.41338285;-14.3940544;-5.033525893;-12.11520374;0.363009733;1.535582231;-1.88853864;-6.304587133;-12.45313276;-2.76282754;-15.95854012;-0.249550681;-5.370168413;-28.5782461;-14.94480905;-3.896829693;2.003691838;1.280795054
-12.62485885;-16.68371587;-2.845682636;-4.287237916;-12.45961268;0.289981048;0.222425957;-2.867957205;0.557464847;-16.28983492;-4.205750988;-19.2050472;-3.310685557;-0.565142891;-23.16525904;-14.18286939;-3.647569631;-1.304836202;3.061325028
-9.241648566;-9.818902587;11.02040098;-2.821988471;-13.65662167;0.459742502;0.436880041;-0.270323335;5.83664639;-10.71121963;-6.497974701;-21.47302991;-6.131485101;4.663060649;-13.73855459;-6.102459613;-5.013290037;-6.131897294;3.031014764
-3.262142955;-5.541788769;22.72323188;-1.939334821;-16.86785073;0.818190405;1.286293129;5.254584629;7.333441862;0.852195096;-7.575783103;-21.96902177;-6.895886548;5.920321394;-8.025014846;3.382492127;-8.913650942;-11.08204928;0.194225586
2.768394043;-5.65789062;29.91983837;-2.24174642;-21.45228527;1.089136204;2.460202818;11.77127785;6.713274728;11.51376063;-5.27813554;-19.69384186;-4.988080101;1.976039873;-10.2377108;7.87432138;-14.57417292;-12.67821604;-4.025656039
6.157581478;-6.366945639;33.32113553;-2.942067331;-24.48852446;1.018043768;4.852675712;17.41712801;7.836605904;16.47834561;0.899799747;-14.12367303;-1.283559018;-4.345493983;-17.79480613;5.303919403;-18.99322481;-8.065298002;-6.706308202
5.884878655;-2.063512051;34.91069885;-2.559199737;-22.77157297;0.593065197;9.62;21.33425699;12.99492575;16.17617052;9.149530459;-5.90165151;2.724941128;-8.651471368;-23.8711395;-0.949477143;-18.25662423;1.929814642;-5.857804313
3.203566876;8.739418806;35.13457905;-0.453097187;-15.71035273;0.047529642;16.50827403;23.58678107;20.3162801;14.62981778;16.33865119;3.044721141;6.074295479;-8.553816234;-23.38122136;-5.235131509;-10.21767494;12.41541413;-2.210444244
0.529789079;20.87263575;31.73275486;2.22450926;-6.485215705;-0.343798981;23.1539271;24.40824082;24.75986712;15.01889216;19.92926979;10.21464824;8.733849824;-5.272263682;-17.11581256;-4.212170434;3.353700884;17.60612683;1.30620558
-0.495903913;26.02669098;21.50273564;3.173706161;-0.186636615;-0.478894473;26.30423388;23.64462016;22.09088106;16.68840021;19.41221085;13.74143527;11.03955734;-2.122294617;-10.59529549;0.894817736;17.05574781;15.18628634;2.015973027
-0.214320215;19.60324217;3.652610497;0.799581834;-0.266107145;-0.464343221;24.16424318;20.95671622;12.59405115;16.20898296;16.27646309;13.35751272;12.8653738;-1.491045247;-8.976018067;5.826836697;24.81821885;8.174501198;-0.249257879
-0.466772511;5.046003564;-18.18206499;-4.255438362;-6.144236732;-0.46328733;17.94233255;16.54894533;1.364201503;11.23518155;12.71077476;10.47538043;13.44406364;-3.033974386;-12.71128188;6.887339743;23.66894863;2.543801849;-3.081757985
-2.860958602;-8.229157309;-37.25870323;-9.273365257;-13.87275605;-0.5204243;11.21209656;11.6403569;-5.196887224;3.403213402;10.16684521;7.300039063;12.06861786;-4.478464919;-17.69901143;3.517491866;15.59451713;2.46855887;-3.676239845
-7.232908652;-11.75945831;-47.66401415;-11.3132356;-19.18068924;-0.536225126;7.499329321;8.079441245;-3.906697224;-2.463891561;8.855493544;5.522957796;9.000457331;-3.991716929;-19.41201799;-1.906418265;6.051445438;7.161979373;-1.321663778
-11.56817506;-4.134691676;-47.9253999;-9.325909304;-20.32109463;-0.404449871;7.976257105;7.254653363;3.231578962;-2.12517146;8.322967833;5.418115308;5.642039024;-1.807472131;-16.96901088;-6.288531406;0.160992504;11.92786618;1.993120809
-13.4372273;8.642243051;-41.54645357;-4.861230643;-18.51320963;-0.162409303;11.01797185;9.105350709;11.02225826;4.703447576;8.320160416;5.886616833;3.664219337;0.264323389;-13.43580649;-7.870647217;-0.627571862;12.41527761;3.369468526
-11.78594026;18.49363188;-34.16727939;-0.850404801;-16.00832518;0.008054886;13.78925921;12.02828549;15.16410307;14.24955735;9.04894847;5.372217176;3.744275767;0.734298038;-12.36605875;-6.657237591;0.995630348;8.333118595;1.570338374
-7.685556833;21.50884253;-29.6923614;0.499271557;-13.83729219;-0.059383661;14.39716435;13.81204597;15.0123847;21.73040782;10.60604537;3.01965301;4.988224915;-0.206599873;-14.12693547;-3.51541184;0.775348082;3.45388816;-1.903179136
-3.529010046;19.86498615;-28.36388372;-0.979394965;-11.33899695;-0.346848319;12.86347191;12.96597766;12.99523452;24.72955419;12.3171212;-0.678104501;5.585265149;-1.11266645;-15.62124907;0.702601819;-3.620920614;2.066295987;-4.141499894
-1.387667068;18.31669301;-27.94571583;-3.79308367;-7.701192855;-0.644426941;10.38640161;9.547785012;11.65970681;24.1084613;12.82239381;-4.139671456;4.215957415;-0.916145513;-13.64423227;5.193127397;-10.89488649;5.138497127;-3.334893825
-1.812255504;18.99813634;-26.56351645;-6.316339972;-3.768016566;-0.723445128;7.891504751;5.000583249;11.24169764;22.15513557;11.05981384;-5.668498594;1.094902354;-0.044313237;-8.549054817;8.832217855;-17.3363504;9.591166456;-0.237005187
-3.877957369;19.51844193;-24.5627348;-8.054032002;-2.114771275;-0.536566966;5.334679312;1.21606414;9.888534285;20.16946096;7.348170089;-4.504699233;-2.178574342;0.098246834;-4.527127685;10.3690823;-19.77766854;11.20555701;2.640898563
-6.223030437;15.97190897;-23.89548236;-9.63114756;-5.060644229;-0.258212011;2.28965738;-0.506292279;6.052652013;17.86940507;3.503441186;-1.293958178;-3.819782667;-1.288839398;-5.99573613;9.378007329;-17.85107591;8.441908658;3.284246531
-8.109777252;7.734537151;-25.87297969;-11.7303456;-12.31476605;-0.123306829;-0.995710991;-0.008471526;0.565123059;14.87663442;1.652703305;2.301744179;-3.143337114;-3.410737196;-13.33764003;7.014168217;-13.88003906;3.7247758;1.821107364
-9.682588259;-0.803087416;-29.52014385;-14.10738064;-20.45686226;-0.210622344;-3.340547953;1.833432524;-3.706253635;12.31515724;2.559909305;4.581994968;-0.958023567;-4.542825632;-22.01606755;5.462260392;-10.7511365;1.132528421;0.148854971
-11.38316355;-3.527054334;-32.07661875;-15.63039713;-24.96197818;-0.372015457;-3.580186472;3.646449433;-4.352014537;12.45727542;4.83789892;4.746159302;1.142315521;-3.744237664;-26.10548604;6.158658376;-9.672597049;2.684835802;0.009584901
-13.18603086;1.935271561;-31.14826096;-15.26026514;-23.30602693;-0.376277302;-1.835653228;4.196344535;-1.717643852;16.46242314;5.834413673;3.215160091;1.945259699;-1.906497418;-23.24070184;8.28253363;-9.617074885;6.606170101;1.357369654
-14.37287109;11.67322354;-26.5251366;-13.00630374;-16.73556121;-0.136670724;0.23332239;2.906554084;1.226189595;22.45382312;3.658306683;1.184079999;1.33355643;-1.003511439;-16.60694037;9.121696326;-8.698078659;9.054041781;2.507041365
-14.01300522;18.48494406;-20.059467;-9.953884414;-9.34960172;0.190182107;0.645324715;0.155673121;1.445919603;26.2;-1.17430082;-0.232706677;0.112585062;-2.154895262;-12.17116299;6.369833812;-6.123121506;7.634031254;1.853257646
-11.69817723;17.98228851;-13.81964261;-7.361444202;-5.270585689;0.331808579;-1.175761274;-2.756496245;-1.425484261;24.32728889;-5.803767506;-0.647617934;-0.741049037;-4.351389778;-13.57728484;0.517896253;-3.013058027;3.475849515;-0.50400064
-7.914904123;12.39252582;-8.298964196;-5.693607586;-6.076621817;0.143972646;-3.723818245;-4.088492733;-4.682534543;17.43084564;-6.865395132;-0.407442771;-0.72824555;-5.181512149;-19.18293927;-4.901857842;-1.457311332;0.062431734;-2.769282514
-3.79796619;8.51467954;-2.349165008;-4.488619572;-10.26224412;-0.248797639;-4.507820801;-2.524833362;-4.903774299;10.17241967;-2.80974335;-0.031304076;0.073417417;-3.048386915;-23.76508776;-5.785990402;-2.684385806;0.007836774;-3.088961383
-0.517494828;11.4792814;5.12928982;-3.14783915;-14.79128108;-0.546879749;-2.083045037;1.950569035;-1.023123784;7.90689845;4.969999945;0.409132204;1.362690976;1.114483623;-23.25595628;-0.804672606;-5.902222402;2.791590913;-1.285047782
1.229726098;19.84764016;13.35772313;-1.856130322;-17.29982304;-0.524629377;2.705093665;7.759656818;4.611511559;12.47003906;12.99185273;1.41436034;2.979412842;4.300984336;-18.24971438;7.193952222;-8.732512933;5.466233703;0.936503294
1.34597787;26.59607209;19.49733132;-1.711605177;-17.3346714;-0.216447623;7.355045286;12.38776662;8.171427546;20.67428141;17.8580052;3.547291629;4.951251827;3.830068359;-13.25129749;13.07282978;-8.852814325;5.554255108;1.514439633
0.150138262;25.38380876;20.456334;-3.871927515;-16.05959381;0.122015528;9.697217352;13.76161113;7.623704221;26.86562921;18.18853769;6.707107462;7.27;-0.340457253;-12.52121142;13.19614683;-5.571613019;3.361403897;-0.093190376
-1.856518961;16.67530502;15.26974281;-8.435253501;-15.06112827;0.238624672;9.539473723;11.52338872;4.518392394;27.44461166;15.05458723;9.85022348;9.696173086;-5.43105661;-16.35281703;8.070927997;-0.233453812;1.562786204;-2.401619005
-4.116795012;8.103498197;6.104824497;-14.040234;-15.28143532;0.093617738;8.584151269;7.303981834;2.739126555;23.56921443;10.83062907;11.51629408;11.80449042;-8.017007045;-21.06027957;1.710667233;4.688966296;2.519564662;-3.227051232
-6.078782759;8.259006465;-2.93699124;-18.56649307;-16.63646508;-0.128799997;8.747605087;3.707917738;5.27314134;19.83630886;7.495332914;10.8606752;13.20237184;-6.733500792;-22.48595205;-1.666804745;7.049762954;5.905208193;-1.650714951
-7.305332723;18.84237999;-8.296069795;-20.40050569;-18.22;-0.20567145;10.39039772;2.62980291;11.7044225;20.19337491;5.635128475;8.405985648;13.68637692;-3.216169599;-19.69184436;-0.80139677;6.061557737;8.900019531;1.149843755
-7.633238519;31.86175214;-8.879017255;-19.30698639;-18.76328072;-0.081166272;11.99755475;4.046189322;18.44843549;24.63774978;4.683652129;5.839410423;13.20730169;-0.534501392;-15.50919165;2.147145022;2.425027774;8.783696572;2.939532004
-7.249352836;34.67976491;-6.208426344;-16.33897112;-17.19395188;0.094248992;11.53748348;6.129382489;21.41105594;29.43912907;3.926200188;4.875581505;11.75020271;-0.553349398;-13.64366943;3.97517196;-2.262874535;5.501619737;2.388554937
-6.572898009;19.35224653;-3.029535519;-13.02148169;-13.25559689;0.119778426;8.262186504;6.593308405;18.82892026;30.48129725;3.307395097;5.966977156;9.333345043;-2.529838364;-15.18795157;3.358794726;-6.322017863;1.797720715;0.203102625
-6.005843434;-10.89450111;-1.624772436;-10.53010409;-7.943509681;-0.056211237;3.380257867;4.299867401;12.11941859;26.67985119;3.403823265;7.85528332;6.178512675;-4.076841169;-17.78132427;1.725297757;-8.632357263;0.7655647;-1.55759816
-5.750439951;-43.08453868;-2.935856596;-9.392174839;-3.291201585;-0.281030801;-0.915588626;-0.004124878;4.405963992;20.57479646;4.697884134;8.392757083;2.867133648;-3.495550526;-18.03452917;1.472850092;-8.97322342;3.063716527;-1.326465968
-5.831538729;-62.7827416;-6.647827797;-9.652217874;-1.292741263;-0.337211649;-3.135404828;-4.272891754;-1.732541023;15.85761197;6.853537786;6.109898525;0.237999775;-1.317438756;-14.76116201;3.377510701;-8.049298313;6.353392561;0.625805636
-6.246864434;-63.11654384;-11.6448433;-11.07214818;-2.493229806;-0.145654052;-3.409441152;-6.548735917;-5.409925368;14.28795094;8.64;1.3944523;-1.006814109;0.295436949;-9.921886337;5.69227897;-7.179495142;7.466716108;2.509104397
-7.024300551;-48.18049205;-16.31858386;-13.10106682;-5.36260378;0.156531044;-2.939220779;-6.106249631;-6.913118094;14.78292176;8.596452676;-3.620692659;-0.729638049;-0.347045001;-6.514767992;5.785935393;-7.66516385;5.304520497;2.645690657
-8.064455977;-29.02367621;-18.80413803;-14.79564773;-7.238415392;0.33534113;-2.640464693;-3.608956007;-6.53285038;15.25616386;5.959267956;-6.428532147;0.52352955;-2.839671397;-5.636479892;2.76224873;-10.05241096;1.806881162;0.918712814
-8.915683292;-15.87621254;-17.5404769;-15.06596631;-6.394581967;0.266450178;-2.31292982;-0.359950417;-4.14709995;15.18248967;1.206042398;-5.809199612;1.828585198;-5.024081297;-5.698757993;-1.431360338;-13.70448703;0.128161941;-1.226650924
-8.792953344;-12.41949565;-12.18237068;-13.3131302;-3.645090682;0.040445348;-1.090360177;2.610196225;0.076300634;16.28221971;-4.130652134;-2.59380862;2.389712417;-4.951818305;-4.584560243;-3.511389813;-17.03662685;1.719600817;-2.144726592
-7.000447633;-15.52935689;-4.231839503;-10.01696851;-1.977144469;-0.126820194;1.331585006;4.889385357;4.809240806;20.63049912;-8.236288272;0.987395747;1.878176289;-2.653650482;-2.508413511;-1.676184933;-18.36805019;5.008674627;-1.419735072
-3.535185773;-19.4389216;3.384815872;-6.682152723;-4.213596906;-0.093331787;3.941164098;6.348755832;7.739738372;28.04781239;-9.899317434;2.849715058;0.414892641;-0.114496087;-2.478519387;2.792898352;-16.88173085;6.873832582;-0.083569491
0.62274369;-20.38187703;7.853766482;-4.999259578;-10.47566196;0.083748633;4.943998389;6.653396939;6.971165748;35.40232195;-9.030971998;2.351656095;-1.667526384;0.488882708;-7.4960555;6.594575468;-13.0521528;5.535650474;0.490868462
3.891744785;-18.37782535;8.166658002;-5.766100687;-17.64952527;0.208453656;3.194526551;5.252481111;2.521483891;38.72128863;-6.59907989;0.461959023;-3.992560764;-1.330048828;-16.92528988;7.19594751;-8.263880345;2.195930588;-0.082799292
5.00140782;-15.76242911;5.670881971;-8.398018578;-21.56314286;0.132154858;-0.720734014;1.975163377;-3.463209527;36.37995167;-4.074477613;-1.196378135;-6.101716794;-4.038159498;-25.64974846;4.883039484;-3.936038462;-0.073905534;-0.90883418
3.825225926;-14.57728269;2.964522165;-11.41759547;-20.26885647;-0.10774344;-4.727899249;-2.297281699;-8.097939816;30.55495858;-2.704727575;-1.604134446;-7.366724341;-5.52677147;-27.38440096;2.309756522;-0.808063628;0.840440209;-0.783598726
1.499162433;-15.15076565;1.954723012;-13.5035505;-15.69868448;-0.322218917;-6.680831924;-5.616458572;-9.65291292;25.60732665;-2.973491492;-0.957875485;-7.11909302;-4.956799422;-19.7284264;2.036438643;1.148939054;4.153607758;0.52760731
-0.313184997;-16.51723745;2.617389652;-14.21958044;-12.14494432;-0.34262787;-5.80424254;-5.87671041;-8.415346011;24.75501432;-4.486299578;-0.282414907;-5.052735425;-3.342682774;-6.666934156;4.304462618;2.277047785;6.892420836;1.951510538
-0.504839875;-17.61942142;3.419284808;-13.86783397;-12.66994194;-0.170214648;-3.043998268;-2.142378177;-5.925501907;27.86135979;-6.302753689;-0.482343783;-1.613911791;-2.437854194;3.878780889;6.990878115;2.737739351;6.593081523;2.052467197
0.818234264;-17.97380729;2.947016421;-12.73526352;-16.42779137;0.031718386;-0.164653299;4.55513906;-3.433424044;32.10043322;-7.506624055;-1.633569642;2.023597694;-3.047287362;5.708948657;7.662330881;2.431362207;3.512470044;0.396767582
2.558494016;-17.48944825;1.264521745;-10.56379427;-19.26916849;0.089993122;1.549480645;11.60863017;-1.027240117;34.6772664;-7.686187204;-3.020762907;4.52203547;-4.352927557;-1.313769195;5.7784557;1.333078007;0.355030151;-1.934543806
3.505717683;-16.11383308;-0.195537388;-6.838721552;-17.27220234;-0.026146157;1.933815915;16.24252082;1.871803126;35.04665252;-7.068542244;-3.786035326;5.141556369;-4.819077837;-11.69269843;3.060310264;-0.165790504;-0.196954882;-3.184340592
3.17845453;-13.94384812;-0.057397218;-1.65548148;-10.27319908;-0.191156115;1.575526082;17.02414325;5.308954731;34.72378361;-6.282356127;-3.61187083;4.130564685;-3.745604584;-18.92176436;1.801339615;-1.32278795;2.126852691;-2.382572202
2.021468329;-11.62734657;1.602011728;3.725617528;-2.322863545;-0.252914089;0.992494008;14.4880805;8.206776953;35.13155187;-5.959598143;-2.930287512;2.426168652;-1.965370748;-20.27629057;2.785416049;-1.528774275;5.034347598;-0.147027139
0.903078171;-10.34273927;3.202269653;7.346473969;1.481943968;-0.177618081;0.194721107;10.52657921;9.053742264;35.75742334;-6.453374051;-2.591042241;0.89928445;-1.040751387;-17.85774296;4.755501679;-0.808283893;5.838674926;1.861613558
0.398330226;-11.03949192;3.032817937;7.844163745;-0.776719818;-0.072269915;-1.050702496;7.069685941;7.2381351;34.50995086;-7.79899871;-3.321189267;-0.2394066;-1.757321977;-15.47831608;5.842829485;0.113826141;3.91253626;2.316020454
0.444178272;-13.5222761;0.810580532;5.544483157;-6.149009927;-0.068008198;-2.669529191;5.020108604;3.718794833;29.9743772;-9.81795786;-5.363026238;-1.394499439;-3.369604296;-14.65244381;5.496123545;0.26598765;1.184401146;1.214519012
0.571930373;-16.33827579;-2.014463746;2.364338715;-9.222226049;-0.181791543;-4.10353322;4.114320635;0.33303997;23.35974047;-12.17316214;-8.43019266;-2.979907133;-4.319532695;-13.52645794;5.001940313;-0.946664743;0.274534447;-0.321203549
0.421215223;-17.77554018;-3.523928668;0.470298293;-6.729287349;-0.293793129;-4.71981346;3.621856518;-1.648997301;18.12184904;-14.31717144;-11.8620619;-4.823443679;-3.737039701;-9.599187734;6.067051361;-3.4202714;2.041047576;-1.154004526
0.048006651;-17.18925489;-3.055596448;0.704951777;-0.523614235;-0.265070071;-4.380982798;3.180347726;-2.37488988;17.38270022;-15.49322882;-14.81451186;-6.144632197;-2.286162809;-3.373713952;8.832796593;-6.519325494;4.810670635;-1.082403611
-0.213919622;-15.45323923;-1.834678497;2.047162794;3.663923384;-0.082548937;-3.574025841;3.05778135;-2.877340577;21.36586133;-14.99955216;-16.46266244;-6.155618024;-1.541342603;0.902103922;11.31248001;-9.511800281;5.972984936;-0.805885265
-0.150598074;-14.08029809;-1.913858983;2.557628199;0.811488249;0.111980865;-2.946224586;3.695281307;-3.709663469;27.16091704;-12.69595798;-16.28141398;-4.767211683;-2.474965631;-1.447058116;10.97263453;-11.88730982;4.42418307;-1.047411911
0.081007098;-13.80034712;-4.329371139;1.044542073;-9.130701277;0.144445322;-2.705683588;5.023970189;-4.128752326;31.09246722;-9.394689756;-14.36489482;-2.765143365;-4.487920279;-10.92600515;7.161232137;-13.36982157;1.58490171;-1.752910446
0.087135385;-13.92188403;-8.088086897;-1.906486991;-20.76376235;-0.027336018;-2.488303781;6.237808202;-2.700058594;31.64339832;-6.681205206;-11.55365709;-1.267153261;-5.915242923;-22.28325206;2.178116413;-13.76555979;0.065831327;-2.155541484
-0.377623292;-13.07314624;-10.8776427;-4.359697042;-26.98510468;-0.263159095;-1.821313824;6.297072594;1.187373746;30.38991993;-6.051531215;-9.119553313;-0.892960685;-5.554686122;-27.82758657;-0.141873762;-12.91658435;1.240626892;-1.61363322
-1.13825136;-10.59761392;-10.88486754;-4.535515303;-24.04506463;-0.358069468;-0.699182449;4.784171538;6.354580715;30.19985907;-7.836520442;-8.040981714;-1.33199023;-3.79535189;-23.24569474;2.682185351;-10.85202094;3.981138901;-0.364598799
-1.692138946;-7.241099546;-8.156820348;-2.166709562;-14.05773806;-0.226591172;0.341732425;2.385809831;10.44041531;32.39571247;-10.72252037;-8.298746844;-1.657454568;-2.280564531;-11.1380617;9.760487847;-7.951788312;5.712257824;0.584227591
-1.583154085;-4.450973243;-4.372814655;1.338308737;-3.231905755;0.01413351;0.758045322;0.53415375;11.65799575;35.47112886;-12.39352039;-8.759444437;-1.106278431;-2.39834755;0.794924356;17.36871688;-4.868698222;4.790918517;0.365597411
-0.726081155;-2.965318019;-1.30299653;3.953364939;2.561805106;0.142176259;0.605161442;0.408628644;10.15979557;36.49088513;-11.01927208;-7.872496544;0.330845806;-3.990879937;5.568568457;21.62944958;-2.182187796;2.003964334;-0.893278372
0.59227576;-2.078852472;0.653083282;4.390403495;1.423664823;0.025605122;0.549500471;2.040928388;7.77498964;33.85231758;-6.587305421;-4.782888977;1.972773042;-5.485959501;2.042411351;21.20467951;-0.055147039;-0.182966428;-2.110330377
2.013260138;-0.324127069;2.596721708;2.717276079;-4.218123211;-0.260007935;1.185890746;4.230277106;6.363037849;28.87412015;-1.053470278;-0.053580595;3.056313971;-5.346053777;-4.731479731;17.93580161;1.782354203;0.095062499;-2.194125204
3.424227472;3.082337674;5.905339044;-0.065819604;-10.22886166;-0.497948123;2.288021549;5.370592215;6.309496511;24.77901875;2.911730733;4.606952472;3.338304985;-3.510184104;-8.036314853;15.09962758;3.676500994;2.413901265;-1.044554407
5.010372417;7.446177662;10.81332581;-2.925409194;-13.89669923;-0.521655192;2.782032406;4.582383512;6.542996839;24.00583087;3.73392931;7.488944054;3.196637113;-1.499216335;-5.017144916;14.8289194;5.632168585;4.509770748;0.324294066
7.003153984;11.2406911;16.05786491;-5.350364425;-15.17007813;-0.358964598;1.60599453;2.292156753;5.977176397;26.25217039;1.963933605;8.068759941;3.207925792;-1.073749628;1.298441697;16.7390517;7.229866844;4.420105335;0.680617309
9.353525114;13.55020848;19.8325656;-7.23961785;-15.54777773;-0.200043945;-1.251543437;-0.178951886;4.865782585;28.91368507;-0.278530119;7.316319973;3.626486291;-2.656833711;4.883291638;18.6394262;7.97402901;2.311642946;-0.309309645
11.6155754;14.85699478;21.1263773;-8.489430769;-16.12657818;-0.219877984;-4.51613727;-1.684812333;4.595333089;29.38889432;-1.045174681;6.845079412;4.223706615;-4.948813953;1.819454237;18.4977825;7.752583666;0.303510981;-1.764608999
13.1431335;16.36013855;20.26129036;-8.865117756;-16.67147058;-0.417819289;-6.528617464;-2.130612348;5.977536314;27.10951513;-0.137755933;7.537441138;4.576140065;-6.076786049;-6.656044271;15.99397036;6.954633158;0.467394966;-2.374124478
13.45034746;18.51176607;18.26128688;-8.325813845;-16.28819058;-0.620072021;-6.579219804;-2.452795533;7.724052937;23.57536346;0.732958073;8.729221638;4.483279397;-5.234192587;-15.43817308;12.57612789;6.097481719;2.876039521;-1.580300334
12.47675279;20.30994519;15.77502088;-7.392264013;-14.72018074;-0.641489476;-5.49772875;-3.710204769;6.877695323;20.63733548;-0.628064077;8.641125393;4.123167335;-3.34084747;-19.74057425;10.23497143;5.292775726;5.514560831;-0.090231198
10.59533427;20.18237645;12.61828638;-7.022396081;-12.87349751;-0.457432832;-4.905981566;-6.01337843;1.275136695;18.87358412;-4.986284021;5.78575832;3.849364699;-2.162110415;-18.56200786;10.09722968;4.079623402;6.132351545;0.754442458
8.398785317;17.66320268;8.322657195;-7.936569489;-12.10093628;-0.227644772;-5.716842109;-8.176217366;-7.924890584;17.63532387;-10.79118787;0.300452392;3.883955693;-2.720787113;-14.79937326;11.82278365;1.85130568;4.314916322;0.184613757
6.427844791;14.14268843;3.064849145;-9.947029437;-13.01496013;-0.149858138;-7.190491704;-8.43244989;-16.07206019;16.5196637;-15.06275419;-5.823751401;4.225897451;-4.442763386;-12.38425687;14.01329274;-1.453113925;1.858216369;-1.299821675
4.990808696;11.78662998;-2.014630444;-11.96397127;-14.96134952;-0.277051882;-7.441160987;-5.730219817;-17.882375;16.48671034;-15.4232587;-9.834312561;4.829708654;-5.766941663;-13.13358665;15.16837898;-5.021154233;1.105129457;-2.372163726
4.122069141;11.58791817;-5.48071626;-12.80022898;-16.54582906;-0.466165601;-5.040205113;-0.645015626;-11.38279663;19.14793652;-11.74946375;-9.869682075;5.802827153;-5.603370833;-15.80178547;14.58737821;-7.568825031;2.787109913;-2.06350208
3.645609731;12.56344388;-6.655569367;-12.15438818;-16.60409235;-0.506788306;-0.367301046;4.793759769;0.198839029;24.67929644;-6.204470264;-6.015055566;7.344133832;-4.284048045;-17.63175885;12.83852643;-8.208214122;5.363241284;-0.629802353
3.293582075;13.11804969;-6.056427114;-10.91655806;-14.73530452;-0.314460435;4.480483108;8.274975899;10.34264583;30.48040674;-1.64717541;-0.073009736;9.435478209;-3.172592766;-16.66623362;11.61987945;-7.073888231;6.45758927;0.668957763
2.84419595;13.32500091;-4.80708051;-10.47583755;-11.14657235;-0.01370811;7.203461033;8.563860808;13.70563076;32.3575409;0.362799536;5.693994745;11.60833011;-3.361413763;-12.88690456;12.93211795;-5.162523685;5.05832655;0.67556893
2.236312703;15.54644319;-3.608158277;-11.57217327;-6.322586141;0.165423456;6.999098964;6.119887031;9.788505652;27.75680961;0.485653158;9.900318687;13.10439077;-4.702441339;-7.708973133;17.71775736;-3.497032094;2.447998401;-0.652416456
1.597015848;22.04151932;-2.290412808;-13.6610127;-1.091773404;0.086316128;5.043640955;2.612629412;2.989002689;18.41480846;0.835539105;12.55755114;13.39636852;-6.050225738;-2.844522095;24.61197147;-2.31580704;1.015265733;-2.204177089
1.138610728;31.2201215;-0.407022494;-15.34750196;3.033532763;-0.175806701;3.393453811;-0.23543629;-0.936476119;9.845338587;3.203397727;14.5742883;12.65308834;-6.424218869;0.307425447;29.82342193;-0.981942065;2.054318976;-2.658984317
0.968644478;36.24969863;1.732977687;-15.53898079;3.99425222;-0.39932507;3.281381596;-1.632807376;0.825499483;7.567020645;7.650941741;16.78198542;11.70424643;-5.940383453;0.629083849;28.80922531;1.30923196;4.582519538;-1.571185753
0.951115226;28.49799722;2.710512895;-14.34862536;0.296711125;-0.405556348;4.253199705;-1.917420625;6.399199761;12.86193802;12.48525165;19.28066094;11.45676892;-5.619374534;-2.611268093;19.19916201;4.645874545;6.255911151;0.326703637
0.756444716;4.271599972;0.882355501;-12.99609277;-7.451635923;-0.205139215;4.801954083;-2.003908583;11.17526842;21.55702337;15.52635472;21.52265684;12.20431315;-6.283412217;-9.028286839;3.137645772;8.128849425;5.524909025;1.805745876
0.104853449;-30.23997254;-4.109756124;-12.80295298;-15.96463136;0.022322225;3.834785292;-2.637415847;11.63650122;27.03182027;15.64050231;22.9237225;13.40547273;-7.64187152;-16.38485133;-12.94406725;10.4837248;3.03913599;2.1575225
-0.966357798;-60.56940838;-10.53620576;-14.12936466;-20.65892516;0.088937588;1.624749755;-4.027614883;7.89505145;25.18806086;13.41894136;23.4231031;14.13604846;-8.487091676;-21.05701508;-21.60580937;11.05984529;1.018058753;1.664967057
-2.039365273;-72.25949977;-15.35022995;-16.11034154;-18.4737477;-0.047147115;-0.561196578;-6.004473753;3.089507309;17.41601537;10.62051658;23.55022232;13.85234383;-7.846549042;-20.06704454;-18.91111793;10.37490109;1.187371562;1.195647716
-2.547984643;-60.45656116;-16.10539195;-17.34926694;-10.17720379;-0.265268793;-1.729743538;-8.374003329;0.486438194;9.187159193;8.924787485;24.01122566;12.83443417;-5.992446312;-13.42053686;-7.078909911;9.737150069;3.197206711;1.375576568
-2.158737243;-33.65885458;-12.58542247;-16.94665723;-0.230701247;-0.404487903;-2.094504312;-11.05411613;0.895977129;5.508481769;8.948620015;25.17794417;11.95259623;-4.306855078;-4.687893096;6.818323769;10.24678426;4.979132921;2.112887697
-1.013187693;-8.351015562;-6.891712469;-15.04385875;6.018257305;-0.402569413;-2.793871662;-13.87895119;2.460349052;7.044067673;10.13417286;26.87035163;11.97651741;-4.06876445;1.139212651;15.41709205;11.9820392;4.699306458;2.836562288
0.365032868;1.92193439;-1.965553014;-12.55477134;5.929880417;-0.325401298;-4.668666913;-16.34993721;2.668686501;10.05442249;11.38952441;28.52852651;13.01584909;-5.270314639;1.211594507;15.70778569;13.99548581;2.491209902;3.123481795
1.43368187;-4.889250843;0.253703227;-10.44844362;1.291491586;-0.27245022;-7.266416369;-17.70239091;0.599244077;10.00114837;11.85998694;29.56277535;14.524278;-6.58975261;-2.972785146;10.43751317;15.06064658;0.359323477;3.066887592
1.985851736;-19.34989876;-0.342008882;-9.217985011;-3.185239113;-0.262484553;-9.046828232;-17.3577029;-2.56309655;5.571790449;11.26817765;29.60054828;15.77932765;-6.59915881;-6.689228089;5.387524491;14.52099506;0.335598241;3.059348387
2.230319247;-28.70752328;-2.617357722;-8.854010519;-3.495168392;-0.217154659;-8.663565931;-15.42284512;-4.954857596;-0.347326597;9.7331822;28.52287271;16.35410129;-5.124802427;-5.76654468;4.788658526;12.58930431;2.582217605;3.273389797
2.566772984;-26.57382418;-5.395519101;-9.116734192;0.635575492;-0.058291294;-6.195140315;-12.7736574;-5.874967543;-3.441453389;7.415213639;26.39806548;16.18242222;-3.493073585;-0.078946018;8.464110701;9.979697939;5.186326291;3.41580775
3.268842624;-16.65434026;-8.103712901;-9.698541857;5.589674813;0.182150028;-3.207868604;-10.56126743;-6.284134601;-1.865494779;4.387927937;23.47210193;15.27803196;-3.384968298;6.119427664;12.72962282;7.319468603;5.84401488;3.032358724
4.332402665;-8.196677179;-10.43036633;-10.14228449;6.618089205;0.358584263;-1.553689614;-9.468313635;-7.59838282;2.26266404;0.836118275;20.24050444;13.53372072;-5.298270525;7.394720849;13.96066358;4.88764838;3.907526609;2.058718911
5.565161163;-7.590866444;-11.640262;-9.781174208;1.395270394;0.333029478;-1.922196982;-9.287436396;-10.04605023;5.054371172;-2.674779819;17.46479099;10.92034604;-8.007635098;1.378415727;11.66494228;2.821011783;0.946643818;1.034493378
6.767842535;-13.33877713;-10.551736;-8.020480253;-8.234385989;0.114032518;-3.383858048;-9.166111184;-12.22635204;4.62814821;-5.199838777;15.98385382;7.918554966;-9.542415454;-9.276954507;8.557485211;1.438365054;-0.664960784;0.70529586
7.804117833;-18.27106434;-6.46441915;-4.891274439;-17.44696665;-0.122886007;-4.293808624;-8.333092862;-12.33032848;2.9111975;-5.80130779;16.33436243;5.640316695;-8.84468909;-18.69594804;7.853427246;1.234579498;0.159752472;1.343197446
8.519308882;-16.49262516;-0.2312798;-1.371735198;-21.52723448;-0.168932099;-3.750621518;-6.732154565;-9.901389179;3.699238895;-4.102385626;18.3915443;5.263890761;-6.652002962;-21.81434104;10.36309317;2.467969924;2.33743255;2.429154558
8.672024643;-8.638072043;5.710155736;1.001850935;-18.6305375;0.036660339;-2.355139212;-5.067852086;-6.48957765;8.683224462;-0.624542761;21.29249599;7.04364662;-4.83306964;-17.51982403;13.96752611;4.731449278;3.692330444;3.041327781
8.063253462;-0.860952448;8.73877425;1.141458581;-10.52643052;0.337446512;-1.659213813;-4.24985738;-4.544366389;15.16935516;3.355025171;23.75080424;9.703407376;-4.775232517;-8.754683734;15.78039837;6.990386545;2.96405356;2.642690956
6.835840128;1.245749059;7.957680444;-0.695236337;-1.225676976;0.473002084;-2.8318365;-4.701184339;-5.464493151;17.87634403;6.387043633;24.62422193;10.91320841;-6.247753838;-0.003070195;14.86512911;8.176097813;0.903774607;1.56726379
5.6690143;-1.920338606;5.045908452;-2.911526038;5.283914701;0.287803433;-5.694703098;-6.074478132;-8.456288961;13.55831757;7.565664092;23.43737017;8.75696043;-7.713376004;5.521493977;12.96147901;7.899718031;-0.500335462;0.748978734
5.575083988;-4.208158689;3.195568012;-3.617290159;6.772762746;-0.137448852;-8.882580459;-7.550452275;-11.12377172;4.45603322;6.988946587;20.59356808;3.226579461;-7.757145546;6.932871757;12.60400292;6.691966021;0.10273916;0.912246788
7.296233715;0.571549749;4.806050133;-1.972314669;3.305573847;-0.543100432;-10.87849793;-8.407091721;-11.22631318;-2.737352187;5.714686424;17.19253135;-3.415376727;-6.328574116;4.817207959;14.47984756;5.549944955;2.203556136;1.934548267
10.68081659;12.64839208;9.676425734;1.231331188;-3.234486551;-0.689324881;-10.97795518;-8.366198047;-8.127665845;-1.983403619;5.221556804;14.56968076;-7.825721567;-4.71131137;-0.036500461;16.60032377;5.160593559;3.960899989;2.945261919
14.54505959;25.51974409;15.10538823;4.230765828;-10.11369852;-0.532218747;-9.428858762;-7.483074131;-2.870810461;6.998695121;6.636593178;13.77490509;-7.595810535;-4.312325904;-6.869125374;16.17470518;5.445422605;3.940422598;3.069821283
17.23322425;31.24612091;17.81588175;5.660769991;-14.8309965;-0.236946576;-6.819331976;-5.789419849;2.921854923;18.08195547;10.12158455;15.19279586;-2.704800557;-5.411232477;-14.17860226;12.51534258;5.781859306;2.418574323;2.158435103
17.56819935;27.18653802;16.20123481;5.503182265;-16.0937131;-0.028512107;-3.439860136;-3.11580587;8.189512857;23.50563545;14.75775299;18.42473002;4.598923058;-6.990422544;-19.27960158;8.228352226;5.659154825;1.050549348;0.868130974
15.54992723;18.18312383;11.20944428;4.863259334;-14.37353002;-0.013988991;0.754148133;0.687037663;12.66806234;20.45095722;19.03121856;22.4613707;11.3553019;-7.736026948;-19.31592398;7.385636296;5.155306623;1.249644617;0.059473006
12.30540154;12.21638173;5.350949909;4.845560399;-11.6384239;-0.122555425;5.646502686;5.340433296;16.28730011;13.93059916;21.6924109;26.08820767;15.73149086;-7.232929384;-13.31044479;12.08326348;4.805189742;2.823672174;0.077379812
9.332654404;13.39862122;0.812980991;5.583192813;-10.15923342;-0.197936257;10.57010288;9.998285158;18.61280126;13.13015768;22.51328714;28.38202224;17.86032727;-6.249372569;-3.520548182;20.34284247;4.99771493;4.15325803;0.558369783
7.595099402;18.61959805;-1.75704231;6.309031952;-10.9717259;-0.146231262;14.54907596;13.63420625;19.06633773;23.56696742;22.47028606;29.09291489;19.22885685;-5.90087721;5.363643514;27.27840416;5.476729263;3.737757557;0.894650522
7.104489153;20.93712837;-2.983979503;6.380898414;-13.06761612;-0.005923936;17.02688816;15.72927158;17.75;41.12255066;23.18650476;28.71890973;21.2625295;-6.537801046;8.915879892;28.69295519;5.434262259;1.648988125;0.875711129
7.222009866;16.69078815;-3.537942858;6.257521128;-14.07648543;0.109857659;18.37889019;16.69472455;15.96405501;53.06727658;25.92127469;28.20678813;24.25215646;-7.430176874;5.654209891;24.18601145;4.156075436;-0.480878864;0.884957464
7.347032062;9.747049694;-3.219350977;7.410494957;-12.11397227;0.129418719;19.63831674;17.60183183;15.69271741;46.11517791;30.71111084;28.41519281;27.34963181;-7.534393167;-2.269088901;17.26118749;1.682794381;-0.9399864;1.472069847
7.404101817;8.573295745;-1.191677894;11.09720372;-7.429145232;0.082094496;21.5844402;19.33270783;18.28124852;16.10720426;36.20976962;29.63459839;29.43802589;-6.581978951;-10.74144738;12.45364501;-1.076361443;0.485134554;2.724136285
7.769979081;18.17483755;2.943864678;16.99544569;-2.451499012;0.050833416;23.97223648;21.77214593;23.3424245;-27.69175356;40.35226746;31.44981904;30.03775974;-5.421778742;-16.25849686;11.94368144;-2.882124312;2.302791264;4.053023993
8.78238216;33.83711715;8.322768949;22.94010284;-0.020676629;0.074188594;25.6087008;23.6923347;28.82705877;-67.13503165;41.4455702;33.03042692;29.51673598;-5.260515317;-17.4366538;14.39794245;-2.928720166;2.681259535;4.625459541
10.31012445;42.66685536;13.08227962;26.14439591;-1.107483525;0.10070835;25.24180848;23.4808361;32.24233219;-85.83727389;39.02007813;33.65955037;28.54765096;-6.504312404;-14.71650292;16.7353563;-1.256086121;1.130823124;4.05766195
11.77100987;32.64259844;15.55263426;25.03905362;-3.906357088;0.043113452;22.49738367;20.21356577;32.06043732;-78.87352789;33.94512181;33.15051195;27.3814298;-8.303358777;-9.163902692;17.01421765;1.431767674;-1.04663701;2.745096742
12.56852386;2.424554489;15.38125263;20.29792875;-5.196433829;-0.121639866;18.05881816;14.29819017;28.26878567;-55.16441944;27.79699654;31.87747089;25.58030052;-9.260538801;-1.836375664;15.85780374;4.293580843;-1.952839476;1.531226657
12.55551487;-35.98224047;13.66955674;14.2462498;-3.029382386;-0.30839955;12.98169013;7.233280264;21.82196887;-31.25904397;21.93271906;30.4190487;22.39204054;-8.677572866;5.786819605;15.35120151;6.760753312;-0.830719251;1.021413094
12.12876209;-64.31269884;12.0647284;9.153327815;1.396085458;-0.386012614;7.826730273;0.688792996;13.69770629;-20.99794789;16.86003906;29.09376302;17.40263082;-7.195767251;11.23473849;16.68277415;8.581515879;1.252116716;1.15824392
11.89306224;-69.91038413;11.60337148;5.79268319;4.313152782;-0.293022891;2.440579179;-4.408250259;4.479107021;-27.95063414;12.2431017;27.74779274;10.93529232;-6.231327933;11.62477487;18.84629677;9.640408287;2.393906273;1.412044269
12.19876223;-53.6820086;12.2165348;3.369001854;2.171609722;-0.099041746;-3.428199963;-8.162685715;-5.267918682;-45.1150469;7.445590398;25.96948531;3.945509206;-6.710316025;5.541321399;19.60147983;9.871976065;1.602563407;1.362317788
12.93815252;-28.49695173;13.14751732;0.722756582;-5.415337839;0.049534665;-9.321684716;-11.27474307;-14.4120969;-61.15226705;2.19441577;23.57621796;-2.419316902;-8.25380184;-5.204398515;17.72663025;9.401752531;-0.311478064;1.098205825
13.73463963;-9.696557657;13.75186205;-2.34123615;-14.85346955;0.054278514;-13.94733253;-14.3158373;-21.28604429;-68.22564622;-3.075931983;20.98640553;-7.242597071;-9.551428817;-15.73826228;14.39947036;8.717050609;-1.502607742;1.067550799
14.31485489;-5.079406534;13.93375507;-4.791763411;-20.63282314;-0.052514785;-15.9935975;-17.29212203;-24.52677627;-66.10476929;-7.391568233;19.13606307;-10.03604963;-9.571584811;-20.6563168;12.37178526;8.557108893;-0.796126574;1.550719932
14.72027021;-11.49091689;13.93969782;-5.372712274;-18.88880576;-0.143420789;-15.23317978;-19.74918103;-24.06753315;-60.45642214;-9.790355615;18.91527306;-10.75937754;-8.494126994;-17.35366678;13.64583375;9.458445241;1.241342506;2.299737751
15.18927257;-19.55075601;13.86947843;-3.92713772;-9.972870777;-0.118161831;-12.90075438;-21.20445405;-21.35748731;-57.50024019;-9.916074559;20.47443896;-9.799225838;-7.51687845;-7.705722341;17.72515113;11.27015326;2.839941414;2.717996787
15.84662705;-21.85178851;13.46752006;-1.812375438;1.711266744;-0.000101248;-10.89366026;-21.4798608;-18.49564683;-59.37173974;-8.308084066;22.9090747;-7.91938527;-7.729175126;3.192415241;21.97998895;13.08268967;2.658157059;2.422413451
16.49887509;-18.00996429;12.38954666;-0.971131067;10.39633135;0.083598088;-10.36100993;-20.68635368;-16.90320782;-63.35119785;-6.207200224;24.63115937;-6.056924968;-9.099913774;10.26300751;23.77080187;13.72655102;0.996356695;1.64368318
16.72390797;-13.30686125;10.6222947;-2.401659428;12.2818356;0.022533516;-10.82056085;-18.97530138;-16.56750837;-64.85490681;-4.950510348;24.27874409;-4.906026373;-10.50975325;11.23789885;22.45621277;12.52146738;-0.513958221;1.058242661
16.17951853;-13.1066349;8.595528681;-5.307152696;7.386037613;-0.165188864;-10.54740993;-16.37293157;-16.39849823;-61.35938503;-5.253163755;21.60621214;-4.481781514;-10.78560107;7.14638771;19.61242301;9.717879709;-0.434243357;1.184068564
14.87807185;-18.20193902;6.87626372;-7.646420859;-1.004226677;-0.334560556;-7.938538188;-12.88704413;-15.29662251;-54.15492681;-6.769173511;17.73907843;-4.028441205;-9.774041508;0.65152504;17.44863469;6.302139778;1.166170398;1.900048828
13.22194587;-24.69575585;5.782710208;-7.645737296;-8.595517236;-0.332191074;-2.764663746;-8.767213647;-12.98641168;-46.89601045;-8.215685457;14.55350154;-2.486962541;-8.46711853;-5.962234648;16.96140353;3.348584808;2.812107821;2.550257668
11.79744216;-27.79884806;5.323578064;-5.056945754;-12.47693748;-0.129002629;3.653098608;-4.617630836;-9.982532503;-42.49927422;-8.052202067;13.52920724;0.689389515;-8.079289815;-11.46022649;17.44413257;1.449530612;3.022598984;2.550243153
11.0923895;-25.81472189;5.488432788;-1.194419672;-12.30283834;0.15073152;9.394596254;-1.181761859;-6.890399856;-41.02165781;-5.36685845;14.8229459;4.942714634;-8.940338327;-14.91065451;17.59063989;0.635624866;1.690221065;1.931689775
11.30740387;-20.99837219;6.497292739;2.192109607;-9.899664444;0.331063795;13.1820525;1.073260959;-3.81110651;-40.07257131;-0.45126822;17.21026809;8.755219256;-10.22333638;-14.92540488;16.95716694;0.731830515;0.156867302;1.305391812
12.31223292;-17.083751;8.62940487;4.232027681;-7.833617938;0.328110142;14.94768341;2.238525764;-0.421160288;-37.1396463;5.305009264;18.97086422;10.54185784;-10.73870008;-10.20903639;16.33942368;1.710808405;-0.070754187;1.264155066
13.69699994;-16.09559558;11.72058831;5.391107588;-7.842394531;0.210249554;15.44359013;2.870727053;3.426432076;-31.74919318;10.15371283;19.12212662;9.716947035;-10.03773598;-1.194130816;16.79224844;3.655781767;1.246216353;1.784881836
14.87067387;-17.23930456;14.87376786;6.807924821;-9.885796866;0.12411659;15.43520694;3.597143324;7.257662607;-25.7251743;12.89926984;18.12060945;7.169072616;-8.799497153;8.908386053;18.38031742;6.373785801;2.842726221;2.210581639
15.21863746;-18.41089369;16.85248898;9.1710511;-12.18984792;0.155364914;15.25662244;4.740835413;10.19171128;-21.52037023;13.41132957;17.49309963;4.766800781;-8.162196274;15.16248654;19.98020211;9.096074792;3.134160692;1.860442305
14.33510269;-18.48223378;17.00381554;12.09952857;-12.24862676;0.250598436;15.01039868;6.251483206;11.6348949;-20.17687346;12.46287939;18.62241621;4.211480619;-8.650826395;13.81885753;20.36522958;10.67807587;1.717166387;0.715421785
12.25568449;-18.12433274;15.94491622;14.4772327;-8.349594726;0.27113114;15.00320483;7.939646827;11.77497185;-20.64830468;11.10563129;21.55923713;6.025520422;-9.717516638;5.026180567;19.48709858;10.26690743;-0.2164585;-0.47536494
9.524405438;-18.63170296;15.28451546;15.36755002;-0.862749642;0.130493231;15.80214923;9.739787963;11.3775278;-20.93786839;10.09488877;24.76760698;9.355291762;-10.31647295;-6.868533869;18.62691785;7.938112779;-0.949720008;-0.809615595
6.971715402;-20.19864591;16.41766472;14.70798603;7.510329994;-0.108358856;17.75077295;11.72080921;11.07440836;-19.93181078;9.752052931;26.06940398;12.66894044;-9.949069975;-15.86204927;19.17741216;4.752629802;0.18699845;-0.039866528
5.275904119;-21.49072249;19.3025737;13.26040977;12.8894639;-0.266253386;20.41957196;13.82768033;10.84777642;-18.27981375;10.21906871;24.17125737;14.80159392;-9.1690289;-17.87766229;21.19113004;2.124868437;2.193777136;1.161716616
4.581916506;-20.92521013;22.28841836;11.95871744;12.30466595;-0.188131132;22.62856273;15.62698944;10.23001953;-17.59268747;11.70159736;19.68478238;15.60414886;-9.052747122;-12.81714618;23.14030878;0.955607081;3.309907816;1.752661333
4.46228566;-18.32753178;23.2702278;11.2515265;5.539650706;0.126131285;23.17905325;16.36752266;9.018218228;-18.74890292;14.34485271;14.86470842;15.79845502;-10.12955893;-3.843556096;23.23488077;1.180532104;2.622830006;1.221505591
4.270898518;-15.27149839;21.3169914;10.93647763;-4.470972342;0.509812582;21.73579605;15.40364388;7.747213821;-20.88840426;17.80662425;12.19264711;16.23731293;-11.79516441;5.1133628;21.14483736;2.041400036;0.899495275;0.042827358
3.630567775;-13.72714813;17.43718338;10.49579474;-13.06303375;0.746253969;19.09077493;12.69124187;7.352607603;-22.0486198;20.99799416;12.77702048;17.16670713;-12.79283904;11.45584768;18.50260446;2.797645871;-0.123926075;-0.733186753
2.67451884;-14.30143981;13.79547549;9.54484934;-16.28320039;0.719684114;16.55322557;8.958761541;8.251545829;-20.91945611;22.44067669;15.69352257;18.03140171;-12.34428426;14.23938073;17.61656986;3.266885937;0.658086534;-0.408200286
1.854910519;-15.7490057;11.98152823;8.021188733;-12.87434318;0.482913889;14.99330319;5.388568422;9.72441126;-18.15994306;21.1892833;18.72552244;17.94114896;-10.88451972;13.20642245;19.47228688;3.782711908;2.69835011;0.737933765
1.493520507;-16.1990351;11.76466917;6.077516911;-4.6664213;0.198939275;14.38498161;3.025962303;10.32035663;-16.04546978;17.68785809;19.96023735;16.44785311;-9.700573017;8.146239624;22.81;4.690911764;4.287426199;1.683700343
1.47355692;-14.8995735;11.39722982;3.92713891;4.675398998;0.015655818;14.22574342;2.337710259;9.101021862;-16.64003906;13.8082613;19.09277982;14.0818084;-9.783090762;-0.45851773;25.15167426;5.893670911;4.104107496;1.565418354
1.35315239;-12.80669099;9.228279357;1.855200356;11.57457907;-0.023355886;14.3711401;3.194499934;6.679447463;-19.99195801;11.84764703;17.52842064;12.25573514;-10.93817123;-10.24038855;24.9073927;6.865895292;2.406896931;0.449680021
0.809982264;-11.48521683;5.25762788;0.334106518;13.95054248;0.026554416;15.39851479;5.186705043;5.032334017;-23.89916027;13.07807152;17.26597171;12.53880603;-11.9805275;-16.93234809;22.70499286;7.11096251;0.783606463;-0.703162975
0.021999598;-11.43228536;1.285031357;-0.010500951;11.55120976;0.0845587;18.03521625;7.926033703;6.041529583;-25.51503869;16.87914084;19.42054885;15.68924351;-11.83733365;-16.4050295;20.76476354;6.62078766;0.698416497;-0.855726658
-0.373996816;-11.49741318;-0.501560551;1.281041915;5.505038161;0.110480356;22.10118671;11.06294546;9.856636113;-23.52923569;21.13276871;23.45927211;21.00514831;-10.54881653;-7.631164473;20.8874083;5.91417951;2.167803818;0.219990142
0.255375487;-10.0053031;0.691741573;4.088219778;-2.253496057;0.112053976;25.98419041;14.08158974;14.45978493;-19.16010692;23.63690612;27.64704557;26.41948901;-9.241294501;5.820175682;22.85560622;5.620669339;3.764336186;1.749214407
2.033592174;-6.508469097;3.642122411;7.590384265;-9.34858699;0.106457384;27.31998461;16.20234243;16.93437933;-15.15742388;23.51507562;30.29377418;29.38163031;-9.094961978;17.35713674;24.65907459;5.983596493;3.925509658;2.603228396
4.457566999;-2.427896094;6.197459919;10.66335407;-13.32115018;0.08998377;24.53332044;16.65697345;15.57166543;-13.63183712;21.5966152;30.84489629;28.11744313;-10.25987533;21.23736816;24.30415284;6.710335324;2.361781974;2.21245104
6.781144609;0.139438304;7.151111393;12.5855498;-12.32938779;0.050977859;18.08148154;15.23567979;11.22012851;-14.45534226;19.54203684;30.04732216;22.59079274;-11.72521012;16.03003906;21.56320204;7.26786739;0.291013113;0.964093146
8.576803965;0.390321948;7.280521371;13.52770949;-6.12046236;0.007351065;10.36943105;12.66337349;6.814564784;-15.46750594;18.45787444;29.16200678;14.59233897;-12.26565571;5.170631642;18.11765125;7.325373248;-0.682425603;-0.213793265
9.991202961;-0.332864425;8.614923626;14.40154496;3.352369792;0.018225012;4.314301969;10.38297335;5.400244083;-14.23920385;18.10785059;28.89562691;6.852624123;-11.58728423;-5.638161826;16.02953119;6.944043553;0.007008391;-0.664895698
11.47011824;0.255410821;12.5070773;16.121564;12.3636554;0.14272239;1.597829065;9.747312302;8.091837582;-9.938893169;17.29906415;28.87163425;1.662630351;-10.6032717;-12.02896249;15.96929529;6.382684927;1.453685679;-0.486123987
13.19567113;3.124554779;18.13678766;18.81289421;16.98711668;0.375154558;1.871324169;11.12682627;13.40564749;-3.87802009;15.05080764;27.99238051;-0.1927559;-10.57239588;-12.8957159;16.78491665;5.757515443;2.195516695;-0.29640554
14.7489142;6.72297735;22.76885283;21.57746497;15.04054628;0.618876399;3.390752827;13.59483245;18.33295165;1.532023341;11.54259125;25.35883286;0.427362689;-11.89299721;-9.651669296;16.72039621;4.915994737;1.587344116;-0.57117833
15.33842249;8.118052407;23.66483974;23.02960107;7.255505346;0.73540452;4.437215348;15.48153036;20.26892033;4.430874358;8.073124172;21.03523719;1.820039063;-13.67918972;-4.146011278;15.09;3.654156324;0.351122881;-1.187836412
14.45254048;5.660189778;20.18280025;22.23708522;-3.046591788;0.640619951;4.357293809;15.44736715;18.42904088;4.469524737;6.113356393;16.11774172;2.575866108;-14.53540597;2.561630471;12.86297526;2.055869769;-0.179770833;-1.587260235
12.40478677;0.836457649;14.41461884;19.4;-11.55836027;0.37369753;3.525419443;13.31663361;13.93710234;2.544453239;6.269410273;12.10430014;2.28053091;-13.83619324;9.619440639;11.68763783;0.600105255;0.623368155;-1.35997267
10.28585415;-2.493600851;9.847606607;15.79323258;-14.92233122;0.080086975;2.515786311;10.07571334;8.80130316;-0.160991105;7.981043742;10.04137762;1.39771132;-12.33325977;15.11259899;12.34044616;-0.105887676;2.062841696;-0.676482471
9.292296228;-1.067859698;9.059528143;13.02765299;-12.00646953;-0.083407234;1.392835165;7.070532626;4.676040294;-2.868844264;10.10330427;10.01489516;0.592387845;-11.50859534;16.06040481;14.06491691;0.243725052;2.769778173;-0.150055237
9.90601679;5.019351906;12.1478664;12.1477569;-4.083577102;-0.051429918;-0.218633158;5.046808922;2.21561135;-5.166100021;11.77417059;11.25367491;0.137340043;-12.23593935;10.38565378;15.36408421;1.432015759;2.008446901;-0.268917591
11.53966327;12.1658588;16.95192583;13.15113525;5.879147415;0.114726606;-2.447433227;3.780592922;1.206566138;-6.593845409;12.80664567;12.69049072;-0.12435349;-13.95904743;-0.626668342;15.42399237;2.894660766;0.391293703;-0.939915107
12.9230148;15.98745065;20.72884437;15.17746581;14.33448108;0.28080695;-4.649766174;2.557534242;1.103111022;-6.559149436;13.36633863;13.5788926;-0.341184681;-15.14621886;-11.85072609;14.79434544;4.128426417;-0.675863576;-1.57217272
12.95245551;14.7362078;21.92427313;17.14542139;18.29414914;0.335949407;-5.661222096;1.064715091;1.474811648;-4.811938437;13.39379848;13.81120062;-0.261422072;-14.63522386;-16.9507202;14.72445047;4.977014297;-0.301040361;-1.615623676
11.39143154;10.57438598;20.78332148;18.35404399;16.29479094;0.259224498;-4.687840625;-0.083856735;2.141457128;-2.002917231;12.45099717;13.82368809;0.653463653;-12.67693975;-12.58818154;15.86683817;5.578159465;1.063988111;-1.045001769
8.942783311;7.631482516;18.5807013;18.66445048;8.99677964;0.11543511;-2.055702855;0.32228335;3.074534603;0.388083671;10.21421348;14.21741868;2.661029211;-10.74995536;-1.014032449;17.64069989;6.083307139;2.057503555;-0.341391965
6.692062168;8.481874007;16.31189223;18.22770754;-0.875454208;-0.003026566;0.888444161;3.110356595;4.241333691;0.919911503;7.137919468;15.33809404;5.255110716;-10.31294778;11.20204412;18.85316238;6.458980562;1.705703552;-0.005182367
5.366814525;12.02045073;13.95824558;17.05876889;-9.451883557;-0.036461149;2.706652665;7.852031704;5.488152129;-0.785050458;4.549565701;17.0336918;7.307482701;-11.59823344;17.6130921;18.91371869;6.562696251;0.365878899;-0.077144585
4.943911703;14.52211985;10.81282351;14.84669334;-13.28484936;0.020315093;2.883601042;12.81699397;6.483424579;-3.761065721;3.891036324;18.70046733;7.845507402;-13.49083761;16.25921129;18.3968848;6.38105295;-0.584139521;-0.130933143
4.833668874;12.95550513;6.438728358;11.19063755;-10.8741413;0.135750847;2.098712296;15.86621792;6.754209445;-6.473236864;5.618763687;19.59027446;6.869752088;-14.55229087;10.67945401;18.38202594;6.134869218;-0.040586238;0.254053227
4.435188383;7.703358115;1.380248477;6.106446107;-3.333944903;0.270493907;1.560467117;15.69393045;5.863768672;-8.015016685;8.686200726;19.22225575;5.484293883;-14.23937304;6.873355798;19.25627699;6.088034584;1.748742366;0.995034408
3.618974607;2.362645723;-2.95512724;0.400437535;6.177008887;0.391667944;1.986183996;12.56379694;3.68862387;-8.689922477;11.14120277;17.6673084;5.124129411;-13.24057142;8.622747344;20.24455775;6.221388443;3.344926299;1.473973362
2.796639149;0.803326455;-5.117468816;-4.460847799;13.91714954;0.471178954;3.06719865;8.056317919;0.610724855;-9.478035279;11.46353726;15.51541442;6.420837658;-12.69538689;14.7412281;20.22109634;6.123930119;3.399035378;1.031317993
2.56699365;4.002184017;-4.495485459;-7.035858432;17.0975846;0.484754641;3.802140822;4.054550356;-2.577589914;-10.91047894;9.613517815;13.51374075;8.606390614;-13.08126545;20.18161473;19.03043533;5.295243782;1.888811949;-0.449812465
3.225167592;9.336571119;-1.647158217;-6.783072421;14.7805378;0.422930218;3.342508132;1.702173422;-5.059165301;-12.43681095;6.949302991;12.09446936;9.979736876;-13.81659303;19.92442189;17.92879178;3.663160509;0.163979926;-2.400181556
4.489910555;12.89398697;2.07243933;-4.539873586;7.950832661;0.30544774;1.619626494;1.010177298;-6.403323055;-12.92343644;5.076289778;11.12925601;9.129209399;-13.91743832;12.61206866;18.53105042;1.860412908;-0.265098246;-3.997285969
5.631198;12.7713681;5.264553673;-2.192625606;-0.978032102;0.180039673;-0.706701856;1.252451788;-6.677796406;-11.84849035;4.568008644;10.12394324;5.991477657;-13.04275301;1.388315753;21.13472388;0.944806331;0.897239039;-4.787755746
5.909697394;10.52432858;7.13783699;-1.633868876;-8.907158009;0.098058415;-2.817768588;1.716777746;-6.195765903;-10.04999723;4.600714327;8.74627219;1.943190532;-11.90568459;-8.295243162;24.04536849;1.702753211;2.451677862;-4.946849831
5.049222599;9.567285125;7.744787037;-3.621979306;-12.94441394;0.082112557;-4.265710357;2.197750842;-5.191343032;-9.229132801;3.778373699;7.287280762;-1.125718582;-11.64084261;-12.00618746;24.72722376;4.056447818;2.788889704;-4.965882661
3.452093414;11.98690653;7.783334715;-7.299623952;-11.4284113;0.111787131;-5.046327971;2.922556132;-3.799483333;-10.53802739;1.434082128;6.645703984;-2.032730055;-12.71573383;-8.49053279;21.90642342;7.051188488;1.363391395;-5.090736346
2.020838353;16.60292304;8.143387419;-10.73109671;-4.815830347;0.140607838;-5.282775523;4.097353231;-2.37992764;-13.4739477;-1.687409319;7.754205349;-0.91652399;-14.42020316;0.329738532;16.75327499;9.446128071;-0.783500906;-5.060730874
1.673575905;20.0001585;9.427071704;-12.12189854;4.151811157;0.131568119;-4.933184456;5.539703084;-1.766348779;-16.11332088;-3.92103745;10.81700538;1.123388176;-15.44140661;10.85112389;11.99416865;10.45081634;-1.933747587;-4.406235553
2.816986937;19.62377274;11.63237581;-10.88813301;11.46899837;0.083129701;-3.836618766;6.726249582;-2.942582719;-16.56935049;-3.912348898;14.94442788;2.957235633;-15.02202995;19.43265599;9.677237564;10.05721572;-1.216644178;-3.025284727
5.077734982;16.16900344;14.12231937;-7.844198731;13.82960607;0.02630528;-2.011416221;7.192310354;-6.147094314;-14.45689885;-1.559784504;18.5419352;4.149678795;-13.64606319;23.39255285;9.609638683;8.788791694;0.631461284;-1.475703576
7.461372329;13.05828095;15.90189046;-4.431806428;10.45260867;-0.002171283;0.161327176;6.920660687;-10.09745252;-11.10163476;2.070511226;20.2707139;4.989480514;-12.61728758;21.46407774;9.914852167;7.188222789;1.95674549;-0.659706882
8.865409868;13.34933734;16.08284068;-1.632690551;3.50934426;0.012676365;2.120024414;6.388879687;-12.2138454;-8.31378965;5.701429088;19.94237933;5.971713494;-12.90604988;14.12344725;9.161337307;5.54470897;1.696319576;-1.130138897
8.654520598;16.77256606;14.29303933;0.57718264;-3.279429924;0.056536178;3.534506991;6.248823053;-10.059655;-6.813284367;8.802371611;18.70472945;7.29309853;-14.30879067;3.776312405;7.939806019;4.067817936;0.334270334;-2.609511907
6.954305513;19.66356193;10.7933117;2.845429905;-6.985779192;0.100055237;4.549039522;6.907549934;-3.142170446;-5.707530112;11.7435403;18.35030372;8.787143551;-15.67569131;-5.684139199;8.188695202;3.232477666;-0.559898816;-4.151591779
4.489676883;18.15196669;6.244394808;5.526959134;-7.10827465;0.119895196;5.591407692;8.320648294;6.3315717;-3.487621989;15.09618083;20.19372908;10.23393419;-15.98179787;-10.2604173;10.73633692;3.813812835;0.213947537;-4.829432998
2.089388869;12.04438951;1.312049453;8.069889549;-5.361948152;0.110339937;6.893193692;10.09162015;14.54468975;0.354505212;18.78079045;24.26174786;11.62250947;-15.24893714;-7.716167475;13.46575397;6.414809204;2.362808979;-4.387352124
0.199773239;5.911742933;-3.588245643;9.267564607;-3.935024491;0.081056858;8.160039063;11.71389217;18.39384827;4.559016671;21.86027685;29.30571857;13.04841697;-14.47473992;1.161007531;12.27159207;10.81751631;4.327691041;-3.33805773
-1.266784778;5.923428022;-8.237093122;8.179799576;-3.724301009;0.048088333;8.717513689;12.72635017;17.3528445;6.915825402;23.15936206;33.5688965;14.36178048;-14.64954355;12.78623981;4.53591817;15.76352596;4.655139048;-2.469855145
-2.676104099;14.48142657;-12.35825165;4.931566395;-3.987418125;0.02636339;8.032162602;12.7133769;13.42821186;6.003204406;22.14279692;35.75523416;14.9931687;-15.78677328;22.43815907;-7.710375534;19.49751996;3.274352653;-2.21681488
-4.239847166;26.87387309;-15.46601112;0.691610763;-3.547648311;0.025449214;6.159956119;11.28409537;9.250577159;2.363350158;19.2768667;35.58915236;14.24931341;-16.87872276;26.38133388;-18.01889087;20.78196944;1.535201053;-2.415253253
-5.758812675;33.08024394;-17.03083851;-3.155606056;-2.291026875;0.045866755;3.727719437;8.196081377;5.888781386;-1.888053888;15.59535022;33.71556826;11.90155216;-16.83149287;23.31306705;-19.63325338;19.64514696;0.988098439;-2.58894484
-6.740431149;24.12581704;-16.88807335;-5.926360614;-1.456461717;0.076162897;1.460541563;3.606727859;2.228749468;-4.674020992;11.91438325;31.1506354;8.538920353;-15.52174605;14.60669805;-10.57980981;17.26982538;2.016823025;-2.43905682
-6.784619113;-1.234887892;-15.5625142;-7.857971081;-2.373072727;0.095747792;-0.340326796;-1.777183834;-3.569085995;-5.4260808;8.421225686;28.71441106;5.289770434;-13.99295696;3.577444304;4.365793638;15.08250482;3.549744574;-2.080362428
-5.922188812;-34.39691243;-14.19900093;-9.492730745;-4.814630573;0.086579932;-1.93651802;-6.88955921;-11.8426939;-5.233721884;4.956370138;26.75647512;3.052294621;-13.58614144;-5.714849494;16.70887175;13.73560249;4.083324833;-1.853425823
-4.639217665;-61.27281643;-14.07182507;-10.86511502;-6.617025463;0.04750208;-3.821513084;-10.82;-20.47031016;-5.678279971;1.617550155;25.20195785;1.844388098;-14.76928444;-9.796193906;20.14704463;12.75944039;3.06482886;-1.95401524
-3.578439012;-70.53363426;-15.95957896;-11.32526262;-5.143937622;-0.001706211;-6.228329098;-13.32432231;-26.16096696;-7.456374261;-0.996327777;23.75656563;0.843548662;-16.70788006;-7.075233699;14.82355709;11.12;1.37434393;-2.264631403
-3.155802522;-60.29062682;-19.7613402;-10.22920182;0.507400239;-0.033690146;-8.883365699;-14.91780775;-26.99174633;-9.958695838;-2.210004883;22.12045942;-0.866018527;-17.95728225;1.265461513;6.646639787;8.19664332;0.484439869;-2.533821055
-3.368584952;-38.7845465;-24.54233056;-7.854285944;8.460821457;-0.03551195;-11.15921569;-16.41095144;-24.01470841;-12.00850236;-1.969538522;20.16780815;-3.428822892;-17.66161248;11.45321881;2.374177711;4.380647044;1.084326148;-2.682770739
-3.889367912;-18.76702916;-28.91466421;-5.574912807;15.18987517;-0.019556272;-12.43551614;-18.18786415;-20.4711988;-12.91482222;-1.069721786;18.08706888;-5.956039961;-16.21313053;18.81358234;4.537624563;0.835844012;2.434278752;-2.893059523
-4.31203465;-9.531882931;-31.51514117;-4.924736387;17.99148076;-0.010986612;-12.35893309;-19.77746973;-19.19446938;-12.81864385;-0.553954806;16.41169822;-7.108457895;-14.83321507;20.40591411;10.2234766;-1.349458783;3.040039063;-3.365484773
-4.338250818;-11.94775781;-31.40558181;-6.212815371;16.7983072;-0.02123659;-10.86921416;-20.08761461;-20.38330604;-12.10887308;-0.730544439;15.82924443;-6.074016933;-14.50084243;16.99144911;14.34507399;-1.921471961;2.031201455;-3.997971423
-3.809564274;-19.46919205;-28.35493193;-7.918712696;13.8820072;-0.033096006;-8.108892337;-18.17227967;-21.65111361;-10.64188622;-0.715952748;16.77083087;-3.164054386;-15.19820911;12.68734249;14.26962214;-1.552160634;-0.010548662;-4.346261358
-2.66413852;-23.8073;-22.9924107;-7.584298032;11.82106232;-0.015183406;-4.39528439;-13.97086144;-20.29015179;-7.677728024;0.949324068;19.00992679;0.433672036;-16.09679873;12.09529271;11.74243186;-1.25043641;-1.526441298;-3.972848976
-0.950276542;-20.87136684;-16.73518751;-3.684811404;11.5696184;0.04428731;-0.267208565;-8.455009092;-15.74498786;-2.686501987;5.010297807;21.61869975;3.522930301;-16.42458532;16.71260739;10.66998792;-1.605427522;-1.335175168;-2.894690175
1.083516579;-12.85384095;-11.35926311;2.970294132;12.25415135;0.117056209;3.557896747;-3.065877866;-10.09732663;3.760566081;10.62459075;23.451137;5.68468433;-16.1631338;23.36014926;13.07616519;-2.442272022;0.34297764;-1.694761276
2.950103105;-5.501640328;-8.251427034;9.527415788;12.64992989;0.152983682;6.437836278;1.126407664;-6.133698791;9.97801464;15.76334251;23.9094032;7.385153466;-15.94827956;26.15215783;17.07988957;-3.079918131;2.096794193;-1.131388496
4.074938511;-3.185094988;-7.684606515;12.99357936;12.71149295;0.126987348;8.145137406;3.903510523;-4.749886417;14.20022589;18.68962998;23.43183062;9.388607215;-16.34058736;20.86803492;18.74650809;-2.899652303;2.564771726;-1.536099593
4.108877074;-5.703476637;-8.61648257;12.34581854;13.54023815;0.072750253;8.981760863;5.691039681;-4.083653954;15.809917;19.32377019;23.24518529;12.00426626;-17.22388591;8.528959564;16.01438124;-1.757554527;1.592407814;-2.515872974
3.181928154;-9.047989873;-9.281159529;9.19485668;15.7821848;0.065247442;9.479701159;6.903799338;-1.246268888;15.65215785;19.27559438;24.45573915;14.77165422;-17.92854007;-4.672774654;10.94345345;0.007906475;0.290936613;-3.243755975
1.860815174;-9.102909866;-8.300982955;6.464115118;18.13688829;0.157057694;9.870426783;7.443867094;4.836600195;15.12387294;20.38206731;27.12283439;16.77446852;-17.93830359;-11.27213011;8.066735403;1.861575198;-0.020016251;-3.120240697
0.787611509;-5.075374862;-5.592363092;6.12996352;17.75258076;0.319893262;9.785557824;6.796279118;12.04735921;14.86201475;22.8970937;30.06794974;17.25838738;-17.45197432;-7.483717824;10.25511944;3.362214252;0.986230379;-2.257785199
0.254921397;0.085917005;-2.392020522;7.820678771;12.55947391;0.448260225;8.523599836;4.629627941;16.51922154;14.24945872;24.90775619;31.65470143;16.04626917;-17.20847338;4.408554094;15.90152418;4.280009766;2.371814208;-1.381343215
0.061111464;2.427301309;-0.333251357;9.353533393;3.585688025;0.43465096;5.731733644;1.347469514;15.76525735;12.20976393;23.64586631;30.99432721;13.50124318;-17.71740743;17.85108058;20.14644908;4.584295783;2.810698849;-1.232159063
-0.220375246;0.464785035;-0.226945138;8.691122896;-5.045852114;0.261670906;1.926493499;-1.947151023;10.7991672;8.541936793;17.79740734;28.62905882;10.20501012;-18.6541224;26.42588247;19.21149643;4.430794146;1.80231695;-1.979184469
-0.773898367;-3.516921499;-1.46265756;5.652802138;-8.895107381;0.032886228;-1.66334776;-4.118192372;5.354851781;4.500101982;8.975532734;26.1087216;6.711311054;-19.0636894;27.46774244;13.9734547;4.167024987;0.127859492;-3.120990389
-1.282417291;-5.372544998;-2.490537134;1.97784709;-6.681905263;-0.092388034;-3.891810931;-4.780619431;2.825372103;1.99408822;1.05479554;24.76528083;3.562444985;-18.25239476;22.49336347;9.424852705;4.237019508;-0.84991559;-3.929594463
-1.1273358;-2.575438832;-2.006339422;-0.234350327;-1.47231436;-0.016112269;-4.498425632;-4.548759488;3.564157386;2.077970422;-2.287348416;24.68600126;1.42565717;-16.54654371;14.84776258;10.28614575;4.906355655;-0.406497747;-4.03240348
0.089209405;3.642644188;0.090552258;-0.310836948;1.698981242;0.221865046;-4.214603832;-4.512878986;4.90469166;4.096128361;-0.018549234;24.76994659;1.052459058;-15.15305712;7.101722191;16.57606506;5.946662641;0.89495996;-3.642904218
2.130982264;9.271246327;2.703794452;0.526980948;0.010966569;0.472077297;-4.036736725;-5.346337627;3.865722539;6.28140599;5.673220067;23.85798603;2.935760555;-15.15851558;0.412639684;23.18639983;6.587011705;1.699185855;-3.288078805
4.192481477;10.81231882;4.461999896;0.380469302;-4.643029443;0.588661951;-4.275013584;-6.76814122;0.108978946;7.25406907;11.10567769;21.96897712;6.86975686;-16.53123409;-4.219945466;24.09275429;5.923629422;1.063712837;-3.321024159
5.427644394;8.149700692;4.773279155;-1.529716186;-7.100058594;0.536653113;-4.23955727;-7.8057422;-3.547974885;7.01662045;13.76166066;20.48950613;11.78963919;-18.06047076;-4.856330467;17.68744993;3.601448921;-0.675935954;-3.659494586
5.539961278;4.579366454;4.158532661;-4.082559426;-3.291340561;0.40675842;-2.907960157;-7.638467876;-3.607133249;6.51839424;13.80649892;20.98901692;16.11112307;-18.36709881;0.506393116;8.526559339;0.25317139;-2.127655552;-3.944252507
4.970549478;3.90092199;3.651610661;-5.179603525;6.085957118;0.328985074;-0.03841012;-6.306123888;0.801556851;6.266211344;13.34935452;23.54561804;18.42695962;-17.14519949;11.50068397;3.7207627;-2.754213884;-1.966007823;-3.918054164
4.544596846;6.92551029;3.856740371;-3.561003329;15.77549104;0.361990252;3.27658314;-4.668043903;6.774175063;5.456117798;14.18518121;26.05068036;18.14837531;-15.53132795;23.86397658;6.830758487;-4.220455786;-0.022191889;-3.653009393
4.87324778;10.34569696;4.527988908;0.076075096;20.03050983;0.453803304;5.218126057;-3.629126459;9.824437535;2.680374813;15.98179656;25.33539998;15.71447823;-15.21873217;31.01254741;14.44870024;-4.047925152;2.544314607;-3.439632182
5.987402151;9.110722544;5.046933307;3.630465981;17.2178872;0.504652601;4.629220799;-3.290495628;7.653892025;-2.278885475;16.47627271;19.52760755;12.28591055;-17.02597335;28.28071336;18.56087866;-3.448960514;4.109310123;-3.492090431
7.45469103;0.640542543;5.344987096;5.327023483;11.08117086;0.470852756;2.069582519;-2.78449712;2.262987252;-7.303267264;13.54632764;9.922362074;9.151531643;-20.13045282;16.68852851;12.97021793;-4.127834003;3.780727602;-3.784961385
8.805290041;-12.38713844;6.367464007;5.099105262;7.553603046;0.4116907;-0.394638329;-1.004626259;-1.515940931;-8.856570053;7.422929361;0.798642356;7.192412952;-22.63253816;2.901582472;-1.427784233;-6.922159698;2.013882704;-4.172843148
9.843027653;-23.02635913;9.514052478;4.411563631;9.786819631;0.433027535;-0.60266244;2.32328663;0.046003283;-4.620763538;1.12894688;-2.965728863;6.635336804;-22.99129245;-5.13968515;-16.89279434;-10.88305542;0.234541676;-4.633705039
10.56270683;-24.39278153;15.35731084;4.696581631;15.60500675;0.576816274;2.145633492;6.12419278;6.421841576;4.207147882;-1.374243864;1.031524102;7.124340718;-21.14585221;-3.825992997;-24.49975689;-13.55392615;-0.18316618;-5.338835592
10.79703972;-14.35127759;22.6249239;5.818752313;19.5386081;0.759338815;6.598416579;8.515051965;13.10675578;13.06030624;1.998388815;11.08254096;7.996022267;-18.43084051;3.667205969;-20.6946625;-12.38612252;1.174683672;-6.431266861
10.0065904;2.785546456;28.35427474;5.99263077;17.66363965;0.822491774;10.49122947;8.070329348;15.12306759;16.84465937;9.818588815;22.35316982;8.609293931;-16.43334895;10.12823695;-9.560885838;-6.397752417;3.545252731;-7.716878335
7.527066573;18.79095111;29.31775205;3.321207027;11.04758232;0.663095355;12.14565205;4.86420018;10.87433717;13.46007813;17.9481303;29.82252822;8.604035332;-15.80504227;10.12817797;0.824721491;3.036056982;5.506560003;-8.611944751
3.168915541;26.53740407;23.88272944;-2.317094972;4.796386946;0.331823822;11.4676452;0.464361339;3.229912306;5.244169274;22.19070066;31.15465085;7.996772461;-15.99854714;4.228661079;4.79294868;12.80362923;5.819866263;-8.487349086
-2.311379805;24.06458955;13.11211183;-8.68273111;3.511939639;0.01248381;9.639485725;-3.159122063;-2.927375658;-2.872653155;20.83972528;27.6045788;7.074432746;-16.02868506;-1.809743039;3.043209918;19.68476491;4.089081596;-7.173747998
-7.333837253;15.09896266;0.383540561;-12.5082872;7.123539603;-0.109363814;7.901977398;-5.002926081;-4.550911887;-7.085885547;15.34201695;22.54141995;6.14435913;-15.47037049;-2.075209158;1.209293961;21.94118757;0.934017733;-5.195639798
-10.24828542;6.025880547;-10.25012181;-11.78295799;10.80457594;0.014786933;6.531754076;-5.641508336;-2.520029297;-7.366566095;8.801791362;18.85748386;5.303056683;-14.7775952;4.461301959;4.57785484;19.92021118;-2.339708707;-3.489488347
-10.24758985;1.7172258;-15.98252977;-7.210870242;9.198549958;0.262285028;4.854109562;-6.620599928;-0.44518545;-6.976497451;3.653233069;17.17469345;4.398764839;-14.70628687;13.13838355;13.49158715;15.43996706;-4.385415575;-2.787237497
-7.801318811;3.104704319;-16.38786479;-1.705834857;1.42319445;0.43705504;2.169525569;-9.110310857;-1.444489334;-9.35709703;0.292085867;15.96478181;3.225882278;-15.46895807;17.63541976;23.10254841;10.51825784;-4.48184572;-3.139297593
-4.293846703;7.78161999;-13.24475221;1.664853115;-7.475948387;0.419116776;-1.323671485;-12.86075654;-5.686603859;-15.02228249;-2.488354372;13.18578887;1.783822627;-16.46280378;15.36128602;27.37946228;6.330767842;-2.903748682;-3.945959249
-1.123186008;12.59674707;-9.298883039;1.694502488;-10.06988159;0.246541303;-4.472537595;-16.26013674;-10.59506458;-20.99702669;-5.905064439;8.004145968;0.344656228;-16.82874128;9.601353406;23.86981411;2.980039063;-0.767522618;-4.449563138
1.104616391;15.96219098;-6.7341187;-0.457836676;-2.380370794;0.070077362;-6.021082783;-17.44179972;-13.21782778;-23.16363422;-9.902595933;1.337429054;-0.777251331;-16.29133554;6.614391465;15.39769451;0.020602675;0.628511863;-4.273750595
2.750404827;18.23871177;-6.16139836;-2.47323256;12.65338939;0.02601341;-5.587207578;-15.59334548;-12.53061044;-19.48202049;-13.20228398;-4.961197728;-1.569374822;-15.46136883;10.1764154;7.640668358;-2.80093968;0.617367431;-3.593142441
4.63450994;20.37040466;-6.5690558;-2.673774859;26.86626101;0.134461084;-3.888837984;-11.49567389;-9.781265211;-11.44131822;-14.48095209;-9.409915603;-2.428001125;-15.29493249;18.22389551;4.866458897;-5.165809743;-0.40465838;-2.861599668
7.27937008;22.35613664;-6.15572586;-0.990489646;32.40915553;0.299914516;-2.044088037;-6.935797054;-6.904934115;-2.705922109;-13.54433807;-11.63254118;-3.836648733;-16.20341349;24.44564899;7.282818424;-6.377416537;-1.27874543;-2.39946674
10.4617544;23.06015138;-3.539271786;1.475989686;26.89161849;0.400610057;-0.612032616;-3.491372034;-4.714292769;3.7181577;-11.46669096;-12.13186701;-5.824165382;-17.64385251;23.47781695;11.75712718;-5.903683091;-0.961807186;-2.212426662
13.34658731;21.48032604;1.330514352;3.667593972;14.41121311;0.383265193;0.743911946;-1.612398368;-2.537154491;7.378021856;-9.63948196;-11.57126877;-7.699745158;-18.57790036;15.34087679;14.80037497;-3.830495932;0.646101449;-2.148052499
15.03062336;18.1794111;7.065446802;5.390653626;2.148226266;0.286941313;2.685780374;-0.62496381;0.575305577;9.92632924;-8.62408661;-10.32464271;-8.422532712;-18.38477795;5.443041153;15.13512048;-0.906202996;2.579380096;-2.163151519
15.0682876;15.38197876;11.61198021;7.10661382;-4.45622203;0.189934332;5.295067586;0.466883356;4.458218082;13.03886331;-7.826122151;-8.616295446;-7.434357001;-17.39629169;0.219055534;13.97014406;1.833916869;3.528940687;-2.393705667
13.64063802;15.42046669;13.46217888;9.067570889;-4.293497876;0.139384984;7.726118908;2.091368243;7.711827497;16.71880178;-6.245065473;-6.907905293;-5.29512665;-16.57338937;2.078792832;13.27850424;3.602667801;2.865972997;-2.953449821
11.33759567;18.75119489;12.5622472;10.74593194;0.383483103;0.127598002;8.803181842;3.823220278;8.944332496;19.44765698;-3.601850879;-5.956220599;-3.489686954;-16.63286607;7.803293828;13.92286345;4.220654957;1.144164053;-3.692901545
8.78646946;23.2988094;10.3245013;11.15971648;6.802551676;0.125146333;8.058495462;4.836827057;8.075939908;19.83948226;-0.833903817;-6.359998636;-3.399232633;-17.42832578;11.55578246;15.21311943;4.101518225;-0.346160745;-4.216189106
6.395533265;25.88948316;8.7078866;9.798242187;13.54710402;0.124828043;6.256332252;4.627463268;6.336282698;18.10427094;0.485764322;-8.015501441;-5.181600962;-18.13987117;9.851871232;15.94071877;3.901798023;-0.619981462;-4.202618055
4.318780823;24.76894511;8.961749251;7.25339226;20.10398125;0.145961457;4.860512944;3.368320666;4.911793613;15.91922825;-0.68037105;-10.08614974;-7.516926224;-18.07348566;4.351009861;15.64827579;4.070898768;0.22591888;-3.752052251
2.560733869;21.14905077;10.8769099;4.904918588;25.22211282;0.196163355;4.835918483;1.649704201;3.609816774;14.88464391;-4.045115861;-11.64514;-8.568451041;-17.31561542;0.309981715;14.93504216;4.58520269;1.15205131;-3.396293242
1.078087666;18.35638648;13.04132311;3.863650025;26.35909955;0.237302502;5.804075828;-0.092165351;0.992286866;15.0886703;-8.210122288;-12.47372428;-7.501433282;-16.63941985;2.181662718;14.70373878;5.02836388;1.107899314;-3.693993424
-0.191800091;19.07725564;13.88101887;4.066262429;21.29012421;0.202389942;6.323343355;-1.896499477;-3.959220986;15.17419069;-11.64898057;-13.25194741;-5.330775662;-16.76490223;10.06744853;15.24872656;4.956372845;-0.044797506;-4.718721635
-1.341838236;22.8852119;12.71274988;4.319534135;10.62597129;0.058725112;5.123430453;-4.050346786;-10.16680859;13.84708915;-13.61634984;-14.85633501;-4.287769719;-17.67379083;19.80014844;16.07546876;4.293630504;-1.409822217;-5.893737936
-2.479831064;26.23833277;10.07114361;3.293206208;-1.233299488;-0.140382787;2.290767163;-6.543076111;-14.51912032;11.3716961;-14.27885528;-17.30258966;-6.062205139;-18.61886624;26.31418704;16.49347631;3.472567543;-1.833234017;-6.36647783
-3.670462831;25.26659018;7.16745812;0.655768757;-8.098011063;-0.273217096;-0.602855403;-8.756288282;-13.97225173;9.577740636;-14.09310659;-19.29859636;-10.26714072;-18.81277536;27.35906076;16.27131585;3.192781256;-0.898764542;-5.658808315
-4.878598739;19.30470258;5.005288672;-2.572991234;-5.843234403;-0.236151476;-1.590367987;-9.761463836;-8.094123239;10.28232235;-13.11494546;-18.95991319;-14.42785153;-18.14888101;24.61720894;15.70126216;3.941459085;0.719730323;-4.07299826
-5.963489122;12.19083329;3.879152233;-4.726935807;4.698994929;-0.032594561;0.215002918;-9.056010223;0.145058084;13.53679062;-10.93672708;-15.27040788;-15.65921801;-17.28363251;21.67705372;15.12930135;5.602805704;1.839159354;-2.511521187
-6.727729324;9.799686389;3.571315621;-4.674917458;18.06022738;0.213797515;3.912028223;-7.131727029;6.206731835;17.34260883;-7.323641365;-9.153752336;-12.83142024;-17.0108748;20.91033078;14.56871198;7.44533861;1.757151083;-1.839113961
-6.984219586;15.20923903;3.918367276;-2.554092812;27.51515845;0.341780256;7.414241795;-5.333459966;7.133749768;19.20132958;-2.926617854;-3.207320719;-7.547201197;-17.51832312;21.94362036;13.85580758;8.522457223;0.788374183;-2.281546006
-6.610106493;25.10030405;5.113208627;0.449783189;29.10210443;0.270856641;8.878442082;-5.012453742;3.553811327;18.21115265;0.684469162;-0.150885494;-3.107154388;-18.22106458;22.74972613;13.13777308;8.229185353;-0.089293456;-3.312838806
-5.590843014;30.5823571;7.403995453;2.995448688;23.53396494;0.062105038;7.867152088;-6.575490336;-1.030423527;15.88369981;1.862716419;-1.070453634;-2.187659881;-18.32396523;22.03081837;13.05069453;6.644138873;-0.120266225;-4.079921338
-4.068610531;22.62729567;10.47089539;4.392255329;14.9828972;-0.127304456;5.427334308;-9.175757195;-3.031787979;14.92461458;0.016499456;-4.747241299;-4.971265129;-17.5842395;20.58066795;14.23794791;4.440633061;0.617603251;-3.999781869
-2.37615427;-1.262165332;13.1308595;4.741903994;8.00684253;-0.159674632;3.150776219;-11.33207542;-1.378054703;16.96489243;-3.874683976;-8.560313182;-9.126894299;-16.56066034;20.42373383;16.59214317;2.458786742;1.394189067;-3.07647662
-0.998718331;-33.91966431;13.78599538;4.459796646;4.934229824;-0.012014165;2.033147782;-12.0396841;2.070563128;21.12476355;-7.833738723;-10.27048539;-11.60227668;-16.11501268;22.61706702;19.00802606;1.25650281;1.578658089;-1.763280683
-0.4234301;-61.63640718;11.38303558;3.712759626;5.241853195;0.218795629;1.991190043;-11.52320728;4.387752777;24.58014542;-10.17091421;-9.371039873;-10.81171821;-16.62535403;25.79644288;20.04104148;0.933991906;1.233179944;-0.569261201
-0.918299128;-71.99138058;6.16324414;2.278521935;6.769355591;0.395668806;2.27013339;-11.03054813;3.997546165;24.63232482;-10.52987211;-7.100198608;-7.57190227;-17.6352082;26.87091393;19.00889447;1.288381411;1.002301262;0.240437486
-2.367840289;-61.37843364;-0.400176664;-0.126506772;7.467919084;0.436303024;2.247549531;-11.80611115;1.653290783;20.60022407;-9.923259912;-5.281388925;-4.202819761;-18.25730362;23.39516079;16.58340508;2.104701319;1.43343487;0.664199928
-4.292022133;-37.15623728;-6.442199102;-3.43624185;6.493254768;0.351919046;1.906645922;-14.04087653;-0.594956628;14.11992946;-9.774942315;-5.006955204;-2.667236341;-17.95641928;15.71718145;14.31284965;3.325504735;2.399828935;0.798466222
-6.065538656;-12.9037065;-10.67875411;-7.151374491;4.350693692;0.213353039;1.640546747;-16.64523593;-1.28449618;7.821172033;-10.75018809;-6.156015634;-3.284708297;-16.99688787;7.173120987;13.46057475;4.993381955;3.188173026;0.711273858
-7.21012959;0.018513697;-12.81035714;-10.63814231;2.489183726;0.087700458;1.667989117;-18.06571244;-0.573721616;3.607360571;-12.28843042;-7.937607784;-4.939406672;-16.16302176;2.144391296;14.15944418;7.07556433;3.169657162;0.464947204
-7.572126873;-1.093117608;-13.18388899;-13.49524037;2.720156953;0.002070799;1.652251179;-17.53989169;0.284583762;1.868326579;-13.16655076;-9.800942686;-6.392598096;-16.03549764;3.385648397;15.57236269;9.365579366;2.408636552;0.195529152
-7.279205167;-9.99639723;-12.17003906;-15.63969199;6.468812523;-0.04623431;0.890849137;-15.80329391;0.261615259;1.963826428;-12.59951327;-11.86060513;-7.437960282;-16.50320864;10.44654047;16.80332687;11.55329486;1.614694393;0.090426066
-6.535674445;-17.0786155;-9.883264009;-17.06999048;13.82495068;-0.06052195;-1.079938886;-14.64571699;-0.684936038;3.221139804;-10.98338758;-14.53980723;-8.901606782;-16.946964;20.07391658;17.62680176;13.37818993;1.467575695;0.240025635
-5.432296728;-16.44416302;-6.45101591;-17.59828675;22.81126217;-0.035366423;-3.984681274;-15.59031384;-1.994231797;5.446985894;-9.699577554;-17.88543676;-11.59216663;-16.88859266;28.07531755;18.34953574;14.70680012;1.952180273;0.517745221
-3.91976587;-9.413854436;-2.447179514;-16.87514444;29.66081137;0.024132129;-6.847897761;-18.66978435;-3.383924841;8.639003568;-10.14915891;-21.27553674;-15.25175157;-16.46571971;31.33570769;19.04415762;15.47053666;2.351149556;0.657312641
-1.948900689;-2.321699323;1.085492321;-14.73147625;30.51500114;0.082608519;-8.576694902;-22.24936224;-5.126462029;12.42367861;-12.76752729;-23.82055661;-18.52916386;-16.27317337;28.92298801;19.074627;15.56131987;1.931077341;0.507179509
0.361608288;-0.838974956;3.196155993;-11.52263014;23.85333827;0.086409654;-8.674470546;-24.09060227;-7.370813175;15.93155392;-16.74460696;-25.07983;-20.05133071;-16.72907384;22.05137962;17.56279927;14.83968603;0.690813856;0.232836654
2.689954899;-5.447385994;3.724399545;-8.109767345;12.03814206;0.006102578;-7.584697343;-22.92010449;-9.317759405;18.26012978;-20.60561906;-25.41469927;-19.66195501;-17.58857394;13.33343454;14.44852844;13.29506152;-0.549376818;0.236593528
4.654423983;-11.42753788;3.462224899;-5.413856999;0.58643865;-0.128216638;-6.436397885;-19.36496625;-9.381835629;19.02265863;-23.1677655;-25.64602878;-18.71434341;-18.09736826;5.844272885;11.05453358;11.21737237;-0.845440204;0.808448362
6.029939209;-12.99114563;3.525788232;-3.86133303;-4.742003126;-0.237424784;-6.367224047;-15.55527044;-6.541058935;18.42237697;-24.1678148;-26.33809859;-19.0997516;-17.67020242;2.239375988;9.382209416;9.177904807;-0.000655553;1.798276674
6.869159921;-7.987499472;4.40395683;-3.159669755;-1.281212631;-0.24919482;-7.851333808;-13.6568296;-1.742580126;16.84966518;-24.17712605;-27.37527485;-21.76792915;-16.46834945;3.958886825;10.53888787;7.758774543;1.199386069;2.634467009
7.431002152;0.586522867;5.50871944;-2.583368927;9.020019531;-0.155242316;-10.42189914;-14.37418337;2.145029458;14.53988438;-23.9819724;-28.21064558;-25.93023131;-15.32137335;10.63284867;13.64992633;7.20374698;1.64456905;2.738223772
7.964614543;7.259202802;5.676669084;-1.539193778;20.92030346;-0.020382964;-12.92021934;-16.48304154;2.2261802;11.74132183;-23.95940589;-28.51807795;-29.57327407;-15.03573409;19.98886857;16.36549017;7.272818844;0.891720806;2.020593367
8.501342107;8.52525041;4.24760842;0.030526057;29.05982348;0.06651106;-14.10499014;-17.70571855;-2.00894637;9.194806431;-23.88965849;-28.58317185;-30.84968195;-15.70421908;28.52732697;16.72485207;7.446351265;-0.402125228;1.031279321
8.79768325;5.372636289;1.795564466;1.684930651;30.75779031;0.059475056;-13.27796581;-16.28726404;-7.824900674;8.223431352;-23.25031336;-29.00886838;-29.24817239;-16.64179977;32.86695677;14.8548664;7.338060621;-1.024001564;0.588002867
8.46612124;1.986708087;-0.172314433;2.862704402;26.70298813;-0.014809298;-10.59646523;-12.15954367;-10.94068456;9.990546924;-21.68274661;-29.98019722;-25.7010571;-17.00785769;31.2142321;12.96917296;6.985219358;-0.275617618;1.150378265
7.210199685;1.95451366;-0.367654155;3.244788379;19.55623793;-0.08604968;-6.924678921;-6.916708311;-8.687832958;14.35689312;-19.26574601;-30.80796951;-21.69317877;-16.55043853;24.23089673;13.52516464;6.769245487;1.369175443;2.438807198
5.023473846;5.275873407;1.214723236;2.819611178;11.98810065;-0.098755257;-3.331504108;-2.692776869;-2.165201747;19.40399694;-16.45553174;-30.28435406;-18.2019419;-15.80059631;14.82474495;17.02625206;7.025981561;2.616199615;3.61940868
2.24233065;8.64759439;3.233784708;1.680760268;5.732011802;-0.048730428;-0.541866629;-0.784207751;4.428726638;22.34930243;-13.82183816;-27.66209677;-15.30933724;-15.55270932;6.917076881;21.36955609;7.676312776;2.426872416;3.919925758
-0.571579564;8.628523369;4.03829687;-0.162866783;1.952855947;0.028375099;1.328168833;-0.969271477;6.886107564;21.41117361;-11.80539943;-23.44822501;-12.64926389;-16.12041981;3.733825616;23.39407393;8.203959876;0.893650791;3.191514354
-2.854759791;4.863998884;2.973066642;-2.72394013;1.885832974;0.096442392;2.609429518;-1.909278793;4.121937517;17.20190217;-10.61519323;-19.26577606;-10.1251045;-17.0550649;6.387294774;21.40794497;8.018411154;-0.838614748;1.982119253
-4.25596134;0.567074239;0.884685508;-5.762104762;6.547950166;0.143983493;3.643071729;-2.229889939;-1.102057755;12.4114876;-10.22582472;-16.7812239;-8.177245433;-17.57625364;13.40039875;16.59421286;6.907309589;-1.529500263;1.090311622
-4.7329585;-0.155314127;-0.584826024;-8.59234694;15.46923855;0.174021181;4.422391508;-1.452892616;-4.385324641;9.879148143;-10.38889006;-16.50557649;-7.376019366;-17.302101;21.43962907;12.10732819;5.19351557;-0.848124824;0.978589897
-4.487621921;4.160837405;-0.324166793;-10.24984638;25.70230896;0.178583858;4.606612717;-0.152463407;-3.022036176;10.53425207;-10.65548537;-17.44541174;-7.770957573;-16.59431187;26.98487656;10.61281826;3.454018059;0.423099399;1.503767998
-3.789327607;10.96208249;1.390567695;-9.993786691;32.52336109;0.13485379;3.899302587;0.662613423;2.158905641;12.87484053;-10.49424822;-17.92650043;-8.650508458;-16.2;28.1546089;12.31799691;2.032251312;1.120995276;2.126678734
-2.810660907;15.65717333;3.175999652;-7.819904008;31.94579834;0.034856339;2.464270115;0.383625039;7.74345778;14.39199566;-9.551604442;-16.96107996;-8.986407718;-16.53241029;25.68947448;15.07976185;0.762659389;0.700832875;2.368394673
-1.596430334;15.30842349;3.663476794;-4.590893218;23.48376423;-0.081486325;0.983090307;-0.791321247;10.48177768;13.69227727;-7.94695217;-15.0740732;-8.221112571;-17.26926632;22.41938733;16.38094792;-0.840724318;-0.358413894;2.121846385
-0.190038452;10.94814357;2.496619973;-1.646716778;11.0305593;-0.13371474;0.229936473;-2.127061749;9.521454325;11.47981291;-6.37426974;-13.93169532;-6.753346155;-17.64937778;21.38046093;15.41552367;-3.069185579;-1.042495674;1.610783267
1.194065761;6.58779191;0.414906722;-0.123969837;0.887748811;-0.058136054;0.455971355;-3.006783778;6.465903321;9.592368037;-5.842652612;-15.07629895;-5.72797742;-17.19216677;23.6769909;13.54165427;-5.602706772;-0.698564716;1.114454948
2.130048828;5.765807309;-1.532011508;-0.408051947;-1.936125396;0.128316123;1.091655724;-3.413601014;3.545092043;9.048788839;-7.129343263;-18.76978648;-6.295045238;-16.1670136;27.53434126;12.86711804;-7.558858364;0.456220821;0.746356357
2.172080622;8.552382289;-2.855309198;-2.027619174;3.319702873;0.319888831;1.079245221;-3.857699864;1.69225799;8.97433353;-10.26466223;-23.82014196;-8.886295886;-15.3684413;29.35208952;14.34382348;-8.012731975;1.605807593;0.462553009
1.186073489;11.55802184;-3.795492608;-3.989675138;12.97100232;0.39116295;-0.339892132;-4.826245193;0.159318477;7.473038891;-14.4082621;-28.44619649;-12.98018575;-15.39827345;26.22357192;17.05395145;-6.620150455;2.065005501;0.222931024
-0.428860754;10.97630124;-4.702205576;-5.293497968;21.50653048;0.296001086;-2.956127509;-6.209879385;-2.233969365;3.696368728;-18.24600145;-31.42611576;-17.41583259;-16.11632548;18.24788069;19.18034651;-3.889795891;1.782011951;0.092370417
-1.857313089;6.115531527;-5.291409544;-5.325029843;25.12500397;0.113593843;-5.58200511;-7.181038558;-5.581011858;-0.838551696;-20.68657242;-32.6354549;-20.95084359;-16.76861714;8.934101395;19.62262111;-0.911754006;1.209842059;0.166223544
-2.323636348;0.388070614;-4.566019973;-3.993822457;23.78037076;-0.004633754;-6.775383366;-6.666250331;-8.570525803;-3.065379933;-21.42271302;-32.67700012;-22.70701121;-16.67750168;3.242348552;18.74783332;1.25578525;0.762845339;0.415031981
-1.610330241;-1.230168863;-1.571488334;-1.662408071;20.53876181;0.048651613;-5.812974979;-4.119040066;-9.610423603;-0.817033575;-21.00590266;-32.08242757;-22.36115311;-15.86034671;4.49019953;17.71061564;2.120149164;0.434169835;0.641930067
-0.260400361;3.676161938;3.631923201;1.013854564;18.98978065;0.250346586;-3.223380749;-0.06957217;-8.271355972;5.145238145;-20.40745718;-30.85417691;-20.15221439;-15.01123145;12.22161628;17.17348708;1.889404147;-0.068290498;0.63140758
0.726263378;12.62757219;9.650379884;3.274629388;20.6811238;0.463098204;-0.495135267;3.94804201;-5.679125084;11.36106588;-20.3699198;-28.7088255;-16.7997641;-14.86853795;22.48874949;16.75796689;1.202096472;-0.859870006;0.360401023
0.529139188;19.78576025;14.44495827;4.477119896;24.2856898;0.542066933;0.837083585;6.101990505;-3.514955922;14.13446554;-20.9625753;-25.6919128;-13.31900894;-15.55384977;30.28857137;15.72078513;0.70618481;-1.612701452;0.058917218
-0.960495198;20.38705976;16.54538693;4.342384252;26.83279805;0.444023925;0.10114443;5.217073951;-2.582693598;12.28504776;-21.58783695;-22.49537466;-10.67722477;-16.48505869;32.4160207;14.04521157;0.771732302;-1.796542706;0.040649298
-3.090384798;14.68012866;15.87477945;3.12595035;25.92763076;0.249673756;-2.19472237;1.430158887;-2.265561377;7.943052066;-21.38342281;-20.11236074;-9.369801628;-16.92823549;28.85340876;12.68794693;1.447921644;-1.206567828;0.44750483
-4.908818933;8.138173598;13.60117493;1.565811245;21.38136277;0.086154221;-4.781343905;-3.837345041;-1.326864041;4.757080904;-19.74514428;-19.10969716;-9.173032206;-16.66296658;22.05170928;12.60590548;2.578365216;-0.238408944;1.142763257
-5.784675099;7.43740847;11.21863386;0.546422715;15.25577513;0.022500414;-6.44634139;-8.590982597;0.742848686;5.023937643;-16.68242119;-19.18369917;-9.322109719;-16.14211584;15.02671269;13.54236177;3.92793186;0.40846622;1.849231328
-5.727504718;14.96522055;9.624598014;0.606706719;10.44502339;0.030100579;-6.719531516;-11.27915154;3.096929779;8.080058594;-12.87294468;-19.43574194;-9.086804136;-16.01082844;9.842921589;13.98161661;5.255115112;0.359389061;2.391980168
-5.202252763;25.96558344;8.85173212;1.573310088;8.808814927;0.036374885;-6.070715655;-11.56739227;4.168787387;11.13476238;-9.459178963;-19.16613428;-8.371427945;-16.45362766;7.375328863;12.62777773;6.364025272;-0.067726691;2.804030106
-4.639233634;30.7608494;8.486852298;2.579872988;10.05761689;0.012261425;-5.607528674;-10.46003906;2.927354534;11.6371369;-7.708889167;-18.51151716;-7.869873554;-16.99621349;7.949803006;10.13674965;7.177332661;-0.135917041;3.193884152
-4.067093588;20.93385614;8.251388193;2.521758912;12.06790011;0.003976215;-6.508419511;-9.715694756;-0.431222575;9.085724272;-8.638261514;-18.36566794;-8.600328599;-16.95441442;11.75711714;9.237186733;7.79484994;0.614053162;3.522900571
-3.163838566;-4.565457673;8.197822842;0.720550039;12.4244901;0.075547149;-9.467265447;-10.88361241;-4.937377827;4.884120728;-12.65267919;-19.62695643;-11.1249946;-16.10674333;18.40726953;12.59669123;8.451039157;1.883773721;3.54872122
-1.650400142;-37.60867811;8.443821154;-2.583921456;10.2266578;0.218911368;-14.34036905;-14.48179455;-9.890340244;0.693666771;-19.27200336;-22.38283688;-15.03231514;-14.94962722;26.12414681;19.91812397;9.343740891;2.8242204;3.037425885
0.338340694;-64.85560335;8.834618134;-6.224546077;6.96650132;0.326911363;-20.101451;-19.74048746;-15.36065004;-2.982328876;-27.06298774;-25.690552;-19.07806082;-14.28185919;31.73710411;26.87007813;10.43777604;2.773401352;2.068092691
2.236388163;-75.17271904;8.951308818;-8.627242984;5.773360399;0.270933293;-25.15463889;-25.00999266;-21.58148215;-6.659679298;-33.91387175;-28.1203244;-21.8810067;-14.49504912;32.09439236;27.33700227;11.4173059;1.861479418;1.122387473
3.398186431;-65.87821946;8.478015557;-8.603786422;9.327289655;0.024483231;-27.95894415;-28.57203589;-27.82210257;-10.49489164;-37.67897007;-28.62837136;-22.65837691;-15.22791618;26.19713234;17.80190949;11.87329373;0.916291449;0.816150653
3.51743238;-43.93771267;7.534620819;-5.992755616;17.71220564;-0.28057651;-27.74367058;-29.40580977;-31.98820214;-13.2524983;-37.01424408;-27.11869084;-21.49887167;-15.70755365;16.41939729;0.625936032;11.61607796;0.731758478;1.456654885
2.769467472;-21.50191397;6.592526438;-1.788824953;27.72497026;-0.431097803;-24.94397699;-27.53660865;-31.65620082;-12.88558377;-32.04199518;-24.36429393;-19.07525547;-15.46090014;7.578116083;-16.57314498;10.86651201;1.3525723;2.795581414
1.590900128;-8.762440638;6.014874308;2.331675319;34.35968848;-0.294748616;-21.0369482;-23.86450801;-25.94240219;-8.387216508;-24.46933227;-21.47266453;-16.13237737;-14.73371184;4.168580434;-25.43135902;10.14256098;2.029626784;4.204040602
0.327174663;-8.645633586;5.675697616;4.848431122;33.74109831;0.063208893;-17.7761892;-19.65199341;-16.69796748;-1.204308932;-16.9979732;-19.34840114;-13.18443046;-14.22890805;7.577398142;-22.18710685;9.895295937;1.897622834;5.134834346
-0.929979893;-16.42808284;5.083590006;5.141241085;25.66;0.412224677;-16.23495296;-15.97923878;-7.873831321;5.279434702;-12.21521199;-18.45460239;-10.56955896;-14.41655597;15.26987358;-10.01398297;10.16956357;0.765767477;5.483001957
-2.201418678;-24.00886576;3.956675892;3.717327936;13.95723639;0.522596095;-16.25760256;-13.41110118;-3.291978443;8.013807389;-11.45730191;-18.82715578;-8.638216248;-15.07310514;22.58557545;3.347878544;10.57268413;-0.69656118;5.54728333
-3.367022826;-25.61284221;2.712222271;1.787782881;4.380257189;0.337477875;-16.68874929;-11.94767807;-4.348364293;6.503860363;-14.20531033;-20.120458;-7.750320139;-15.49310424;25.87769515;10.86396219;10.60012549;-1.548171407;5.656698645
-4.102532668;-21.07357501;2.333173934;0.454379736;1.277583787;0.013562051;-16.22277512;-11.1831869;-9.280755104;3.112107961;-18.34735169;-21.60245667;-8.007751431;-15.17850287;24.76207853;10.51027438;10.07013762;-1.400789137;5.827826204
-4.11853575;-14.83748093;3.609591069;0.028210448;5.30453519;-0.202047683;-14.27963159;-10.55159447;-14.47203466;1.169257241;-21.21989723;-22.26308017;-8.990699648;-14.34771158;21.94194242;5.661487164;9.30840721;-0.728712286;5.778097552
-3.496459407;-11.92351792;6.362272798;-0.063562561;13.5550356;-0.159337894;-11.31103244;-9.570406636;-16.78091557;2.478982472;-20.93796139;-21.22455665;-9.845380398;-13.76178781;20.88436819;1.706245473;8.906700112;-0.389578875;5.272688082
-2.777428749;-14.05632191;9.363238017;-0.711680066;21.76735053;0.09107238;-8.383583297;-8.033955677;-15.26382403;6.259834241;-17.35434154;-18.35201982;-9.782838372;-14.00510972;23.1526468;1.797403223;9.222585742;-0.811113411;4.453403742
-2.648259836;-18.74226169;11.12241234;-2.297622013;26.84850118;0.35348866;-6.421653078;-6.111417208;-11.28027019;10.23423015;-12.15323597;-14.62567287;-8.647385154;-14.88804714;27.32668864;4.967650581;10.0152112;-1.603682501;3.803771997
-3.432374212;-21.65392135;10.95712359;-4.22414312;27.99098033;0.446108539;-5.697896482;-4.296618056;-7.233855807;12.68470651;-8.012558048;-11.83570291;-7.08065892;-15.55384437;30.1664578;7.669955516;10.53055316;-1.956120311;3.750207655
-4.804494596;-20.2010132;9.469214215;-5.201396907;26.00295152;0.330073242;-5.889256384;-3.190495846;-5.048477395;13.5714959;-7.247696221;-11.60832492;-6.096784669;-15.23184036;29.02625981;7.056993886;10.00935377;-1.436198181;4.262765856
-5.997524135;-15.44186396;8.016002258;-4.141744517;21.94284202;0.112125788;-6.525027749;-3.186558329;-5.355594977;13.86063696;-10.62601545;-14.34343776;-6.365852102;-13.96747861;23.72931882;3.20309462;8.254311131;-0.434278237;4.848055888
-6.365807106;-10.97495125;7.606388077;-1.030156675;16.49283638;-0.06292788;-7.366851967;-4.217589989;-7.590190761;13.9981442;-16.96153164;-18.83639381;-7.759052666;-12.64925771;16.64745493;-1.307659859;5.827368059;0.17942676;4.974897028
-5.85479897;-9.893012977;8.152435536;2.907861731;10.50600501;-0.125878521;-8.403988035;-5.724019952;-10.54254956;13.25896861;-23.69558629;-22.93473739;-9.506078681;-12.27255871;11.07867801;-3.697676005;3.711983576;-0.128078661;4.55818
-4.985677224;-12.34289363;8.708648212;5.942028754;5.813059237;-0.108563213;-9.557733246;-6.890785972;-12.87852461;10.73615465;-28.15380423;-24.82922431;-10.81840848;-13.07586398;9.14877532;-3.081973202;2.670923822;-1.031399626;4.043697182
-4.362039521;-15.61051748;8.475193819;6.999780084;4.982473215;-0.07679738;-10.47397716;-7.035212839;-13.53135371;6.956165553;-28.82181382;-24.09189252;-11.46272146;-14.31937545;10.64396996;-0.709716801;2.75674393;-1.629363807;3.985993281
-4.113467172;-16.52429669;7.665828639;6.410104737;9.712547167;-0.050292968;-10.6815143;-5.930305427;-12.11848822;4.283043915;-25.99234641;-21.75944472;-11.83631037;-14.91490294;13.42623324;1.491459974;3.31982923;-1.289384467;4.486539852
-3.757412623;-14.10460525;7.443652394;5.639598677;19.01588004;0.008649974;-10.01112666;-3.890385505;-9.346478197;5.311740209;-21.49337091;-19.47894777;-12.52994089;-14.35796348;15.01592395;2.550509851;3.496219958;-0.270049438;5.018483951
-2.62025458;-10.28083948;8.93473159;6.163751716;28.92184065;0.131598159;-8.875603107;-1.597581148;-7.01283299;10.45775786;-17.70330917;-18.40655046;-13.78212519;-13.14198458;14.25577299;2.870828621;2.817787541;0.478925789;4.83861039
-0.489618093;-8.175408442;12.14882209;8.290058594;34.41385851;0.277649682;-8.092708853;0.204470388;-7.232989624;17.00135182;-16.4136956;-18.64821389;-15.28134893;-12.29713388;12.02779631;3.336372376;1.517211847;0.184867779;3.653839905
2.036449574;-9.476426253;15.75368156;10.83657177;32.49070858;0.341546392;-8.330717395;0.980322368;-11.09285526;20.78870205;-18.1232731;-19.51716458;-16.44081346;-12.47599664;10.63277381;4.197788821;0.337293223;-1.002184702;1.952356952
3.809756173;-13.10375257;17.95159257;11.96458001;24.15810829;0.240692551;-9.610627478;0.537928432;-17.59965025;19.42903535;-22.05196781;-20.22571928;-16.86586191;-13.40264549;12.23712007;4.859665087;0.01055865;-2.094201447;0.678401513
3.833024942;-16.19450111;17.78408593;10.59406789;13.82514175;0.004151762;-11.28091644;-0.962163529;-23.87095806;14.29082194;-26.74283665;-20.38165116;-16.60861937;-14.16018376;17.3218724;4.672738811;0.788938106;-2.140550817;0.501091046
1.896278457;-16.44934073;15.82780132;7.351130228;6.524141678;-0.224728427;-12.49269653;-3.064702522;-26.71084105;9.429820727;-30.82577118;-19.97593946;-16.03778318;-14.03203877;24.08548332;3.822518248;2.334057707;-1.115332279;1.293640165
-1.295511943;-13.79824163;13.74280531;4.293741591;5.000266051;-0.287629796;-12.78347385;-5.112721724;-24.61466938;8.211494583;-33.50364557;-19.07716483;-15.50246151;-13.12588811;29.24390199;3.352432946;3.999546346;0.007299434;2.265470122
-4.558453886;-10.05537601;13.06074782;3.54253615;8.683020987;-0.135378339;-12.29667833;-6.390509751;-18.76100399;10.521343;-34.56559515;-17.67775368;-15.11426169;-12.22996013;29.86766958;4.253565118;5.263803388;0.100739927;2.623974611
-6.890527971;-7.059058946;14.17067961;5.762337414;14.93051086;0.128232115;-11.49123064;-6.327781606;-12.19917413;13.07946588;-34.05937566;-15.87905396;-14.80473145;-12.06405713;25.2157304;6.49202881;5.996522092;-1.073585247;2.188922332
-7.915507789;-5.098154259;16.22208805;9.583824106;21.15380371;0.323487115;-10.63781966;-4.713645858;-7.789917153;12.66377097;-31.95700848;-14.15170848;-14.52662702;-12.63249059;17.40580245;8.926917372;6.397780723;-2.568315692;1.445443849
-7.891883532;-3.064261496;17.87063891;12.40551836;25.99852186;0.331412885;-9.565899461;-1.811671031;-6.426191388;9.349014933;-28.10844839;-13.24877514;-14.34635123;-13.26884165;10.37743924;10.23630416;6.701160815;-2.99675972;1.037673578
-7.396539201;-0.094113863;18.15204159;12.04583592;28.95007813;0.178661954;-7.879225933;1.712040154;-6.832376357;6.685056577;-22.53544687;-13.6752728;-14.32747438;-13.30481393;7.665250121;10.02098584;6.893434579;-1.704879113;1.199653329
-6.961370839;2.981048047;16.81105442;8.128930386;29.34325642;0.004271488;-5.429584068;5.032903552;-6.972825875;8.413250574;-15.83677785;-15.12864109;-14.36041873;-12.71515237;10.33696616;9.08628101;6.667632893;0.640192319;1.643082854
-6.865837515;3.936364061;14.02704752;2.298077256;26.25199387;-0.058154582;-2.613489388;7.460131705;-5.831124788;14.57678899;-9.346186245;-16.49736514;-14.17907604;-12.1254526;16.4399202;8.657939666;5.637313268;2.559419796;1.962879144
-7.101858969;1.134041883;10.04875317;-2.822560336;19.65435515;0.018228586;-0.225084235;8.628741041;-4.095679641;20.73156474;-4.804877445;-16.6005142;-13.6207491;-12.18038494;22.35152838;9.256906923;3.644576823;2.936387496;2.120048828
-7.421011441;-4.556058736;5.239235766;-5.167594536;11.68033639;0.148488316;1.008280298;8.523431098;-3.273767128;21.41356558;-3.62308238;-15.17722856;-12.90671435;-12.88051957;25.14514221;10.24814174;0.931095983;1.858028461;2.494701784
-7.412579467;-9.787012019;0.475336578;-4.267722488;6.276453171;0.220015259;0.824157445;7.382405667;-4.103826496;15.13180073;-6.11853975;-13.30313105;-12.63257237;-13.5322852;24.37279438;10.44355594;-1.954736107;0.428586768;3.436003174
-6.644257232;-11.00030499;-2.680711571;-1.225283014;6.887426863;0.184916701;-0.529393094;5.583527733;-5.704067732;6.404235091;-11.21756742;-12.78078162;-13.37733239;-13.3804742;22.07540186;9.181798718;-4.452920639;-0.238824828;4.756109502
-4.88945652;-7.199712464;-2.548080608;2.174342267;13.72229999;0.082504165;-2.551648951;3.573221957;-6.224473519;2.557679449;-16.88641291;-14.87207097;-15.19044362;-12.34199315;21.08922756;6.904854888;-6.288494122;0.044776885;5.712471222
-2.351927379;-0.890660613;1.534869453;4.511407663;22.9908269;-0.015703371;-4.756323354;1.817178317;-4.456084629;7.546271312;-21.12751475;-19.32692841;-17.37732936;-11.14468689;22.90990066;4.746019265;-7.570924081;0.476852577;5.579379166
0.291850104;3.740650416;8.35479298;5.289960043;29.19478106;-0.075937417;-6.721049964;0.720686399;-1.020903664;18.02044855;-22.99124018;-24.48438674;-18.80855818;-10.71301709;26.63026511;3.551799304;-8.632840786;0.065240627;4.326935583
2.144056285;4.024820104;15.11265999;4.828767322;29.04437393;-0.118645247;-7.980285607;0.517036055;1.893008747;25.457262;-22.98735669;-28.38668716;-18.5721071;-11.34207018;29.62799737;3.241927685;-9.718909819;-1.448938533;2.762883924
2.529396441;0.780318105;18.92559585;3.781925409;23.97241949;-0.172339124;-8.021765314;1.19605541;2.086455219;23.17458577;-22.61643996;-30.0384123;-16.51133114;-12.41412609;29.41007813;3.04944628;-10.73438567;-3.357947708;1.93872792
1.347322094;-2.573767089;18.60419527;2.719341228;19.06685631;-0.220294862;-6.538515777;2.551676034;-1.012953362;12.56954488;-23.29336346;-29.84399684;-13.27682511;-12.93177869;25.27542103;2.346110934;-11.22558965;-4.606219979;2.294860259
-0.922432303;-3.008807823;15.40843558;1.979807378;19.03884438;-0.20251955;-3.769332759;4.341491432;-5.876393167;2.940164499;-25.34406687;-28.95619754;-9.892241853;-12.40028692;18.72534816;1.236173527;-10.61858097;-4.671640107;3.298816915
-3.566912074;-0.450962238;12.14837275;1.710083008;24.34530118;-0.078331915;-0.560338876;6.445797705;-9.864781612;4.18994352;-27.73007813;-28.17007813;-7.179255533;-11.26697993;12.52510179;0.364179146;-8.580486314;-3.930976634;3.928169877
-6.071581829;2.243373877;11.22214407;1.898248324;30.63906647;0.110544871;2.056711244;8.895707708;-10.87328216;17.78317305;-28.68511699;-27.33302667;-5.433658817;-10.51886982;9.198545349;0.159145967;-5.288653036;-3.238450057;3.598040458
-8.30608091;1.850305199;13.01438737;2.341454212;32.13352365;0.245505477;3.54548485;11.74338179;-8.425192869;33.445333;-26.84156883;-25.73454996;-4.491671918;-10.79771528;9.915380188;0.287465389;-1.441226436;-3.155888737;2.70838402
-10.34644038;-2.333163544;15.83066986;2.66399132;26.2779258;0.214728698;4.270766124;14.88861612;-3.573369262;35.15839351;-22.10341687;-23.04884078;-4.01915985;-11.82667795;14.22974788;-0.105731016;2.012153507;-3.539385171;2.295977202
-12.12765639;-7.742488532;17.3831531;2.504878097;15.9801645;0.009483518;5.226962202;18.023812;2.068395502;12.77290096;-15.7127113;-19.91177378;-3.751988852;-12.65971424;20.49182536;-1.540515127;4.284277378;-3.803327925;3.071269665
-13.26231722;-10.55051644;16.66668444;1.807711485;7.514893227;-0.252588536;7.214204315;20.75948587;7.283324674;-29.28015936;-9.522876202;-17.5529483;-3.553856185;-12.52239277;26.49722585;-3.517509376;5.093872944;-3.541991851;4.695305318
-13.20925838;-8.684762131;14.78759526;0.96677309;5.725914291;-0.405851419;10.08418503;22.82810955;11.54100279;-73.10357729;-5.017836305;-16.76215721;-3.358881438;-11.4854469;30.12169242;-4.6889624;4.762710293;-2.894530517;5.973025481
-11.66412183;-3.306866556;14.13325185;0.628830095;10.34652155;-0.358813551;12.69830912;24.18673642;14.65244056;-98.12239241;-2.724201012;-17.08626558;-3.129660234;-10.37480818;29.94769195;-3.832128603;4.023230586;-2.33832039;5.838977102
-8.844943133;2.400828453;16.53985793;1.227388198;16.38681731;-0.162043292;13.71224919;24.92704925;16.33755517;-94.16211878;-2.299930601;-16.98183772;-2.863617053;-10.01867166;25.86979612;-0.851522607;3.644998716;-2.168919173;4.291566036
-5.432176324;5.955821846;21.84566676;2.600392277;18.26391917;0.03338115;12.62314556;25.07949709;16.18717633;-67.61773079;-3.056798011;-14.84457331;-2.574979468;-10.5248224;19.40049806;3.02698871;4.075473651;-2.212176783;2.444889167
-2.21266166;7.389644077;27.87656482;4.03938214;14.34046959;0.092511721;10.2481896;24.49964997;14.01710458;-36.5393042;-4.408192681;-10.10614029;-2.211599485;-11.23479904;13.26802971;6.05605063;5.269310382;-2.052539815;1.62361323
0.2868819;8.665102551;31.81427838;4.789448692;8.232706007;-0.006032369;8.198532328;22.94912655;10.20583907;-18.4775087;-5.920147954;-3.561550289;-1.600299819;-11.36989264;10.21335922;7.1413361;6.76830372;-1.52587483;2.268640977
1.910711389;11.39928101;31.91230467;4.620624587;5.875420362;-0.166469554;7.687365643;20.29816904;5.638896061;-19.86955662;-7.08727134;3.236573819;-0.567154529;-10.75411076;11.51865879;6.490166303;7.959284069;-0.949772401;3.599858865
2.705941014;15.07529732;28.37174323;3.981287238;10.73;-0.261011429;8.55967144;16.66151385;1.270674708;-34.04537715;-7.243620236;8.922629979;0.772903585;-9.946575302;16.20407388;5.287382307;8.357571002;-0.823219767;4.327249305
2.689899142;17.39166398;22.90378543;3.563180746;20.94798288;-0.228571458;9.308893431;12.35219075;-2.334023214;-48.20794222;-5.879080787;12.82872836;1.809953371;-9.677874068;21.55668394;4.73;7.779327858;-1.269500862;3.784829039
1.789174717;16.38318601;17.47199064;3.620928144;30.66327837;-0.109012859;8.128800013;7.731705648;-5.119116548;-53.31747069;-3.180039063;14.80385775;1.637518976;-10.1337911;24.78318836;5.206095072;6.35589409;-1.78706978;2.494431331
-0.010541756;12.31279527;13.19053403;3.654825372;34.28644171;0.003931564;4.276488014;3.1488306;-7.276811201;-49.44733385;-0.268131832;14.77099544;-0.29858874;-10.76471831;24.73289314;6.200798544;4.439518653;-1.612222371;1.675684038
-2.482162616;7.567307856;10.06867482;2.811267557;30.39625944;0.040302545;-1.224889527;-0.944930439;-8.887007633;-43.45501651;1.266640617;12.64881852;-3.509560217;-10.80060942;22.5083977;6.884573332;2.487465832;-0.414280258;2.152198654
-5.151527918;4.655669004;7.561002467;0.741663264;22.32795175;-0.004926711;-6.059913759;-3.855768994;-9.774919807;-41.96017743;0.385394329;8.793142222;-6.361244643;-9.987675092;20.5324509;6.830638385;0.974424018;1.309598583;3.630946664
-7.500809761;4.170801878;5.315535254;-1.808718593;15.29244723;-0.091470423;-7.973445272;-4.762641525;-9.666487452;-45.77431047;-2.527651645;4.448192254;-6.8795907;-8.852522365;20.73790483;6.301519707;0.316609186;2.543913208;4.985228395
-9.208887838;4.598171734;3.498814919;-3.296385049;12.53103252;-0.181558346;-6.117342211;-3.193017821;-8.452805335;-49.97466265;-5.67997266;1.523882696;-4.079866123;-8.237515274;23.16839787;5.965889704;0.763712716;2.549027585;5.267093944
-10.2257626;4.108128914;2.530184075;-2.494351347;13.50697958;-0.265134115;-1.53772352;0.412779735;-6.315170721;-48.82064732;-6.921378716;1.569593863;1.114639069;-8.530669506;25.95698384;6.357628004;2.259674614;1.468577489;4.526677066
-10.64785984;2.577151473;2.552710009;0.372174364;15.23161943;-0.343847568;3.465335768;4.565011574;-3.627324041;-40.91964591;-5.171744083;4.629615881;6.171669224;-9.303046669;26.6476759;7.517193919;4.353044491;0.22068632;3.704117357
-10.55764876;1.830486461;3.125631773;3.430933554;15.23199393;-0.401513064;6.661495788;7.345200156;-0.754355201;-30.34144746;-1.189514082;8.967078409;8.44899545;-9.695631122;23.90026791;9.030437696;6.27044472;-0.237251343;3.709525733
-10.01182684;3.769759122;3.386779713;4.250943753;13.53247193;-0.401875768;7.077183105;7.545950345;2.077439778;-23.10831776;2.942646282;12.0664112;6.935087078;-9.206664862;18.42643546;10.35245693;7.195908425;0.360581588;4.546393781
-9.180747543;8.121943641;2.551883287;1.570063477;12.14018279;-0.32283683;5.379864364;5.571782985;4.772983862;-22.31371831;5.294111831;12.29007813;2.979352331;-8.157167622;12.61125368;11.1424392;6.653302258;1.470267072;5.293332842
-8.442396488;12.06084428;0.395518743;-3.573851773;12.78589395;-0.193315521;3.320756668;3.352741674;7.287769035;-25.94608766;5.443381746;9.955757772;-0.578258764;-7.403288172;9.167452857;11.40711262;4.775581306;2.283964425;4.974283799
-8.236455939;12.33175796;-2.582973636;-8.228120534;15.10611625;-0.089558273;2.644303644;3.165840727;9.5665989;-28.93083619;4.680343422;6.988705103;-1.301002059;-7.554219566;9.708795576;11.42556074;2.269409677;2.412419705;3.529032016
-8.717547982;8.159228269;-5.372040547;-9.293088843;16.91126914;-0.083618984;4.128070122;6.100838682;11.52696238;-27.35335503;4.881146835;5.423702081;1.282185151;-8.410318254;14.02668467;11.54898028;0.058720258;2.098299858;1.987139043
-9.500039063;2.304239904;-6.888920425;-5.51140708;16.24972727;-0.184416005;7.274198518;11.27129378;13.05756562;-21.27117865;6.91942285;5.955565645;5.557646105;-9.138108995;20.31593017;11.98995421;-1.193915821;1.827221234;1.653088126
