Channel 1 - P4;Channel 2 - O2;Channel 3 - P8;Channel 4 - T8;Channel 5 - C4;Channel 6 - Cz;Channel 7 - Fz;Channel 8 - F4;Channel 9 - Fp2;Channel 10 - F8;Channel 11 - Fp1;Channel 12 - F7;Channel 13 - F3;Channel 14 - C3;Channel 15 - T7;Channel 16 - P7;Channel 17 - P3;Channel 18 - O1;Channel 19 - Pz
-3.651988711;-82.64819471;-41.77661767;-10.35157789;-28.37630757;-4.365154099;-28.75873329;-3.146853445;-28.78016883;-52.28653499;-2.4733969;2.796107415;3.18796214;-34.26037839;-41.3732219;-60.49205773;-25.84478678;6.721445847;-21.24044144
-11.56895106;-85.78071994;-37.45620759;-21.7147724;-7.78;-6.253835795;-28.67799529;-11.18966771;-25.52898623;-76.75186332;-4.362680951;1.779025633;-8.379637313;-13.94776412;-29.04444786;-55.28149492;-27.69638797;46.84533875;0.264026205
-13.4225334;-55.23345207;-16.51945384;-19.76607203;28.93287735;-5.268112435;-15.4280217;-12.22136928;-5.726491812;-66.71081169;-2.062147377;1.763379643;-14.9364409;6.762053426;4.999641063;-18.00606585;-16.64953152;65.62534313;19.17727063
-8.087776214;-18.18956262;7.753510746;-9.289359642;58.33053335;-2.154991276;1.244937715;-7.456210444;16.94417661;-36.73843536;3.52160391;1.82163766;-13.01304688;12.59337306;35.4614085;25.07022071;-0.048312229;50.76202264;23.40697502
0.64533963;-1.846679709;20.898918;0.290485364;62.04649408;1.035181995;10.53345711;-1.397198986;27.20644179;-11.38502741;9.245287695;0.907879352;-5.052555968;-0.290707243;42.34092863;46.03131243;11.58697796;13.05477725;11.68176712
7.046134329;-13.86611742;17.37151434;2.005332212;39.93176555;2.459426093;8.282781984;1.772629935;19.2102954;-6.990104015;11.56112922;-1.487482484;2.570615044;-22.00715994;25.64828486;36.0532209;11.94995109;-22.06819225;-6.283370925
7.582080752;-39.49436808;3.406015927;-4.09232274;9.032470659;1.725440069;-0.861069426;1.105932535;0.286669074;-21.59128639;8.895717152;-5.098290373;4.259109376;-37.22220561;3.632906486;10.20508984;2.833550134;-33.495062;-17.71208653
3.086374302;-56.01187917;-8.937260093;-12.07392961;-10.08505536;-0.037298211;-8.050134727;-1.014442279;-15.19703741;-39.63426401;2.723357224;-9.14597251;-0.985739723;-36.96463704;-3.217315793;-6.734413096;-8.120820107;-19.01945604;-16.26106441
-2.441615978;-51.51543734;-11.25414253;-15.53637536;-8.36993204;-1.223975762;-7.467140952;-1.353632436;-16.81548084;-46.20085252;-3.560039063;-12.85767499;-9.371892254;-24.59445901;11.15927747;-1.051656696;-13.60891674;5.227652587;-5.781492506
-5.132103811;-32.79832553;-4.272312045;-12.65432282;6.89469448;-1.010912902;-0.37255514;1.363794471;-5.3306677;-38.5996555;-7.101682991;-15.86227225;-15.5751296;-11.78145321;34.47383955;19.6902355;-11.7640089;18.93421518;3.966361098
-3.930224703;-17.27884279;4.363054311;-6.996178436;20.16138958;0.161213631;6.842117684;5.586803223;9.040665239;-26.52462956;-7.458137922;-18.22561821;-16.68997057;-8.552771396;47.26955399;34.65563351;-6.458826347;13.33204884;5.523505991
-0.768108393;-17.31811223;7.265310911;-3.950087891;20.89226905;1.154626988;8.414425977;8.497339973;15.33724231;-22.07903161;-6.448867014;-20.17093266;-13.86312238;-15.81195422;39.19565019;28.23955145;-3.204652661;-3.79746166;-0.912710144
1.499173126;-30.63393068;3.101974028;-6.12380639;10.99869113;1.168975532;3.791805135;8.454513998;10.28214972;-29.05347523;-6.265169759;-21.75242594;-10.68782322;-25.96954065;16.84378999;3.106934188;-4.454839435;-16.61608243;-8.822520682
1.437434141;-44.0835075;-3.464438428;-11.56122327;1.228536115;0.352165722;-2.506562119;6.206900387;-0.058777009;-40.48781408;-7.517650606;-22.75698915;-10.02407848;-30.25283098;-2.634138185;-22.76992748;-8.14752478;-15.03046674;-11.50613821
-0.203980785;-46.18944209;-6.836901702;-15.92639956;0.784455127;-0.457488528;-5.110881234;3.987630507;-6.065190562;-45.74292559;-8.865515075;-22.90412171;-11.91083816;-26.01105591;-5.928635128;-31.6875796;-10.24151259;-2.162920816;-7.527013142
-1.609043441;-36.85594048;-5.619936715;-16.41797109;9.542277248;-0.537673227;-2.214473349;3.472403897;-2.567960863;-40.1689268;-8.444656812;-22.15671312;-14.02265308;-18.05518964;6.292952657;-20.66012606;-8.617243199;9.86227784;-1.150777216
-1.627149463;-26.20924449;-3.373540444;-13.94989371;19.10402487;0.105089719;3.459330781;4.461450916;7.452359968;-28.83070011;-5.748201669;-20.84762827;-13.90778459;-13.63387523;21.38886793;-2.730638362;-4.858974315;11.08344266;1.948688291
-0.576754516;-24.580106;-4.74244777;-11.90703171;20.89599555;0.817048494;7.549295564;5.36839842;16.00424278;-21.5033036;-2.255011952;-19.46622566;-10.92965811;-15.97959914;26.20868348;5.13680539;-2.590886995;1.821217274;-0.407625564
0.372312968;-33.1567362;-10.7796062;-12.83127025;13.74349338;0.93325057;7.966884191;4.941692546;16.92166226;-23.8490858;-0.230756675;-18.24084487;-6.386893696;-22.02478278;17.84242484;-3.429034741;-4.121870404;-8.726167535;-5.53335566
0.431745418;-43.49;-17.71956968;-16.05542608;4.475799669;0.36618137;6.419404131;3.589118024;10.59734548;-32.64370381;-0.741850828;-16.86688794;-2.030305905;-25.76784151;4.965184537;-19.64098534;-8.460541941;-11.27919262;-8.749631378
-0.158372117;-45.65156765;-20.15961047;-18.28285506;1.594871818;-0.35963046;6.486274426;3.100890673;3.036789298;-38.94162884;-2.623438838;-14.66982015;1.473107547;-23.80656494;-0.402759563;-28.10832147;-12.32317162;-4.485636956;-7.568785383
-0.545230242;-37.23244856;-15.68494581;-16.46783596;7.940781954;-0.610839268;10.20777916;5.029119615;0.544469328;-36.02995392;-3.335009683;-11.16697112;4.746515163;-18.05614746;6.962550242;-20.3883429;-13.03366707;4.629746938;-3.494879459
-0.173537167;-25.14325328;-6.867447219;-10.4335564;18.65786155;-0.205416459;16.2313478;9.16801542;4.721465478;-25.12519345;-1.02788403;-6.637680071;8.560171945;-13.58965793;21.88641805;-1.732426796;-10.66327175;7.496983379;-0.207481532
0.752834619;-19.04232351;0.947600192;-3.036599066;25.76435097;0.461308892;20.97405256;13.47657991;11.72955846;-14.12177582;3.883534782;-2.22546977;12.56830707;-13.9535297;33.89323789;14.17840281;-7.634281296;1.614661011;-0.134292054
1.641907661;-22.70091067;3.954385157;2.12798086;24.95366774;0.799360512;21.58901122;15.53219741;15.94624264;-10.86532066;8.944827688;0.60695893;15.19394181;-18.26687159;35.80542118;17.13561671;-6.367056731;-7.69479175;-2.569166602
2.237058018;-31.06801019;2.548315188;3.452336997;18.76415209;0.543154231;18.12524387;14.31384666;14.60669141;-16.89813267;11.492056;0.960781075;14.81141621;-22.44328311;28.46877236;8.334441572;-7.210115251;-12.45117105;-4.778233637
2.90010932;-35.30480821;0.277837142;2.24368719;13.81979232;-0.052398407;13.1994842;10.8786263;9.620795;-26.76047171;10.60073754;-0.89001709;11.17246741;-23.05679508;18.45869628;-2.031986183;-8.450891579;-9.112742994;-4.749441819
4.16219406;-30.8766277;0.351347571;1.274810225;14.98200504;-0.478584293;9.732641561;7.458314988;5.454876796;-32.89853864;7.613534253;-3.627051283;5.808238337;-20.21457126;11.8982098;-4.478121137;-8.203807303;-1.328358797;-2.936293614
6.02308185;-21.36766816;2.926994859;2.350546449;21.49846277;-0.428882844;8.819690843;5.79289671;5.244595763;-31.63038916;4.904132035;-5.694311057;1.05233592;-17.03431348;10.22995147;1.855849324;-6.300348315;3.708323129;-1.53099726
7.744876168;-14.89064241;5.421115863;4.928212961;28.03437972;-0.032407121;9.40466411;6.047577421;8.446088929;-25.27461838;3.952336896;-6.219843858;-1.492427169;-16.54816299;11.05928651;9.812579637;-4.434801501;1.698635407;-2.182437335
8.391177017;-16.69634373;5.222647761;6.756554351;29.18221297;0.313271443;9.691974407;7.053974535;11.6815874;-19.30236376;4.28540568;-5.404886933;-1.815355388;-19.03453677;12.13578266;11.98169926;-4.519868766;-5.243389219;-4.407327688
7.609846757;-24.74036293;2.137779595;5.775937415;23.48444216;0.320450017;8.794360148;7.476174038;11.68358183;-17.60927128;4.051098832;-4.149396157;-1.117478751;-22.08499572;13.98426073;7.924847486;-6.85279412;-10.75552462;-6.119135597
5.896853837;-31.949157;-1.631120806;1.632346192;14.02504461;0.046048789;7.181910545;6.823180257;7.747998024;-20.0765307;1.644894227;-3.27276655;-0.687931143;-23.0403751;18.67135942;4.156970281;-9.798233179;-9.779596276;-5.644011095
4.073959929;-32.77380192;-3.760902759;-4.288096348;5.826229005;-0.207368763;5.795436702;5.52691198;1.885759323;-23.97782666;-2.969410556;-2.973994282;-1.057810128;-21.35916133;26.37472452;7.198485781;-11.23994211;-2.569516937;-3.270039063
2.486080181;-27.96459741;-4.07546069;-10.05723423;2.623198977;-0.197357018;4.909151895;4.219493672;-3.057905022;-27.22049579;-8.249692383;-2.924788584;-2.035188826;-18.81114622;33.64030494;16.45286443;-10.4305863;5.975992306;-0.933609838
0.718700497;-23.43686621;-4.667834723;-14.47601741;5.334892925;0.04435861;3.890908428;3.023060241;-5.534838063;-30.13131123;-12.26364729;-2.819851405;-3.340197129;-17.58518044;35.46270846;23.73198943;-8.555706885;10.54151773;-0.437758414
-1.850416686;-24.5785055;-7.798946552;-17.44857283;12.53013128;0.273205931;2.002198756;1.541402462;-6.047525694;-34.35463174;-14.04102389;-2.812419145;-5.052639818;-18.2821379;29.48297679;20.09930015;-7.551601288;9.272791431;-1.902221176
-5.167702;-31.30404719;-13.53694753;-19.42778859;21.61035293;0.281863225;-0.644992586;-0.498971483;-6.273644123;-40.36332528;-14.03987159;-3.387490305;-7.385832776;-19.64244994;18.43453669;4.037357282;-8.306616567;4.263213155;-3.810994435
-8.157118815;-38.18301538;-19.29465575;-20.6653366;29.59259202;0.088043509;-2.947591983;-2.652123683;-7.572942143;-46.27553144;-13.4870726;-4.765946673;-10.06076665;-20.04044072;8.499392208;-16.27;-9.881773075;-1.071996021;-4.478822916
-9.32538885;-39.24203921;-21.68624952;-20.97708503;33.59250157;-0.107954667;-3.622237933;-3.854549204;-10.07582514;-49.18506901;-13.26281244;-6.412329612;-12.01684596;-19.11841368;4.924429849;-28.60784545;-10.40196393;-4.892013836;-3.500905637
-7.862244722;-32.98452014;-19.09278503;-20.10434921;31.71761613;-0.132019317;-2.203842915;-3.221548963;-12.79895199;-47.67972362;-13.27838597;-7.194843748;-11.91495716;-17.97590305;8.603036933;-25.63564437;-8.747119654;-7.585362963;-1.90270082
-4.295189055;-23.312731;-12.79617555;-18.18970944;24.34709224;0.003447248;0.648775459;-0.87101682;-14.39800936;-43.11336585;-12.79472583;-6.204533193;-9.133904738;-17.88265339;16.2576452;-9.819853044;-5.505995414;-10.17813654;-1.011028539
-0.122010682;-15.93113784;-5.874594963;-15.88039334;14.64977529;0.136340127;3.720704078;1.963542671;-13.92517643;-38.46625447;-11.32455843;-3.628681955;-4.441972237;-18.93260561;23.54612135;9.12662392;-2.398226599;-12.57864744;-1.227236513
3.26553545;-13.72749474;-0.957137531;-14.01169867;7.220417333;0.134017883;6.076524834;3.690911038;-11.25845874;-35.92538853;-9.315592496;-0.928371896;0.272274266;-20.00325878;28.03829919;21.51620171;-0.780452157;-13.52983866;-1.840009766
5.445555784;-15.12548539;1.271501575;-13.20642128;5.248326955;0.024849975;7.426632961;3.431147364;-7.199980371;-35.41807996;-8.034332635;-0.054924975;3.075513601;-19.98257494;29.66049559;23.52169609;-0.62489419;-12.12700576;-1.916692204
6.919536512;-16.3692406;1.807829124;-13.703844;8.28446396;-0.047282111;7.857864852;1.58312484;-3.274692108;-35.28174363;-8.724356874;-2.187788479;3.095767421;-18.93932802;28.98637586;17.54145865;-0.834818326;-9.109695914;-1.283579316
8.296689665;-15.17893698;1.9046489;-15.41881194;12.6304951;0.011354022;7.403542115;-0.517033477;-1.167353366;-34.18421826;-11.6682293;-6.884682608;0.889437463;-18.02148072;25.79838899;8.215450216;-0.490771883;-6.462178655;-0.620587971
9.528395535;-12.39223994;1.929596502;-18.01785699;14.31819774;0.136805427;5.998703309;-1.551763382;-1.863747002;-32.3431498;-15.84349157;-12.26523274;-2.091715266;-18.21085739;19.68909777;-1.436048335;0.198894546;-5.692500126;-0.657403601
9.914699676;-10.50996179;1.406541682;-20.90391969;12.29908883;0.17272137;3.846295518;-1.069878012;-4.928073254;-30.96935276;-19.43332092;-16.1091739;-4.432922016;-19.2488143;11.93412208;-10.44861818;0.118932938;-6.562321089;-1.362597986
8.844206035;-11.03395667;-0.111482516;-23.25101833;9.074553759;0.041935175;1.694065323;0.345565447;-8.534495224;-30.7017285;-20.86887881;-17.11719034;-5.409785607;-19.87134392;6.16338181;-17.64604902;-1.619616469;-7.586295535;-1.974004902
6.528318828;-13.30100508;-2.399256116;-24.28118906;8.154807642;-0.15611194;0.560112336;1.613496661;-10.48493851;-30.75896005;-19.73834812;-15.52695517;-5.054706223;-19.13912935;6.351320319;-20.12921275;-4.728513432;-7.802054974;-1.817297093
4.003446261;-15.66164934;-4.784657449;-23.71820476;10.62121352;-0.231848322;1.019887547;1.933864797;-9.648835635;-29.71043363;-16.99331005;-12.79148678;-3.838663496;-17.49782422;13.45634825;-14.87545773;-7.853242294;-7.98790733;-1.039582068
2.374951616;-17.40260499;-6.876902612;-22.05561124;14.00798314;-0.098321433;2.685608068;1.265723012;-6.748625632;-27.05674852;-14.32992124;-10.66838496;-2.363242548;-16.43825275;23.84572755;-2.18639766;-9.614088129;-10.01911687;-0.477037588
1.993977139;-19.23572514;-8.912259762;-20.31016535;14.69163868;0.123868354;4.416904975;0.260872828;-3.780387259;-23.95169478;-13.13890372;-10.35411648;-1.24375681;-17.03495784;31.4521523;12.65549401;-9.611452984;-14.90436586;-0.77626569
2.315168638;-21.909779;-11.29450787;-19.3487776;11.69695961;0.207244857;5.151511142;-0.201536655;-2.439158423;-22.24908446;-13.6954601;-12.09551001;-1.052314037;-18.81519772;32.29649044;21.8517509;-8.529012697;-21.39905724;-1.676160938
2.533408508;-24.63071873;-13.82731133;-19.30688768;8.306177131;0.040052795;4.656873707;0.460508897;-2.816888334;-22.75885681;-15.12130739;-15.29284953;-2.13354646;-20.14162499;27.62217571;20.20611738;-7.352265665;-26.60570034;-2.221407005
2.364530047;-25.2549782;-15.53300509;-19.60872434;9.639258959;-0.243615837;3.557489779;2.225839475;-3.498714133;-24.43982502;-16.15391584;-18.85281919;-4.341530742;-19.80024716;22.79530945;8.780662862;-6.51886413;-28.10600013;-1.73949722
2.217484193;-22.34618428;-15.39428901;-19.59397275;18.0090492;-0.365744192;2.652261476;4.475649122;-3.016142475;-25.38127642;-16.19350715;-21.59007813;-6.976296157;-18.23857646;22.71801722;-5.957387806;-5.790205707;-25.73075027;-0.608520761
2.613091598;-17.08731356;-13.39003906;-19.19060188;30.09520225;-0.159651157;2.175794468;6.25456276;-1.397614701;-24.67300707;-15.84967599;-22.63250607;-9.120870434;-17.17436932;27.61749837;-16.7143185;-4.859132398;-21.4387394;0.000852348
3.45266504;-12.92199851;-10.80332114;-18.99776725;38.68926173;0.25580152;1.669757147;6.663791373;-0.394581644;-23.35457917;-16.50583765;-21.80345881;-10.22203241;-17.88521727;32.85209463;-19.83306553;-3.971577446;-17.55768994;-0.771726661
3.905185643;-12.90179722;-9.389167248;-19.67245565;37.92332787;0.555672685;0.517898128;5.235674566;-2.073896435;-23.48358795;-19.12790608;-19.80887318;-10.46765458;-19.84868898;32.92108092;-16.26902268;-3.85596412;-15.09424333;-2.576746716
3.09383914;-17.02663543;-10.04919297;-21.18112095;27.82569638;0.484112965;-1.43161557;2.128531055;-6.923798082;-26.17007813;-23.18506989;-17.97639043;-10.61389522;-21.14441833;26.2110439;-9.1;-4.984779357;-13.57133656;-4.067211463
0.973950414;-22.07270318;-12.15148224;-22.64597893;14.47424792;0.080879994;-3.76855292;-1.970925727;-13.12768687;-30.44186835;-26.60572372;-17.50906383;-11.36444408;-20.32509269;16.40214941;-0.603454126;-6.90380799;-12.23173931;-4.080632453
-1.438043117;-24.19463381;-14.07875237;-22.99036101;5.623913808;-0.348829507;-5.988480717;-6.206615368;-17.72332516;-34.03398306;-27.0148338;-18.64363483;-12.8049001;-17.94960088;9.412601703;8.23958067;-8.350495648;-11.12643462;-2.692329389
-2.759759936;-22.02175081;-14.49683528;-21.83450792;5.362868243;-0.497715407;-7.983009227;-9.965724763;-18.76724127;-35.36634848;-23.51239418;-20.3589699;-14.36474408;-16.18759857;8.620912261;15.94;-8.149852814;-10.90051396;-1.129175357
-2.289452851;-17.50489949;-13.23606811;-19.82502788;11.96159022;-0.315614062;-10.01310284;-13.07422787;-16.75387069;-34.84871597;-17.70061807;-21.01771478;-15.32281625;-16.74448982;12.46257118;19.19755045;-6.128964948;-11.63257606;-0.613659637
-0.495184066;-13.88342298;-11.11342665;-18.0796942;20.20924857;-0.031894641;-12.21168391;-15.65056502;-14.15910592;-34.31878337;-13.05546502;-19.62514932;-15.39844462;-19.07743583;16.25456078;14.47575638;-3.247826305;-12.21297642;-1.248938738
1.462346592;-12.81797187;-9.040867658;-17.25;25.80071005;0.07136656;-14.21143086;-17.76479474;-13.54208397;-35.22509579;-12.88138337;-16.79076033;-14.91569354;-20.73805129;16.38640604;1.638967876;-0.846459919;-11.21658099;-2.028462861
2.707305399;-13.40270043;-7.368989776;-17.07148339;27.98516614;-0.082248887;-15.40338689;-19.22311225;-15.78332629;-37.34907232;-18.17366499;-14.55038028;-14.4417653;-19.68527229;13.15901483;-13.92379657;0.31154881;-8.533961879;-1.953677197
3.229226086;-13.80419106;-6.044002875;-16.81344466;28.68803434;-0.314305865;-15.6496705;-19.69722571;-19.80123765;-39.26762874;-26.8896772;-15.01733997;-14.29;-16.41587694;10.04978888;-23.6027839;0.389812548;-5.965130494;-1.130342553
3.584382851;-13.62806789;-5.229673472;-16.17126578;29.62550767;-0.387209573;-15.69334269;-19.10357298;-23.75416561;-39.98545094;-35.19319337;-18.79337997;-14.37773857;-13.75300407;10.45642283;-21.36898307;0.030001144;-5.811618176;-0.702000763
4.096573561;-14.42641637;-5.536105528;-15.69152811;30.47994537;-0.244451849;-16.68739742;-17.8788687;-26.52792791;-39.98637091;-39.83934661;-24.37536387;-14.5461729;-14.28010372;14.97867389;-8.562567677;-0.348441538;-8.559366984;-1.628202332
4.411972981;-17.74249865;-7.444682111;-16.25260568;29.74829648;-0.056026274;-19.12108259;-16.84586988;-28.26130902;-40.56660276;-40.05441738;-29.10385849;-14.96217976;-17.75131377;21.3869464;6.63415532;-0.794082131;-11.95752375;-3.521682924
3.888828332;-22.76932208;-10.47052776;-18.05662193;27.0326996;-0.026586339;-22.13865191;-16.70529484;-29.69703474;-42.12908651;-37.65659724;-30.99910228;-16.11496621;-21.04483752;26.74954452;15.13659348;-1.454122453;-12.73829883;-4.798653804
2.43625468;-26.3151718;-13.04926706;-20.1321422;24.13504403;-0.165216129;-24.04027383;-17.53738694;-31.21658977;-43.29882727;-35.46171201;-30.0854059;-18.32253982;-20.94614059;29.41382575;13.73367795;-2.094862837;-9.677036861;-4.145688182
0.91;-25.54268538;-13.53012544;-20.93416981;23.64681692;-0.261170368;-23.69511414;-18.72902528;-32.53766588;-41.99376206;-35.22957077;-28.16919668;-21.19326379;-17.28681795;29.20966009;7.171264975;-2.116755456;-5.101023785;-1.936739943
0.554952004;-20.98277509;-11.52742459;-19.59652988;26.37809972;-0.106413988;-21.63787153;-19.40523473;-33.21836307;-37.57836602;-36.63017635;-27.26245849;-23.61887308;-13.39234629;26.39216188;3.814225721;-1.105672869;-3.092466719;-0.127172119
1.923633558;-16.65173427;-8.361337604;-16.70901048;30.25776144;0.252604459;-19.74400794;-19.01984368;-33.2426787;-31.93353349;-37.8349086;-27.94293532;-24.43718859;-13.15201234;21.09729845;8.520122409;0.667998643;-5.705859366;-0.532970217
4.290448938;-16.65871298;-6.030711033;-13.85216379;31.95238546;0.504438774;-19.6092037;-17.62745712;-32.95123439;-28.11816915;-37.10175006;-28.99092129;-23.27416725;-17.26023338;14.16045628;18.64043135;2.401890096;-10.68186075;-3.023472849
6.201102665;-21.2059176;-5.530696749;-12.25278625;29.75278187;0.351003301;-21.02409292;-15.64706414;-32.4;-27.62639992;-34.08449889;-28.57384824;-20.84728654;-22.21355341;8.149886459;26.30566826;3.498274593;-13.10921393;-5.415567511
6.740950981;-25.88675119;-6.049916737;-11.78150523;24.95927685;-0.173559348;-22.00417226;-13.38427247;-30.96977173;-28.82525426;-29.96967995;-25.94504439;-18.43243313;-23.29110692;6.72234625;24.81384684;4.140930779;-9.898697819;-5.364883539
6.359830374;-25.39314281;-5.865819784;-11.25046791;20.42712425;-0.667358095;-20.50527651;-10.78815648;-27.86619818;-28.29540521;-26.52555278;-22.1855897;-16.91259801;-18.99574133;11.98221092;13.69514979;5.027304043;-3.032618761;-2.612423365
6.415523811;-18.53158087;-4.168488138;-9.762593009;17.75156017;-0.688289793;-16.36133915;-7.680892596;-23.16858413;-24.09499384;-24.91097064;-19.33428886;-16.19358138;-12.79681016;21.95746643;-1.441475102;6.402732501;1.727930626;0.570916185
7.771211783;-9.832915113;-2.067380537;-7.820058594;15.97039547;-0.170910841;-11.62915752;-4.226737913;-18.31896755;-17.93641935;-25.09729028;-18.63964378;-15.44679482;-10.25090255;30.95406045;-13.4825588;7.361529279;-0.046326242;1.352613613
9.738535026;-5.863758033;-1.6908491;-7.045825012;13.15388301;0.464369414;-8.873888619;-1.143422807;-15.29376879;-14.00441262;-26.14018978;-19.4435699;-13.91169662;-13.85832774;33.31486965;-18.47883393;6.30144367;-7.039344832;-0.96229175
10.45259599;-9.276028064;-4.080762554;-8.65485481;9.235193788;0.653637621;-8.848822322;0.632405079;-14.96758664;-15.2083496;-26.90011523;-19.69025031;-11.5244505;-20.39901411;27.81495748;-16.72605585;2.372907962;-12.8165743;-4.057137947
8.492868551;-16.07582817;-7.857881311;-12.07125282;6.939750488;0.205512655;-9.729628346;0.605597215;-16.15391622;-20.26678752;-26.64346021;-17.66823584;-8.855762341;-23.53056817;18.79777474;-10.41010358;-3.324609054;-11.4439026;-4.58414415
4.348728773;-18.97209509;-10.08819276;-15.08979781;9.389075842;-0.484743281;-8.768077114;-0.8525916;-16.41017333;-24.55826158;-25.25484043;-13.52012763;-6.517926705;-19.62967846;12.68106214;-1.116702998;-8.070667854;-3.234759052;-1.357010636
0.331544585;-14.07435394;-8.775319336;-15.61443371;16.41359478;-0.758469707;-4.986221249;-2.715368017;-14.11572506;-24.28418626;-23.15565668;-9.222947482;-4.682122447;-11.56418107;12.64256928;10.02115724;-9.40465317;4.88449384;3.226297968
-1.144291635;-4.782411002;-4.756085799;-13.47415498;23.39654611;-0.299002806;-0.39751515;-4.004160026;-10.00220126;-20.19831436;-21.11252717;-7.027257641;-3.170204955;-6.576153387;16.23962618;20.21296714;-7.10546806;5.322169609;5.099410519
0.511924565;1.074697185;-1.124846498;-10.59194599;24.51028817;0.53126358;1.590737316;-4.403565088;-6.609696352;-17.18999481;-19.9663432;-7.654552388;-1.939227527;-9.736606187;18.28025577;24.27633123;-3.500371807;-2.942219744;2.283127637
3.645951027;-1.400326333;-0.512773523;-9.206917581;17.9923999;0.971280926;-0.641443778;-4.283916875;-5.985821299;-19.67899679;-20.22677194;-9.765613877;-1.329429803;-18.81043482;16.36736883;17.5363326;-1.643666763;-12.63375673;-2.950983545
5.87757804;-9.108672223;-2.648490221;-9.705651745;8.601329055;0.554060957;-5.067324344;-4.169255327;-7.70613836;-26.89647478;-21.64632734;-11.13717404;-1.687646549;-25.59910143;13.71582859;0.616607661;-2.80134319;-14.23797614;-5.772547034
6.232619819;-13.35904947;-4.583400532;-10.15441785;4.346591975;-0.407909059;-7.452014363;-4.200058594;-9.217332861;-32.73209625;-23.13274609;-10.53657542;-2.70449563;-23.15955013;16.07627899;-18.54125446;-5.441211501;-4.918162976;-3.143792849
5.927172898;-8.124179515;-3.60602865;-8.183972337;9.69746753;-1.031789896;-5.141293543;-4.133907417;-8.429817649;-30.93921357;-23.30641862;-8.703952312;-3.268959661;-12.63703026;25.23605116;-28.59731073;-6.725825389;7.911515094;3.045375984
7.007505306;3.357014689;-0.237374148;-3.63821205;21.17403258;-0.646939462;0.111584155;-3.884853497;-6.208439929;-21.35280625;-21.53319234;-7.634059471;-2.279584015;-3.149526258;35.43035741;-22.70162184;-5.267028343;12.41388616;7.203533178
10.04528671;10.37179043;1.691233766;0.57485075;29.7573851;0.528435679;3.104039398;-4.022131296;-6.156897753;-11.19266188;-18.71347249;-8.816081121;0.114750889;-4.035254165;37.0415085;-4.159799846;-2.620549857;3.147678868;4.968266296
13.10013145;4.284848374;-1.603053609;0.609599453;28.67955177;1.473556633;-0.453896861;-5.602705691;-11.39976852;-9.441142381;-17.05569552;-11.97083378;2.032539682;-15.92211594;25.33651757;15.35712403;-1.968705759;-12.80545737;-2.415315178
13.15356349;-12.41071137;-9.838643017;-4.743219237;19.91760516;1.22882413;-9.786677469;-9.303246324;-21.03869916;-18.63417169;-18.73089455;-15.36091318;0.914445147;-28.93349721;6.533166723;24.34988619;-4.971263076;-20.85190256;-8.507985964
8.959890294;-26.42235944;-17.83354805;-12.20339837;13.13854214;-0.177212344;-18.98382475;-14.5381137;-29.7855591;-31.46801561;-24.25233508;-17.35079672;-4.412532311;-30.62469721;-5.331609112;20.07474624;-9.642084154;-11.79748378;-7.112563357
2.753854635;-24.47632498;-19.21876267;-15.92724144;17.17681717;-1.59980614;-21.60673086;-19.41391945;-31.81764633;-36.119351;-31.83121512;-17.78787643;-12.29475634;-17.45868264;0.409354783;9.916156105;-11.50054671;8.427602177;1.731956188
-1.013217388;-5.927543824;-11.96421495;-12.09225407;31.13353207;-1.678931449;-16.35505679;-21.74620215;-26.00658746;-26.57566692;-38.35034829;-17.93908406;-18.86978257;0.435244724;20.76464763;4.158180937;-7.440722756;21.84651795;10.76077348
0.786646009;14.44320691;-0.871753451;-2.434309975;43.43837329;-0.081940921;-8.769855783;-20.43758843;-17.82419474;-9.123126919;-41.34916006;-19.02102934;-20.61828298;6.581932576;39.31889211;6.274584861;0.890939845;13.40382682;11.14700571
7.022739068;17.56031319;5.721172834;6.543109211;40.91485513;1.999015933;-6.920930332;-16.1120389;-15.48348267;1.540775289;-40.53476473;-20.66693215;-17.01067771;-7.439301517;38.52930586;9.386314267;7.456348424;-14.12317525;0.567685643
12.68278993;-2.975031099;2.901375221;8.565262576;20.96506745;2.649817557;-14.17333945;-10.44373314;-22.76511478;-5.445374046;-37.63055619;-20.81637491;-11.05851553;-32.57071917;15.01096932;2.489219892;6.252715491;-38.83989337;-13.33069143
12.65984387;-32.52542607;-5.901559333;2.979475919;-3.751703147;0.807529992;-25.10215359;-4.714001754;-34.41912826;-26.29464745;-34.69670512;-17.32069717;-7.089603885;-46.98345748;-15.16524386;-18.53849976;-3.456317173;-35.34871453;-17.86267676
6.08267996;-44.31859268;-10.66731139;-4.029850735;-13.42898996;-2.662039593;-28.59031889;1.159285953;-38.70779033;-42.98744338;-32.34;-10.02047816;-7.33504913;-32.77459336;-27.08920363;-44.84616143;-15.51668972;3.866494191;-5.491033218
-2.429689522;-20.20260997;-2.56501231;-3.88720675;3.303580074;-5.362618463;-16.39680583;8.219909575;-26.10760299;-36.124006;-29.3578818;-1.499901421;-10.05891639;8.106636728;-6.483227527;-59.54260838;-20.73178426;58.76056982;18.80964503
-5.925817032;32.9291966;18.15188008;7.415906184;38.69360621;-5.073776452;9.360804969;16.98072838;2.247573621;-0.901453776;-24.14936165;4.315751259;-10.88874082;52.17683161;37.27764659;-50.53303759;-13.65379695;93.28811982;39.57184692
-0.448366809;85.14242508;40.76385415;25.35886812;69.54234247;-1.497195799;36.10880707;26.15610634;33.41698458;46.68690082;-16.66566982;4.820826572;-6.448949544;69.85393681;75.93467576;-21.02554904;2.869791829;81.05507375;41.5760632
11.64171685;103.8723281;51.02021874;39.38592739;73.565693;3.350791814;48.89214139;32.88656884;50.60914183;79.40555292;-9.107130896;0.65975781;2.579802922;47.0933235;82.48323697;11.28191471;19.15761194;25.83824511;21.42058762
23.09355128;77.70935997;41.5069421;40.30715427;46.24192981;6.486825887;40.88748819;34.53727033;44.85261051;77.71628471;-4.57447357;-4.593234664;11.54549319;-3.390410465;51.60165969;26.41076604;25.35686338;-39.39718519;-9.175561114
26.97480076;25.09873351;17.4826295;27.06808618;4.877304352;6.072004887;18.39088614;30.76753327;21.62480334;43.89960837;-4.65426893;-6.843263202;15.15947592;-50.4519772;4.303592236;16.46702492;18.38317482;-75.15376084;-31.29998366
21.66143327;-19.0819843;-6.536972069;7.668543609;-23.70309277;2.689888877;-3.642941;24.16883682;-2.847497911;0.438236424;-7.956678219;-4.236753851;11.52139891;-66.48333159;-27.26433821;-9.019998735;3.899956684;-63.00567985;-32.2263135
11.76438923;-28.7998524;-17.01905081;-6.516631908;-22.59371175;-1.170161151;-12.20433546;18.77471045;-13.077235;-26.19671894;-10.97012574;1.69962179;3.619960638;-46.46259858;-23.37836616;-30.83353785;-8.090673834;-17.41994612;-14.13211569
4.37887555;-4.544548184;-10.71175842;-8.675583127;3.500420204;-2.99268072;-4.981244139;17.41164247;-5.018856993;-23.95826046;-10.7163752;7.272932225;-2.938997328;-9.865861992;9.454956409;-34.56591498;-10.55998216;26.68719683;8.335941281
3.719936835;29.68355551;3.972482121;-0.772750344;33.02568537;-2.01192965;9.159364338;19.84245605;11.98464355;-2.004146817;-7.131097487;9.195382289;-4.197811407;15.32334897;44.76805537;-20.46291847;-4.077005535;40.39152391;19.4428419
8.357648568;46.57593125;14.17790501;8.887081785;44.54165129;0.443754491;17.85532747;23.115228;23.15144099;18.54440336;-3.205862261;6.635819024;-0.713497416;13.53424787;56.95671886;-1.387454597;4.532839193;20.63447127;13.69235151
13.01947531;36.19819293;12.44997721;12.44704914;32.36205098;2.195015628;14.77144566;23.85619322;19.64522655;21.703265;-2.685590819;1.426514626;3.22353386;-8.635726105;40.0320822;8.564772693;8.01209323;-10.9308748;-1.427935492
13.20843548;11.14466933;1.513175443;8.16881954;9.073533203;1.961847984;3.610733544;20.7558712;4.581084515;7.868882312;-7.102890043;-3.457765225;3.297453674;-30.3169123;10.08669453;5.077762642;4.156780104;-27.4731391;-12.68435667
8.759689266;-6.394689226;-9.254547851;0.808709054;-5.954086088;0.22638649;-5.968982248;15.38333198;-10.53442321;-8.919924721;-14.49909264;-5.860866869;-1.272064654;-34.24680391;-9.198398722;-4.386091938;-3.203326245;-18.19655131;-11.880926
3.575825837;-3.591564549;-12.10943538;-2.999702138;-1.992675687;-1.378492625;-6.623592912;10.80744834;-15.43196764;-14.134321;-20.84007813;-5.480423703;-7.197020379;-19.77218746;-5.348224049;-8.278329409;-8.010039063;5.422326136;-1.491149035
2.0651936;13.89847973;-6.938673197;-0.177910159;15.99634669;-1.524693107;1.098882496;9.215364588;-8.786832048;-4.744242317;-22.97715807;-3.513894528;-9.950896802;-1.23157631;14.87514294;-1.132907611;-7.055898749;21.75834645;8.754595074
5.450862246;29.0419182;-0.345028393;6.930315897;33.29244363;-0.23952325;10.03715546;10.4283555;1.85741432;9.578414246;-20.80034013;-1.503401933;-7.532896533;5.499760401;33.4394417;12.36247298;-2.166419642;17.93272619;10.66391488
10.98557337;29.15884466;0.7615432;13.28490907;38.19512702;1.259029735;12.88871024;12.39250621;7.14652824;15.98779277;-16.9547533;-0.362661306;-2.043026607;-3.768453253;36.93173053;22.17080367;1.925628145;-0.52909183;4.100304146
14.48175775;16.16276726;-4.800243847;15.62818776;30.69596666;1.690555612;8.176542155;13.08559992;3.615599187;9.771464505;-14.50247098;-0.157242952;2.156925929;-19.33763761;26.6267113;21.77599383;1.782955724;-16.29137404;-3.869450011
13.78693327;3.1245012;-11.93155946;14.74195847;20.59813208;0.783616438;0.911811447;12.18329703;-4.282448139;-2.281880298;-14.53197266;-0.495591406;2.066591192;-27.18998955;15.0923833;13.37155959;-2.147114017;-16.03303569;-5.756053329
10.23503015;1.432585878;-14.28115364;13.83607218;17.95448011;-0.593117299;-2.117028316;11.12984073;-8.939187522;-8.705949444;-15.6311247;-1.004285237;-1.594751825;-21.25369546;13.64203359;5.38237087;-6.50651568;-1.40314198;-0.115167352
7.043135287;10.6471061;-10.14654683;14.95279455;24.67131867;-1.263891476;1.896687072;11.64925593;-6.53894839;-3.761332085;-15.49384187;-1.519454765;-5.193472862;-7.815100727;22.29723131;5.062851858;-8.312287014;13.71987673;7.732905224
6.29327978;19.85233802;-4.030828407;16.86947695;34.10128085;-0.758135581;9.773365835;14.02588007;-0.130073547;7.824718692;-13.1563872;-2.027635965;-5.365066673;0.969690628;30.78955671;12.71292502;-7.472711791;16.19144245;10.84942593
7.220880382;18.48165846;-2.637838751;16.37803831;37.91236419;0.365975725;15.38541384;16.62400767;3.502934371;15.56153416;-9.932594735;-2.594416011;-1.852401247;-1.978855868;28.88846322;22.03021105;-6.43130218;4.883582587;6.80602217
7.201141826;6.217632723;-8.962024719;11.61430162;33.41977359;1.097616159;14.76190213;17.04215456;0.045034605;12.71568877;-8.321166764;-3.384519989;2.335877638;-12.99247177;16.25909214;25.57665944;-7.546400796;-9.278987874;-0.546431171
4.3770587;-7.022663941;-19.65122617;4.238117379;24.99656792;0.877132424;8.877419472;13.94305317;-8.611896978;2.092259986;-9.898603066;-4.642274702;3.477796881;-21.71992558;2.995564071;20.32531635;-10.76435547;-13.72669398;-4.859227851
-0.507337893;-10.55549872;-27.82452748;-1.639381008;19.12219278;0.024275135;2.116732974;8.085419511;-16.17800269;-6.779639274;-14.00278006;-6.48650751;0.200906256;-20.66727951;0.632018744;8.96161046;-13.68495072;-5.331261286;-2.930757555
-4.676736041;-2.763354787;-28.77388715;-2.883824732;18.33061665;-0.635417294;-1.773944524;1.784295518;-17.44814856;-6.187205479;-18.24938309;-8.619639877;-5.462534102;-11.5223264;11.86933304;-3.181386922;-13.82279415;7.515910243;2.817612344
-5.708583715;7.803445676;-23.61910741;-0.051813963;19.72503854;-0.55044935;-2.533565363;-2.692621252;-12.54430239;3.206959586;-20.34455333;-10.27164412;-9.78147297;-2.977390947;28.11466459;-12.07817514;-10.89196537;13.0406348;6.950889386
-3.567341421;10.81191237;-17.93907202;3.077564519;18.92348871;0.089429551;-2.769622495;-4.495456707;-6.370422585;13.38123497;-19.64138895;-10.59218767;-10.26510503;-2.544840125;36.79874622;-16.44742748;-7.027174022;6.65318116;6.054180616
-0.521761297;3.949299817;-16.80287361;2.805403662;15.09150719;0.588119287;-4.873190725;-4.335695697;-4.06892485;16.26489767;-17.24483379;-9.293699905;-7.415031942;-9.962289771;31.87327306;-16.37272201;-4.816661982;-5.476691278;1.583581457
0.892108616;-5.097968331;-20.59438441;-1.21743455;11.96571275;0.4200354;-8.532893256;-3.476384556;-6.654441313;10.65218764;-14.78570282;-7.011155262;-4.009023622;-17.91094831;18.40518022;-11.62497297;-5.00982898;-12.54424071;-1.842154333
-0.000678116;-6.276097225;-25.09568904;-5.616051383;13.93777077;-0.288469823;-11.08791069;-2.54619404;-10.56493268;2.738833374;-13.06136616;-4.961541046;-2.722580164;-18.97388931;7.656394434;-2.023846128;-5.989486139;-8.941962878;-0.88908531
-1.645785278;2.899950022;-25.46563098;-6.163171413;21.19405379;-0.898126363;-10.19290212;-1.173374438;-11.22025116;0.195359794;-11.68251829;-4.044652565;-4.142180663;-12.29988081;7.350700022;10.54375545;-5.43178154;1.114401885;3.465379523
-1.867874973;14.6625076;-20.45481179;-1.438402051;28.85896;-0.860847406;-6.167487075;1.365654857;-7.184198279;5.349554312;-9.835899773;-4.070941196;-6.678835738;-4.056558247;15.6575741;21.11714431;-2.584296245;7.964142794;6.992668896
0.076596803;18.35957297;-13.23287935;5.851512282;31.20804068;-0.221506074;-1.815045585;5.172802848;-1.230523874;13.51680534;-7.272969586;-3.813042005;-8.171818814;-1.585870397;23.70794175;23.72837003;0.925954491;5.478972265;6.220575088
2.850569644;11.09410342;-8.348031663;11.00018781;27.04451652;0.434164601;0.087788718;9.341749875;2.414265668;17.64346698;-4.555164514;-1.960968466;-7.626984907;-6.784041543;23.84384526;15.57993395;2.47246155;-3.624995769;1.638232294
4.309023405;1.364638996;-7.70563712;11.05944455;21.04016601;0.520816953;-0.713655577;12.49805902;1.945656745;14.78088304;-2.4155974;1.713122603;-5.650728025;-14.65053282;16.10710116;-0.110828962;0.74145072;-10.70766919;-2.785449436
3.478995861;1.526225329;-9.1247592;7.088355196;19.52687922;-0.018843661;-1.761294925;13.78403967;-0.562699285;8.520206699;-0.9869599;5.939664438;-3.460710494;-18.05998194;7.562641717;-15.428192;-3.07887516;-9.328261056;-3.230772969
1.449233732;15.28273395;-8.583802795;3.108351629;24.48270073;-0.673990127;-0.161665848;13.448172;-1.288715042;5.417801036;0.260798444;8.717345421;-1.60886679;-14.20953945;5.655452749;-22.68885622;-6.245076214;-1.009992512;0.550277107
0.405273256;31.68767154;-3.998715686;2.770466601;31.3405381;-0.83553926;4.724663213;12.57305034;1.744438514;8.913259891;1.79477396;8.75269967;0.351814164;-6.905729442;11.8542964;-19.30395016;-6.66058052;6.462922582;5.081724406
1.715732751;32.15344706;2.832815036;6.562979264;32.8884674;-0.342511777;10.56913863;12.21468226;6.949293267;16.33428886;3.281192835;6.478862886;3.059105263;-2.836373281;21.04091343;-8.862256458;-4.410019531;6.382090209;6.323168891
4.778068599;5.707885126;7.712642961;11.76255853;25.92218663;0.382431433;13.93796822;12.68290748;10.80982115;21.56546079;3.694467904;3.830638281;6.319031836;-5.436989112;26.59383065;2.123392294;-1.386659928;-0.767700321;3.228702818
7.59298751;-40.04735923;7.496167187;14.92138339;14.60773254;0.714992683;13.07985093;13.50792879;11.22307338;20.73966107;2.323203214;2.897900451;8.963682287;-11.95760134;26.11145339;8.84647548;0.50522534;-7.921031353;-1.460063477
8.47589718;-82.08049813;2.465801389;14.61756949;7.298840663;0.374959912;9.255746576;14.01937636;9.3829929;15.66230958;-0.228154142;4.449464284;9.787092888;-16.22347285;22.63251781;10.46859788;0.900601723;-8.020078125;-3.779044393
7.34963826;-97.65659895;-4.294707757;12.18601366;9.415540273;-0.347757588;5.57918166;13.96740064;8.471752344;11.89559533;-2.102292726;7.417056913;8.679310947;-14.36242149;20.75909438;8.763735026;0.959770244;-0.448249306;-2.058269964
5.52384648;-80.65022253;-9.739008898;10.05144247;18.64904052;-0.868516562;4.486306213;13.64659579;10.42025289;13.36485258;-1.508690319;9.681795803;6.844342379;-8.212890146;21.82576286;5.228664733;1.961988354;8.499711003;1.754315262
4.277633698;-45.68077773;-13.29912927;9.349585133;26.83982301;-0.819320714;6.005223912;13.46964444;13.79653788;18.48080576;1.678439067;9.52194118;5.815100503;-3.425774868;22.84056465;-0.190588955;3.907630982;11.37512203;4.020405568
3.620205902;-16.97268822;-16.88798453;8.977754383;27.00676181;-0.339362749;8.125883351;13.42647054;14.85414536;21.33031575;5.430762682;6.640448533;6.09894192;-4.176205221;20.04420301;-7.663452356;5.419797645;6.214310115;2.715860357
2.373011211;-10.90816206;-22.70825607;6.795907148;19.39909507;0.092008927;8.689997758;12.93959187;10.88072523;16.88037628;6.77460133;2.106171344;6.666583648;-9.396997508;13.41609832;-15.2752052;4.970819001;-1.919263272;-0.890833023
-0.545845402;-25.79295606;-30.98858823;1.765558636;11.23879559;0.101245671;7.035849726;11.2556729;2.861606029;5.561770869;3.896968623;-2.575043147;5.78174856;-13.90104673;7.561050794;-18.97251593;2.250083008;-5.709797199;-3.587470873
-4.870755044;-45.94212465;-39.63207267;-4.926336648;10.35627587;-0.265856355;4.097732109;8.045347462;-4.97382146;-6.793033465;-2.462530924;-6.428827203;2.49733161;-13.22526951;7.89315484;-15.43869085;-1.571902256;-2.199584125;-3.2190902
-8.966757156;-55.51299329;-45.90508248;-10.70369665;18.30255668;-0.628658319;1.18911941;3.720134941;-8.426829122;-13.54683306;-9.451844522;-9.303140324;-2.441614433;-7.696199585;15.55246815;-5.499673833;-4.853652269;4.742842966;-0.555600828
-11.09611346;-50.32662066;-48.5017243;-13.58513631;28.97632507;-0.647460058;-1.181079476;-0.77131334;-6.65630074;-12.37226519;-14.06712322;-11.43154987;-7.038626547;-2.055948693;25.80153516;5.402784993;-6.772025553;8.16141027;1.597560844
-10.85069945;-38.74587944;-48.17113295;-13.57160459;33.93671967;-0.330458491;-3.363073318;-4.481324031;-2.740842098;-6.604320993;-15.12515447;-12.82673778;-9.441310351;-1.107176916;31.54664668;10.80763715;-7.714093781;4.390845707;1.096566069
-9.469151451;-32.436415;-46.57290849;-12.33551783;29.69956182;0.0020923;-5.643534797;-6.918238457;-1.04001709;-1.995452225;-13.75915718;-13.10747678;-9.13389771;-5.415850322;28.99519451;8.27805362;-8.511215559;-3.731883537;-1.58342
-8.751697342;-35.93677762;-44.65099605;-11.64755965;20.61962595;0.041491413;-7.470746582;-8.127629257;-3.620681596;-1.990962369;-12.15992661;-11.87150001;-7.013507585;-10.93778574;20.5447447;1.56245751;-9.3633351;-9.584446847;-3.893700234
-9.5261856;-43.85956496;-42.09590137;-12.0078531;14.9008944;-0.214005153;-7.733328728;-8.442747054;-8.715563338;-5.624254696;-11.67624244;-9.189554662;-4.429700208;-12.7823533;12.50368633;-2.318516261;-9.553741774;-8.754112691;-3.662605106
-10.99832263;-47.0890255;-38.25590113;-12.61659859;17.32641297;-0.466755227;-5.865013617;-8.184514793;-12.36390836;-9.474911777;-11.82802299;-5.702774703;-2.11095717;-9.597031724;9.823132857;1.0615557;-8.241746377;-2.824258307;-1.125157134
-11.51925976;-41.51390388;-33.40627153;-12.52925812;25.11859991;-0.413045246;-2.651612899;-7.550753159;-11.70379231;-11.42811039;-10.95544787;-2.211435711;0.116738385;-4.614500866;12.50885835;9.561568466;-5.541822423;2.341941921;1.33361979
-10.05794615;-31.34222287;-28.98592923;-11.80621922;30.50175741;-0.039939048;0.153119097;-6.697381715;-7.144161027;-12.58800367;-7.859873632;0.857020714;2.710019531;-2.542218887;16.62116342;15.86701474;-2.786332418;2.049779937;1.42869012
-7.080771238;-24.59344774;-26.49380973;-11.58015506;27.61972927;0.352429651;1.158974716;-5.824071843;-1.783580223;-15.71845968;-3.024312429;3.595280008;5.590809833;-5.246582991;18.51079422;13.29870753;-1.6198988;-3.09382339;-0.904984982
-4.108012046;-25.51040547;-26.10636267;-13.03399509;17.69900287;0.42093084;0.432684283;-5.105374681;1.173190555;-21.96303349;1.57929681;6.24572605;7.944457756;-10.16630171;18.13449206;1.358277969;-2.678152877;-8.015689923;-3.479339305
-2.397874841;-30.97718459;-26.39687709;-16.28115739;7.989432977;0.090020447;-0.66036439;-4.508860048;0.717425846;-29.1582017;3.893544139;8.687995986;8.809029317;-12.78809403;18.43398181;-13.49191349;-5.024823384;-8.00471083;-3.903131951
-1.947214034;-33.87830409;-25.50647771;-20.17872926;5.514954167;-0.380912988;-0.738108206;-3.707061089;-1.711410282;-33.43949891;3.230736531;10.32135262;7.87957304;-10.80099661;21.64255683;-22.40078459;-6.863572102;-2.994313759;-1.794351358
-1.665286241;-29.86331654;-22.73210271;-23.21519234;11.14446872;-0.629293147;0.361890636;-2.2504347;-3.882390906;-32.66692068;0.653612602;10.52591997;5.779242113;-6.11021899;26.31447298;-20.33865416;-6.911603745;2.557614202;0.883172013
-0.509369667;-21.14;-19.083482;-24.65500851;19.08027034;-0.504055949;1.519337307;0.053782894;-4.661437838;-28.46154994;-1.925834482;9.329800577;3.578390282;-2.960900227;28.13792561;-9.144458949;-5.256730731;3.899209763;1.644781385
1.465349672;-14.02636564;-16.3122807;-24.95202506;22.05057354;-0.17988982;1.475552909;2.82495581;-4.546434609;-24.92776616;-3.136517329;7.658778704;2.041312313;-4.007403679;23.93509739;4.529839125;-3.021683793;0.310197493;-0.226265416
3.073063;-12.87987261;-15.33190879;-25.15498045;17.58172234;0.02095309;0.093832558;5.133620961;-4.690882327;-25.18810148;-2.947545945;6.852573516;1.286615493;-7.966042616;15.12693231;14.15037291;-1.2458195;-4.423498526;-3.023448669
2.988643489;-16.19778268;-15.49347072;-25.92174662;9.9588432;-0.075654123;-1.461865846;5.926372602;-5.597323556;-28.83666484;-2.371333219;7.752591948;1.092298629;-10.93052378;7.279923389;16.98122173;-0.058928999;-5.669797149;-4.172712136
0.879836206;-18.39438806;-15.35509593;-27.02870132;6.368925706;-0.354472365;-1.813049591;4.619338988;-6.743652047;-32.53293634;-2.453108271;10.06624407;1.425198916;-10.03168094;5.86565598;14.11379988;1.127151907;-2.238448354;-2.558417397
-2.28757245;-15.35861159;-14.16730604;-27.72631188;10.73003906;-0.541833782;-0.709565356;1.485662946;-7.327055542;-33.08577963;-3.404520163;12.53231794;2.567693521;-6.031794823;11.82975661;7.911465404;2.687287357;2.661534537;0.495092173
-4.989489262;-8.45606364;-12.63063278;-27.50611791;20.501201;-0.472115253;0.636713754;-2.423664306;-7.211929901;-30.18269411;-4.496224995;13.78439757;4.654798803;-2.521361802;20.81488589;-0.101380163;4.093209109;4.5618339;2.446457965
-6.256852393;-3.246569932;-12.18732343;-26.53605212;28.96990882;-0.235645841;0.573786669;-5.79357964;-7.079673265;-26.37086269;-4.662124322;13.25404032;7.092265686;-2.555920858;26.690682;-9.00506749;4.195209252;1.942816985;1.819885054
-6.234753766;-4.197747992;-13.51748791;-25.41739391;30.7703578;-0.076017933;-1.515935809;-7.690019531;-7.674931361;-24.49095187;-3.260482744;11.43507385;8.546380594;-5.881854599;26.30735711;-16.83377318;2.253295083;-2.417080778;-0.523426047
-5.807506187;-10.38388398;-15.69095255;-24.5805637;25.85312722;-0.144668203;-4.617775846;-7.960322907;-8.965422883;-25.06171774;-0.436819866;9.357609804;7.72510151;-9.269411332;21.45085175;-20.06181073;-1.249105776;-4.130825354;-2.233542054
-5.726244198;-16.19;-16.83663922;-23.92827434;18.81145839;-0.351574531;-6.904107196;-7.176358405;-10.07779432;-26.02793847;3.065043307;7.750752793;4.411799226;-9.557467603;16.59554964;-15.59863365;-4.80718422;-1.344514352;-1.615830726
-6.035789182;-16.3826523;-15.77351638;-23.02223038;14.6215187;-0.453911714;-7.233831375;-6.194578953;-10.05634402;-24.98382897;6.38284254;6.585870581;-0.128060489;-6.54335724;14.7754595;-3.869973147;-6.984826174;3.545907698;0.887690585
-6.235480113;-10.89719999;-13.12364748;-21.55358723;14.73515258;-0.295667608;-5.998778566;-5.630905407;-8.67364026;-21.66630305;8.924339585;5.329251566;-3.813610745;-3.071107019;15.36118091;10.03273901;-7.448169547;6.15942917;3.177964593
-5.912890258;-4.977944816;-10.8684494;-19.59837187;16.71849084;0.032356351;-4.603529924;-5.577296591;-6.514696768;-18.32310369;10.45955884;3.620188849;-5.063630656;-2.311753436;15.52407435;18.83769693;-7.05241045;4.216843472;3.435083401
-5.204980183;-4.558715912;-10.7181935;-17.44250963;17.23077889;0.267289285;-4.115660378;-5.708679873;-4.327245978;-17.6175344;10.97070846;1.749454082;-3.77420211;-4.810289643;13.66251819;17.75244841;-6.962084588;-0.363975041;1.722580493
-4.676214297;-11.06359789;-12.74423828;-15.23885352;15.2806623;0.216990765;-4.350414008;-5.663418433;-2.368733253;-20.06699114;10.44990579;0.516147409;-1.222665627;-8.029266017;11.32512647;7.715566988;-7.654612326;-3.280643392;-0.157650117
-4.782835187;-20.26105066;-15.47606112;-12.92290115;12.82573635;-0.055382861;-4.202616259;-5.39939959;-0.432599091;-23.44298965;8.809644039;0.592616235;0.977603206;-8.760994918;11.73443608;-5.389848176;-8.714923091;-1.844149247;-0.348632101
-5.457299669;-26.08853089;-17.3193037;-10.497343;12.49495084;-0.279681292;-2.850297656;-5.25211287;1.532984626;-24.7125589;5.969409262;1.94790256;2.004275563;-6.128157793;16.34179026;-14.90917897;-9.532274743;2.556742191;1.419494826
-6.184203223;-25.91062971;-17.95128335;-8.338925852;14.85260181;-0.219909914;-0.644567637;-5.639691348;2.979788381;-22.72391693;2.081034213;3.821532742;2.16606475;-2.389455251;22.78601206;-17.59623891;-10.12384621;5.781713957;3.691631259
-6.448602073;-22.49600889;-18.40570484;-7.085050303;17.82205754;0.110375769;1.181639975;-6.627725329;3.111158763;-19.14938741;-2.232399176;5.270889891;2.302411667;-0.834693805;26.37692757;-14.64504658;-11.18635419;4.790743605;4.68727582
-6.106399256;-21.07106843;-19.81376403;-7.065743652;18.67650531;0.454849789;1.715646259;-7.693296402;1.797299169;-16.82066711;-5.816540752;5.846051383;2.883924016;-2.74609027;23.95448874;-9.320696805;-13.24918753;0.445999459;3.882229998
-5.353109863;-24.26853015;-22.05306375;-7.775985549;16.59474009;0.537975084;1.322953716;-7.909473955;0.116574924;-17.00517389;-7.277615272;5.864312491;3.643056539;-6.235118074;16.71983806;-3.837171667;-15.74359529;-3.302263035;2.332322071
-4.394077642;-29.60506083;-23.66314688;-7.981913934;13.39270455;0.30417239;1.409505773;-6.476927185;-0.195295224;-18.14409028;-5.618630068;6.10638876;4.014289821;-8.002528863;9.476752454;1.580618389;-16.99732757;-3.05711655;1.535169744
-3.209662639;-31.73555518;-23.19781834;-6.551415924;11.87699523;-0.040149954;3.147941008;-3.264763419;1.912098463;-17.22349441;-0.919813679;7.220720399;3.893139677;-6.371190569;6.888900858;6.976504196;-15.37373425;0.93005127;1.987128213
-1.681598697;-27.38537637;-20.7904247;-3.411144976;13.46758706;-0.213960278;6.316232997;1.012023617;5.828078103;-12.54133939;5.423243933;9.313034457;3.930213416;-2.796224412;9.967185074;10.59720124;-10.6872916;5.038248734;2.813711989
0.057933575;-18.48973674;-18.41448598;0.196723093;17.24709559;-0.10499423;9.337848919;5.117462748;9.641797109;-5.375672053;11.23392236;11.98632074;5.015443846;-0.490199895;15.71548156;9.192252761;-4.650893674;5.625677179;2.77094847
1.460732771;-10.73827009;-18.4434705;2.483275364;21.07899071;0.148425478;10.54332833;7.922276345;11.65050873;0.926285828;14.68941087;14.70062421;7.37598125;-1.46038622;20.00572418;0.967670556;0.15522637;2.339027462;1.590014648
1.839236598;-8.844852971;-21.66450249;2.388782791;23.48048758;0.301711582;9.56517361;8.939266871;11.73585401;3.601532406;15.36701769;17.09513309;10.1151607;-4.687667787;20.9583516;-11.47003906;2.056405819;-1.641404266;0.326601469
0.911949386;-12.71721515;-26.4739153;0.387933111;24.42060724;0.23295098;7.644229833;8.459545051;11.36271858;2.534115635;14.43360413;19.02903651;11.68960384;-7.092365873;19.8713104;-21.40874896;1.39110001;-2.592601255;0.356449885
-0.857071032;-17.80355242;-30.02431356;-1.810245966;24.51316784;0.044467503;6.590982617;7.275246364;12.1612012;0.030812386;13.74585612;20.40888022;11.03187464;-6.362941881;19.16941271;-22.19034867;0.0616958;0.316054047;1.981988802
-2.467525803;-19.15580483;-30.41970381;-2.431964763;23.77578607;-0.049785805;7.332321791;6.23756075;14.36176902;-1.285722501;14.44981154;21.07085477;8.452010601;-3.040594081;19.61234206;-12.27981792;-0.08260468;4.29476169;4.016264804
-3.022234074;-15.55408809;-28.1374286;-0.778841268;21.49163052;0.062715555;9.309913225;5.938589156;16.53758193;-0.464171961;16.12762562;20.8939774;5.583035468;0.023350267;19.54934309;2.999644715;1.308426874;5.533761492;4.801261866
-2.303017983;-10.16073438;-25.50827032;2.470215626;17.40666718;0.282882263;11.19198377;6.626379788;16.93764102;1.587417672;17.19743027;20.03953929;4.366999426;0.293250152;16.90738167;14.91209509;2.963923484;2.6987615;3.749374984
-0.843206099;-7.363758745;-24.74226616;5.8789418;12.90078032;0.394914635;12.16841768;8.252932915;15.20943695;3.567672547;16.31406955;19.02979272;5.8108182;-2.171099761;11.88459605;17.55670538;3.203474061;-1.887738282;1.961187397
0.512533265;-8.796014169;-26.20187039;8.173944228;10.58519007;0.274330348;12.61268845;10.5090489;12.8948912;5.223318293;13.67936688;18.48964326;9.395441924;-4.844953431;7.567815651;12.06614182;1.39294167;-4.415728985;1.290846797
1.156451451;-12.06126841;-28.35097715;8.749446223;12.29772889;0.011550354;13.5406092;12.83562206;12.17563469;7.284397535;11.16296139;18.69473195;13.50596974;-5.105208661;7.616971252;5.385668074;-1.571733904;-3.064431071;2.660791599
0.939722221;-13.12430444;-29.31609883;7.561039147;17.23415494;-0.166741837;15.45141508;14.54492328;13.97679405;10.07355782;11.03443951;19.30291841;16.50250263;-2.626198601;12.96693343;4.570351292;-4.065933706;0.409800621;5.149014021
-0.010011253;-10.04523179;-28.60930413;4.798329593;22.14705744;-0.106981635;17.71379017;15.14577193;17.19196574;12.41579819;14.23295342;19.55500603;17.65121993;0.379723941;20.5630539;11.12507024;-5.034087249;2.379955012;6.705736817
-1.567742336;-4.671712883;-27.48201844;0.817081649;23.79186889;0.125233652;19.12012608;14.73790197;19.80127115;12.24647593;19.53432075;18.85797083;17.33698605;1.246529234;25.44378924;19.82672685;-4.651451104;0.7166408;5.896581756
-3.633765084;-0.87218599;-27.63527557;-3.63079515;21.64502775;0.299466533;19.08871268;14.14024946;20.87797698;8.59374298;24.32361817;17.31578383;16.55396384;-0.692916875;24.52881991;22.83299679;-3.875318704;-3.294954452;3.140991135
-5.874300331;-1.015585661;-29.47147789;-7.304190375;18.43179838;0.228706936;18.33176495;14.49541193;21.56341344;3.067792731;26.4309536;15.7608083;16.14807712;-3.536712706;18.93094517;15.73286502;-3.4223258;-6.203141951;0.360773432
-7.51940008;-3.87837203;-31.45975841;-8.920937672;17.79940832;-0.056039894;18.27268252;16.47413339;23.95714292;-0.805897388;25.63806278;15.20529056;16.34649953;-4.607740134;12.87066109;0.871325749;-3.156437155;-5.580617666;-0.632572856
-7.579560931;-5.774001928;-31.19902715;-7.995437002;21.03598023;-0.323039837;19.6799013;19.61018201;28.81129438;-0.17906225;23.70933801;16.09782998;16.80046841;-2.920170367;10.19683725;-14.3341923;-2.399900265;-2.187909286;0.419173253
-5.466871405;-3.805943841;-27.29716892;-5.374133936;25.72654801;-0.335306645;21.78540536;22.34672131;34.16991646;4.708306073;22.95371039;17.95344487;16.98817968;-0.04601924;11.5030601;-22.43175852;-0.778473996;0.843144181;2.186217817
-1.570320898;1.657477879;-20.51417411;-2.847640407;27.647986;-0.052787229;22.79328878;22.92911206;36.4243754;10.47130689;24.45638082;19.66234179;16.64507497;1.380819374;14.16717928;-20.40686363;1.266278619;0.970546679;3.074838338
2.738199826;7.388403935;-13.27461077;-1.946666311;24.36291365;0.333224394;21.43770674;20.61502195;33.14270798;13.11451597;27.32864668;20.26604685;15.9607328;0.107128742;15.01449978;-10.6453677;2.80201132;-1.441965124;2.659681709
5.78869886;10.11364563;-8.01477906;-2.808073358;17.4083426;0.557625493;18.23567697;16.31780813;25.32010709;11.11858457;29.47104717;19.62464743;15.47079638;-2.606595328;13.10123499;1.527293475;3.245526675;-3.581273301;1.936331389
6.553814377;9.23263846;-5.710739093;-4.085381709;11.13873779;0.489762208;15.24916684;12.10652231;16.98472578;6.475854083;29.15302597;18.4759668;15.72954958;-4.17733977;10.23546163;11.24456363;2.898534064;-2.924172195;2.231568797
5.178696422;7.149274448;-5.644656584;-4.094148881;9.192970692;0.216836875;14.43229843;9.803237889;12.25508383;2.789128817;26.14849042;17.84902296;16.92660216;-3.082741178;9.039877732;15.95365477;2.654302492;0.343002335;3.842224364
2.737274649;7.069739304;-6.361324599;-2.333563415;11.63480609;-0.053454596;15.90966901;9.648190842;12.16642278;2.078297082;21.63940279;18.2807658;18.63708039;-0.233678827;10.534591;15.17767677;3.143491815;3.487804911;5.68912712
0.444116918;10.24894117;-6.851283518;-0.1196824;15.20512755;-0.168556112;17.6791658;10.04846393;13.90605637;3.058111013;17.14907119;19.42216427;19.87467392;1.900803463;13.441646;9.483413739;4.124515141;3.801774743;6.299739169
-1.061300646;14.99912359;-7.009164576;0.284065376;16.36273928;-0.127971926;17.08491442;8.682632612;13.15983168;2.359826061;13.4926845;20.31084071;19.50795043;1.574375914;15.63314629;0.126386512;4.699298912;1.154477937;5.190915348
-1.865805764;18.16619021;-7.214465886;-2.568232413;14.3510239;-0.033781713;12.92095962;4.220999649;7.678012618;-2.400587167;10.56937932;20.08183912;16.8911587;-0.660858133;16.13607894;-10.48136351;4.162023151;-1.858799261;3.358471508
-2.378506542;17.71794343;-7.662850505;-8.036439377;11.5871059;0.033065692;6.469295323;-2.588856554;-0.867160989;-10.39705112;7.989616394;18.57560221;12.35645832;-2.5088501;15.74251478;-18.61215919;2.691240539;-2.308382235;2.413585473
-2.81474227;14.29943437;-8.153651091;-13.67819499;11.14653442;0.080862995;0.625896518;-9.303502956;-8.236023844;-18.1322803;5.802858309;16.4076173;7.19783353;-2.064351456;15.78557701;-20.40244626;1.232526363;0.371030845;3.154290457
-3.023260284;10.61128125;-8.44756181;-16.92551237;13.74923732;0.161460301;-2.189882052;-13.39687864;-11.01390036;-22.23950296;4.586008777;14.4843357;3.044023066;0.45409702;16.48075346;-14.04818193;0.663232919;3.879127199;4.872948681
-2.737442911;9.273301489;-8.694468959;-16.88142292;17.05699883;0.27507354;-1.698929044;-13.94713188;-9.212488699;-22.10937288;4.820939854;13.35233352;0.939426452;2.945648285;16.60487857;-1.445316352;0.994144403;5.196028166;6.018774988
-1.937271441;10.93450559;-9.394834278;-14.86210348;17.92294537;0.339726298;0.242507678;-12.16687681;-6.000667079;-20.12447172;6.189130793;12.8575236;0.721310838;3.377937844;14.87043371;12.1969164;1.33390569;3.367193448;5.598405119
-0.945740387;14.01453707;-10.8886325;-13.29802019;15.48750025;0.268650337;1.192584766;-10.39481943;-4.944678364;-19.40478054;7.508014159;12.32963502;1.148945424;1.626902547;11.57742693;20.82711998;0.650649431;0.342351141;4.042018094
-0.175588223;16.09007813;-12.89555537;-13.8772385;12.20891889;0.080176311;-0.07768828;-10.30402209;-7.173410166;-21.0890094;7.457358572;11.11687042;0.745707904;-0.470535937;8.761347566;20.63883565;-1.351541724;-0.889133763;2.772411344
0.211201976;15.73663614;-14.615294;-16.35114587;11.79098302;-0.080847966;-2.892385692;-11.65670439;-10.79256757;-23.47025555;5.527119814;9.069537999;-1.198586329;-0.853224136;8.49837648;11.90716656;-4.012523248;0.893809527;2.902155676
0.396609555;13.45419992;-15.34986103;-18.83955021;15.81929828;-0.052685127;-5.442888027;-12.52294427;-12.8314288;-23.60631028;2.400671944;6.649592244;-4.155890403;0.872536678;10.89928136;-1.359220036;-6.314164883;4.017555259;4.256374022
0.67242224;11.11640077;-15.07597896;-19.29119593;22.14264082;0.190713855;-6.235538773;-10.79886521;-11.85878992;-19.9027508;-0.54954689;4.630443728;-6.744633202;3.122023633;13.78021715;-13.49325937;-7.719924226;5.5097884;5.586168838
1.120941519;10.4718659;-14.41122457;-16.93617744;26.51128941;0.487939735;-5.054520028;-5.91531521;-8.994324069;-13.46414906;-2.249193469;3.620788653;-7.689212951;3.845372642;14.51547296;-19.71014425;-8.488255553;3.910944794;5.732777688
1.530131365;11.83068558;-13.98529752;-12.70436304;26.07940309;0.602805052;-2.860594374;0.49776861;-6.612825144;-7.221272756;-2.618844249;3.721686522;-6.674355787;2.428767943;12.49146308;-17.96737772;-9.21052358;0.658912562;4.651570514
1.625650847;13.86867286;-13.80895382;-8.467319672;21.71258984;0.416650714;-0.954751853;5.472087529;-6.098901674;-3.772795158;-2.482425568;4.497176645;-4.515797872;0.226614791;9.872430073;-9.582605002;-10.05806951;-1.260332802;3.374548603
1.383725856;14.68634407;-13.26301879;-5.821183324;17.11046223;0.035146891;-0.180793231;6.505502453;-6.723134764;-3.807782615;-2.833149208;5.231424455;-2.574599541;-0.729668936;9.811395139;1.468921191;-10.48817825;-0.141714427;2.993732157
1.098183071;13.37979082;-11.7597062;-5.314513909;15.58295676;-0.288780942;-0.663917011;3.112998658;-6.537731591;-6.210912515;-4.061697399;5.301711229;-1.861475304;0.38986723;13.56600447;10.3673025;-9.713769168;2.785595353;3.642111568
1.103502903;10.95297959;-9.480107765;-6.511301218;17.35967007;-0.355312598;-1.996261089;-2.854863073;-4.301639558;-9.363935501;-5.687079694;4.474874292;-2.439933869;2.495988146;19.08185377;13.79211889;-7.506920755;4.461247524;4.416815473
1.391744831;9.7481934;-7.473617504;-8.59254844;19.75114568;-0.171393923;-3.486926067;-8.26706672;-0.590151501;-12.25557592;-6.680112697;3.002412915;-3.471082442;3.65727496;22.41579756;11.7195154;-4.569268366;2.868075245;4.286659781
1.489050427;11.59720444;-6.944678302;-10.9074984;19.86913755;0.072209296;-4.29130481;-10.4307281;2.860864785;-14.52147301;-6.061446243;1.4853282;-3.792969016;2.928532291;20.8938493;7.453690921;-2.080367301;-0.986856538;3.108571191
0.751162474;15.99922385;-8.274444108;-13.12298544;17.3352895;0.175145402;-3.582196662;-8.438941238;4.805269933;-15.79015182;-3.394020028;0.569704757;-2.625452893;1.210444272;15.33677748;5.457448957;-0.784371195;-3.868696552;1.792970068
-1.124147954;19.94682312;-10.58548653;-15.05754885;14.50876587;0.096148611;-0.958402642;-3.444099711;5.466165996;-15.39358588;0.992954057;0.609010561;0.0017074;0.353986249;9.454927934;8.085381059;-0.409360225;-3.226412356;1.467204521
-3.768133614;20.03050762;-12.22642382;-16.50422268;14.10316595;-0.030884232;3.06790761;2.160733415;5.930515496;-12.9584056;6.015250548;1.46829671;3.272775585;1.374782111;6.945329453;13.4985421;0.065868296;0.420462407;2.422273348
-6.260373844;15.5965693;-11.81219025;-17.21773;16.47465839;-0.039690024;6.99788949;6.083409366;6.676842134;-9.250799499;10.05790834;2.605868591;5.992186904;3.466625314;8.765054078;16.6146933;1.523926427;3.835538419;3.822878969
-7.614626629;10.38570009;-9.041675206;-16.99393902;19.14527494;0.103474606;9.033190677;7.244207016;6.860739439;-6.150888572;11.48932795;3.427931235;7.168918627;4.742535783;12.80493363;12.82628869;3.962008847;3.908187131;4.446895961
-7.287526376;10.62153521;-4.750078125;-15.69309414;19.04221179;0.265701952;8.245970972;6.134532737;5.250574492;-5.38232434;9.465954899;3.726617631;6.54239736;4.009495189;16.02204708;1.878091104;6.505485636;0.4595935;3.771649735
-5.390513594;20.05535318;-0.285591897;-13.2030126;15.40983983;0.273505284;5.390039063;4.342104608;2.000518853;-6.942100966;4.711159626;3.909120723;4.82335671;1.915906514;16.98199278;-11.24037691;8.124205218;-3.518153492;2.418193818
-2.539495976;35.33495878;3.234185481;-9.488509283;10.69938656;0.08025814;2.600117338;3.56946456;-0.582282121;-8.733623267;-0.325519725;4.815128454;3.479094304;0.39414237;16.57884097;-19.48101769;8.399462281;-4.43579293;1.569124494
0.476109005;45.80908202;5.283803094;-4.809358443;8.557080931;-0.181200586;2.022615537;4.680068359;0.608724437;-8.021763076;-2.368364465;7.18377145;4.054907805;0.904387996;16.51983302;-18.84853588;7.699151182;-1.222653186;1.915569762
2.973346591;39.28633092;5.838908734;0.052785695;10.66222448;-0.310565958;4.315137715;7.257955404;6.83253005;-3.695873734;0.949475469;11.10054224;7.291562412;3.097180134;17.24674162;-11.48149002;6.691111795;3.767543073;3.095411025
4.50603578;10.7411239;5.123887401;3.865904204;15.22552174;-0.215166825;8.159834765;9.897727314;15.79661291;2.56203678;9.484824277;15.81700974;12.52422755;5.124945777;17.39197838;-4.085191198;5.714901999;6.833739791;4.101030375
4.893129017;-32.11671102;3.479641406;5.456622385;18.49065332;0.010582287;11.21173198;11.06214589;22.62692496;7.338640305;20.26308691;20.10886947;17.81217362;5.313425389;15.2921957;-2.725874505;4.605605074;6.112548976;4.232815047
4.215457341;-71.27140612;1.355118827;4.400608817;17.91752364;0.171986419;11.79202084;10.02732294;23.10646377;8.057221896;28.88883592;22.96010495;20.86634478;3.659670936;11.03131795;-8.023153546;3.083614739;3.054510606;3.697412243
2.774557333;-88.401866;-0.76484215;1.374841704;14.25722798;0.146346696;10.04689723;7.360039063;16.79097048;4.986329139;31.96827463;24.11112203;20.30813615;1.79597669;6.912070846;-14.62560322;1.267734038;0.953655737;3.322273126
0.965637907;-76.27936894;-2.57523312;-2.182248252;10.7502051;-0.015820765;7.718709816;4.616999867;7.523383395;1.013410127;29.0318853;24.09206777;16.49054753;1.475667203;5.716024221;-15.49570012;-0.236008456;1.934661191;3.70473944
-0.911968617;-43.67195255;-4.132787643;-4.936613421;10.23923667;-0.149310251;6.768837958;3.413618275;0.846964365;-0.652807837;22.6918019;23.73599202;11.32139199;2.983373368;8.246129414;-7.645537076;-0.785091657;5.125060317;4.629393454
-2.774945514;-9.9526278;-5.754058341;-6.433643613;12.78269959;-0.13398825;7.953516119;4.412888649;0.253666315;1.032392051;16.94090394;23.55248076;7.161986461;4.916524251;12.43855576;5.240111234;-0.263440821;7.593435354;5.299139032
-4.678295427;7.168772944;-7.631163623;-7.19603609;15.81179652;-0.006509111;10.40372329;6.860224793;5.080248575;4.281922949;14.75571157;23.43864367;5.500192741;5.506255591;14.99084203;15.35872743;0.797386801;7.108649147;5.128851818
-6.574201951;2.356420093;-9.505921856;-8.084752055;16.55265253;0.077689169;12.39715593;8.966887903;11.47727277;6.070452884;16.57335311;22.92854584;6.248072392;4.238395149;14.16672193;16.44736098;1.679116291;4.172104948;4.314505587
-8.127609166;-15.5178173;-10.78152873;-9.460922461;14.45692375;-0.006078719;12.59264445;8.916598592;15.42653548;4.561055558;20.49615479;21.74884969;8.066482032;2.290445915;11.29809606;8.098794235;2.100901791;1.509226571;3.622993924
-8.813825045;-31.20371497;-11.06702856;-10.84480419;11.50136324;-0.231022724;10.7663915;5.885895922;15.31846851;0.35620266;23.82481712;20.20434129;9.40245209;1.41961553;9.594564328;-4.420186114;2.420856086;1.552255621;3.6160779
-8.291047415;-34.34019679;-10.67054782;-11.34137728;10.23764743;-0.438580404;7.646732152;0.481653802;12.25574859;-4.297271909;24.69985863;19.06089956;9.474386055;2.36391848;11.25284725;-14.27692124;3.222734451;4.245687325;4.081236139
-6.754572872;-25.79870902;-10.48168334;-10.44964456;11.50057731;-0.479185477;4.221706333;-5.613341003;8.316829447;-7.440820408;22.80326081;19.00953947;8.571057581;4.234448975;15.40194574;-17.56258354;4.683293472;7.150608318;4.24881181
-4.919891803;-14.99147514;-11.18239819;-8.551867609;13.87908405;-0.343801755;1.20669652;-10.51073384;4.639536529;-8.720482258;18.97333839;20.14328928;7.598369905;5.421064319;18.72297678;-14.79323937;6.33725913;7.694944982;3.607319231
-3.556509024;-11.16094339;-12.40711824;-6.661475476;15.31301307;-0.166853223;-0.984115124;-12.96701318;1.024132387;-9.080300916;14.40254178;21.8727699;7.343465147;5.119164321;18.24332062;-8.955984916;7.487933806;5.48477913;2.522721469
-2.899880434;-15.99715723;-12.68577039;-5.643964519;15.17183728;-0.101744928;-1.998142803;-12.78066852;-2.889621658;-9.378297372;10.17515608;23.35181622;8.028615514;4.032827475;13.89216723;-2.541526317;7.886571325;2.595503391;2.017375923
-2.440631583;-23.21941766;-10.44607592;-5.56404758;14.77262939;-0.18698692;-1.500556067;-10.64220026;-6.349423164;-9.376570871;7.311022825;24.0745902;9.381154849;3.616591928;8.609098751;3.610997881;8.013813987;1.640446468;2.851305063
-1.330127383;-24.727402;-5.417829909;-5.686895279;15.84541913;-0.32582446;0.520611336;-7.656028176;-7.615218666;-8.049026207;6.856098807;24.17712774;10.9956738;4.608539108;5.92770002;9.068996311;8.637406403;3.416498724;4.738464258
0.871476227;-17.68210021;0.716213144;-5.099197792;18.46998831;-0.392601962;3.432675002;-4.849211581;-5.52048798;-4.801539162;9.519759618;24.22841475;12.5951084;6.270568756;7.126306215;12.1353043;10.00192538;6.242682814;6.458907028
3.709805716;-6.609181532;5.12036212;-3.413259778;20.57506832;-0.359122831;6.081170015;-2.866107281;-0.991915878;-0.326828308;14.92983924;24.71077435;14.00329194;7.071282562;10.3568906;10.12147171;11.40175145;7.512119817;6.830960486
6.051661708;0.793854461;5.62508713;-0.99550721;19.65021782;-0.31707373;7.429064453;-1.873188023;3.075625976;3.778346542;21.18274648;25.61981556;14.9778382;6.170459503;12.39987913;1.812749656;11.60632076;5.979686889;5.707580446
6.876535392;0.138614379;2.246084055;1.395297127;15.19522187;-0.374143393;7.247924964;-1.608689383;3.765475936;6.265644892;25.36789342;26.48037107;15.18534086;4.29047747;11.43859884;-10.17652332;9.863482136;2.724750481;4.104204599
6.024612112;-6.475525755;-2.779247206;3.179543763;9.610654727;-0.525681539;6.258625868;-1.528284027;0.387727051;7.139239633;25.04280421;26.71111253;14.42026058;3.120970555;8.466630728;-19.86874101;6.653726087;0.026094633;3.325810051
4.290531471;-12.94283189;-6.508024422;4.239544142;6.533174257;-0.632213232;5.556570093;-1.034245748;-4.895519253;7.353275824;19.78691186;25.99972094;12.87382291;3.77855332;6.240058594;-21.5993736;3.515162439;-0.696493646;3.857974824
2.782350957;-14.66555132;-7.225561048;4.741046506;7.911461009;-0.536272244;5.786525776;0.248874123;-8.689981104;7.648406885;11.71340497;24.396849;11.15391916;5.747024668;6.836725302;-14.25038109;2.011034909;0.044616068;5.002189885
2.077794871;-12.10612734;-5.354792499;4.759964854;12.33378657;-0.218114297;6.761677285;2.258940067;-8.954561171;7.734123088;4.448287645;22.13230879;9.95568913;7.302599395;9.98253553;-2.457960918;2.635227992;0.603786032;5.565980793
1.877664253;-9.496868033;-2.747300444;4.126977562;16.11950961;0.155612485;7.81387181;4.472388238;-6.438120591;6.683373884;1.146839862;19.41118648;9.602761338;7.062595143;13.47292296;6.553279977;4.522764546;-0.031709183;4.9683859
1.425484398;-10.30578719;-1.054563635;2.645827042;16.31472727;0.346914312;8.482417101;6.117815888;-3.827283621;4.173672846;2.796338488;16.42134332;9.818165992;5.247815969;15.11503465;8.240605029;6.181978878;-1.265934689;3.754893972
0.299614171;-13.83603572;-0.5437559;0.449391984;13.0696486;0.235398578;8.838634784;6.52179839;-3.407780707;1.282955261;7.837578764;13.51272933;9.906667236;3.495213761;14.38240379;3.964644951;6.639937198;-1.619354036;3.065422586
-1.13445467;-16.04747419;-0.238433275;-1.889716867;9.393665002;-0.080111246;9.116000378;5.386968264;-5.271109527;-0.125401005;13.22033288;11.27333689;9.196633795;3.380564215;12.4320048;-0.434857169;6.083588663;-0.375683512;3.559602887
-2.016213647;-13.67217521;0.908789058;-3.646376797;8.534977683;-0.357921149;9.03901941;2.85328588;-7.561348833;0.947400077;16.10301077;10.28532516;7.402161736;4.995757014;10.73098829;0.449726543;5.5292254;1.527322125;4.795784019
-1.76446133;-7.666645855;2.942882794;-4.398245543;11.24820087;-0.406020169;7.625106593;-0.644092167;-8.442534552;3.439177663;15.15128342;10.67537238;4.684278337;6.879522726;9.746742685;7.164390905;5.862049741;2.296779978;5.635484928
-0.63358254;-2.708000793;4.87542639;-4.250596332;15.25313054;-0.229145454;3.86245156;-4.56831655;-7.964380342;4.751351252;10.85682008;11.86635543;1.482020328;7.362719837;8.908327689;14.94207652;7.071910419;1.043471123;5.297006427
0.465575212;-3.111755438;5.647976604;-3.634625247;17.25637731;-0.009167648;-2.17287694;-8.376326074;-8.11269637;2.799471607;5.009800193;12.87159013;-1.641371923;6.095060111;7.694482135;17.43563338;8.29021936;-1.209914099;4.083258789
0.748032288;-8.849228456;5.156354039;-2.866012188;15.72042989;0.058057127;-8.746243252;-11.50168653;-10.94132858;-2.04014425;-0.146729591;13.03285791;-4.000343274;4.356767014;6.592832357;11.53885062;8.534166337;-2.322160804;3.10936396
0.262821317;-15.29267083;4.394255909;-1.859225241;12.0115316;-0.074386754;-13.12631131;-13.34634409;-16.39146322;-6.801721304;-2.658025584;12.64322263;-4.765213882;3.874276561;6.854416852;-0.42687268;7.496803551;-0.97950189;3.277727385
-0.104909605;-16.99330074;4.606372042;-0.241135914;9.052761195;-0.27832297;-13.19339847;-13.4064571;-21.73836491;-7.902619566;-1.398866967;12.85679601;-3.167690961;5.228673649;9.216199158;-12.52060557;5.741214401;1.995718408;4.443244645
0.636136912;-12.21129049;6.232983173;2.256311308;8.779172168;-0.373510567;-8.864105736;-11.51721492;-23.28033142;-3.743480571;3.530257814;14.79552343;1.007437715;7.314601853;12.84698536;-19.17474625;4.196682338;4.245551339;5.539444419
2.735375659;-4.269654153;8.580541041;5.483635328;10.63697366;-0.28412309;-2.232912123;-8.045340623;-19.02263892;4.104798247;10.63719384;18.45969985;6.945813784;8.342480479;15.63658333;-18.22903894;3.423572995;3.923908807;5.554614564
5.460515481;1.369509029;10.462112;8.906171757;12.33353726;-0.092623674;3.73154569;-3.840134498;-10.26486176;12.03832418;17.36171557;22.34446329;12.81504553;7.466510937;15.71605676;-11.19378506;3.244917124;1.370009766;4.464492186
7.673514601;1.668694721;11.17663052;11.92329638;12.02765764;0.045829614;6.99568253;0.088116408;-0.851563855;16.92322623;21.02680097;24.23136396;16.48379143;5.555476061;12.93115352;-1.414395005;2.980839859;-1.126114706;3.2636622
8.728723291;-1.752356605;10.93640304;14.17488705;9.951966011;0.041060164;7.467569263;2.982384817;5.334331478;17.97893462;20.11334299;22.72148234;16.62714595;4.412370044;8.987183136;7.83796103;2.02345157;-1.300940498;3.060648989
8.924740005;-4.500833597;10.41859532;15.59030694;8.078102419;-0.067525986;6.555124331;4.582935893;6.750755409;16.69968449;15.14718049;18.40119805;13.50464411;5.161903504;6.145574759;14.04876823;0.275424035;1.102457101;4.059815916
9.130228507;-3.525559834;9.95520216;16.21164238;8.231256677;-0.167964066;5.768308759;5.06376267;4.769665241;15.16314534;8.544551867;13.67470765;8.824736541;7.269411677;5.604618274;15.32134755;-1.830388776;4.106446766;5.361669808
9.917193264;0.2896468;9.19748523;16.0387525;10.40134587;-0.188723885;5.540656532;4.759746294;2.22581888;14.32781727;3.36460436;11.23516465;4.72233331;9.061527762;6.902375758;10.63149475;-3.643369343;5.214771797;5.771350402
10.95640077;3.271629476;7.602355044;15.08814355;12.73671277;-0.156824706;5.149410404;3.931159295;1.217943505;13.70922054;1.666651132;12.20082703;2.522158699;9.245870124;8.692980152;0.840382266;-4.642906221;3.537069248;4.887567514
11.20142222;2.608463616;5.258840055;13.59519977;13.15925392;-0.151512265;3.641863177;2.746218412;1.828258331;12.45059857;3.485280418;15.2825168;2.125228321;8.034476353;10.02152725;-10.61931785;-4.605631983;0.4520067;3.484966574
9.715851925;-0.945386204;3.192938726;12.0938318;11.12952995;-0.208435365;0.867746371;1.440186364;2.533620297;10.56047962;7.04075796;17.65391111;2.390466801;6.867691578;10.89095903;-18.78274565;-3.596976962;-1.720676422;2.836736352
6.462347701;-3.783323474;2.73481631;11.19189049;8.037855295;-0.275687688;-2.278536761;0.428453007;1.73259173;9.067467113;9.969515926;16.94815776;2.144579877;7.031756137;11.72858339;-19.90922312;-1.912046339;-1.787125354;3.576822735
2.419200456;-2.853414434;4.411911868;11.16156628;5.967012876;-0.268427925;-4.55811192;0.178346424;-0.920453923;8.972938421;10.70660139;12.94418401;1.019853629;8.465310697;12.48295463;-14.07899801;-0.026079404;-0.620837414;5.113556642
-1.04273646;1.438676487;7.337789597;11.6927168;5.9798267;-0.167705418;-5.3798576;0.867964879;-4.339149359;10.06162104;9.145167778;7.70860734;-0.478171716;9.84751204;12.41252791;-5.359600799;1.505351011;-0.193451311;6.113104369
-3.000963102;5.530126485;9.712055025;12.0723523;7.404449735;-0.060662905;-5.245834203;2.090983275;-6.949278245;10.76846409;6.292517213;4.093325695;-1.618684996;9.8604346;10.86075327;0.971245792;2.255735442;-1.660864184;5.622874326
-3.396181288;5.936272606;10.11382251;11.7008282;8.625404943;-0.072208372;-5.33543721;2.895245699;-7.901423558;9.308854902;3.347345568;3.70258962;-2.192377121;8.438043499;8.224557619;2.145151795;2.165992263;-4.289310931;3.852676289
-2.786164488;2.449007264;8.569514842;10.54221956;8.569167151;-0.244072708;-6.640785217;2.222082576;-7.63851955;5.107472704;0.919723916;5.817653336;-2.713195867;6.843078963;6.015858234;-0.412889493;1.614590497;-6.174819194;1.95595762
-1.756319802;-1.645243479;6.525259091;9.127733781;7.561346699;-0.475131953;-9.366029692;-0.494352371;-7.502988053;-0.71069272;-1.140510603;8.027633157;-3.930636396;6.508556244;5.740881563;-2.802984718;1.195341114;-6.032384757;1.043613387
-0.524830878;-2.549406498;5.737980249;8.093162941;6.894100873;-0.58867434;-12.97775167;-4.956512244;-8.773374022;-6.154578123;-3.359227942;8.039694706;-6.096957331;7.72077122;7.518497148;-2.231100242;1.317695179;-4.365793114;1.31380854
0.980403929;0.565064804;6.969113796;7.631574405;7.598651439;-0.478203558;-16.7020772;-10.11111592;-11.82334873;-9.751503586;-6.099293857;5.302318205;-8.625138064;9.357196782;9.757337507;0.714869655;1.932925444;-2.944546637;2.028175197
2.756790734;4.759056455;9.495731885;7.329885402;9.531851739;-0.206965031;-19.95302544;-14.65712065;-15.8898336;-11.29103283;-9.244527452;1.283509292;-10.43179941;9.912720048;10.35389609;3.073971575;2.624000715;-3.109001213;2.279836184
4.491195652;5.965252424;11.76303647;6.545201333;11.49771644;0.030166553;-22.37670812;-17.61092791;-19.48737753;-11.40511153;-12.21779662;-1.703930761;-10.69202445;8.864925781;8.487283751;2.774850257;3.000129917;-4.507310883;1.809923561
5.692489359;2.711698209;12.59436671;5.022258067;12.1880124;0.056857023;-23.64817236;-18.58358902;-21.15479913;-10.54932143;-14.22180093;-2.176645195;-9.412664689;7.130884589;5.446292526;0.996547348;3.062866307;-5.445765129;1.145172591
6.047285249;-2.418863254;11.99816815;3.240078125;11.10516746;-0.145919359;-23.39796941;-17.67616605;-20.12859083;-8.444225115;-14.55822186;-0.419629984;-7.399229589;6.215034802;3.676784259;1.234712249;3.218442881;-4.519683545;0.99599578
5.639799419;-4.92047087;11.02191302;2.18265114;8.795404951;-0.427868386;-21.45622861;-15.19459948;-16.65438138;-4.515317292;-12.95127936;1.896807136;-5.680173444;6.84731636;4.77015321;5.739815868;3.914967142;-1.999931744;1.532949619
4.823719506;-2.200799445;10.89050137;2.680916727;6.388451427;-0.592090882;-18.20172766;-11.48642001;-11.84470176;1.131718135;-9.80808203;2.99365691;-4.851103771;8.359058977;8.075895706;12.60206777;5.221163796;0.321001119;2.23074666
3.88011827;4.272086279;12.15886915;4.801688017;4.944200098;-0.547875613;-14.61399049;-7.035350037;-7.182615119;7.1921041;-6.263013845;2.135084321;-4.809746874;9.344073814;11.13521419;16.45163713;6.727092884;0.694864726;2.398486075
2.798331463;10.36748759;14.45993546;7.711864044;5.057649852;-0.368272533;-11.85516034;-2.665722851;-3.915943974;11.66982259;-3.831581254;-0.132133247;-5.008903128;8.966367793;11.59714515;12.62503318;7.867602302;-1.02969739;1.860623814
1.385542252;12.90132676;16.86941691;10.08905037;6.772959276;-0.213186462;-10.6472263;0.445052335;-2.637077164;13.0358402;-3.691561265;-2.65700349;-4.96692638;7.700396442;9.028399835;1.412228972;8.390246045;-3.272580999;1.128676189
-0.417603007;12.17378746;18.4686049;10.78237055;9.599389545;-0.193049924;-10.93643118;1.127945076;-3.244700347;11.08234448;-5.944627637;-4.612682226;-4.641441119;6.84089748;5.147420254;-11.40849295;8.553154446;-4.109592209;0.906941904
-2.340209766;11.19528329;18.6944524;9.318296676;12.54323553;-0.291196312;-12.11858402;-1.172070963;-5.253438441;6.823700357;-9.395068298;-5.941729738;-4.445694612;7.268111026;2.376089136;-18.57714329;8.873218286;-2.912640644;1.414521539
-3.909314619;12.43655229;17.39643101;6.02239801;14.32749793;-0.402304572;-13.62061936;-5.933854001;-8.191380473;1.654735682;-12.15461161;-7.092990044;-4.975503922;8.630879801;1.999487318;-16.84414813;9.643951276;-0.781431936;2.174274854
-4.789365523;15.2343216;14.7823174;1.794866679;13.95468375;-0.439476416;-15.3285418;-11.61551494;-11.78259671;-3.434332413;-12.81105181;-8.424938841;-6.678815911;9.698841589;3.451132785;-9.456662759;10.6477912;0.55878892;2.46725902
-5.013186465;16.37893928;11.39197024;-2.276597025;11.39619725;-0.40817146;-17.50173772;-16.29973802;-15.81271245;-7.993144476;-11.40104982;-9.851119069;-9.655812033;9.534659034;5.161606554;-3.502570385;11.31531617;0.325489435;2.016371793
-4.894215855;13.41712973;8.017978294;-5.307098726;7.849568536;-0.385152325;-20.28669489;-18.61336741;-19.8728755;-11.74098159;-9.454129583;-10.99882403;-13.62948651;8.378127451;6.037469263;-4.203388277;11.19052157;-0.726272862;1.248491008
-4.726429291;7.545239893;5.414229185;-6.928497704;5.154976233;-0.431998625;-23.31227412;-18.40429618;-23.31246193;-14.33771725;-8.997328643;-11.6629243;-18.02973255;7.415928778;6.197033214;-10.78245895;10.30036579;-1.163212266;0.888529325
-4.586079389;3.145012578;3.841121077;-7.462037984;4.615947389;-0.529849649;-25.77954245;-16.7871824;-25.55892817;-15.70352619;-11.19377807;-12.0964687;-22.14080746;7.659679055;6.410618136;-17.22809491;9.126321513;-0.304329565;1.273335754
-4.434157043;4.009203953;2.783625589;-7.844192807;6.078127962;-0.595791294;-27.01241365;-15.54069855;-26.60573091;-16.56971141;-15.60496219;-12.86280266;-25.29981301;8.987839448;6.954998032;-17.23740174;8.234298677;1.155261099;2.036249851
-4.385652902;9.505377757;1.195072256;-9.224539372;8.058382247;-0.56145601;-27.00962785;-16.2049815;-27.23552115;-18.50007813;-20.61556135;-14.37842702;-27.11425063;10.25066763;7.111465805;-9.268421794;7.906009464;1.894228886;2.458399448
-4.79629798;14.37893215;-1.751494645;-12.32075821;8.913736972;-0.437628967;-26.51183366;-19.36063403;-28.6713269;-22.98368689;-24.66010919;-16.53443687;-27.59924721;10.34304845;5.859273476;2.292861424;8.076605019;1.329656062;2.149990629
-5.961930007;12.95483884;-5.89760711;-16.83901628;8.138070534;-0.305682226;-26.49312355;-24.4153648;-31.77440776;-30.10056331;-27.2582587;-18.69348689;-27.11968761;9.246182683;3.109254289;10.53223416;8.574071665;0.254354828;1.414371445
-7.628043864;4.529611913;-9.941561784;-21.3481307;6.697027035;-0.247216554;-27.46067317;-29.91735912;-36.30607517;-37.86150224;-29.03350058;-20.03439235;-26.13007813;8.065225304;0.234925855;11.00390352;9.376335856;0.107438388;0.952216566
-8.789520382;-4.791106569;-12.10729667;-23.80083308;6.094149354;-0.278876565;-29.09762687;-34.16439592;-40.80803902;-42.98256263;-30.74654098;-19.95847893;-24.87493237;8.019553181;-0.748539079;4.383027068;10.61281726;1.553960678;1.191815006
-8.113198479;-6.074146145;-11.21418209;-22.50751006;6.970524573;-0.349415318;-30.50031103;-35.81238598;-43.27149154;-42.76768677;-32.22267735;-18.28635962;-23.28566591;9.312541411;1.230589444;-4.874365344;12.31549291;3.730119106;1.886244815
-4.806662618;5.102192697;-7.378598591;-17.04807386;8.490662997;-0.39428641;-30.7972191;-34.28276644;-42.22959456;-36.83245615;-32.17325655;-15.2030818;-21.18196529;10.92180217;5.290298978;-12.15504654;14.19261402;4.909100789;2.361364541
0.691324225;23.58189298;-1.849297418;-8.596304764;9.107831356;-0.390792242;-29.67823874;-29.90406694;-37.60948882;-27.42784535;-29.17101419;-11.11404929;-18.62810681;11.50630045;9.070902808;-15.37794948;15.69234937;4.017294086;2.173674152
6.789046909;36.31986053;3.846909416;0.546181498;8.067776709;-0.362920587;-27.48992791;-23.79934204;-30.82451632;-18.12743728;-23.02893736;-6.570772443;-16.12583015;10.60465861;10.37217932;-14.93540115;16.34691712;1.620861034;1.540233224
11.63062544;30.45328689;8.758947404;7.962738713;6.291048572;-0.339685508;-24.91618284;-17.54690513;-24.05826776;-11.81414486;-15.40066354;-2.254074793;-14.41787732;9.038244959;8.662332888;-11.8176384;16.10666924;-0.530128214;1.117248214
14.19500434;2.437234019;12.74597696;12.15118637;5.752018239;-0.317578555;-22.5460259;-12.66804253;-19.16402971;-9.314345339;-8.969308974;1.12952429;-13.99065231;8.165453894;5.300705155;-6.321218313;15.36229598;-0.996553436;1.332240402
14.80418356;-38.28232792;16.04234094;13.06644324;7.779984421;-0.270032349;-20.63187758;-10.07899895;-16.79173055;-9.419867612;-5.719478001;3.114390683;-14.65115835;8.679018445;2.392511783;1.296579809;14.62963731;0.166415292;1.918992573
14.67326012;-74.0016168;18.65598623;11.95435023;11.71289224;-0.19357611;-19.12541473;-9.737617178;-16.19118307;-9.994521314;-5.588935143;3.766416654;-15.55451772;10.03745105;1.266320563;9.20297934;14.17684349;1.590996083;2.130538206
14.87078678;-89.02446325;20.16933154;10.60517705;15.12629319;-0.136804107;-17.86670659;-10.70429406;-15.76364912;-9.242048148;-6.59163618;3.72156326;-15.73682763;11.02104258;1.749104123;13.65892502;13.91763717;1.935799591;1.461391093
15.50411075;-78.75533994;20.07469097;10.40434742;15.56959434;-0.170805992;-16.75579965;-11.65531948;-14.05489717;-6.400078125;-6.404151583;3.817218475;-14.802253;10.86938679;2.64391836;11.09013153;13.63384772;1.119990348;0.19992655
15.74014471;-51.78490159;18.26877653;11.62940135;12.4552305;-0.319019834;-15.8283543;-11.60776976;-10.66601654;-1.76889179;-4.25378766;4.48719047;-13.25446918;9.944680835;2.831590524;1.197194128;13.27407072;0.314870192;-0.747617824
14.59060492;-23.96154607;15.21767415;13.33453659;7.573194277;-0.512769668;-15.24983772;-10.43246547;-6.583681377;3.575265093;-1.653950979;5.35294243;-12.19970153;9.331386171;2.052579067;-11.69853989;13.00951325;0.731656588;-0.654711586
11.79267151;-8.712220328;11.65605859;13.90692815;3.806855441;-0.625140934;-15.25162191;-8.817126829;-3.703206541;8.108554835;-1.361716321;5.382207286;-12.61275933;9.778556542;0.877592638;-20.76351963;12.98155026;2.371007894;0.315867343
8.079680019;-9.956757225;8.134918693;12.04101972;3.077173226;-0.56723941;-16.00347171;-7.688988351;-3.748342172;10.2762077;-5.272220785;3.59303777;-14.68839207;10.98809278;0.12025764;-21.05497359;13.00629922;3.928659026;1.166503719
4.665470547;-21.68361209;4.843112694;7.602579151;5.124412749;-0.36875722;-17.44389806;-7.493898791;-7.181149015;9.115327333;-12.79575762;-0.160641639;-17.73583597;11.90733841;0.295107778;-12.94131534;12.58166128;3.961509296;0.890305455
2.402643732;-33.53868947;1.81340277;1.83545432;7.9912795;-0.169124842;-19.17630369;-7.86339869;-12.78707025;4.885657948;-20.94632689;-4.914822556;-20.66415755;11.73479606;1.469792699;-1.808021683;11.27336438;2.230984877;-0.635899979
1.29716776;-38.02173243;-0.780232671;-3.296897632;9.671838827;-0.117697334;-20.5723515;-7.943295319;-18.27163494;-0.810582775;-26.1342075;-9.098782852;-22.6717427;10.68484769;3.386585105;5.824419253;9.176570612;-0.035128471;-2.492044619
0.717540537;-34.47896551;-2.603128258;-6.282494839;9.527808854;-0.259973458;-21.10302579;-7.159673567;-21.56007813;-5.773218988;-26.41893846;-11.51513399;-23.62949834;9.793457314;5.553692736;6.824832681;7.021326538;-1.220497466;-3.461376288
0.049163336;-27.88463919;-3.457411181;-6.976297295;8.420156671;-0.501876635;-20.698316;-5.824740195;-21.96886604;-8.494481203;-22.65231206;-12.11289623;-23.91608416;9.950935813;7.246197758;3.222327129;5.760381773;-0.750794953;-3.050757278
-0.78542669;-24.13343105;-3.544854718;-6.57969075;7.66857164;-0.680782556;-19.82353315;-5.046344872;-20.44138326;-9.072692972;-17.74709148;-11.98058495;-23.89843038;11.07044434;7.645552006;0.071409081;5.925956658;0.439640127;-1.894593855
-1.34277458;-25.60642635;-3.319349941;-6.62951099;7.882486864;-0.684678509;-19.12019795;-5.904528563;-18.67752714;-8.947320163;-14.63791013;-12.53411065;-23.50819413;12.1699662;6.278616302;1.294377451;7.267354332;0.828284875;-1.184659548
-1.12237977;-29.99352064;-2.965184168;-7.701788751;8.644329471;-0.524754733;-18.82227293;-8.451810536;-17.81030528;-9.55380117;-14.38842999;-14.46575906;-22.25804884;12.28934373;3.515530472;6.759989229;8.967172374;-0.250949965;-1.624615256
-0.024950622;-32.6754978;-1.995943379;-8.835547623;9.136884041;-0.31075851;-18.42485513;-11.32266049;-17.65132315;-10.9631716;-15.73050238;-17.21450091;-19.67663231;11.38508314;0.607634341;12.62099258;10.25415849;-1.984958358;-2.826416589
1.589414274;-30.46952342;0.516088611;-8.211196522;8.966073852;-0.160773181;-16.97018292;-12.37801671;-17.09272269;-11.70634897;-16.2617724;-19.35818618;-15.81385956;10.36905442;-1.001544671;14.2989458;10.9036005;-2.856678;-3.67195773
3.244882161;-23.90088287;5.097734287;-4.659408942;8.382618211;-0.12483912;-13.84221494;-10.07384794;-15.31012894;-10.0482821;-14.36340652;-19.66590786;-11.42373439;10.25708378;-0.702190444;9.668609141;11.23036184;-2.087679019;-3.309039476
4.740489465;-16.57285487;11.06813954;1.143649361;7.804577901;-0.17732098;-9.48645382;-4.653231625;-12.71501518;-5.703778695;-10.44723832;-18.06181868;-7.681089887;11.2218799;0.759624108;0.247032432;11.63216437;-0.390759014;-1.897861655
6.222363768;-12.42787094;16.54144751;6.804369317;7.253465845;-0.265347562;-5.423110239;1.718575347;-10.77118029;-0.495171103;-6.678309582;-15.79599489;-5.623874844;12.43128803;1.824646595;-10.00840343;12.12675243;0.684450629;-0.460238112
7.892430996;-13.08026795;19.43081473;9.707896857;6.349380925;-0.355364701;-3.411104312;6.086317145;-10.74310847;2.746580214;-5.421647191;-14.66871712;-5.684828449;12.82036997;1.408509033;-17.00776593;12.30452338;0.213768338;0.012525338
9.652426748;-17.08066015;18.79643808;8.842535614;4.872587089;-0.435791702;-4.29953167;6.437510405;-12.41667288;2.256619314;-7.543295935;-15.82383013;-7.583542071;12.07822389;-0.113577107;-18.33162567;11.71801291;-1.198110584;-0.610227747
11.03863578;-21.36731123;15.50189783;5.575440194;3.258866997;-0.488582132;-7.416353991;2.912096751;-13.97350949;-1.286852107;-11.76228577;-18.9414118;-10.59051642;10.93378566;-1.133514167;-13.81689813;10.32323408;-1.937388729;-1.552841828
11.53141755;-23.56235224;11.61761518;2.734205345;2.415129118;-0.477291341;-10.99228203;-2.320139437;-13.31051327;-5.248979799;-15.49344223;-22.39673661;-13.94741079;10.47848432;-0.164628863;-5.233318849;8.547936972;-0.870961963;-1.875826631
10.97711534;-23.3393351;8.989883027;2.622558995;2.922049598;-0.378028212;-13.34003906;-6.434035701;-9.857392902;-7.029069713;-16.58741233;-24.29358441;-17.17514432;11.15726284;2.781234418;4.381621771;6.920513051;1.562490652;-1.312079937
9.749342964;-22.0220816;8.066660236;5.425332316;4.365265568;-0.225171099;-13.91813081;-7.651009038;-5.399095116;-5.945588527;-14.77147086;-23.68219938;-20.12403081;12.36339882;6.017035681;11.55933007;5.613738435;3.686455475;-0.448972185
8.495803636;-21.03726288;7.856867144;9.172805196;5.513669677;-0.114890602;-13.49139824;-6.144987719;-3.083442888;-3.509326104;-11.8143062;-21.14753437;-22.80526855;13.00816093;7.457879405;13.52736184;4.345165888;4.072522404;-0.127529724
7.669213229;-20.66083931;6.967521465;11.24556089;5.307697307;-0.141955661;-13.3118346;-3.613646777;-5.212907519;-1.954792304;-10.31133589;-18.3843686;-25.16501245;12.53140099;6.338764039;9.448413443;2.743525313;2.837696919;-0.642471145
7.22126978;-20.07903514;4.80042358;10.2396434;3.819407927;-0.312918563;-14.00796486;-1.917990152;-11.44905907;-2.356595273;-11.91614863;-17.06216548;-26.96367763;11.41422549;3.906622196;1.062334624;0.841967999;1.563091925;-1.484694327
6.699232808;-18.55392104;1.924098016;6.788604822;2.278258475;-0.515472582;-15.07761777;-1.810773704;-18.82880054;-3.936633709;-16.20643346;-17.75190562;-27.83027778;10.7223979;2.430912279;-7.97060134;-0.786961247;1.886965121;-1.843842179
5.653384461;-16.50906452;-0.599705118;2.809431509;2.046656096;-0.586715556;-15.35789898;-2.633394382;-23.63770047;-5.052063862;-20.93382514;-19.6226317;-27.44489305;11.11087906;3.29919962;-13.91023459;-1.434964172;4.031257274;-1.380541783
4.021578014;-15.45331948;-2.247202572;-0.115097772;3.394039217;-0.437723655;-14.03716645;-3.091585525;-23.76847975;-4.853609791;-23.46914596;-21.07241075;-25.72767825;12.21753211;5.781305507;-14.85391022;-0.888786713;6.588551245;-0.540448114
2.195321544;-16.73519184;-3.473421649;-1.882794579;5.167646082;-0.133799504;-11.34373814;-2.412379814;-19.84321254;-4.053057618;-22.45436981;-20.82166978;-22.91379144;13.00808943;7.531088693;-11.43197184;0.259953295;7.759992651;-0.123999875
0.740184172;-20.22257105;-5.203222868;-3.679179021;5.717688776;0.143364419;-8.341272825;-0.942072753;-14.36910603;-4.107060464;-18.55348831;-18.70852888;-19.46511418;12.74841249;6.461052721;-5.903110199;0.932973217;6.926262441;-0.525702953
0.010269061;-24.15;-7.892727574;-6.706527964;4.32737155;0.229809834;-6.021837568;0.267099018;-9.720870493;-5.606281636;-13.8354093;-15.67463048;-15.87169584;11.69787881;2.480547839;-0.543312686;0.299313755;5.141388348;-1.36157779
-0.047275001;-26.39892121;-11.04998077;-10.94744858;1.909794372;0.104157041;-4.474992907;0.506394955;-6.576747507;-7.407348255;-10.27719927;-13.02192781;-12.46779711;10.87816157;-2.302708559;3.322935243;-1.638364332;4.124113491;-1.834003081
0.222252483;-26.19258262;-13.64205298;-14.98077834;0.327990411;-0.099407159;-2.842004328;0.199744049;-3.948489852;-7.384844032;-8.476212308;-11.5234885;-9.378329022;11.13040828;-5.063096298;5.098648899;-4.052377088;4.682621799;-1.488950627
0.479997174;-24.73503739;-14.97035285;-16.96049557;0.87732272;-0.201517345;-0.107822824;0.728244273;-0.59177162;-4.210438841;-7.480039063;-11.02917872;-6.61849385;12.33331467;-4.232377285;4.215758992;-5.863364578;6.007696089;-0.650939641
0.632390928;-24.14874713;-15.16144166;-15.93291208;3.209084011;-0.120240396;3.910172938;3.347934649;3.506776988;1.387107758;-5.811800257;-10.79863634;-4.253154226;13.50494324;-0.466785783;0.132272562;-6.418933851;6.460723198;-0.12134963
0.845574356;-25.53030218;-14.80487384;-12.45933453;5.611386519;0.071112195;8.182555542;8.005588519;6.837611026;7.005417425;-2.884825821;-10.24050421;-2.473165403;13.69369122;4.003084499;-6.682053724;-5.784813649;5.113472818;-0.417231477
1.360504582;-27.78316906;-14.1128619;-8.141143732;6.403817727;0.214647043;11.01893757;13.00378002;7.485244568;10.29890977;0.286978999;-9.456175013;-1.512978219;12.83675591;6.965555356;-13.83366171;-4.510952008;2.618546341;-1.265981168
2.275595362;-28.32630619;-12.47855515;-4.531449709;5.254451898;0.202019512;11.14292387;15.8766537;4.702726387;10.60401735;1.655146567;-9.176278584;-1.47384001;11.79865915;7.490746247;-17.59940967;-3.14750969;0.615952578;-1.843517086
3.46277075;-25.21738996;-8.970732424;-2.320801988;3.316205063;0.056996011;8.493196479;14.93664422;-0.338630264;9.131257253;-0.40343352;-10.17205521;-2.21485013;11.56197808;6.070314051;-15.23412904;-1.912278193;0.231371131;-1.553587529
4.664357784;-18.96892674;-3.402344441;-1.328315966;2.118779105;-0.098597972;4.186556024;10.41461373;-5.201222469;7.66599308;-5.793635002;-12.62753812;-3.434834073;12.32216474;3.85129332;-7.36873692;-0.694221326;1.056628682;-0.62964727
5.684576906;-12.48356806;3.023994654;-1.094737775;2.225997203;-0.157330073;-0.278369609;4.360756747;-7.711530042;6.992428151;-12.53497077;-15.96272411;-4.906705952;13.31930899;1.79828175;1.751730145;0.735712853;1.559437424;0.017687319
6.531606746;-9.03673976;8.2309207;-1.420282836;2.839508208;-0.11411809;-3.959194142;-0.657029833;-7.242139851;6.416375499;-17.86978825;-19.21832375;-6.67252782;13.55310262;0.398066402;6.961034165;2.552100478;0.554036389;-0.397661668
7.407548172;-9.866984248;10.68995668;-2.371406461;2.664092745;-0.055449809;-6.888957517;-3.156423152;-4.915888879;4.713021007;-19.88288785;-21.6683852;-9.005260012;12.71288736;-0.166769433;6.019049807;4.84207197;-1.620333853;-1.796835633
8.544516584;-13.31411277;10.63214267;-3.866498282;1.223205146;-0.067918769;-9.752015131;-3.525122798;-2.753726206;1.541216965;-18.52612474;-23.17628644;-12.11968699;11.46444994;0.137096418;1.476218413;7.607546903;-3.317911796;-3.237788546
9.983376367;-16.21294112;9.971444864;-5.373251265;-0.580127163;-0.155059183;-13.13973472;-3.462680689;-2.473571198;-2.006560163;-15.40727375;-24.05845136;-15.83914415;10.83804003;1.064375838;-1.289569897;10.67146077;-3.043407002;-3.688776788
11.43685289;-16.40790027;10.86145967;-6.12968854;-1.184904307;-0.238524072;-16.96378298;-4.536303979;-4.703171521;-4.216648058;-12.60328517;-24.64308531;-19.50293159;11.29311661;1.933531827;1.422015296;13.53549424;-0.851069985;-2.909149807
12.34633282;-14.33965432;13.94673199;-5.770391108;0.238373583;-0.238220297;-20.42666378;-6.947629472;-8.907289524;-4.180988208;-11.4083736;-24.94671577;-22.2412423;12.32484247;1.876973005;8.229455613;15.40765685;1.592189272;-1.661685599
12.13903329;-12.44167887;17.69187707;-4.802691765;2.948154718;-0.152903185;-22.52283733;-9.429792219;-13.8267991;-2.559422824;-11.86157431;-24.74816319;-23.4564065;12.96422834;0.520755772;13.39446388;15.55177996;2.38924838;-1.059922947
10.56487748;-12.9132043;19.37190908;-4.442748451;5.101061196;-0.064584235;-22.69365249;-10.32781515;-18.0546023;-1.026176715;-13.21930999;-23.95569929;-23.16339714;12.69216247;-1.47290312;11.38085089;13.81550727;1.067461218;-1.613770529
7.915525232;-15.76641038;17.01575577;-5.84082723;5.172279923;-0.062990827;-21.20097798;-9.009185429;-20.51220873;-0.924514798;-14.81250371;-22.88285717;-21.92668313;11.91126815;-2.653117095;1.619913189;10.93676219;-0.929193823;-2.803830424
4.967062344;-18.76985705;10.85349044;-9.248988402;3.159927193;-0.161243259;-19.00404735;-6.492043813;-20.76515855;-2.305978747;-16.52065333;-22.12267364;-20.43604327;11.5425036;-1.837466019;-10.56453647;8.293367132;-1.356941284;-3.552593183
2.64309885;-19.28592119;3.213299965;-13.76286196;0.586962587;-0.281661249;-17.24050487;-4.770768051;-19.13640477;-4.111476024;-18.52678186;-22.07743005;-19.04965426;12.13447368;0.821749646;-17.87084847;7.156511695;1.024652609;-3.17732457
1.577928373;-16.42184258;-2.995293783;-17.83823126;-0.687554671;-0.325265221;-16.6293143;-5.322066384;-16.52566605;-5.2015333;-20.68825294;-22.53794297;-17.6585165;13.32511336;3.750121095;-16.70740728;7.92703773;5.45060704;-1.993217109
1.839848528;-11.70825286;-6.053100634;-20.20326934;0.124915859;-0.261532424;-17.13159446;-7.926256201;-13.92157183;-5.242571493;-22.19738074;-22.70833232;-15.95981856;14.16007813;5.083504244;-9.967295548;9.903748417;9.735958679;-1.045438046
2.979216875;-7.815540034;-6.221971879;-20.5228042;2.224133443;-0.157195196;-18.04535453;-10.7303637;-11.83487386;-4.706889485;-21.9404316;-21.72099474;-13.88370167;13.96811395;4.165218161;-4.523631657;11.76123538;11.90787732;-1.205370477
4.349209858;-6.467774475;-5.164432813;-19.40384901;3.93522964;-0.119336714;-18.46757707;-11.55364813;-10.05638706;-4.142005923;-19.33342682;-19.27358225;-11.78864259;12.97357029;2.111298067;-5.478209117;12.38802772;11.53546448;-2.407574683
5.466404323;-7.30627559;-4.626414522;-17.83786684;4.012831572;-0.205359339;-17.85387634;-9.487913391;-7.991130096;-3.530645645;-14.95683482;-15.89866334;-10.24322652;12.07556028;0.85471023;-11.95768426;11.48503444;9.762750344;-3.670288694
6.173072495;-8.537629227;-5.415919895;-16.54365118;2.490978567;-0.379527174;-16.34742398;-5.600756869;-5.366200458;-2.388182168;-10.41617636;-12.65751878;-9.580810904;12.00449457;1.401361882;-17.97765744;9.549862119;8.186313941;-3.868513216
6.53774917;-8.635842285;-7.272087623;-15.65308883;0.489335156;-0.549867051;-14.67907085;-2.208079832;-2.724933973;-0.449456134;-7.442975944;-10.50025194;-9.62989117;12.64985954;2.808917467;-17.61466736;7.370112086;7.622789523;-2.606652559
6.641522222;-7.537512347;-9.427019417;-14.85273082;-0.746841647;-0.6453394;-13.70181807;-1.251389488;-1.204901468;1.815229116;-6.848392758;-9.77821972;-9.886589067;13.19065071;2.876889838;-10.07194577;5.492878568;7.751665989;-0.488432111
6.468597125;-6.352098744;-11.21066827;-13.75738064;-0.747782794;-0.66066655;-13.86120014;-2.98323292;-1.672362801;3.445650841;-8.074343014;-10.23420963;-10.00733432;12.90472456;0.083245929;-0.331540595;4.059462017;7.750592649;1.386533815
5.993873486;-6.015073639;-12.23625873;-12.19485333;-0.001286659;-0.633284895;-14.95257145;-5.920137508;-3.895414425;3.815126691;-9.654407919;-11.38201172;-10.19063488;11.89189866;-4.845148198;5.124154668;3.009144128;7.194442304;2.23984823
5.353455557;-6.246087323;-12.23665965;-10.23690755;0.592691418;-0.585322758;-16.32250967;-8.055176732;-6.516475487;3.237839284;-10.24215197;-12.88511271;-11.07141417;11.02037889;-9.144838581;3.812535676;2.338352323;6.387981946;2.086058512
4.887334252;-5.815688562;-10.95229614;-8.040801923;0.451545529;-0.496198126;-17.35771568;-8.376561283;-7.981724606;2.729720232;-9.486139047;-14.61068285;-13.1538797;11.13142163;-9.984495304;-0.767087805;2.130164179;5.938408896;1.554405115
4.952942046;-3.844994329;-8.31824279;-5.682444219;-0.352106326;-0.336966105;-17.90055535;-7.538724924;-7.761181656;3.089310099;-8.189617436;-16.39158894;-16.23454851;12.23805022;-6.669581742;-2.364144676;2.374376462;6.091538444;1.310253542
5.632333484;-0.863848361;-4.77634168;-3.117252239;-1.298718994;-0.130319699;-18.29730894;-7.219038278;-6.862219058;4.133899088;-7.72867866;-17.83482032;-19.3419496;13.47311269;-1.298965128;2.376734496;2.847509215;6.498994065;1.595822002
6.589217173;1.441214699;-1.308374541;-0.282566216;-1.879040063;0.032568442;-19.07616273;-8.717791545;-7.141479123;4.815805929;-9.192126503;-18.47524501;-21.34097347;13.85432992;2.690306598;10.72546949;3.254106385;6.590872098;2.210068359
7.238586103;1.63850338;1.002705941;2.738869362;-1.891459519;0.050195186;-20.5352204;-11.9189573;-9.884319941;4.1401475;-12.80834092;-18.21441594;-21.79645864;13.17311141;2.958983657;15.89740507;3.517323638;6.128532277;2.819267583
7.134329472;-0.136228535;1.620502642;5.602127008;-1.416221679;-0.098732956;-22.56605134;-15.40138304;-14.7470611;2.059261427;-17.92803313;-17.63830139;-21.41497979;12.18759287;-0.207039355;12.61573314;3.884647178;5.382264023;3.240157807
6.27823972;-2.190575484;0.891435496;7.717702729;-0.617578627;-0.31575735;-24.81396801;-17.55811695;-19.89933773;-0.464430039;-23.42048314;-17.82068976;-21.64418741;11.93264884;-4.381961566;1.536691264;4.647851222;4.798696352;3.458300437
5.094587547;-2.66581472;-0.243463394;8.442260202;0.379951604;-0.441521866;-26.98207615;-17.79836825;-23.25663783;-2.266804826;-28.13366029;-19.62639307;-23.64007813;12.77177407;-6.969816411;-11.12686126;5.675041291;4.539813112;3.462544787
4.081906563;-1.107072699;-0.964812726;7.398490269;1.452666268;-0.375183694;-28.98175913;-16.88606964;-23.84108064;-2.902449978;-31.16857401;-22.99901326;-27.33339334;14.0582056;-7.025551556;-18.38765517;6.230294564;4.374642651;3.156015206
3.428909224;1.184989607;-1.156002914;4.775893804;2.392440175;-0.157838086;-30.8060617;-16.19939828;-22.25440912;-2.839174734;-31.96768382;-26.8266171;-31.31302047;14.71805629;-5.579979755;-17.65820329;5.392616549;4.011891198;2.479845411
2.924080261;2.355803923;-1.38664913;1.407314508;2.931355444;0.053112957;-32.28870217;-16.56477343;-20.00790557;-2.797683471;-30.36938009;-29.58218907;-33.67494971;14.22381202;-4.450541276;-12.14993017;2.859857298;3.493806796;1.611340606
2.246897754;1.695038522;-2.322329928;-1.507518995;2.89125346;0.102671755;-33.03770355;-17.62363478;-18.35874376;-2.923284168;-26.71914822;-30.32372396;-33.27286539;13.06853784;-4.705366608;-7.633546767;-0.511881837;3.206858711;0.974105332
1.395644687;0.302549304;-4.04726881;-2.946311249;2.319700414;-0.044432983;-32.67094436;-18.20831126;-17.5922402;-2.618065868;-21.94838601;-29.31227944;-30.49127023;12.3094502;-6.030958703;-7.534966176;-2.991685001;3.467352492;0.965070278
0.864892255;0.086811362;-5.847413525;-2.572340095;1.471836189;-0.2816603;-31.17401489;-17.35927178;-17.17898179;-1.195516329;-17.43291687;-27.75968648;-26.99;12.60294421;-7.303135819;-10.47967527;-3.020447925;4.101123779;1.602262137
1.368417271;1.950883074;-6.628121359;-0.86834172;0.642798034;-0.448117893;-29.03966536;-15.11444245;-16.44543319;1.308283815;-14.54250986;-26.87684168;-24.60189404;13.61693619;-7.620374712;-12.05252967;-0.300722052;4.48314878;2.424550781
3.275001514;4.791489195;-5.651576059;1.214016548;-0.006064371;-0.450332397;-27.00393772;-12.43831681;-15.05030577;4.010875643;-14.02659342;-26.94104357;-24.15605226;14.35496691;-6.83765579;-8.912351452;3.916044227;4.069186877;2.784332864
6.185033913;6.281851497;-3.057910301;2.851078722;-0.489775193;-0.319914148;-25.54779481;-10.40500897;-12.91741106;5.927913401;-15.56429048;-27.09404842;-25.02581061;14.08532648;-5.30866196;-1.633630576;7.622116351;2.950609152;2.326515905
9.005289379;4.866386729;0.179495667;3.760723297;-0.908213231;-0.168674975;-24.56843809;-9.36155538;-9.920488702;6.891033158;-17.78474765;-26.01958187;-25.65198804;13.01337528;-3.356527218;5.922397921;9.369239921;1.890790245;1.263278877
10.52076796;1.292843168;2.802115976;4.147477519;-1.337914601;-0.090175724;-23.51143132;-8.769175874;-5.874711418;7.71579068;-18.83037071;-22.97505925;-24.61020254;12.07716878;-1.149870098;9.774551381;9.131558367;1.751458754;0.212908394
10.09039902;-1.684961893;3.93689454;4.280314449;-1.812899025;-0.095017349;-21.86959047;-7.803131686;-0.996962141;9.37643151;-17.23003906;-18.39780123;-21.46400757;12.06073896;0.924802797;8.599460721;8.092919177;2.781968237;-0.262340867
7.99452493;-1.312554011;3.48120041;4.11244744;-2.381404137;-0.127373734;-19.62918308;-6.136024184;3.642611061;11.91655085;-12.6545437;-13.65790463;-16.88513568;12.85323958;1.965875626;3.943394913;7.583071834;4.393163685;-0.03674017
5.209627792;3.001965859;2.019993735;3.306307838;-3.133724101;-0.133840037;-17.27589829;-4.199734294;6.352728382;14.15486817;-6.154620229;-10.18910145;-12.09413002;13.54917226;0.919578066;-1.75962111;8.038121719;5.620473583;0.573702236
2.787811988;9.090788741;0.383895326;1.648420661;-4.131154698;-0.113646252;-15.35190594;-2.713180099;5.874932082;14.56948563;0.274975765;-8.667115101;-8.124355855;13.30588149;-2.500320023;-7.113136527;8.790818064;5.874917848;1.13877682
1.275122478;13.49143241;-0.862145834;-0.545923837;-5.288568836;-0.106391265;-13.9567347;-1.930861987;2.558423283;12.6466246;4.623636769;-8.798494107;-5.425895505;12.16706026;-7.1451348;-11.82868214;8.784901386;5.33929025;1.457086043
0.538209147;13.85335112;-1.704482676;-2.47362635;-6.339028056;-0.13864071;-12.64961342;-1.319980858;-1.389271279;9.480732049;5.830690692;-9.761150875;-3.95881896;11.07947195;-10.79474776;-15.29947752;7.559842816;4.703752504;1.623970957
0.05437934;10.46866591;-2.587380926;-3.390263365;-6.950127369;-0.18956072;-10.86802167;0.007713207;-3.046667191;7.017877328;4.276875506;-10.85014288;-3.521888888;11.06306482;-11.49724601;-15.68397103;5.679382658;4.529502913;1.816535398
-0.599128203;5.854298562;-4.005900806;-3.247725953;-6.920676023;-0.212409053;-8.517745864;2.459657697;-0.686207109;6.534505839;1.506288511;-11.81066579;-3.951547878;12.27386626;-8.921377557;-10.99424745;4.287426458;4.831751598;2.049609681
-1.421214053;2.841170474;-6.051967711;-2.863344793;-6.303683766;-0.188802934;-6.218659544;5.446019483;4.901682248;7.652102246;-0.702164676;-12.692783;-5.054017685;13.81097551;-4.63291621;-1.496645372;4.206036773;5.221376268;2.15509912
-2.031029115;2.693170897;-8.249220518;-3.4061455;-5.362650677;-0.156880033;-4.967889695;7.648163474;10.6940157;8.73623313;-1.395767565;-13.49699297;-6.452290368;14.45771695;-1.037186539;8.972443891;5.327134121;5.399307092;1.990856402
-2.003641679;4.591174477;-9.859043854;-5.552519961;-4.413616029;-0.179031784;-5.474530449;7.870782067;13.20054318;8.301830408;-0.99353285;-14.01880294;-7.631644748;13.710628;0.187253063;14.60961974;6.747659981;5.48356096;1.645151509
-1.230058594;6.638252126;-10.50320066;-8.966855201;-3.69097715;-0.276371953;-7.699769154;5.785619881;10.5036499;6.15710179;-0.94036353;-14.05340267;-8.258286312;12.19419368;-1.040578991;11.49153186;7.462695412;5.851759492;1.405799929
-0.047811436;7.392435232;-10.64063959;-12.52378322;-3.31978614;-0.394800853;-10.95720986;1.987062408;3.224522056;3.28810854;-2.649690281;-13.74074479;-8.524727777;11.11046009;-3.581197685;0.753360184;7.017827557;6.68418005;1.503376576
0.932167631;6.704064353;-11.43315414;-15.09208097;-3.348414241;-0.442248165;-14.44643835;-2.608874291;-6.070539461;0.675954848;-6.410652091;-13.67064161;-9.154714396;11.22711484;-6.174241016;-11.65715293;5.645893623;7.693773231;1.875990876
1.17093932;5.384477916;-13.93741934;-16.24798365;-3.739150554;-0.369683595;-17.73213503;-7.425122224;-14.38788731;-1.751866508;-11.01317743;-14.56756665;-10.92524169;12.29566775;-8.210816407;-18.79366311;3.903397683;8.336426345;2.199547509
0.490345399;4.231212478;-18.13233417;-16.36512791;-4.298181689;-0.222864831;-20.75871961;-12.33122409;-19.62874283;-4.959112066;-14.39715764;-16.75117136;-13.97330868;13.37708541;-9.602384784;-17.31634035;2.216845035;8.303399801;2.17740511
-0.866854518;3.346276658;-22.56746239;-16.07003906;-4.658191546;-0.113058343;-23.43523383;-17.1348901;-21.0331268;-9.520182852;-14.93030271;-19.787226;-17.40791445;13.72920346;-10.14108732;-9.39409382;0.726940658;7.80023884;1.824731893
-2.419379164;2.26288296;-25.07858239;-15.58557438;-4.441496984;-0.126722129;-25.23773698;-21.01359861;-18.90074767;-14.45047582;-12.45371301;-22.617495;-19.60358206;13.4302911;-9.251519746;-0.560593118;-0.536231656;7.316478403;1.469590576
-3.733146703;0.61588797;-24.21404559;-14.54861141;-3.569928337;-0.251371113;-25.28259741;-22.56054707;-14.19413222;-17.39328258;-8.364341243;-24.09880081;-19.0830522;13.1968395;-6.571029592;4.591387415;-1.430586403;7.100710472;1.44904378
-4.616651614;-1.3401298;-20.35323189;-12.43949564;-2.484194231;-0.383646115;-22.90740722;-20.59869211;-8.371191193;-16.22746429;-4.668370768;-23.59122275;-15.44668285;13.61636549;-2.819558997;5.393960223;-1.705454616;6.872438714;1.7693572
-5.107405742;-2.826887314;-15.57761861;-9.203605305;-2.010294341;-0.414038799;-18.31692703;-15.19147259;-3.232217655;-10.82205561;-2.670678866;-21.23512118;-9.72328206;14.54503673;0.075487415;4.599777342;-1.220826293;6.096021972;2.048767744
-5.287000064;-3.109205245;-12.23796399;-5.48061594;-2.850239187;-0.31487976;-12.73266729;-7.990699322;-0.380141502;-3.403413279;-2.222394072;-17.81243004;-3.881009052;15.23691528;0.074009842;5.24026666;-0.127532374;4.590275688;1.813987472
-5.095604631;-1.992214249;-11.22076887;-2.221829054;-5.013026311;-0.155892547;-7.843243285;-1.501909824;-0.333400109;2.887686056;-2.03200218;-14.36480141;0.208048822;15.06627825;-3.362833439;7.800078125;1.203347405;2.880278219;0.900119243
-4.327734574;0.155178052;-11.27940048;-0.035093629;-7.637657227;-0.037230087;-4.896844046;2.313101438;-1.945830458;6.133075877;-0.763315389;-11.82576898;1.706181719;14.14509889;-8.529514587;10.11777793;2.440053711;1.893288206;-0.395806115
-2.855521907;2.77188473;-10.06572886;1.158892053;-9.424715431;-0.003567085;-4.058475713;3.124159233;-2.858699659;6.746355781;1.916779324;-10.80115517;1.101227036;13.24387405;-12.45170614;9.843524614;3.467085398;2.206244076;-1.540827656
-0.927811026;5.443805317;-6.165152131;1.86457588;-9.432720913;-0.017215358;-4.449565585;2.241217768;-0.990048828;6.71;5.101634508;-11.4670087;-0.251813421;13.08681936;-13.00956676;7.010152291;4.288386012;3.507464312;-2.169290677
0.71647045;7.882282607;-0.554194022;2.40523011;-7.679158727;-0.010764037;-4.778044073;1.582247807;3.89471104;7.693048278;7.344763897;-13.51387783;-0.971514278;13.68474822;-10.55694607;4.275909218;4.762219786;4.791934529;-2.313109069
1.095022714;9.634309202;3.758904122;2.546655317;-5.098352772;0.03562616;-4.071526356;2.404585394;9.788292893;9.711569459;7.728721808;-16.15739177;-0.330876451;14.33496126;-7.655210454;4.583570532;4.480108194;5.167478383;-2.279710134
-0.48921664;9.934859478;3.769565711;1.709371249;-2.888596434;0.069818405;-2.039688798;4.716919533;13.70823553;11.42910636;6.507415938;-18.31547629;1.568513413;14.29093453;-7.032881172;8.344087283;2.98933732;4.584905172;-2.32360856
-3.958567604;8.010208393;-1.306279966;-0.419130228;-1.749875006;0.02218195;1.047730046;7.684421956;13.79817461;11.68609027;4.901690854;-18.99037956;4.099404763;13.47400381;-9.371573555;12.69975319;0.212706669;3.847213912;-2.433037182
-8.365103916;3.702481266;-9.344015597;-3.437349686;-1.58312322;-0.112689121;4.708716986;10.53821223;10.67781842;10.76413308;4.273572771;-17.71545442;6.584004582;12.55635661;-12.71973836;13.60164159;-3.323348238;3.883402504;-2.420225953
-12.30841076;-2.087330341;-16.71196799;-6.374026641;-1.829418883;-0.248891814;8.479978081;13.16245141;6.959023615;10.19286732;5.309512365;-14.80263542;8.620623161;12.33164965;-14.03293473;8.992098842;-6.718500516;4.928125352;-2.197132843
-14.63120072;-7.59076198;-20.70015968;-8.320558452;-2.099432298;-0.271053192;11.90828829;15.90418397;5.272691672;11.28938669;7.734935316;-11.20537457;10.12973443;12.95934099;-11.60480841;0.451829274;-9.247166194;6.331140912;-1.935445256
-14.94927427;-10.98794918;-21.12276641;-9.01270325;-2.524374719;-0.136103466;14.4550039;18.87578005;6.346884806;13.80397959;10.61952566;-8.063298158;11.19758733;13.79442936;-6.439758689;-7.991788599;-10.77179478;7.150545115;-1.927721981
-13.68483216;-11.33815691;-19.93333763;-8.877701081;-3.53239603;0.076091193;15.53680303;21.46184444;8.634088343;15.95233629;12.92801634;-6.218409966;11.88201909;13.97368304;-1.51315253;-12.81884444;-11.65852754;6.980203726;-2.272343398
-11.63453371;-8.996076068;-19.30400945;-8.554514326;-5.280078125;0.214249256;14.75244496;22.53620367;9.721641408;15.84487092;13.92390839;-5.993118393;12.09835937;13.22176178;0.409450378;-13.29851384;-12.27801188;6.267131569;-2.700596723
-9.438481771;-5.256265679;-19.82614363;-8.366034779;-7.289448998;0.171810378;12.12486642;21.24510886;8.321684054;13.05194939;13.29474915;-7.291558977;11.61503893;12.12509725;-1.377015652;-11.40968231;-12.57045191;5.861036996;-2.751145471
-7.355653204;-1.532125848;-20.30209684;-8.23479857;-8.672295413;-0.028090305;8.144619147;17.69947436;5.219595229;8.930354634;11.13344718;-9.826960079;10.14125737;11.60511502;-5.363439466;-9.789160753;-12.11451912;6.247842845;-2.170133308
-5.461429251;1.320447061;-19.19450825;-8.077062415;-8.804768896;-0.249818746;3.570168609;12.98529831;2.486123466;5.467449348;7.931910494;-13.21904525;7.484017925;12.06435985;-9.257438027;-9.646852877;-10.6674756;7.190225862;-1.180547542
-4.004376222;3.11466704;-16.37649252;-8.216501328;-7.888696879;-0.349237164;-0.852600288;8.477454073;1.714589697;3.722368629;4.557170256;-16.89583506;3.736387855;12.99367567;-11.64358819;-10.34304946;-8.65956277;8.084410119;-0.354116871
-3.515490912;3.966318408;-13.58729666;-9.306950719;-6.881793609;-0.277396516;-4.549312751;5.019854035;2.793841153;3.248323936;2.045081246;-19.99021485;-0.589819497;13.41802346;-12.53548302;-10.66185431;-7.098478773;8.643211445;-0.16689261
-4.486547938;3.921368427;-13.13639956;-11.71813122;-6.778439402;-0.101950522;-7.108609257;2.618981377;4.175612249;2.914622758;1.161594481;-21.48968505;-4.605970866;12.79148463;-12.62825613;-10.31662571;-6.843714846;9.200692387;-0.61319222
-6.84401021;2.985573394;-15.93536383;-14.90331487;-7.776195474;0.061149517;-8.243279708;0.831611883;4.277202296;2.235209708;1.963149732;-20.6893217;-7.324773686;11.52981203;-12.23016602;-10.19879423;-7.821383932;10.30973419;-1.217371534
-9.687724262;1.510834454;-20.55423584;-17.39509834;-9.009766208;0.137961341;-7.871592567;-0.569802779;2.740738889;1.880121728;3.734345745;-17.68319465;-8.085103116;10.68368272;-11.00062272;-11.22906031;-8.902226865;12.0159013;-1.439468683
-11.61062627;0.462387836;-24.16495481;-17.60054855;-9.132286363;0.131636618;-6.292785377;-1.279874881;0.511060706;2.882999101;5.473394747;-13.49642921;-6.890019531;11.02878773;-8.693748747;-13.05689209;-8.666847221;13.55168444;-1.123381117
-11.46705912;1.100188542;-24.65127745;-14.87227187;-7.369957701;0.08488538;-4.246911934;-0.769940699;-1.187569864;5.352847887;6.647098473;-9.658930764;-4.42240752;12.38093658;-6.035007394;-13.98845081;-6.52188329;13.83575259;-0.598968897
-9.07282501;4.109408912;-22.17284936;-10.02640609;-4.273928709;0.021567603;-2.668468888;1.080701061;-1.934201095;8.013642336;7.634988714;-7.420414916;-1.684515134;13.75100527;-4.673110032;-12.32494189;-3.267791494;12.39594728;-0.358680798
-5.325190255;8.809975339;-18.90913873;-4.860058594;-1.562923862;-0.068071757;-2.18866972;3.640583568;-2.249016594;9.130281525;9.447340469;-7.090760901;0.537346151;14.20668618;-6.024718075;-7.918483204;-0.606473983;9.882082973;-0.607371943
-1.641322011;13.21375987;-17.20886843;-0.998450432;-1.083492096;-0.186858626;-2.706458583;5.83596909;-2.731030124;8.045750413;12.86436785;-7.926312018;2.048165709;13.677423;-9.94120847;-2.492640484;0.071669062;7.64887851;-1.090276017
0.887305949;15.15119959;-17.67639667;1.067424436;-3.558491885;-0.286639651;-3.376889146;6.908852878;-3.099900483;5.91380599;17.65461056;-8.615742488;3.22856144;12.99086195;-14.42573615;1.629539631;-1.325605177;6.715935471;-1.344814937
2.032238752;13.80531047;-18.75718425;2.053540064;-7.984335627;-0.281199885;-3.092221825;7.010303146;-2.137461818;4.890699728;22.52980181;-8.031377049;4.672079831;13.11393539;-16.80702876;3.305782684;-3.614440734;6.999821475;-1.135303155
2.322616256;10.48687499;-18.13361572;3.084919257;-12.13032338;-0.119001294;-1.159837311;7.126007086;1.318415322;6.441168563;25.93090298;-5.786858801;6.756393554;14.27414035;-15.54484734;3.31153562;-5.32981721;7.503007518;-0.667921104
2.45768444;7.87870323;-14.76226063;4.719626323;-13.86172569;0.149780004;2.2817031;8.363822394;7.169821031;10.23145638;27.05874767;-2.336470247;9.445342325;15.73310442;-11.28276347;3.414527191;-5.864806054;7.297805657;-0.391294084
2.733880873;8.101976786;-9.888262458;6.568427349;-12.44679419;0.386093742;6.378740672;11.1417481;13.72876508;14.55706859;26.34345695;1.327645283;12.40966444;16.40022568;-6.360110016;4.655756525;-5.825607806;6.418871189;-0.571881776
2.909091747;10.98576091;-6.233225145;7.736809815;-8.997082582;0.461619821;10.09057463;14.88222592;18.62239409;17.8601501;24.99995;4.130635385;15.29926093;15.73935624;-3.218318851;6.40683657;-6.349344281;5.845118811;-1.040105693
2.534156785;13.96472635;-6.024899668;7.629519449;-5.74532636;0.366955066;12.73088222;18.40495407;20.25822015;19.91725926;24.07344501;5.302905169;17.90946158;14.18632092;-2.942629439;7.057410551;-8.006986853;6.570572338;-1.344290066
1.410996316;13.89626084;-9.415248795;6.408751086;-4.625850826;0.229050075;14.16815335;20.66970544;18.73092545;21.62602437;23.78789567;4.621566381;20.1207883;12.74876891;-4.93627841;5.693986347;-10.24702897;8.601710731;-1.172778851
-0.217173919;9.553025063;-14.45436946;4.758956064;-6.086719258;0.209486065;14.6331288;21.29152392;15.55333407;23.66213353;23.7063572;2.500802031;21.72100319;12.17716807;-7.73049725;3.199133774;-11.85225633;10.80958259;-0.65666337
-1.864890379;2.842697101;-18.53232829;3.231061539;-8.912815596;0.361323558;14.3739324;20.49302114;12.55238967;25.35797733;23.45616764;-0.11106695;22.33;12.43609896;-10.09178071;1.671988221;-12.00536949;11.80959447;-0.273401078
-3.174540084;-2.364837289;-20.11655674;1.772339165;-11.15912956;0.568396579;13.45366292;18.64143773;10.84094472;24.95427257;23.24408383;-2.098541504;21.545527;12.89003906;-11.56747823;2.555550591;-11.04027119;11.11261433;-0.43539313
-4.124498306;-3.064982761;-19.52158056;-0.162666811;-11.53293897;0.629210435;11.79958788;15.83488979;10.52658071;21.07703661;23.58855663;-2.761503869;19.21143787;12.96362774;-12.28901764;5.066658224;-10.22866484;9.529599495;-1.133895831
-4.924851012;0.580100785;-18.31271297;-3.052170827;-10.24968087;0.424994238;9.387423618;11.9121457;11.08337025;14.11177483;24.47945828;-2.330292086;15.58403763;12.64313853;-12.51254771;6.393542068;-10.7704804;8.464584333;-1.956758845
-5.740773879;5.404219687;-17.98644182;-6.796175382;-8.760289625;0.033165186;6.376688725;6.868580532;11.82023262;6.200530943;24.83371241;-2.002650378;11.25422238;12.38842355;-12.42865153;3.721741551;-12.8199764;8.717297484;-2.458036404
-6.516992583;7.891327701;-18.9718781;-10.6632448;-8.566244217;-0.314529259;3.122145471;1.304156625;12.04206424;-0.163967364;22.9949239;-3.286686166;6.896794568;12.59931009;-12.28687241;-3.383451397;-15.33573281;9.849940853;-2.540694898
-7.050608247;7.221898134;-20.56114334;-13.68724912;-10.01828839;-0.402803287;0.120126043;-3.512786362;11.04289569;-3.698288641;18.13506064;-6.914167961;3.061334609;13.1828497;-12.4511062;-12.11023599;-16.85148078;10.66177509;-2.508127997
-7.212223036;6.080505462;-21.58923767;-15.158545;-12.01902806;-0.196453943;-2.040854666;-6.098446435;8.348122278;-4.695536861;11.48481281;-12.01896305;0.154177163;13.63600759;-13.10652427;-17.84910079;-16.52359798;10.32130045;-2.747219485
-7.083610865;8.298949197;-21.21745911;-14.86096668;-12.86976893;0.136648484;-2.756228537;-5.480978149;4.295186011;-4.024151963;6.204745077;-16.26239344;-1.450718112;13.54392759;-13.84850982;-17.0477261;-14.63201551;9.125656265;-3.342031666
-6.877869306;15.12310258;-19.30700276;-12.99981318;-11.61300794;0.361516795;-1.598811564;-1.767173161;0.443786278;-1.901171631;5.641052066;-17.02776681;-1.383970256;12.99564931;-13.70470721;-9.529990413;-12.20747137;8.210078125;-3.976377341
-6.728783914;23.35403;-16.3315121;-10.02778485;-8.814015082;0.358239574;1.377803252;3.789984741;-0.867188834;2.23275642;11.02021907;-13.04017339;0.525647502;12.50899631;-11.84116892;1.269986703;-10.17711659;8.490039063;-4.215111896
-6.563732643;27.37656843;-13.09370488;-6.562858522;-6.14547143;0.201725971;5.421858818;9.274065869;2.094969447;8.565869714;20.2577229;-5.364061159;3.946254794;12.53571252;-8.496754292;10.24605905;-8.757101337;9.810940913;-3.906165129
-6.189369424;23.88131908;-10.46405582;-3.366394752;-5.087046822;0.079097576;9.218990431;12.90544049;8.975106496;15.71742389;28.89852202;2.951848188;7.9276747;13.02327854;-5.274495774;13.40110945;-7.532500791;11.08109602;-3.335357614
-5.508000919;15.45800373;-9.136415998;-1.193501449;-5.779155706;0.121473204;11.45872753;13.7878447;16.99626165;20.9474711;32.6948218;8.442824496;11.20252424;13.45648434;-4.30039927;9.748985619;-6.047936829;11.26085448;-2.991124012
-4.650603137;9.575812849;-9.324035114;-0.440555741;-6.970314499;0.29486384;11.55943938;12.26825851;22.35656734;21.97644123;30.10493365;9.052620394;12.80903295;13.34444637;-6.709639442;1.390014648;-4.330297955;10.30192655;-3.148696555
-3.887712909;12.90857963;-10.49374336;-0.798082109;-7.118420937;0.43852753;10.06073007;9.746503049;22.6146753;18.98346808;23.02842438;5.087582227;12.63154981;12.69361224;-11.61367337;-7.938546876;-2.891830221;9.182892856;-3.64341174
-3.391465514;24.99721369;-11.41962392;-1.26170988;-5.748164971;0.410272356;8.342738199;8.005061545;18.39909457;14.91777041;15.37100204;-1.222866009;11.44231454;12.01718852;-16.45764237;-14.7267897;-2.257195367;9.015453918;-4.029725627
-3.069388141;36.5204877;-10.73314271;-0.651562776;-3.928394301;0.20917758;7.793084238;8.353439601;13.10606659;13.56828894;10.57283722;-7.152933392;10.3672585;11.86679935;-18.61601034;-16.93582671;-2.466379949;10.04091014;-3.977613179
-2.631458961;34.513964;-7.748018899;1.633938932;-3.441167966;-0.028356792;8.968242918;10.9994282;10.68528959;16.81347614;9.859132314;-10.90580458;10.13873171;12.32264292;-17.06828156;-14.2815349;-2.990122351;11.42831364;-3.552969726
-1.838691056;11.60800039;-2.991986082;5.175963246;-5.303350704;-0.149697849;11.32777773;14.98081967;13.05980181;23.32181781;12.25310129;-12.19850374;10.67635427;12.92;-12.91792495;-7.888079849;-3.112416989;12.04759892;-3.141969056
-0.712516762;-27.24844924;2.030796535;8.785191381;-8.862425682;-0.114166358;13.70122098;18.70670517;19.02104322;29.82871059;15.97118139;-11.86587111;11.28708424;13.08322865;-8.451220446;0.192569724;-2.446553415;11.50225573;-3.100425367
0.481347805;-65.98863516;5.770703559;11.30708888;-12.23097239;-0.017146753;15.09899112;20.80212345;25.32230667;33.90439023;19.85743398;-11.01881448;11.28518297;12.6627942;-5.58074682;7.405565865;-1.181509618;10.47750171;-3.44640214
1.453045873;-86.55317567;7.594882125;12.39203752;-13.71413551;0.005812989;15.24420495;20.7537728;29.04445651;35.80882878;23.72752142;-10.45248509;10.50387774;12.07439647;-4.901719755;11.22968699;0.080430014;10.09361696;-3.861581784
