Channel 1 - P4;Channel 2 - O2;Channel 3 - P8;Channel 4 - T8;Channel 5 - C4;Channel 6 - Cz;Channel 7 - Fz;Channel 8 - F4;Channel 9 - Fp2;Channel 10 - F8;Channel 11 - Fp1;Channel 12 - F7;Channel 13 - F3;Channel 14 - C3;Channel 15 - T7;Channel 16 - P7;Channel 17 - P3;Channel 18 - O1;Channel 19 - Pz
-19.0763541;168.8748249;61.69703379;34.27094551;209.73;-0.843088612;53.64596725;12.71;56.49495938;98.21098723;-15.5038673;1.656763198;-32.4660184;175.4626891;195.3627437;134.7476856;10.57476211;115.8105916;91.23723328
-8.46526531;155.887738;74.15767976;40.8926918;177.6614849;1.615902626;55.08565097;19.68246343;60.2088297;107.6807891;-11.27836893;-17.74116968;-30.33583344;149.6274073;176.6543342;132.4686853;13.34772686;96.72679814;71.86222303
4.16210276;86.14651493;61.73010899;35.05961546;86.62709563;2.934284621;35.02388138;21.70547832;38.87236284;79.56476319;-7.511105483;-38.95465806;-21.8555265;77.33986961;99.01137573;78.24825112;7.984270503;53.72411084;28.98551016
11.48379436;-1.555644279;34.77293207;19.5113758;-12.78493001;2.420485281;5.288234659;17.89419097;5.676573729;32.50285079;-7.626584086;-52.96740599;-13.59124989;0.789335826;6.118673239;4.77797857;-2.851115705;11.20398293;-12.0367587
10.26225915;-61.94093491;10.17382104;2.48835763;-70.94479852;0.644583675;-17.71157962;10.97905937;-20.28101785;-5.802232925;-12.57530695;-55.60447307;-10.85803164;-40.46515029;-54.56579828;-45.51657155;-12.97825113;-13.48576308;-30.56769303
2.903922392;-72.27656534;-0.113146497;-8.016208853;-70.29248174;-1.08804476;-23.80496473;5.216449166;-26.50249211;-17.39211216;-20.12106313;-49.52671786;-14.26268476;-34.18906625;-62.0921028;-49.49978694;-17.05249459;-18.91766442;-23.18064529
-4.946123633;-43.50888252;4.302898103;-9.195178858;-31.73963078;-1.723097389;-14.57923678;3.583870386;-13.97673694;-4.161779521;-26.03624871;-41.38489253;-19.78;0.657050334;-31.42064757;-16.87;-14.09460728;-15.44290628;-3.041529033
-8.648371583;-7.530973677;14.42129518;-4.172232965;5.687821069;-1.137239522;-0.303693086;6.237232157;5.647366722;17.01298231;-26.51076689;-36.74614723;-22.13033972;31.5350597;2.664918115;20.6476099;-7.667235056;-13.6475581;11.90116445
-7.434304886;7.720943099;20.0017707;1.364052396;14.4551493;-0.054220651;8.48180215;11.00445306;19.37669968;28.73981266;-20.40033401;-36.76905677;-18.81511553;36.61462264;12.81306332;34.60998985;-2.837717781;-15.76884613;12.09035246
-4.065547619;-3.783384064;16.95685049;3.544329303;-4.938268412;0.633652137;7.975405005;15.13322656;21.28623657;25.28873228;-10.04383592;-38.77511798;-11.81989354;17.70029624;-3.429295719;19.68752066;-2.455793017;-16.29448002;1.262086436
-2.045061951;-26.84878995;8.813777574;2.356948686;-30.46105219;0.543893019;1.936241536;16.84128555;14.39341015;13.87081986;-0.163083978;-39.57935215;-5.886297352;-5.819573744;-27.19490817;-6.158672174;-5.548120823;-9.430884131;-9.192563873
-2.837886404;-40.83552592;2.267680211;0.32399625;-39.66771174;-0.027414902;-3.144913316;15.77326645;6.004481095;5.904422654;4.599423254;-38.45478457;-4.862173777;-14.73974135;-37.05407517;-19.12414657;-8.745250972;4.237905011;-10.50188766
-5.181920708;-36.40428401;1.245509808;-0.42193331;-27.23693523;-0.486774808;-3.808974127;12.54146171;1.297979669;6.77240945;2.176445369;-37.36987324;-8.965358168;-4.590487137;-26.44112058;-9.32206891;-9.265417347;17.74199235;-2.895363837
-6.658400712;-20.56709371;4.262618331;0.04403541;-6.141850021;-0.480129595;-1.674670034;8.121569683;0.28846365;12.48574414;-5.808002689;-38.72717823;-14.92229086;13.42398721;-6.577487266;12.70667477;-6.987443138;23.66066065;6.167213037
-5.917782195;-8.249258969;6.504253011;0.03028197;5.784971292;-0.132595366;-0.832497422;3.606621275;-0.306444904;14.85672395;-15.00386517;-42.9094535;-18.66144625;23.69014797;5.171888905;26.41960191;-4.169481785;20.19785426;9.209069845
-3.683724551;-9.178932611;4.169314787;-1.729048675;0.968094025;0.149133935;-3.567896746;0.165384307;-2.934544344;9.570571989;-20.88904885;-47.82929576;-18.35769568;19.1149159;0.148568513;18.69234329;-3.374937355;12.1295844;4.819762342
-1.901600476;-21.08956049;-2.705554004;-4.658586733;-13.43484009;0.073928567;-8.317874429;-1.232218308;-6.772017612;-0.120617141;-21.41107388;-50.70818632;-15.52347435;5.431829757;-15.82657811;-6.206080785;-5.461944064;6.3610516;-2.088540789
-1.972745315;-33.48442985;-10.85912568;-6.807657793;-23.68056261;-0.29969697;-11.33191865;-0.394048162;-8.809550162;-6.754739239;-18.06601127;-50.35140922;-13.47638902;-5.211734594;-29.06619424;-31.20198858;-9.160126073;6.438916792;-5.203330852
-3.624497019;-37.20472955;-16.73786865;-6.628702843;-21.710928;-0.661117088;-10.16327398;1.707006955;-6.984455635;-5.436647152;-14.68944224;-47.9174693;-14.53379962;-4.800102088;-29.92979213;-40.50052369;-12.29386836;10.6506185;-2.193376643
-5.251822431;-31.24812273;-19.03340287;-4.364899285;-10.92222535;-0.741434874;-5.768172466;3.318988452;-2.306042362;2.117181275;-14.7282871;-45.67036271;-18.15357072;4.761334339;-19.714076;-31.1806188;-13.44181109;14.63727478;3.874684715
-5.278773718;-21.9191659;-18.96387964;-1.811750051;-1.653288242;-0.526077663;-1.532768724;3.052742821;1.857368491;9.456607749;-18.83333675;-44.98971016;-21.3895167;14.49476975;-7.778898256;-13.60427938;-12.71763255;15.51649989;7.692365011
-3.336615515;-16.36408371;-18.59654533;-0.727194464;-1.608978813;-0.223125778;-0.340463455;0.99583862;2.539941519;11.05381531;-24.44961825;-45.41409525;-21.21261333;16.36693472;-2.800765995;-1.707448091;-11.29468388;13.80248703;6.278097752
-0.367114283;-16.6908733;-18.98439673;-1.317669433;-9.873595589;-0.05771376;-2.330584297;-1.158958851;-0.458332181;6.656847854;-27.70430116;-45.39518867;-16.87699666;9.440877866;-6.208867426;-1.997844649;-10.33284215;12.02993405;1.10972322
2.2667234;-19.3052523;-19.63107611;-2.072049943;-18.94983828;-0.095947287;-5.127584758;-1.24064405;-4.500669418;0.924326073;-26.23623151;-43.86718567;-10.56334522;-0.379244116;-12.7467543;-9.924581014;-10.25021324;12.06104311;-3.535935196
3.818280735;-19.04177978;-19.38195977;-1.009561952;-21.93872708;-0.236705048;-6.056523521;1.772895801;-6.207833955;-0.765156169;-20.89893306;-41.1279797;-5.877207777;-5.860039063;-16.36802866;-15.33134569;-10.75156518;13.7472223;-4.198018467
4.522104431;-13.85757498;-17.67370058;2.736416129;-18.1041133;-0.337874482;-4.28045846;6.86574538;-3.9256674;3.559682161;-15.07836377;-38.33325936;-5.354297277;-4.129473381;-15.51161331;-11.38084441;-11.31100668;15.73788053;-0.722566035
5.128558816;-6.180616416;-15.05166598;8.232318348;-12.41927453;-0.336054457;-1.140863969;11.55702295;1.277744792;11.62993337;-12.13637026;-36.25861966;-8.779418565;1.879674079;-13.36105469;0.487081165;-11.55694948;17.02922443;4.078782517
6.124938009;-0.442031245;-12.72145743;13.36452095;-10.41733127;-0.259866344;1.291327027;13.5404008;6.592046741;19.40643511;-12.89766424;-34.59910675;-13.45373629;6.661278921;-13.78535386;12.69246811;-11.31343;17.51862741;6.867371235
7.312027895;0.535807193;-11.70482031;16.16802689;-13.43443857;-0.160230257;1.979284745;12.18022714;9.459407326;24.19794556;-15.06449088;-32.44437218;-16.11273236;6.792562901;-17.35;17.83466054;-10.47653056;17.35995359;6.161756939
8.011346644;-2.715770875;-12.28307095;15.88503716;-18.21568928;-0.053823457;1.508347355;8.798801377;9.114158285;25.83886826;-14.98788138;-29.37658807;-15.06770907;3.20853748;-21.04296464;13.6302641;-8.999605428;16.36500144;2.997295103
7.64592726;-7.307739282;-13.96735834;13.17089638;-20.50782595;0.063648804;1.2336729;5.641750496;6.780781151;25.58176773;-10.46309867;-26.05111478;-11.09157381;-0.255390463;-21.46250656;3.171374864;-7.009292432;14.4344697;-0.221778276
6.200078125;-10.30419813;-15.80513749;9.549963933;-18.8930627;0.170049438;1.958023996;4.372993368;4.64240089;24.40059857;-2.48955627;-23.66420831;-6.557986143;-0.34143936;-18.07836969;-8.389280375;-4.837530344;12.45287281;-1.512578608
4.237526934;-10.36595762;-16.7640669;6.619610537;-15.49313409;0.209359319;3.317516604;5.181068017;4.366776044;22.44515817;5.242778272;-22.81816018;-3.604597546;3.085070199;-13.5289983;-17.14096529;-2.834034362;12.18119872;-0.469365349
2.524871523;-7.890506062;-16.0868175;5.437086883;-13.42090719;0.144573326;4.246913417;6.983817431;6.067261251;19.78712904;8.695775681;-22.88321039;-2.713866275;7.211103538;-11.00073605;-21.25585229;-1.122293843;14.66516374;1.751012876
1.566488238;-4.185174898;-13.56632252;6.252768959;-13.73142367;0.01172446;3.949163629;8.369617605;8.251754599;17.20405769;5.969974625;-22.4792629;-2.684285672;8.691894561;-11.40263091;-19.90799724;0.39581445;18.59853288;3.344584668
1.360029297;-0.597350726;-9.600165217;8.573895306;-14.67222629;-0.095730413;2.522440431;8.496182073;8.810960747;15.92401955;-1.674818502;-20.64033153;-1.867118495;6.278091753;-12.91693626;-12.54435147;1.715904904;20.70938165;3.031406131
1.495713462;1.985257085;-4.894861586;11.49872539;-13.62738081;-0.108707626;0.862227533;7.406525594;6.549813709;16.59603961;-10.69429829;-17.60063736;0.389633827;1.726804425;-13.02985574;0.188443894;2.412931681;18.49584573;0.856306024
1.499640177;3.348709927;0.032126442;14.20226618;-9.745602496;-0.047431505;0.074994447;5.772983193;2.337963081;18.68803998;-17.18539088;-14.52792647;3.230242091;-1.543235535;-10.88620335;14.90745907;1.761517201;13.01844887;-1.804678549
1.183785276;3.922913591;5.098009763;16.32540229;-4.910019531;0.005969888;0.866994893;4.431456397;-1.034605997;21.0346928;-18.58624491;-12.5254417;5.056829942;-1.010336802;-7.816204342;25.57844231;-0.655809171;8.749386501;-3.113592557
0.763373748;4.339451451;10.29108613;17.98396098;-2.387636899;0.00626018;3.186728911;4.013686557;-0.518174997;22.94440596;-14.40340833;-11.86401513;4.883318649;3.0062112;-5.853991092;26.23151039;-4.355204783;9.894605179;-2.08475451
0.640624317;4.643906897;14.93385665;19.35094257;-4.429275553;0.008296414;6.170078125;4.738199634;4.925165462;24.61763523;-6.050993048;-12.09949257;3.139033237;7.432831772;-5.913434666;14.8313047;-8.019814073;16.18210964;0.54325826
0.983189711;3.817166455;17.38049815;20.16702831;-10.66297481;0.111902367;8.406101734;6.30669112;13.09070557;26.39372867;3.726225358;-12.81785159;1.266342874;8.622395293;-7.305588397;-4.591399752;-10.36217289;22.28672209;2.685861858
1.418715168;0.381744139;15.80809462;19.71084125;-18.22298358;0.329827078;8.561976246;7.946043074;19.55349619;27.72312489;11.58792868;-14.14814428;0.475731895;5.182971915;-8.730612226;-23.45792447;-11.13936796;22.16411626;2.503682656
1.154640144;-6.011141198;9.787854545;17.41892014;-23.28683276;0.520601906;6.210266732;8.715616345;20.56428769;27.21101235;14.56845717;-16.47992359;0.73555118;-0.66200939;-9.484235725;-33.13450815;-11.38885326;14.85177893;0.059756612
-0.455730704;-13.36429113;1.324771058;13.68378023;-23.05909543;0.48746698;2.348237716;8.048891855;15.8156423;23.98356352;11.27679234;-19.70080127;0.876997628;-4.476630517;-9.714393519;-29.6185955;-12.52665298;6.24028341;-2.460145258
-3.283094379;-18.04532519;-5.88884102;9.998760785;-17.30245865;0.180530864;-0.970658783;6.204968115;8.852648555;19.05594633;2.835603952;-22.82693526;-0.267467729;-3.058244806;-9.800530077;-15.55230269;-14.97088385;4.414595462;-2.466701884
-6.288224223;-17.47588052;-8.886542341;8.039432053;-8.756581373;-0.193044097;-1.928903419;4.209086188;4.544738384;15.05939964;-7.235565807;-24.54378389;-2.695788182;2.633831414;-9.827754937;1.510252981;-17.50395097;12.12314499;0.61605265
-8.150571353;-12.72714253;-7.741329146;8.250313623;-2.007341929;-0.297219236;-0.330471818;3.1843204;5.404430222;14.17419505;-14.56196193;-24.23378233;-5.112285246;7.676710548;-9.753517298;13.40773162;-18.07441538;23.29051388;4.420789171
-8.292351294;-8.361856222;-5.675618699;9.17695814;-0.929947115;0.035600039;2.119321448;3.517661266;9.66533045;16.06306252;-16.22328163;-22.48918205;-6.030697359;6.901469983;-9.801939694;15.77950763;-15.50834298;27.57445062;5.392108343
-7.464924513;-8.903339723;-6.468975145;8.386553084;-5.90202884;0.598719125;3.134031182;4.556976152;12.78432537;17.95727981;-12.37515964;-20.52676769;-5.167009792;-0.517455198;-10.24659025;10.24066067;-10.71072962;19.737444;2.053449431
-7.257458886;-14.55516617;-11.06667317;4.499064736;-12.83508815;0.923529407;1.870318189;5.171710826;11.25679574;17.17010239;-5.973528831;-18.99344175;-3.82990915;-9.547620388;-10.6009653;3.179952993;-6.245709505;5.476768192;-3.100949928
-8.730503332;-20.19469463;-16.3471935;-1.30242369;-15.48334644;0.668771147;-0.10137732;4.762882087;5.617237273;13.82989589;-0.68957906;-17.33550062;-3.817833106;-12.79804254;-9.329070033;1.684607841;-4.521162414;-2.427447199;-5.213383105
-11.23533947;-19.35349948;-17.4776644;-5.753700393;-10.16332425;-0.03357223;0.01420332;3.839113701;0.060904185;11.04591995;1.506930689;-14.45714345;-5.673061235;-6.79601217;-5.030924796;8.664566447;-6.041188826;4.634790009;-1.31155927
-12.55259421;-10.36266988;-12.18697102;-5.890186466;0.49408571;-0.614223337;3.640821191;3.58208159;-1.060565771;11.94298479;1.30682181;-10.14611404;-7.858806875;4.151224578;1.556884489;20.10093255;-9.202695354;22.13944425;6.387599301
-10.52611643;0.888820205;-3.276537259;-1.49280606;8.362783518;-0.51868818;9.077689893;4.719365402;3.102631653;16.16662755;0.899459254;-5.86835027;-7.789972621;10.48119999;6.877176365;26.70433202;-11.81030609;34.66099928;11.49563097
-5.043752639;4.998443683;3.193325245;4.557079669;5.701839183;0.277801648;12.45260597;6.720411338;9.266568176;19.46147825;1.735789812;-3.957207607;-4.075739798;5.177443488;6.737478635;19.84648907;-12.96883903;28.88692082;8.680323717
1.337018525;-2.578582518;2.950524812;8.567334533;-7.904607092;1.16228077;10.98953062;8.135573256;12.9792884;17.38708183;3.143601934;-5.688254298;1.873372352;-9.275855808;0.243232806;-1.553547619;-13.64862886;6.769581217;-1.036487255
4.951258968;-15.99112299;-2.449753624;9.203352223;-23.52050335;1.348278184;5.900601423;7.887975645;12.54060115;10.15024162;2.994268762;-9.924108336;6.432126211;-21.27164829;-8.056712035;-28.18306087;-15.39990991;-13.53994442;-9.903987119
3.835284227;-22.2134218;-6.495811681;8.762994521;-28.66627947;0.574467019;2.054857677;6.37705978;10.29126806;3.760104404;-0.149689612;-13.73321066;6.384822226;-18.83839319;-10.74421181;-44.72712515;-18.41906068;-11.83031301;-9.312798838
-0.41680371;-11.8763644;-3.406898758;11.17827181;-17.47493874;-0.565776038;4.082817547;5.285041142;9.993545956;5.426742299;-5.302075928;-14.7124737;1.627310782;-0.495200621;-3.85741123;-39.78424896;-20.87572949;15.53914645;2.309041132
-3.494410529;10.78243948;5.932413059;18.18180823;2.896407315;-1.021179261;11.85287195;6.087273095;12.64558062;16.43393947;-9.353528718;-13.09765693;-4.343631043;21.06254444;8.097792938;-14.79837895;-20.36228253;48.74704391;16.41623823
-1.621503434;28.20569747;13.29189979;26.93673084;15.95434325;-0.161400869;19.39003906;8.529944355;14.7469343;28.90424614;-9.32657212;-11.68309376;-6.849242537;27.01;13.72988049;15.10277055;-16.35608538;57.43200785;19.78219719
5.156244366;21.91628576;9.231265436;31.54026559;8.326714821;1.568978383;18.91485704;10.5668444;11.06674932;30.51351238;-4.804521493;-13.34056687;-3.690577133;7.307276246;3.359055234;30.40201512;-11.43971244;25.16841744;5.200957685
12.38031715;-11.51320807;-8.300710831;27.65194557;-18.16534116;2.825859335;7.382364788;10.08219117;-0.117125614;14.5969224;1.493464767;-18.10529945;2.816735179;-29.02822119;-21.40604284;20.97535892;-9.847051544;-33.84873294;-20.9283167
14.12726493;-54.0247841;-30.13526428;16.62076105;-45.10872188;2.335498488;-9.739457929;7.073259902;-13.96062452;-12.33627153;5.556712307;-22.44413728;7.23812256;-57.57910848;-45.49732919;-5.678829761;-14.14875145;-80.96255483;-41.09778578
7.530856445;-76.18747697;-40.98350358;5.456182184;-49.56615656;-0.054249969;-21.14606354;4.300058594;-21.45246316;-32.78399734;4.938217;-21.69191734;5.013809968;-55.10671924;-49.27;-28.7548376;-22.68430685;-79.68496733;-38.67731677
-4.572413191;-58.02572267;-30.57293121;2.120719792;-21.58;-3.09556818;-17.57595093;5.480938648;-16.03811992;-29.96;0.378100156;-13.95913273;-3.927425003;-17.38859159;-23.22373385;-28.92302772;-30.05592766;-23.4770194;-10.86397655
-15.14162559;-5.247827045;-2.490587288;9.512345453;26.3053465;-4.930871842;0.832844692;12.18203197;0.659510881;-0.767186394;-5.035512689;-2.335962029;-14.78413421;35.55838073;22.52473522;-3.065521637;-30.68322268;56.99722125;27.61049492
-17.73580374;52.30722114;26.65717045;22.89994176;65.82327261;-4.406255776;23.61630803;21.89047964;18.95540174;40.25638087;-8.38755367;6.67202908;-21.16149439;71.96219934;62.4671831;32.43617883;-22.89312168;113.8211759;53.70454454
-11.14051082;80.21397286;38.06285285;33.10994882;72.10806585;-1.917214424;36.75611675;29.10566373;27.55;69.97;-9.030942846;7.594762527;-19.59879151;70.11489552;72.09043097;53.1428587;-10.39428887;114.7452204;51.96184059
-0.29868532;63.2093261;23.92989959;33.24950853;41.27803389;0.872841863;32.42718751;28.9798327;21.63514336;72.5228038;-8.597660658;0.032231007;-11.92062897;33.5399362;45.06224464;44.68173018;0.11984232;64.65165493;25.31372514
7.246239065;15.56284003;-6.81116194;23.8202499;-6.808486084;2.236093747;14.45742378;20.89254556;6.39385809;50.26722053;-9.079780342;-10.88817837;-3.662073489;-11.90100315;-1.697989456;13.84474321;3.528177944;-0.051694115;-7.39196723
6.767664197;-29.68702869;-34.779458;12.20423614;-42.82468409;1.588561082;-4.654808359;9.16876218;-6.906674699;21.37733714;-10.7514952;-18.10220851;0.131234589;-36.82376278;-39.40344756;-16.16295448;-0.383358475;-38.90579828;-25.24098467
-0.423134328;-44.40623692;-43.84922461;6.89550733;-48.47866357;-0.202932518;-12.88555074;0.227860121;-9.23441285;6.063467682;-11.76767625;-17.58970528;-1.570373518;-28.89508899;-47.19764664;-23.09382217;-7.221849158;-35.28729402;-19.9224782
-8.301729374;-24.13742143;-32.07898977;11.00421507;-27.86113528;-1.599994931;-7.02758087;-1.798263277;-0.097595883;12.06140804;-9.774191461;-11.02115735;-5.58490995;0.066951314;-25.84322044;-2.509428024;-11.51065649;-4.215734078;-0.27728917
-10.84338679;11.53109403;-11.89907913;20.10805635;-1.706216271;-1.598678283;5.948848122;2.283718178;12.86635754;30.37881114;-4.117009809;-4.179301145;-7.583962172;25.03031741;4.558614963;28.85048607;-10.61614254;23.6902435;16.0854648
-6.424197846;35.93366615;0.082729366;26.01842469;9.926877235;-0.410860488;15.11846484;7.748440251;20.30543049;43.92915274;3.263736207;-2.512425204;-5.766939723;27.4303159;20.47324422;45.81195437;-6.146236175;27.38634641;16.8677422
1.392722568;35.48899607;-4.508970669;23.32260575;2.438552192;0.858139145;14.15992624;9.746989782;18.215522;41.53463318;9.027510677;-7.259560317;-2.134867836;8.176767176;11.99358914;33.80764416;-2.051479047;9.440019531;3.673016914
7.044563681;17.55449391;-20.57685861;13.46780372;-12.24515299;1.191258281;5.53109704;6.890058594;10.1477426;26.02472553;10.72043174;-14.94329314;-0.450273065;-15.31324101;-11.5963709;-0.359447631;-1.255105769;-10.45316344;-11.03219949
7.398540571;1.313964731;-34.8084906;3.296891829;-17.86577723;0.461599974;-2.566958812;1.929362168;3.321234423;10.56687203;8.288392207;-20.30808984;-2.740019531;-24.37033472;-30.8748868;-33.98083827;-3.583380541;-14.56286208;-15.1317837
3.899968924;0.739410791;-36.51824406;-0.522712295;-8.253194512;-0.570081787;-3.378220978;-0.768805106;2.376119771;7.148260211;3.681663135;-20.225928;-7.351898272;-13.68841187;-31.75251024;-45.45410817;-6.437756192;-1.717828316;-6.585898471
0.938758466;14.06592454;-25.30956138;3.444118145;8.039022769;-0.982485613;3.170744037;1.238899858;6.074946681;17.12016592;-0.93071558;-15.63823661;-10.20542252;6.023814386;-15.03944839;-29.55246573;-7.305468264;14.02132299;6.004162119
2.023204215;27.53531011;-10.06180114;10.79813254;16.0045153;-0.480056152;11.2013916;6.749224899;9.355442071;31.25517911;-4.696476034;-10.38959847;-8.1770084;18.23385391;6.393093498;0.328894523;-5.831652118;17.49928486;11.602673
6.98077309;28.7324588;-1.021502529;15.29509656;7.574648844;0.419167285;14.41156268;12.18674308;8.461330197;38.39816122;-8.078644975;-8.220309671;-1.789469386;14.2165964;19.014681;23.64078916;-3.802764228;5.852100113;6.178817434
12.35599666;17.32485146;-1.963053872;13.88754482;-11.45;0.898560489;11.39857414;14.6;4.46181046;34.80544776;-11.49477198;-10.31221193;5.025009324;-1.110543798;18.54465326;28.103753;-3.310048828;-10.3380833;-4.566216931
14.45043295;4.304040825;-8.524185238;8.711179937;-26.43482322;0.566612323;6.364772517;13.85170394;2.198424548;26.36722306;-14.02855452;-14.9638797;7.901992189;-14.95544744;10.84798794;17.17162489;-4.854202189;-17.86235035;-10.90514365
12.35185042;1.369710683;-13.17208445;4.711798416;-26.10877496;-0.24217081;5.008727899;12.34865487;5.832882069;22.51465022;-13.58057519;-19.15522702;5.365805219;-17.98493906;4.634157326;4.844809876;-7.010219213;-12.96062758;-7.730503891
8.487778597;10.44803124;-11.8650968;5.259285289;-11.42926224;-0.812434075;9.46822126;12.78224865;15.03377649;27.71065172;-8.507603604;-20.51516994;-0.114156597;-11.2564449;3.42124586;3.324487798;-7.77583664;-3.757954019;1.428394818
6.412466036;22.50899214;-6.730876388;9.529450556;5.965180777;-0.693097987;16.68519847;15.89637654;25.06647015;37.97519976;0.604119353;-18.35443346;-4.061340766;-3.524383801;3.784455041;13.8580342;-6.281088907;-1.653011064;8.106255273
7.799864234;26.13828658;-3.123317163;13.63211164;13.69864379;-0.063572968;21.32759258;20.06414886;30.53072834;44.98327128;10.63809515;-13.50741799;-3.290299735;-2.381095581;0.479459278;27.34538209;-3.374578935;-10.31674151;6.599738409
11.12490877;17.7421149;-4.370058594;14.17262069;8.208618763;0.475748616;20.43421363;22.79910693;29.41634306;43.56596661;17.58466321;-7.620811713;2.001033794;-7.608723096;-7.225179376;32.78679645;-0.734133626;-22.57185978;-1.238368904
12.98332298;4.277986895;-9.090415373;11.02350512;-3.809197148;0.465070283;15.68495848;22.75409507;24.12200776;35.84319154;19.00083388;-2.546896454;8.767661552;-12.36628605;-14.25225712;25.79745989;0.538518;-27.62;-8.060987014
10.82119039;-3.525406575;-13.13651912;7.050078125;-12.33401652;-0.017354178;11.54031511;20.55702862;18.91344221;28.6792704;15.47930835;0.073921047;13.55782752;-10.40734728;-14.52570202;10.6017066;0.557965098;-21.41380198;-7.728053485
4.831791015;-0.972080286;-13.86247032;5.328135931;-12.58674131;-0.46145931;11.18290953;18.0076519;16.33890717;27.24199168;10.06669604;-0.674983794;14.78062795;-2.264439602;-7.086262025;-4.742638105;0.10371598;-10.32860611;-0.55696202
-2.357213195;6.665149672;-12.52475255;6.483865901;-7.832979489;-0.410733947;13.9498861;16.56217993;15.73514877;30.65262667;6.138103978;-4.362500876;13.16612268;5.257336736;2.443863197;-14.6199885;-0.405003425;-4.830522941;7.332163663
-7.714803501;9.388149422;-12.67127577;8.439041269;-4.772893963;0.126020011;16.37024361;16.45077029;14.80943345;33.41341494;5.33800999;-8.987789221;10.46205045;5.521642449;6.571009054;-18.21772949;-1.33301811;-9.276783135;9.629133804
-9.799906809;1.894248089;-16.26243136;8.549698789;-6.517775829;0.699722581;15.6058581;16.98442233;12.47721071;30.88785551;6.994463026;-11.73502329;7.808770567;-1.726356207;2.552423682;-17.14594971;-3.275873888;-17.55914455;5.209490761
-9.247868452;-11.41133015;-21.34279222;6.035401716;-9.816875526;0.839302135;12.05579233;17.47278791;10.19438999;23.59841689;9.163644406;-10.58969795;5.223823665;-10.12267721;-5.131288774;-12.05667673;-6.173381186;-18.80970202;-1.377958733
-7.693163269;-20.23371535;-23.52904782;2.523641179;-8.778943258;0.47153455;8.838973647;17.7578437;10.63377066;16.51921266;10.24173556;-5.809059645;2.390929106;-12.53968468;-8.75156361;-2.310203496;-9.070242588;-7.985301932;-4.384243256
-6.308723748;-17.48667937;-19.95813765;0.396756931;-1.190095215;-0.032663723;8.799901641;17.95671576;15.08058456;14.32094187;9.849648115;-0.044068761;-0.295987569;-7.57760862;-4.223131395;11.10521849;-10.84485851;8.496674806;-2.005390212
-5.211765211;-5.513627612;-12.03780514;0.631057702;8.706796565;-0.210516684;11.87414006;17.91294499;22.02233749;17.16705068;8.520541639;3.224551568;-1.621758535;-0.757115299;5.224286117;23.10803693;-11.23069851;17.52880369;2.401715989
-4.001753227;5.995438886;-4.443280434;2.150330505;13.61761915;0.074015135;15.19111479;17.14194482;28.18673601;20.91269498;6.797007415;1.957692347;-0.554518256;0.609591936;11.82171671;26.20180779;-11.10427793;10.53834385;3.848688621
-2.652913161;8.382418603;-1.238090296;3.17490393;9.642477057;0.52318096;15.72366404;15.45514822;31.00170095;21.30836067;4.742765571;-3.097448698;2.601811755;-5.851439049;9.987436667;15.93556981;-11.67482641;-8.714955039;0.50759385
-1.798507493;1.241181492;-2.595139664;3.139964939;-0.134301905;0.693577319;13.01260114;13.60043982;30.25525554;18.10194661;2.323270021;-8.990929584;6.085740454;-15.34746289;1.10253692;-4.410591218;-13.27401577;-26.75514335;-4.66657215
-2.166565083;-7.711735111;-5.009704113;3.262545665;-8.133231009;0.405317799;9.525718389;13.06942315;27.63553573;15.16103038;0.177961086;-12.62026217;7.84975194;-20.16244199;-7.713194641;-24.61575013;-14.89329746;-31.29035852;-6.827634565
-3.790626346;-9.682191511;-4.709636901;5.177276849;-8.572376844;-0.100797053;8.419644549;14.9605075;24.85792962;16.56713098;-0.144525368;-12.68215061;7.093038368;-16.51389002;-9.561965966;-34.07972256;-14.98740041;-21.0506265;-3.823206761
-5.811401874;-2.348287638;-1.10285628;8.953020544;-1.998715747;-0.391845991;10.78640907;18.78507222;22.28658809;22.4278977;3.014177957;-10.12244716;4.843294026;-7.886818173;-3.211363561;-29.2931722;-12.89858944;-6.239482221;1.791714581
-7.084921222;8.618200716;2.860816967;12.46770712;5.730656059;-0.23942986;14.81683339;22.37414631;19.26875097;28.39853812;10.02747007;-6.945298378;3.062626038;-1.939775455;6.482433419;-16.1468907;-9.626780132;0.498245687;5.099249296
-7.040019531;15.00684203;3.678203631;12.92051323;8.763447482;0.178133717;17.48838084;23.22187269;15.59803819;29.43360904;19.07097903;-4.526732239;3.016015056;-3.822197693;13.08629602;-5.067540145;-7.187815126;-5.399009757;3.288532167
-6.016333757;13.31547282;0.839006842;9.277985773;5.946346173;0.445714055;17.130663;20.34453159;12.40643924;24.36060883;26.55687545;-2.825759977;4.273527516;-11.84171007;13.75884209;-2.908725459;-7.039487555;-17.31413618;-1.855751837
-4.825701901;7.339876934;-2.359594688;3.491359778;0.897034105;0.29219696;14.57562882;15.16264997;11.42503191;17.09913675;28.86065744;-0.968521528;5.174630204;-19.19758955;10.6495012;-8.210078125;-8.910377708;-23.9334563;-5.65389381
-3.996745031;4.138010686;-1.538783551;-0.714411728;-2.119522221;-0.163894476;12.04258008;10.60459252;13.28273266;13.4063914;24.35010673;1.53543313;4.343117323;-20.06458493;7.845794217;-13.50637934;-11.05407553;-19.17257197;-4.786015203
-3.4068695;7.383546893;4.88371415;-0.611407998;-2.328175951;-0.520656661;11.00706935;9.056528096;16.5974992;16.06684905;14.4591436;4.138438311;1.968108772;-14.56045007;7.210663119;-12.36057644;-11.72232972;-6.867907388;-0.207510154
-2.584417656;14.22588941;14.09549843;3.436347936;-2.707988358;-0.448835128;11.10653251;10.74263724;18.94640991;22.77601934;3.123281186;5.718548801;-0.217420739;-8.312963016;7.108302658;-4.916530297;-10.58592921;3.349044844;3.852822659
-1.313019381;18.30614319;20.99169492;8.261112279;-6.37933924;0.022872811;10.98406844;13.77763691;18.97981123;28.44710944;-5.110400548;5.642760307;-0.241403922;-7.244180284;4.929731106;2.681267797;-8.880925281;4.715695534;3.790958047
0.082712979;15.89460535;22.15833115;10.30370829;-12.8326528;0.541186755;10.04613482;15.7675272;17.72306219;29.67416418;-7.228972087;4.387712672;2.567353824;-12.35503842;0.580394573;4.149631348;-8.184608308;-1.333737179;-0.170098877
1.031673241;9.410180945;18.33074999;8.174308631;-17.80914417;0.739349288;9.264291903;15.59961728;17.72072626;27.27327386;-3.008370398;3.139509105;6.99298774;-19.08024359;-2.758557292;-1.205882642;-8.934132722;-7.496763213;-4.325130521
1.260279161;5.169185713;13.33903875;3.355875371;-17.09443289;0.543574995;10.15901859;13.99253084;20.63289595;24.76769911;5.191222696;2.76330315;10.69195085;-21.55782479;-1.513998174;-7.981122841;-10.01850072;-7.807938054;-4.94587462
1.016893328;7.558744299;10.64352423;-1.338632747;-10.68088903;0.209709572;12.95881483;12.49192805;25.39567734;24.48980104;13.82525741;3.097601453;11.66307965;-17.81843581;4.508812341;-9.66571142;-9.809355837;-2.834755858;-1.632784319
0.746250993;15.01556353;10.56513947;-4.107247467;-3.280600699;0.074311944;15.82558111;11.909212;28.67112333;25.10059073;19.89650152;3.193789757;9.357710932;-11.28528029;11.26696486;-4.512088997;-7.707290649;1.656316222;2.458304054
0.553777996;21.4125549;10.52134736;-5.334084634;-0.4900354;0.254882442;16.09114507;11.58933645;27.32200366;22.87011127;22.08626083;2.236661288;4.770197844;-7.462854971;13.68932085;3.013172263;-4.814061071;0.788268968;3.612842797
0.031783308;21.48062533;7.809968127;-6.780058594;-3.954082866;0.564443305;12.53088811;10.07983009;20.83669251;15.45831219;20.79897185;0.278929164;-0.337993143;-9.00318066;10.22749052;6.416243844;-3.110115917;-4.626444056;0.96036108
-1.324346345;15.30995447;2.271732055;-9.698159873;-9.903083341;0.700722693;6.622030882;6.523848907;11.65267723;4.573715629;17.30943739;-1.862948964;-4.399275684;-13.60627558;4.541621912;3.128435085;-3.836662848;-9.057855828;-2.812823202
-3.475400852;7.966286381;-3.561414748;-13.59572889;-12.4611098;0.52408868;1.550156217;1.518690856;3.178300366;-5.059908734;12.70939691;-3.407429237;-6.593465819;-16.45237737;2.516200686;-3.190963955;-6.482301273;-7.827564285;-4.008361956
-5.603470418;4.776764967;-6.825249907;-16.65614804;-8.829821154;0.171818862;-0.267176148;-3.270357203;-2.683640837;-9.553041377;7.389651105;-4.330536387;-6.876524653;-14.72889012;6.995584714;-6.070581615;-9.240507007;-1.777180438;-1.319841502
-6.5756531;6.694499337;-6.905481444;-17.32590448;-1.735223249;-0.081821855;0.9937636;-6.324513427;-6.363249867;-9.023845113;1.342650793;-5.346349013;-5.740699851;-10.06837873;14.83496597;-2.24163086;-10.51580615;3.45863655;3.010520584
-5.758534508;9.889358829;-5.852767807;-15.62128337;3.047566527;-0.077665374;2.975063477;-7.220823553;-9.257391595;-7.228289452;-5.072691668;-7.181408513;-3.964365997;-6.810792516;19.02910394;5.233353813;-10.15510482;2.83780449;5.267433045
-3.490373556;9.716259944;-6.318841703;-13.07194945;1.877332297;0.097067527;3.387455559;-6.562329458;-11.67229947;-8.033765913;-10.63874848;-9.812685665;-2.385090084;-7.88127172;14.35119321;9.625594056;-9.354543537;-3.223977621;3.607921622
-0.8012696;5.228722842;-9.001350879;-11.46858587;-3.50197682;0.20730457;2.063653693;-5.116187593;-12.16790265;-11.97792271;-13.60030516;-12.34007813;-1.610104473;-12.1551417;1.877051039;6.691877122;-9.383473031;-9.170019531;-0.36954501
1.367229521;0.049286268;-11.99749984;-11.5655555;-7.563065878;0.093282453;0.980549767;-3.076797285;-8.994390269;-15.99514115;-12.68389917;-13.5781429;-1.707375383;-15.65723224;-11.36108871;-1.190999153;-10.31150382;-9.534213992;-3.177512359
2.759386321;-1.111161286;-12.65681552;-12.79064543;-6.044057763;-0.19222343;2.271477824;-0.15319298;-2.241593047;-16.42329851;-8.075287207;-12.84616351;-2.112386645;-15.34325441;-17.32916934;-6.723364286;-10.90114945;-4.157528909;-2.601445914
3.730226699;3.038548034;-10.19082925;-14.03052048;0.051978829;-0.450360543;6.075671852;3.693261274;5.456389119;-12.41286084;-1.54538474;-10.34414566;-1.950730246;-11.89156384;-12.59089487;-3.905299853;-9.771048871;1.550711962;0.432088597
4.645620788;9.044277591;-6.589645632;-14.64084396;5.1232253;-0.529554413;10.21369564;7.704944917;10.5398646;-6.604220604;4.481473523;-6.937251694;-0.659838599;-8.963391424;-0.283871623;6.577381387;-6.789731906;1.607139443;2.89953982
5.386518963;11.77912374;-4.947182854;-14.77120088;3.846093727;-0.457156468;12.01210967;10.64137631;11.16782538;-2.58758885;8.287937891;-3.665864748;1.529424501;-9.715098032;12.64093067;17.57580662;-3.440629866;-4.934457373;2.553086689
5.461315052;9.074561873;-6.676857105;-14.85186659;-3.892990355;-0.390572565;10.64333652;11.75320694;8.54647571;-1.67984035;9.644075661;-1.394159322;3.67147382;-13.85308796;20.26927815;21.30930594;-1.792184992;-13.00571708;-0.076617702
4.617872824;3.676515553;-10.13634623;-14.89134481;-12.29498405;-0.446264863;7.870787715;11.50702546;5.707583776;-2.106898718;9.438274199;-0.699612837;4.747683305;-17.93918381;20.80396197;15.9520851;-2.919787753;-16.13223325;-2.340244631
3.32985703;0.77704645;-11.9375165;-14.34120318;-13.9302232;-0.578655724;6.519327774;11.2913053;4.794585481;-1.284704772;8.533066289;-1.794634333;4.391805562;-18.60013643;16.07806228;7.366993646;-6.096942655;-12.36440998;-2.070410487
2.612486688;3.400068359;-9.824792513;-12.65918563;-5.607270384;-0.626390828;8.027977848;12.24129992;5.298099957;1.146366389;6.88568964;-4.32255385;3.113640879;-15.63147768;8.905203574;4.386124109;-9.404396114;-5.993750271;0.36519219
3.244984742;9.806139998;-4.614471898;-9.986700463;8.867333281;-0.478001097;11.24926032;14.17644579;4.851549771;2.645043361;3.754323949;-7.208622948;1.836103172;-12.14351668;1.116046492;11.42361451;-11.19967041;-3.400814258;2.463142847
5.067316943;15.16841824;0.471267874;-7.238160005;21.19274369;-0.193279577;13.5253233;15.63759506;1.859493767;0.290794224;-1.163681643;-8.936273106;1.140820589;-11.66574169;-6.215666556;24.45307571;-11.19946568;-6.852543809;2.008724265
7.013015112;15.88294857;2.447068394;-5.465966159;24.32888826;0.039673876;13.03547626;15.09344509;-2.499735446;-5.836317855;-6.728620967;-8.341369828;0.865578761;-14.91297211;-11.39809699;33.66029927;-10.33048688;-12.05984992;-0.786160765
7.913294869;12.57462878;0.863302579;-5.056980929;17.11169476;0.072675251;10.30785911;12.33966154;-4.870109169;-11.8;-10.57167135;-5.460712757;0.380963865;-19.17399879;-11.81887009;30.70972069;-9.610447346;-11.92967215;-3.443657137
7.414331304;9.1788513;-2.170697591;-5.47792116;4.492621618;-0.069322544;7.587669316;8.874234095;-2.56355289;-12.66945372;-10.61432752;-1.70292816;-0.734974583;-20.83222641;-5.669449475;14.96345141;-9.141585703;-3.244686566;-3.523232909
6.224144507;9.114390756;-4.104480003;-5.77977602;-6.337683397;-0.217564256;6.701279899;6.84832981;3.790129619;-6.809791093;-6.777064258;0.983133831;-2.261990124;-18.66478472;5.724663273;-6.017562723;-8.128237597;9.807249885;-0.911819346
5.479590711;12.15268015;-4.204977481;-5.383127049;-10.7540738;-0.223621294;7.381823308;7.390199014;10.19969624;2.231128127;-1.404807007;1.430930725;-3.55739018;-14.90967176;17.45921781;-21.78650418;-5.854806562;18.6337507;2.035449674
5.793674421;14.81595715;-3.9362797;-4.437288979;-9.019861905;-0.100976722;7.55436049;9.65884302;12.09656374;8.144326572;2.152560839;0.029891294;-4.233619224;-13.18446608;23.58500741;-25.88119684;-2.671250124;17.32237825;2.640121491
6.818283596;13.80904038;-5.224303625;-3.472378742;-4.987968788;-0.007165991;5.281127676;11.41805789;7.726282613;6.730400524;1.85738112;-1.74339679;-4.648676228;-15.2120121;21.04188388;-19.228538;-0.021839886;7.64659256;0.352649899
7.686472394;9.216771667;-8.305242722;-2.73124259;-2.737985492;-0.081958011;0.586227873;10.69888992;-0.621779356;-0.868312725;-1.596873295;-2.70055529;-5.696410463;-19.32965445;11.92178418;-8.149376857;0.582730916;-2.415816052;-2.744134692
7.90320657;4.499315876;-11.20311147;-1.85490467;-3.801336566;-0.297189563;-4.465271676;7.256674458;-8.490599828;-9.303960166;-5.454628265;-3.043031836;-7.999678084;-22.05662267;2.119553248;0.792333781;-1.211932624;-5.385219872;-3.83727784
7.851532033;3.335123814;-11.36326574;-0.246079015;-6.663258368;-0.467190189;-7.453736787;2.724611239;-12.5859254;-13.47884627;-7.185498946;-4.153588653;-11.17355774;-21.19892534;-2.710379165;4.910829845;-4.252160035;-0.38828552;-1.943062886
8.436971805;6.264961619;-7.985569432;2.215739179;-8.351804232;-0.418267906;-7.5090023;-0.578805058;-12.79789931;-12.43093636;-6.548786767;-7.148572915;-13.83218435;-17.65682596;-0.822141121;5.789570846;-6.7275299;6.552384274;1.212188928
10.1857304;10.22098493;-2.942040632;4.786209604;-6.64737021;-0.161427718;-5.762902408;-1.208473317;-11.43422094;-9.382544866;-5.697892983;-11.41707209;-14.43220005;-14.40699852;5.024640932;6.519717259;-7.528944104;8.126720924;2.774688637
12.62342402;11.3241946;0.594438898;6.209887571;-1.443831728;0.098619025;-4.064369486;0.640964844;-10.65657027;-8.179009321;-7.167430705;-14.52958955;-12.35700369;-13.76618686;10.21118399;8.629610222;-6.986828437;2.22224331;1.346753079
14.52385611;8.338559088;0.664308738;5.591240323;5.341580488;0.137633065;-3.250171955;3.586952453;-10.56506512;-9.538005977;-11.38397633;-13.82317165;-8.424176368;-15.53823812;11.81755753;11.20326879;-6.395818932;-6.333229494;-1.77712385
14.84069156;3.631880357;-1.973170687;3.107101499;10.99347928;-0.083596653;-2.591941087;6.18717784;-9.583546297;-10.55709887;-15.84392951;-8.51638288;-4.426034785;-17.66729847;10.31268521;12.43477211;-6.761206261;-10.09562014;-3.810124524
13.51676079;0.851990568;-4.619404843;0.000746091;13.55831702;-0.373222605;-0.857070925;7.79552098;-6.573129418;-7.81915139;-16.81485613;-0.628904473;-2.035825676;-18.56875799;8.39264402;11.81257043;-7.845899637;-5.444530495;-2.974056969
11.4644003;1.55518788;-5.014607593;-2.139707729;12.89851937;-0.47113392;2.133040977;8.597653491;-2.50580237;-1.074314112;-12.33370505;6.16042829;-1.851936353;-18.73654253;8.344216946;10.8793265;-8.320919093;4.441498876;-0.019002122
9.740694817;3.925216763;-3.29191112;-2.289572079;10.66375222;-0.280412977;5.028282424;9.037907568;0.007050685;6.049170523;-4.104274478;8.945181093;-3.19244219;-20.00593766;10.25942926;11.97528431;-6.883309763;12.39363812;2.57232318
8.651469394;4.708667783;-1.893195425;-0.472537523;9.127218214;0.040828816;6.08862875;9.284701582;-1.012116131;9.074423136;3.347599159;7.479557825;-4.67139602;-23.21199567;12.373658;16.11227575;-3.406038457;13.10076892;2.89435282
7.573884385;2.47664906;-3.570883736;2.417170394;9.530705108;0.215216842;4.894809771;9.184275004;-4.905962622;6.700424973;5.769040101;4.10823414;-5.069811678;-26.64802731;12.88046122;21.73647488;0.819290348;6.889112623;1.291254425
5.642128439;-0.892257636;-9.148701096;5.221059927;11.07064913;0.093702321;2.979775873;8.604432222;-8.556445862;2.077532825;2.22372673;1.881896797;-3.925050607;-27.06938391;11.48832387;25.33847856;3.926004214;-1.460221302;-0.1114447
2.672119944;-1.923513584;-16.80353008;7.105115305;11.42097974;-0.204781656;2.675010027;7.720019531;-8.724157468;0.055572403;-4.230758925;2.405183048;-1.579511571;-22.57178152;9.487823498;23.48778223;4.715770718;-7.223462257;0.486814054
-0.507398358;1.13233099;-23.29881668;7.822474331;8.622964214;-0.389548215;5.113196183;6.929515571;-4.615363405;2.8218693;-8.73433343;5.060371929;1.172559686;-14.75661837;8.512025639;14.97158749;3.349599194;-9.264096682;2.817181651
-2.6196224;6.476693;-26.06271638;7.628698138;2.961114562;-0.25006958;9.160946425;6.515167247;1.484416852;7.885986335;-7.995627078;8.016386555;3.528396622;-8.029444246;9.179476791;1.77525909;1.037323408;-9.664138017;4.781722761
-2.911911441;10.18516268;-24.52685382;7.015304285;-2.82569724;0.156094314;12.28356573;6.419979998;6.016487349;10.3058837;-2.324223451;9.962909867;4.991455673;-6.36522151;10.67434096;-11.61431205;-0.918422187;-10.427675;4.432818237
-1.697726573;9.6379533;-19.96831804;6.433850231;-5.474272837;0.544857389;12.63943919;6.368243607;6.851319182;7.219466;5.045290706;11.0460617;5.510303186;-10.19690028;11.40185665;-20.2291913;-1.930710057;-10.86955324;1.832424777
-0.021182177;5.860972529;-14.3573196;6.106597468;-3.891340509;0.641625708;10.59443623;6.184405455;4.680378495;0.611406073;10.56258858;12.34291916;5.463850197;-16.10833457;10.07395808;-21.00208603;-2.234586329;-8.33871629;-0.942523853
1.232843489;2.646297895;-9.298389937;5.972925025;-0.301008243;0.407369104;8.340238811;5.962474087;2.114113642;-4.233487568;12.73636402;14.5569736;5.486224439;-19.64694807;6.484409601;-14.34404834;-2.376605997;-1.469466244;-1.65577496
1.996401309;3.225415619;-5.709288835;5.801329608;1.429311117;0.061124705;7.962717951;5.911065681;1.4542225;-3.296324571;12.52687482;17.23548966;6.134090611;-18.88239775;1.640493447;-4.023384743;-2.64435498;7.405580244;0.082334587
2.896221597;7.463683581;-4.017938935;5.431068183;-0.825134403;-0.115096606;9.658789064;6.059981543;3.074246285;2.610113978;11.78087356;19.20700633;7.519114778;-15.70708313;-2.691150615;4.780866531;-2.929987849;13.29232146;2.497513838
4.510158378;12.05126843;-4.264757245;4.990408499;-5.190319855;-0.014816164;11.64660372;6.179733133;5.589756859;8.452468709;11.31980001;19.738825;9.15110598;-13.86295127;-4.828280844;8.329830471;-3.049224664;12.34373782;3.298472448
6.696432413;13.46217275;-5.878904803;4.887118341;-6.884811874;0.217081034;11.80707414;6.049466454;7.34855529;9.268105055;10.39697022;19.25429537;10.18110821;-15.52254659;-4.134887994;6.420173771;-3.112072355;5.088485094;1.763271174
8.591349757;11.00453276;-7.534497785;5.49956127;-2.138283756;0.328918363;9.583825319;5.818838331;7.750207484;4.401280944;7.876357768;18.91774124;9.960683229;-19.44356362;-1.629700411;2.295729922;-3.531886992;-3.819527207;-0.643887585
9.254723766;7.281791994;-7.627153634;6.763109304;8.20406558;0.191441607;6.481962387;6.049190088;7.328584054;-1.989653581;3.904386637;19.51152488;8.543698;-22.2395008;0.343927976;0.270137864;-4.636897937;-9.111395149;-1.666148646
8.376579595;5.767300166;-5.33140952;8.015085645;18.63440099;-0.091781844;4.773436407;7.285177187;6.833801468;-4.547266852;0.423184856;20.7177881;6.729712037;-21.52154715;-0.424730796;2.598333906;-6.246821093;-8.600803213;-0.352144721
6.440806837;7.761141807;-1.468404848;8.323244557;22.94041767;-0.283319358;5.583573201;9.475208717;6.423920435;-1.270382841;-0.064232418;21.51957131;5.56666385;-18.05620711;-4.163218953;7.845073851;-7.635904542;-4.015564425;2.074978331
4.25632326;11.441588;1.683884628;7.128983576;19.1355862;-0.223346163;8.017757516;11.77735974;5.753941021;4.905224099;3.515195935;21.33194561;5.66120913;-15.04073516;-8.341102207;12.04241773;-7.978816368;1.333084649;3.36136865
2.323861964;13.7218085;1.749242759;4.712217323;11.20716788;0.037124158;10.01011899;13.01109244;4.683770226;8.734791702;9.760703819;20.72431614;6.817334996;-15.2096788;-9.069289949;11.85141104;-6.958073898;5.514575887;2.308735518
0.604143266;13.07152796;-2.110518717;2.057289104;5.966734042;0.293625829;10.06048722;12.4585218;3.666259196;7.079984996;15.63482665;20.94308147;8.266900525;-18.39519161;-4.17203931;7.316362217;-5.059385366;8.782972498;-0.12078324
-1.16863216;10.69335133;-8.517446728;0.169697533;7.407254543;0.37480553;8.327934391;10.38132463;3.289413629;1.280531025;18.54353215;22.59994527;9.275839184;-21.69944476;4.268276052;2.001114779;-3.315017211;11.83465469;-1.689170906
-3.006992207;9.086783086;-14.71378258;-0.620215315;13.26158357;0.285859431;6.234492609;7.826920892;3.464648235;-4.378153973;18.00041989;24.77626979;9.623217323;-22.0756651;10.27241181;0.301953248;-2.673658412;13.76813092;-0.936333436
-4.534376138;9.496304483;-18.29916301;-0.779762391;16.79909571;0.184303683;5.107214995;5.88725182;3.264862008;-6.488144756;15.60338472;25.53183116;9.607109893;-18.99741194;7.664314255;4.002942409;-3.441119229;12.2493856;1.478812392
-5.334734598;10.72488972;-18.57540689;-1.015944547;12.52625292;0.22006958;5.177653352;5.024454416;1.815831989;-5.162465096;13.48585576;23.56007813;9.676986139;-14.88477475;-5.258157323;10.81794159;-5.157090546;6.016618693;3.368764393
-5.426952894;10.42761733;-16.58046343;-1.545522919;1.053765385;0.392206247;5.788536702;4.983305605;-0.516626344;-3.331453953;12.64110946;19.60185675;10.10455712;-12.99153381;-23.74922929;16.12797326;-6.939240804;-2.778234152;2.9941894
-5.356998969;7.60678176;-13.97847591;-1.88737336;-11.04622826;0.552142944;6.436813626;5.258917779;-1.922017111;-3.652517733;12.51541353;16.27773909;10.99132872;-14.67504915;-39.3548057;16.57206773;-8.010355007;-9.111958663;0.63234701
-5.757763051;3.86753662;-11.83298347;-1.414451113;-16.39714963;0.544830322;7.490229416;5.592434936;-0.431006567;-6.049883809;12.07065907;16.2738913;12.49655405;-18.41572851;-45.74413784;12.65500321;-8.052627968;-8.650227843;-1.668770103
-6.753757249;2.145992106;-10.2267648;-0.178681337;-12.72003906;0.354061894;9.788094985;5.993283246;4.243393602;-8.096869574;11.20012471;20.25305405;14.88764592;-21.31240743;-43.26544783;8.320934076;-7.21915602;-1.437911147;-1.907778131
-7.780539652;4.008763869;-8.837130114;0.804438177;-4.527007798;0.119410148;13.49413335;6.311261622;9.982331918;-7.674069527;11.09456049;26.20274196;18.18670529;-21.59398334;-38.48245175;7.856571804;-5.898157709;7.685469249;0.123932737
-8.043903558;8.016595394;-7.732530177;0.20282987;0.797646873;0.013363654;17.38612807;5.898737057;13.53159601;-5.227398613;13.13861634;30.82510589;21.67957559;-19.90654046;-38.7733087;12.55554866;-4.463916039;12.66737189;2.708593225
-7.257772301;10.738144;-7.557307957;-2.508725894;-0.834445923;0.093957682;19.43958898;3.886287135;12.90094547;-3.432488481;17.29852169;31.9177086;23.87134847;-18.37111212;-46.13891599;19.65817498;-3.183715014;10.97514602;3.748600153
-6.005919082;9.610019531;-8.938601433;-6.419326422;-7.037021114;0.265356952;18.364648;0.006289653;8.903147248;-4.607798577;21.51952813;29.88032115;23.22039492;-18.45125354;-55.25070904;24.21909382;-2.271728917;5.45093355;2.572727268
-5.357257489;5.147398698;-11.7215226;-9.684965619;-11.3690811;0.375344619;14.79249062;-4.737612414;4.450510271;-8.379643233;22.86979859;27.19722789;19.2897922;-19.65491255;-57.51388777;22.35572981;-1.949745071;1.660710682;0.409372775
-5.999383442;0.558197954;-14.8044307;-10.84695173;-9.119096879;0.353566281;10.99811664;-8.309694853;2.136980396;-11.86562482;19.68296487;26.38359677;13.42351074;-20.19783314;-48.03809481;13.53980889;-2.390382303;3.03948828;-0.816125428
-7.591931578;-0.895918625;-16.78565605;-9.892906814;-1.376736518;0.26262342;9.268028525;-8.864900265;2.174645258;-12.25944217;13.01881722;28.07785459;8.241389804;-18.88633478;-29.91472844;0.644330847;-3.552518111;8.079641699;-0.204615897
-8.893714861;1.513392511;-16.89157814;-8.137554212;6.080825992;0.220971491;10.2068977;-6.142860067;2.493123641;-9.422145576;6.193678048;30.74615777;6.115945663;-16.38190703;-12.26692126;-11.76374169;-5.050452645;11.9840451;1.425743693
-8.601105623;5.640329867;-15.41347458;-6.99;7.966753812;0.277593087;12.36925294;-1.907560617;0.902526567;-6.046795771;2.613486081;32.0834714;7.667043653;-14.65515144;-3.560358147;-19.42819651;-6.214074249;11.21311906;2.423802958
-6.265626406;8.528057627;-13.33013946;-6.667664162;4.079303672;0.360543117;13.50359143;1.076347761;-2.65738673;-5.200058594;3.485316526;30.84781338;11.41350955;-15.16349701;-5.512395335;-19.67360608;-6.37452142;6.774946722;1.867656376
-2.605013692;8.940170878;-11.49561545;-6.017549201;-0.716171314;0.347998061;12.35713794;0.916218171;-5.885028196;-7.476639991;7.103285075;27.65124813;14.87972452;-17.47220856;-12.40724512;-11.96007813;-5.233047873;3.268391245;0.353251408
0.990024414;8.138309683;-10.09022762;-3.666348267;-0.993708756;0.19275051;9.56184131;-2.036092925;-6.196698061;-10.377387;10.20591862;24.23472868;16.31189431;-19.6063206;-16.15984783;1.789576237;-3.072392796;4.55;-0.654675779
3.341675411;8.382909065;-8.72197835;0.477521399;4.334111283;-0.020042267;6.947873503;-5.373510222;-3.261424046;-10.49693972;10.34067374;22.03149315;15.66840234;-19.80892534;-12.81183012;17.11542581;-0.637050685;9.975103993;-0.228191217
4.111637482;10.70379957;-6.961586313;4.740719292;11.09774607;-0.13974852;5.962896241;-6.31054016;0.389636969;-6.547989263;7.47;21.28118471;14.15864499;-18.093715;-5.162469349;27.92412454;1.284125756;14.68045778;1.192794792
3.795370037;14.0393173;-4.766959432;6.77770439;13.6933933;-0.083081619;6.561306052;-3.657329759;1.400288706;-0.504297006;3.720683052;21.29576776;12.82981094;-16.18745845;0.337688623;28.88017724;2.325340961;13.75996915;2.272911037
3.223996366;16.44219867;-2.462143537;5.42590854;10.16292157;0.088138821;7.424058253;1.324872501;-1.421544839;4.125072973;1.631695081;21.39194901;11.50188035;-15.93997255;-0.532920445;18.49070845;2.74895096;6.681203065;2.04893233
3.024744304;17.06853508;-0.418345025;1.765179454;3.957391691;0.216092577;7.183353763;5.766321106;-5.846058741;5.278907664;2.330132;21.49474292;9.022532122;-17.66047428;-6.217572567;0.836447278;3.228260583;-1.964055323;0.782963517
3.393019039;16.96642377;1.155615424;-1.603106143;0.816271319;0.180131747;5.518846225;7.06944653;-7.96714748;3.885661169;4.9610085;21.88284685;4.618314531;-19.87143205;-11.01517522;-15.85751049;4.332197675;-6.075217391;-0.354953509
4.189208556;17.88696152;2.103634188;-2.578864457;3.580619071;-0.003616192;3.224491457;4.475191628;-5.57970094;2.651812268;7.593098759;22.47012824;-0.908753295;-20.66046298;-10.19519032;-23.59718441;6.057387026;-2.926001407;-0.402969128
5.131294344;20.28192242;2.096934234;-1.277748417;9.603220155;-0.201865008;1.328714559;-0.697910364;-0.274771679;3.329869507;8.672786402;22.49051182;-5.327959649;-19.37702141;-4.013865015;-19.33878374;7.742580861;4.819047188;0.566840846
5.896167368;22.48305313;0.66932799;-0.006338117;13.09381556;-0.281178569;0.163291278;-6.118374772;3.668419871;5.050398759;7.817770219;21.03453192;-6.518418424;-17.15724847;2.760653122;-6.749276636;8.447453911;11.51738403;1.658148562
6.153065708;21.98263506;-2.379411294;-1.447320421;10.33639436;-0.216308209;-0.780904628;-9.892556257;2.772561647;5.244413739;5.475776196;17.99451268;-4.194632;-15.86384728;5.160676223;6.417590901;7.554350522;13.13104596;2.111841993
5.668295858;17.74720506;-6.55096092;-6.456370713;3.158106554;-0.097347767;-2.173636797;-11.38196067;-2.705889343;2.235672582;2.021317473;14.4809867;-0.350589942;-16.45599274;2.236325826;13.55337157;5.192978674;10.02735412;2.03216679
4.511320692;11.45111008;-10.67590136;-13.19771281;-2.433277782;-0.038083044;-4.065864611;-11.02641376;-8.948726093;-2.969359125;-2.691301704;12.17530412;2.0473155;-18.26015169;-2.458509379;13.24918554;2.213259055;5.859358179;2.173680345
3.19029174;6.409915536;-13.53890678;-18.28313033;-1.285846879;-0.07493215;-5.773201003;-9.614634935;-11.76823066;-7.398126318;-8.817219369;12.04385231;1.146093374;-19.72635663;-4.302015895;9.284664025;-0.25449731;3.928541351;3.046976066
2.499212788;5.038699076;-14.67672855;-19.01713013;6.532120261;-0.147047612;-6.513251753;-7.739785502;-10.12162652;-8.689638411;-15.54506005;13.48534616;-2.562378628;-19.88475955;-1.716811101;6.852243225;-1.348081526;4.480501322;4.283512846
3.068207505;7.004748919;-14.68481714;-15.06052231;15.75163134;-0.16736117;-6.171378281;-5.812613976;-6.928134041;-7.150446194;-20.7197764;14.70045649;-6.801871373;-19.12826471;2.696922123;8.245330404;-0.801923947;5.215747833;4.933475474
4.902000652;9.662621758;-14.72292399;-8.393102302;20.19159539;-0.110242065;-5.470097656;-4.388694775;-6.452546583;-5.389566624;-21.73324089;14.06864043;-9.333919542;-18.64365845;4.827699582;11.5065383;1.065719873;4.165027541;4.422694472
7.280884831;10.36716636;-15.58301896;-1.831067267;17.58532566;-0.031772744;-5.392092397;-4.270749952;-10.4630211;-5.876505135;-17.2740625;11.4447115;-9.5170654;-19.10661001;2.916187406;12.92217844;3.581384467;1.945821455;3.205370264
9.158284772;8.639371899;-17.0792838;2.631212133;10.92509408;-0.008319011;-6.390640876;-6.107188794;-16.44771553;-8.683243752;-8.660523971;8.305048568;-8.392285795;-19.93019342;-0.925881426;10.95437108;5.951964568;1.190740217;2.413509754
9.797940647;6.34443355;-18.26447969;4.49964968;5.459861033;-0.058466086;-8.082159097;-9.751199481;-19.4585321;-11.48801618;0.408635772;6.584753841;-7.403971034;-19.801975;-2.806776106;8.005339266;7.415112808;3.767292257;2.785771454
9.187655349;5.834355858;-18.2721089;4.321211094;4.198665616;-0.126463133;-9.638730274;-13.96293357;-16.10538924;-11.81399082;5.764452385;7.103781124;-7.024991852;-18.00275947;-0.701824668;8.330039063;7.375385785;8.565584174;3.904867264
7.935715559;7.785100223;-17.0460982;2.850854369;5.814495145;-0.141747028;-10.46235684;-16.83807711;-7.431404307;-9.403839376;5.161187503;8.819691641;-6.544066193;-15.24119332;3.73122623;13.82779715;5.618017601;12.096809;4.530927273
6.764932603;10.64988878;-15.33073133;0.677611013;6.468813291;-0.09253346;-10.5206653;-16.79090049;1.660515427;-6.508534986;-0.465634283;9.505696988;-5.13144437;-13.17129174;6.769863103;21.43613372;2.538845693;11.46524972;3.779733166
6.020816804;12.13728843;-13.9602454;-1.565980789;3.57064396;-0.037189234;-10.1083023;-13.46749656;5.933455821;-5.805971576;-7.738699716;7.362562885;-3.072115133;-12.98295014;6.094177895;24.67794643;-0.831697354;6.99611839;2.0415064
5.55469351;11.3046913;-13.11644111;-2.988647926;-2.009974355;-0.039421622;-9.365109488;-7.97938419;3.478168562;-7.870803405;-13.02806463;2.385684479;-1.86878163;-14.33607001;2.873583428;18.49108865;-3.191149116;2.063335026;0.714448674
4.997260938;9.360170554;-12.24809825;-2.780217074;-7.063215079;-0.091617055;-8.082887874;-2.310172116;-3.252878047;-10.55500696;-14.54050225;-3.485334781;-2.962640756;-15.62903329;0.589605941;3.622704554;-3.618286766;0.216846108;0.921056718
4.120039063;8.484821078;-10.73922525;-0.972116614;-9.142159561;-0.107476309;-6.000117902;1.703460227;-9.567498046;-10.90184144;-12.92100357;-7.523775234;-6.170058594;-15.39712569;1.74806854;-13.01479118;-2.122252147;2.179853144;2.375958676
2.965079581;9.779854597;-8.713618709;1.153959214;-8.626872196;-0.00098085;-3.270908672;3.180442274;-11.89221976;-7.893846656;-10.15826075;-7.89147048;-9.347682688;-13.60846053;5.548127276;-22.58442891;0.338526554;5.392835511;3.51195863
1.692105155;12.19650006;-7.200787032;1.655851808;-7.949936016;0.217417553;-0.609759239;2.37010865;-9.77;-3.549710238;-7.85180029;-4.766194965;-9.833106482;-11.69813878;8.641874028;-20.16226636;2.460309841;6.447559688;2.845411171
0.371718293;13.39206763;-7.422829196;-0.697014474;-8.981326639;0.42171063;1.073927974;0.228021312;-5.336844693;-1.347430459;-6.265649091;-0.272096494;-6.642902658;-11.29686652;8.245799248;-7.918633684;3.439465345;4.147677583;0.385014198
-1.026743426;11.74217158;-9.738142006;-5.310165445;-11.24910652;0.458576511;1.249193704;-2.214668192;-1.233831172;-3.328733868;-4.805982931;2.687021228;-1.6039144;-12.77202671;4.716162813;6.607370182;3.450897898;0.435849534;-2.230698496
-2.447399612;7.761517715;-13.12256321;-9.919058629;-12.70499652;0.274965437;0.058015337;-4.263055012;1.113085034;-8.388032476;-3.293141648;2.000516096;1.687583902;-14.87100157;1.227771579;15.74911003;3.394890347;-1.552688089;-3.077387246
-3.60494349;3.758020741;-15.67563125;-12.05797709;-12.15642204;-0.025339988;-1.871311207;-5.581831215;1.700424462;-13.16770024;-2.712037354;-2.51462886;0.461320189;-15.78690656;0.875610169;16.61599815;4.103941321;-0.417809898;-1.625294734
-4.120323458;2.084801486;-15.83069594;-10.77796524;-10.81789655;-0.251093044;-3.843700239;-5.976953252;1.064000774;-14.69333998;-4.600156822;-8.989475677;-5.019159063;-14.71703199;3.870184373;12.29477807;5.630671852;2.313486981;0.750226976
-3.886396622;3.477945035;-13.38953946;-7.273112339;-11.29904433;-0.266605647;-5.340977714;-5.230396617;-0.445796353;-12.45921611;-9.482896489;-14.44803403;-11.38613767;-12.55616258;7.378466923;8.858093895;7.178942451;3.760277029;1.930200563
-3.331478381;6.754219767;-9.639904124;-3.924672558;-14.90639456;-0.091517476;-5.956313239;-3.184904055;-2.52893428;-8.331696537;-15.73582419;-16.35199546;-14.38468;-11.12878994;8.11862541;10.65719786;7.724543096;2.474132584;0.892926922
-3.262106358;9.902998543;-6.512434993;-2.5574617;-19.90792137;0.123859524;-5.284915977;-0.031503337;-4.412061683;-4.669207617;-20.07735935;-13.94478229;-11.77903874;-11.63674682;5.31187611;17.29662725;6.816367905;-0.191138312;-1.393829173
-4.309370975;11.50427378;-5.418495382;-3.327550121;-22.63310663;0.2235522;-3.108921009;3.452258222;-4.916619083;-2.548590358;-19.63345556;-8.641128077;-4.834621181;-13.66611344;1.312255414;24.14955256;4.914288725;-1.377621655;-2.835431621
-6.387519927;11.35475886;-6.56354592;-5.081051544;-20.61726219;0.164523856;0.154377302;5.985078805;-3.416868021;-1.624502039;-14.15159663;-3.189351756;2.641253889;-15.58913613;-0.604621047;25.67425106;3.017129908;0.561480339;-2.07104696
-8.637929054;10.07144969;-9.096575842;-6.737670839;-14.94638893;0.032920454;3.212049719;6.269857014;-0.844807185;-1.401803709;-6.613575822;-0.056383248;6.902154952;-15.97582872;0.780036621;19.07419999;1.923789362;4.470039063;0.325111382
-9.976352077;8.340097656;-11.83474677;-8.376570283;-9.52083427;-0.046127548;4.33960662;3.687020419;0.460229864;-2.317851341;-1.564893482;-0.020046692;6.592094125;-14.76903246;3.610413786;6.005270732;1.75017104;7.378608647;2.376417461
-9.862272809;6.580474808;-13.97738958;-11.00225809;-7.72180576;-0.019296759;2.438663444;-1.205207286;-1.657994142;-5.341086881;-2.184172734;-1.881276331;3.251723974;-13.21571761;4.77940169;-8.400838099;2.062770447;7.133853342;2.490983189
-8.693254557;5.156130709;-15.37220445;-15.18664538;-9.421098575;0.059577984;-2.014878938;-6.726337843;-7.264765956;-10.44315066;-8.140456955;-3.480488795;-0.102364404;-12.65724205;2.8562589;-18.26083094;2.428453699;4.250536716;0.895350601
-7.499850928;4.618202057;-16.30648221;-19.85429018;-11.09905908;0.091915062;-6.970748689;-10.76114676;-13.77231135;-15.62289041;-15.79099383;-3.277444924;-1.088036404;-13.281015;-0.59817926;-19.74254682;2.822466205;1.34482877;-0.576531559
-7.169657346;5.498747544;-17.10851657;-22.44900295;-9.078003888;0.029372658;-9.949183302;-11.76855329;-17.42987153;-17.78962041;-20.58883561;-1.326993927;0.745332193;-13.95516839;-2.516745288;-12.62147677;3.50183211;0.754177969;-0.14994333
-7.806715306;7.774195295;-17.86695597;-20.58085871;-2.994097664;-0.086674479;-9.598880378;-9.559698161;-15.86566467;-15.035415;-19.97043608;1.062516702;4.098014742;-13.29889237;-1.201639313;-0.137220609;4.486411727;2.557081889;2.268187391
-8.71820402;10.60796359;-18.39082305;-13.9525318;3.712108833;-0.171457253;-6.518172089;-5.381043106;-9.719573535;-8.338753391;-14.70077025;2.663756336;7.108568637;-11.03591175;2.086288175;12.52637012;5.201748304;4.729902521;4.970924987
-9.00904073;12.79299176;-18.35029979;-5.007709776;6.884196339;-0.178344309;-2.701864396;-1.234690633;-2.082862234;-1.042536583;-7.872835898;3.522328152;8.534601839;-8.405080273;4.288321309;20.39315659;4.732947902;5.145595973;5.944597055
-8.283106404;13.61357629;-17.48065838;2.341105769;5.61569853;-0.136369553;-0.046086505;1.168520961;3.767178258;3.626772645;-2.515965825;4.97076956;8.218356637;-7.207813648;3.370632937;20.62572073;2.585053624;3.472558435;4.637794654
-6.892442944;13.35801281;-15.76141289;5.085345473;3.413430464;-0.111507275;0.91295844;1.207868818;6.502282012;4.925570516;0.307862396;8.405282586;6.836934475;-8.2699669;0.190875886;13.50729527;-0.672092534;1.268769329;2.433039026
-5.574896863;12.98090542;-13.50658048;2.927766007;5.22633888;-0.134221415;1.071035125;-0.531756656;7.133246153;4.796973786;1.619566971;13.83730497;5.388793616;-10.64952854;-2.316589424;2.114052439;-3.496823477;0.362736435;1.420309295
-4.827792444;13.21737613;-11.30298626;-1.718107448;12.7141751;-0.166735929;1.689635796;-2.808136781;7.587474371;5.776544772;3.083326543;19.49283184;4.79718166;-12.33131327;-1.881624167;-9.117551513;-4.268443013;1.199169268;2.586716404
-4.556107878;13.99878657;-9.77703021;-5.451259948;21.92561603;-0.142720908;3.176715987;-4.507293999;8.892507663;8.545060113;5.44092284;22.91944666;5.677237057;-11.88892755;0.96894924;-16.2085223;-2.372994235;2.715945226;5.031334235
-4.266730061;14.73292044;-9.288563825;-6.054733476;25.74419567;-0.040399976;4.766628841;-5.160497907;10.53471178;11.38793728;8.154953445;22.81235496;8.142608777;-9.726012505;3.365627438;-16.99534652;1.332790861;3.70716295;6.861225988
-3.602685009;15.13478503;-9.757533676;-3.654868716;19.46623438;0.083373981;5.313561103;-4.959137419;11.34385692;12.03331271;10.3754314;20.12042031;11.65892038;-7.797214291;2.74091923;-11.56390957;5.046293358;4.151305833;6.906626081
-2.732741595;15.69528814;-10.78597706;-0.260144089;5.071849002;0.134032338;4.421064229;-4.416851033;10.85045793;10.0811016;12.11194322;17.50643355;15.13999157;-7.960857509;-0.747792443;-1.890331826;7.151225446;5.094879072;5.687748224
-2.254305241;17.19908566;-12.01722331;1.773356686;-9.424295078;0.059796096;2.858183801;-4.020068359;9.752639462;7.627608804;14.34267253;17.51776616;17.41499922;-10.30669097;-4.242188636;8.854677513;7.135368363;7.232326795;4.792615408
-2.690574217;19.69379749;-13.44054307;1.203288996;-15.30320091;-0.101952056;1.883963541;-4.093258229;9.118594446;7.366115258;17.84716264;20.83475979;17.86394229;-12.91054497;-4.662550947;17.04976875;5.684861646;9.729732503;5.296489956
-4.002333631;21.99967382;-15.33899195;-1.580651071;-9.180187834;-0.255232093;2.100484934;-4.835819309;9.228535732;9.891670172;21.85518837;25.88654839;16.75973059;-13.33547639;-1.427267413;19.50588418;4.009904063;10.65880435;6.716622088
-5.517742154;22.47130039;-17.86274916;-5.065273436;4.792177631;-0.324919195;2.882078491;-6.332138795;9.287763539;12.84599908;23.95055198;30.04138344;14.99781908;-10.71367522;3.01902584;14.63874849;3.008544766;8.778029918;7.473609587
-6.345067693;20.52537848;-20.57983648;-7.590288701;18.09499694;-0.312917308;2.908776872;-8.430732809;8.329583237;12.94507949;21.66403474;31.39188403;13.38904559;-6.650986984;5.324840639;3.617261396;2.882660113;4.935001016;6.420440997
-5.962664295;17.54100246;-22.46750481;-8.127896208;23.82675981;-0.282411066;1.340445483;-10.61701582;6.389639104;9.203054905;14.64472457;29.81223188;12.10284192;-4.06994888;4.089753718;-9.382529601;3.341114169;1.581514069;4.00601894
-4.565568417;16.08328026;-22.49777689;-6.538567018;21.00260171;-0.289614304;-1.404474787;-12.11290787;4.703178576;4.329924022;5.570208897;26.67087893;10.7546841;-4.814307692;0.929279821;-18.60159235;4.025618604;0.678574006;1.972369101
-2.948782615;17.84361044;-20.44918482;-3.379705574;14.26454803;-0.330305961;-3.949065762;-12.2811996;4.60844711;2.716059114;-1.220160759;23.67373915;9.057649267;-7.981704262;-1.132027531;-19.56653004;4.712172549;1.920097656;1.833133707
-2.037900357;21.98497518;-17.28917322;0.473736794;9.725263504;-0.351300037;-5.068087151;-11.10890252;6.152236388;6.493160259;-2.578548117;21.86579632;7.403561308;-10.49790297;-0.415351388;-11.84653764;5.193041443;3.049212752;3.50669235
-2.385690024;25.47161326;-14.71837685;4.183608904;10.38211083;-0.312229629;-4.640937378;-9.376454791;7.797301612;13.13465746;1.224055776;21.45123524;6.742620632;-9.639909743;2.011644387;0.313540728;5.137938049;2.103097238;5.350998143
-3.920851809;25.37506236;-14.10783994;7.173992005;14.39660233;-0.233417806;-3.64653995;-8.283195015;7.666987474;17.00873374;6.687077842;22.24563003;7.749189137;-5.489231828;3.494088342;10.3791527;4.255491545;-0.501520124;5.58577486
-6.038167161;21.37712247;-15.58463775;9.184195211;17.01173664;-0.179341719;-3.259833805;-8.703368582;5.282992543;13.94279563;9.662006251;24.06040012;9.969780247;-1.15597137;2.364392357;13.68748271;2.6994808;-2.13538195;3.83943063
-7.923833806;16.32406651;-17.96909935;10.14860184;14.1993943;-0.191558895;-3.88229256;-10.56913249;2.16269083;5.06299847;8.401806856;26.56846235;11.78366264;-0.345372125;-0.470559048;10.56934025;1.281354717;-0.409493535;1.451291333
-8.92695721;14.18034908;-19.63414048;9.994399031;5.288283994;-0.23784601;-4.943802149;-12.83306644;0.580316139;-3.517245262;4.717565208;28.89266491;11.37835767;-4.128955346;-2.379284012;6.024630466;1.097517334;4.30953342;0.280307943
-8.815780242;16.90934968;-19.63534274;8.547356752;-6.922449022;-0.233097448;-5.577031696;-14.05903427;1.48210451;-5.239323283;2.325700226;29.56840228;8.054365189;-9.687346863;-1.484593442;5.909831383;2.693896025;8.806239689;1.096998996
-7.832372423;22.8144496;-18.24307693;5.705622226;-18.07466055;-0.120063477;-5.477136376;-13.23579537;3.440739277;1.675904164;3.688591112;27.22834253;2.809572777;-12.35932443;1.526621623;12.26799058;5.425498704;9.689145835;2.97496193
-6.538604086;27.77252692;-16.48987327;1.820224117;-24.58307588;0.063085044;-5.131716571;-10.26336384;3.742288137;12.64173835;7.877776043;21.61637604;-2.317736765;-9.553557784;3.939441932;21.3110619;7.678587041;6.520850916;4.16990879
-5.524851492;28.43817109;-15.14408594;-2.045221415;-25.06283781;0.196586522;-5.230943162;-5.838189108;0.831983402;20.20669416;11.21125442;14.08030269;-5.655807117;-3.253654194;3.425999632;25.78892816;7.984012344;2.4504998;3.64241844
-5.122808228;24.85284945;-13.98168719;-4.344734465;-20.51593457;0.172145563;-5.851100331;-0.926250564;-3.96148711;19.8958824;10.21850319;7.000106583;-6.930413989;1.289450694;0.16519504;20.23912494;6.241767952;1.526591415;1.851701176
-5.280549601;20.36;-11.97153217;-3.82315534;-13.64520192;-0.010797915;-6.221659723;3.716501518;-7.036361018;13.64415806;4.603912726;2.457556357;-7.106634465;-0.037615348;-3.241891527;5.338660329;4.016737008;4.952517269;0.171008573
-5.675394134;18.92956917;-8.226598696;-0.401110675;-7.735289788;-0.230722687;-5.343825458;7.644594946;-5.156049032;7.997770289;-2.180957238;1.102132531;-7.244376036;-6.306253041;-3.993080227;-11.92146833;3.481734312;9.724468141;-0.446065799
-5.98125478;22.08841825;-2.931428667;4.502639629;-5.367248085;-0.329769509;-2.932358824;10.50129352;1.942601002;8.556374201;-5.312518117;2.030786497;-7.420662092;-11.76879884;-1.479877696;-22.52938984;5.668198951;11.11297493;-0.267885957
-6.083381858;27.8999342;2.541894567;8.605329491;-7.291074286;-0.23211445;0.166545504;11.82851882;11.09018489;15.23055351;-2.176114372;3.68125773;-6.706289491;-10.5923114;2.232842707;-21.23803302;9.366566458;6.956829496;-0.329713994
-6.06364893;32.6751652;6.475647802;10.07372655;-12.01086754;0.00134349;2.481511515;11.20748334;17.78260349;22.22312233;5.55347659;4.951056528;-4.239885554;-2.423391361;4.21283397;-9.783870897;11.66978141;-0.099809086;-1.212742928
-5.970406273;33.86386195;7.990534278;8.676952574;-16.54921859;0.224687729;2.941163448;8.678244574;19.19837522;22.76576366;12.92258526;5.672137914;-0.42985423;6.239932674;3.124450552;4.622545158;9.949630602;-4.655825397;-2.283064509
-5.594043991;31.73627879;7.674907713;5.957887404;-18.18789125;0.318854706;1.572869512;5.058411205;15.83034439;14.76411534;15.07166473;6.229713005;2.871668298;6.890755395;0.212241943;14.2759315;3.896925172;-3.297377594;-2.18317008
-4.502082482;28.64785403;7.169773099;4.24678325;-16.15191414;0.270691474;-0.664090057;1.779757574;10.64582734;2.788453316;10.50940319;6.886978248;3.542533357;-3.246321959;-1.960993855;15.79481147;-3.921663373;2.149905037;-0.172181029
-2.382360912;26.7684767;7.989834152;5.151266238;-12.01614143;0.160287072;-2.692339614;0.212146251;6.694838485;-5.18789413;1.973767118;7.559945931;0.861716902;-17.16648086;-1.808447282;11.51573255;-9.52560408;5.955126882;2.933965682
0.552164998;26.34258659;10.41177888;8.524741693;-8.439525796;0.079058629;-4.036001518;0.870169063;5.170413407;-3.732396766;-5.59013405;8.238888786;-3.679424728;-22.26680926;-0.007862193;6.877979135;-10.05778856;3.494597142;5.168955427
3.470360351;25.89140528;13.20765816;12.5671024;-7.122560488;0.056324228;-4.866493631;3.049939638;5.267945567;6.005370617;-8.323922352;9.52329758;-7.172568489;-10.8397234;1.259550146;6.086688434;-5.624799004;-4.38581773;4.921509616
5.325924642;23.96860123;14.41285516;14.92410828;-7.553913145;0.054797598;-5.457197622;5.185996728;5.517965162;17.11374049;-5.648505105;12.54588669;-7.192557667;11.00608705;0.317756076;9.301473129;0.864453286;-11.67592238;2.280718833
5.549073873;20.76358015;12.62213271;14.01746881;-7.519333711;0.026626282;-5.665808032;5.736039078;5.12139936;21.76521045;-0.003452891;18.12332243;-3.426099472;24.12337393;-2.582835635;13.1229002;5.736683866;-12.22457913;-0.948305242
4.533334515;18.10971486;7.960694701;9.789210423;-4.9309849;-0.032512985;-4.98876875;4.047456675;4.140213775;16.36456631;5.325205187;25.7823336;2.146414322;8.327139541;-5.628970583;13.5677368;7.013456968;-5.292308397;-2.605733393
3.500968583;17.9496852;2.074885856;3.537534742;0.509554196;-0.084416701;-3.142057732;0.681213124;2.724774166;3.410446725;8.468653831;33.59568761;6.597213776;-41.8199677;-7.146502033;9.047507029;5.579697518;3.278715107;-1.795223
3.752009444;20.64598577;-2.913579445;-2.873988711;7.086820914;-0.097886326;-0.58549282;-2.968977422;0.532067426;-10.77291731;9.728265735;39.19198991;7.905036869;-109.1585879;-7.053005738;1.214426178;4.321301535;5.582651062;0.555603663
5.764737819;24.5587449;-5.896986581;-7.870286672;12.3048355;-0.090321196;1.56994676;-5.48751405;-2.832154725;-20.29298744;10.58669987;41.31544376;6.028295186;-161.272989;-6.803056683;-6.600592917;5.939315664;-1.769155189;2.582587931
8.762766856;27.13331008;-7.78432566;-10.6645761;14.436616;-0.113693834;2.272387606;-6.178800009;-6.762296096;-22.81852284;12.08525395;40.75436197;2.602590877;-169.6095638;-7.97417744;-11.83789205;11.01187989;-14.59447325;2.999120123
11.06959747;26.48828424;-11.26962769;-11.3268012;13.18023594;-0.195545725;1.280400855;-5.339735295;-9.281490593;-19.88243476;13.96143289;39.84914132;-0.306636603;-127.8483233;-10.80975181;-14.12081704;17.58566374;-24.37771365;1.965362154
11.04445023;22.26289818;-19.28131602;-10.57045896;9.198264935;-0.295444625;-0.683013874;-3.97572822;-8.170889898;-14.96379513;15.09512838;40.85730103;-1.415778184;-56.60809903;-13.96388691;-14.7907016;22.43725617;-25.25664231;0.690274052
8.014675201;15.3387092;-32.86382145;-9.415999795;3.351225518;-0.327780853;-2.5023762;-3.18538684;-2.950363925;-11.24090146;14.65938574;44.34527272;-0.668698051;9.248099516;-15.5567526;-15.27400674;23.03;-18.95155295;0.260204037
2.649100448;7.07048064;-49.76957178;-8.805979278;-3.475048268;-0.238931606;-3.477501876;-3.580342719;4.026970428;-10.45601269;12.88235652;48.77744958;1.113591489;42.17077093;-14.54395613;-15.76200436;18.86659894;-13.44840925;0.775785823
-3.396929116;-1.12589701;-64.84290311;-9.238023017;-9.924053674;-0.069615773;-3.701635983;-5.0367398;8.658479163;-12.9699042;10.81612939;51.58743183;2.890458761;37.56082125;-11.28739927;-15.20691667;11.51605244;-16.43228877;1.477773562
-8.287240877;-7.666520014;-72.31676415;-10.55510425;-13.96275276;0.061484583;-3.752988055;-6.867050295;7.878635284;-18.18786244;9.446614588;50.94608884;3.884018979;13.20597475;-7.060991105;-12.4580104;3.543939978;-28.84893394;1.59594059
-10.77637853;-10.77913379;-68.90413359;-12.04725617;-13.67855214;0.049051741;-4.049776682;-8.274616995;2.071182454;-24.74362817;9.015714243;46.99401144;3.758015237;-5.903254133;-3.147288151;-7.479460621;-2.808015834;-43.86437748;1.052737386
-10.58134643;-9.155810892;-55.85633993;-12.86889083;-8.773054719;-0.107001751;-4.477711521;-8.815440237;-4.926666205;-30.60699201;9.135679281;41.75937183;2.635392148;-5.538067318;-0.340196517;-1.642782401;-6.407531276;-52.02735551;0.400566357
-8.283789871;-3.034749583;-38.58119609;-12.5437289;-1.445570647;-0.2912736;-4.598808982;-8.603558725;-8.45169334;-33.64594826;9.48285823;37.92044677;1.05624349;9.938527155;0.952680742;3.092781876;-7.241437171;-48.40402458;0.160956603
-4.936667425;5.306335155;-23.85197877;-11.22922746;4.470440242;-0.360097656;-4.192311987;-8.153912116;-6.357185249;-32.71184221;10.31106053;37.28317893;-0.206362797;24.2954638;0.480811847;5.430951411;-5.94716441;-36.02110581;0.285138294
-1.616662894;12.47373135;-16.21142765;-9.572353513;5.867813021;-0.257814604;-3.580376816;-7.980359578;-0.488991465;-28.55187055;12.21583655;39.89083169;-0.559274882;23.99244477;-1.717639386;5.482815369;-3.331671137;-23.16056798;0.268988135
0.909260321;15.97131198;-15.77954868;-8.296146811;2.53891754;-0.065532751;-3.410556924;-8.224695196;4.857117238;-23.66411243;15.324526;44.16828385;-0.056726683;8.689971552;-4.928383562;4.533473133;-0.138506359;-17.04679459;-0.238032485
2.336439736;15.85438589;-18.7999192;-7.842440269;-2.635584145;0.059787247;-4.080339003;-8.572920676;6.262610524;-20.91462825;18.6990479;47.87560703;0.494911718;-9.843935877;-7.719417808;4.108505982;2.98039372;-19.07642534;-0.987928009
2.79173473;14.59909048;-20.44567835;-8.290850542;-5.800256305;0.007156149;-5.317533532;-8.512960067;3.67602831;-21.76021175;20.6455525;49.29044394;0.077006863;-18.23966494;-8.638313253;5.064906088;5.46737094;-25.0140947;-1.3317302
2.657357533;15.09337636;-17.92052489;-9.485561846;-4.963429554;-0.20420279;-6.287032314;-7.734881649;0.18261647;-25.33599292;19.86985611;48.04213101;-1.606232159;-12.13676584;-7.271284861;7.294849101;6.932880863;-29.28610707;-0.876870569
2.33582933;18.24320906;-11.80435857;-11.12216336;-1.320316369;-0.44357898;-6.13259836;-6.359873287;-0.606845262;-29.0648694;16.63118187;45.24410421;-3.536824091;1.510155257;-4.740286909;10.09583085;7.247330329;-29.39623629;0.057103625
2.080452471;22.14035774;-4.956107477;-12.66433437;1.96630505;-0.570240734;-4.510316964;-4.809799638;2.645796721;-30.31438801;12.91646068;42.87069181;-3.796713237;11.33343191;-3.032249331;12.7781246;6.549078609;-26.98746571;0.664477765
1.984990076;23.56187653;-0.060153523;-13.25225334;2.453448444;-0.533134651;-1.725828179;-3.413088134;8.213382365;-27.90406302;11.3421811;42.64563743;-0.911675227;11.06310112;-3.54981382;15.00209361;5.147545007;-25.34982843;0.373340953
2.110440446;20.67095177;2.243529056;-11.90066431;0.307680305;-0.393386784;1.541921866;-2.065294189;12.95084274;-22.50457629;13.47386271;44.99452341;4.802388721;3.638718201;-6.044026533;16.66793569;3.401177015;-26.14350787;-0.626860278
2.603400978;14.7452805;3.360833579;-8.059182854;-2.119813046;-0.263223791;4.62689571;-0.237422159;14.84053608;-15.88763928;18.75395537;48.69762173;11.02771596;-2.785215592;-8.86093132;17.60759061;1.656844337;-28.28698422;-1.569071434
3.649747483;9.482942276;5.156941262;-2.185091092;-2.52400075;-0.220893949;7.07377889;2.641543105;14.32468855;-9.776747509;24.83263343;51.58154109;14.75977965;-2.617222148;-10.32993804;17.48877777;0.2495796;-29.56115273;-1.837671113
5.251312727;8.365787992;8.257679142;4.21673533;-0.649385785;-0.269537129;8.61734647;6.701905105;13.51077378;-5.123985751;29.0890553;51.94708198;14.3406329;2.662256499;-10.11007813;16.1064726;-0.516669381;-28.94919761;-1.535423831
7.007104567;12.11783963;11.62818572;9.318823245;1.670053711;-0.35942881;9.136240394;11.41413832;14.16541727;-2.089310267;30.27501397;49.82993401;10.7120405;6.797387279;-9.329694627;13.81635337;-0.463119397;-27.36102682;-1.321154431
8.143353837;18.20994489;13.62206959;12.0530355;2.358248826;-0.437618632;8.72437994;15.79937762;16.30172154;-0.415415554;29.14807777;47.14049401;6.851426991;5.143804244;-9.426384506;11.63862396;0.345319522;-26.26849961;-1.659306972
7.875989783;22.72775325;13.45246557;12.72762037;1.072653754;-0.47636554;7.784131412;18.90999283;18.45512771;0.241026641;27.7156083;46.42060639;5.693612561;-0.948284651;-10.76414594;10.76813968;1.582158368;-25.90386031;-2.224548701
5.909416103;23.09500576;11.78117591;12.61460111;-0.506718793;-0.466063692;6.91342271;20.23279334;19.18155319;0.174831198;27.70016108;48.98260863;8.030938641;-5.61037287;-12.30062832;11.74245771;2.816216688;-24.9853201;-2.101094961
2.712149134;19.59007813;9.995037434;12.75663772;-0.305556657;-0.398896638;6.523134709;19.76384989;18.31096642;-0.439427849;29.33197613;53.7745907;11.95496791;-4.12148383;-12.60709285;13.91640511;3.767569771;-22.24934967;-0.668394837
-0.671641473;14.67587786;8.917987316;12.95847328;2.130363486;-0.273984649;6.444870302;17.78986958;16.86561951;-1.661736618;31.25582117;57.90067166;14.255748;2.628604889;-11.28705126;15.77690905;4.471854578;-18.1534403;1.636733073
-3.181787007;10.91030867;8.155953949;11.88244506;5.106418957;-0.121524803;5.926752982;14.63556992;15.86175218;-3.810685166;31.50536739;58.5294893;12.71443441;8.956757711;-9.456662766;16.0057895;5.202227119;-14.89068932;3.461012293
-4.294409902;9.185818168;6.638496429;8.298102228;6.237583426;-0.01121184;4.160163359;10.61235013;15.22701577;-7.185620387;28.79155351;54.84032022;7.577712154;9.610239441;-8.805147147;14.52648089;6.18232715;-14.54153233;3.572130137
-4.193363396;8.562345613;3.814302085;2.513616122;4.578829607;-0.017553257;1.006635155;6.168059583;13.89441247;-11.54397675;23.25142618;48.56989723;1.18750151;4.528009975;-10.06832487;12.64922708;7.306064214;-17.10306717;1.937941434
-3.488082724;7.54951885;0.375603865;-3.274321268;1.502327438;-0.158736904;-2.669120408;2.01372722;10.99112643;-15.76594702;16.29167288;42.7608701;-3.813966159;-1.192231438;-12.30994754;12.06959935;8.10032834;-20.36896316;-0.125755795
-2.752250265;5.581554193;-2.171074909;-6.201546003;-0.466708619;-0.36272921;-5.416221836;-1.00216521;6.996055099;-18.17540592;9.797844126;39.68198776;-6.240058594;-1.998926992;-13.68642554;13.44081289;7.991115048;-21.9003673;-0.946015825
-2.258300534;3.459391836;-2.724550739;-4.741179986;0.192353701;-0.502257624;-6.129691409;-2.279788452;3.732618569;-17.51652857;5.295376943;39.49507046;-6.774273389;3.100523392;-13.02371869;15.72287249;6.693814944;-21.27406115;0.168763801
-2.05878879;2.536702796;-1.527398065;0.032028422;2.762224783;-0.482868823;-4.810605027;-1.86839737;3.082684777;-13.95856306;3.497891221;40.59453212;-6.908609117;9.773878001;-10.79718979;16.99522691;4.439030901;-20.42461273;2.372571672
-2.227429791;3.471548362;0.002397453;4.979375558;5.033819902;-0.315786862;-2.563833586;-0.570907615;5.441052225;-9.30509075;4.295163549;41.18251005;-7.447853073;12.44712152;-8.655171426;16.2;1.862163905;-21.64560953;3.992386857
-2.933693888;5.616729673;0.411244684;6.946568056;5.302351049;-0.111618529;-0.83502902;0.374133853;9.19369191;-6.088584214;6.970885112;40.69646545;-7.86163669;9.404988604;-7.956275348;14.34200044;-0.358940391;-25.07982507;3.90912394
-4.21677542;7.49409553;-0.633564964;4.852069731;3.80177196;0.005358723;-0.485529011;-0.122907095;11.68944894;-6.082990681;10.45859611;39.94382787;-6.943855502;4.205579683;-8.671898935;13.90688817;-1.843016912;-28.14777825;2.440421736
-5.669756727;7.91229085;-2.103801599;0.294501861;2.33906433;-0.006937552;-1.400408655;-2.473316802;10.99108721;-9.259304615;13.6123814;39.97667893;-4.106465512;2.149575701;-9.630078125;16.66545871;-2.57606721;-27.66182083;0.996151272
-6.409446106;6.860689838;-2.418432997;-3.711315137;2.551784912;-0.083666172;-2.848597967;-6.203035835;7.113524719;-13.90296833;15.54306548;40.82402968;-0.147513814;5.12270818;-9.804630789;21.54350843;-2.698068151;-22.84969137;0.839334845
-5.50777297;5.577116099;-0.581601721;-4.852843193;4.428040737;-0.120769488;-4.190240142;-10.13752363;1.904843973;-17.74416141;15.95561683;41.26393714;3.152880262;9.647416992;-9.377170488;24.52721063;-2.231248323;-16.50665132;2.037020426
-2.645126638;5.812980397;3.243388335;-2.906755919;6.412784948;-0.075111419;-5.29682024;-12.86496421;-2.23341596;-19.23982597;15.26655666;39.84248567;4.240522879;10.04491358;-9.533818808;21.17035773;-1.02537931;-13.02501271;3.48105567
1.518595637;8.800344162;8.036402424;0.51222008;6.918959872;-0.007015424;-6.387662784;-13.28915738;-3.808952491;-18.15749349;14.31161724;36.21689981;2.796902865;3.891523587;-11.18198812;10.12336794;0.997125436;-14.81999479;3.903089388
5.609515615;14.50496178;12.6578244;3.426741064;5.783639469;-0.025341045;-7.552090228;-11.08971711;-2.930757975;-15.27234421;13.73222152;31.61461827;-0.208778063;-5.24385772;-13.83406654;-5.048177398;3.498325839;-20.20146406;2.95919555
8.318663688;21.51953287;16.3325419;4.910227218;4.324234119;-0.182748908;-8.489964641;-6.927468699;-0.957418935;-11.67943083;13.44364997;27.99189729;-3.341967648;-10.43783174;-15.79230025;-17.51487864;5.62400366;-24.60410419;1.45281195
9.150374071;27.63574411;18.60256856;5.380714081;4.007224139;-0.415601083;-8.73734275;-2.265438662;0.450535092;-8.356431805;12.62772068;26.62091035;-5.631734287;-7.259232322;-15.56551037;-21.4975843;6.339972384;-24.22649498;0.567449566
8.593662228;30.85872905;19.06415009;5.756404215;5.04435053;-0.585609714;-8.12825516;1.211212713;0.18277296;-6.161470184;10.3450848;27.31224831;-6.871935;2.296632462;-13.26469897;-16.21791367;5.0597245;-19.04430724;0.847934125
7.608304121;30.41524486;17.37619433;6.373961718;6.261916582;-0.590404697;-6.991423635;2.373468572;-1.983467177;-5.930019531;6.358748465;28.88341138;-7.209712315;11.30977347;-10.67522632;-6.45236179;2.13970999;-12.69223401;1.832817184
6.848618491;27.21759116;13.63126035;6.629041931;6.342915704;-0.447410594;-5.845134004;1.212976736;-5.545589156;-8.27644189;1.519293126;30.37068379;-6.578486056;13.63869461;-9.863943687;0.922817292;-1.160959772;-9.390576647;2.595661123
6.239243661;23.42022812;8.662894896;5.547953568;5.213426602;-0.276850887;-4.879467925;-1.209002347;-9.682400019;-13.13838506;-2.666150691;31.85643733;-4.602174275;8.8992066;-11.502969;1.926978399;-3.318389132;-10.57909491;2.622485911
5.213512252;21.19701713;3.800352299;2.671712482;4.196534638;-0.197808051;-3.777104736;-3.496277856;-13.67408303;-19.53967722;-5.038323097;34.19022966;-1.078305351;2.45045438;-14.3649091;-1.762853428;-3.408349987;-14.06825644;2.196044308
3.379672357;21.43987749;0.091083037;-1.551228681;4.733404603;-0.228418512;-2.13230652;-4.911257322;-17.21574871;-25.98381208;-5.633353931;37.92402895;3.449718688;0.528384145;-16.40859714;-4.436808579;-1.624656026;-16.26284871;1.976482562
1.040986862;23.28052988;-2.392409558;-6.127898952;6.863810168;-0.278435927;-0.126468269;-5.923986332;-20.544898;-31.32811696;-5.706424056;42.49929237;7.644152317;4.895288096;-16.46910157;-1.137564767;0.917041916;-15.38042712;2.245343212
-0.868971996;24.86689192;-4.490078125;-10.20806677;8.944912691;-0.241000931;1.219494021;-7.841568336;-24.29888664;-35.46089247;-6.869233399;46.47138736;10.00947949;11.67896614;-15.06647925;8.119734433;2.969484885;-12.86051758;2.581270042
-1.391794782;24.90572603;-7.091067841;-13.4597521;8.971767651;-0.10190903;0.602906397;-11.69768003;-29.10133955;-39.168028;-9.964742663;48.58543574;9.767793914;15.23971761;-13.69365644;18.0178882;3.989223263;-11.87763408;2.294119859
-0.219491095;23.80439198;-10.19331053;-15.91019444;6.36396897;0.032597125;-2.521717759;-17.19756328;-35.06949911;-43.24834458;-14.51683656;48.73091265;7.306862128;13.4048756;-13.33843169;21.78759151;4.422993492;-14.42375084;1.194308959
2.06616876;23.43685867;-12.77583495;-17.5924473;2.594741514;0.018481518;-7.260289391;-22.57396686;-41.57316794;-47.63190778;-19.14629425;47.92184437;3.884024408;9.281286426;-13.64915824;16.25007813;5.240420458;-19.5601064;-0.067861877
4.338845385;25.59645035;-13.69875166;-18.4761482;0.039078586;-0.200550586;-11.59924892;-25.58663117;-47.46838064;-51.30938204;-22.58540048;47.35395752;0.864236721;8.066608465;-13.48257509;4.160412976;7.06062365;-24.25738887;-0.468073512
5.570216682;30.30561457;-12.88157078;-18.76160621;0.013929678;-0.531260915;-13.59149605;-25.01904078;-51.69066134;-53.18833457;-24.46516705;47.43388207;-0.907927356;11.88823562;-12.22985185;-7.86754982;9.529080134;-25.92108819;0.503020965
5.314187621;35.39174644;-11.6442505;-19.12478209;1.724536369;-0.787319362;-12.54791277;-21.57934431;-53.79027885;-53.14637531;-25.26805735;47.67364963;-1.205387472;17.51631536;-10.57749051;-14.09724109;11.42899555;-24.33140371;2.326119366
3.770158483;37.81701565;-11.7391215;-20.46318062;3.035257904;-0.820450007;-9.341654474;-17.495652;-54.01545889;-52.32385737;-25.55606532;47.50056794;-0.094046439;19.17151656;-9.920097656;-13.33414193;11.47578679;-21.43406058;3.798105048
1.511767808;35.85135164;-13.76196203;-23.19326013;2.36482239;-0.622577908;-5.640202286;-15.05908287;-52.91950948;-52.33123945;-25.20263902;47.14051383;2.363956512;13.95317215;-10.96611628;-8.844598302;9.237488381;-19.41777918;3.957700238
-0.829018737;30.44430484;-16.29078071;-26.70059303;0.023862015;-0.322104509;-2.734218665;-15.17180839;-50.87514322;-53.99993789;-23.35535769;47.63935197;6.043753062;4.915137581;-12.89902674;-4.97856425;5.524781416;-18.9427211;2.801449968
-2.708610621;24.72677444;-16.61629829;-29.55104206;-2.157686228;-0.085043192;-0.905515846;-16.95547008;-47.94849617;-56.73040106;-19.22605911;49.9027999;10.42219133;-1.174668029;-13.97387106;-3.518363433;1.975481078;-19.02970866;1.195773888
-3.667596943;22.01877605;-12.63851703;-30.43987636;-2.521158906;-0.004236661;0.253389202;-18.65132102;-44.23161662;-58.99434071;-13.06774014;53.6138257;14.39492702;0.411471678;-13.07283231;-2.729009336;0.131999776;-18.45803821;0.106635633
-3.344047737;23.85054606;-4.489655093;-29.13742517;-1.039899773;-0.059012887;1.009065075;-19.04715154;-40.26810603;-59.56157274;-6.47659431;57.10199292;16.58332406;8.150312212;-10.79013671;0.400136759;0.647609698;-17.16357269;-0.150997348
-1.613245712;29.39339683;5.398890339;-26.59382089;0.737149698;-0.161211305;1.006670189;-18.29584458;-37.07322331;-58.42099014;-1.658202665;58.44290268;16.04294282;15.42840622;-8.991853962;6.956611439;3.117819216;-16.28644919;-0.010001793
1.221684464;36.4745783;13.83082732;-24.06792939;1.141394777;-0.233723789;-0.378535401;-17.53739379;-35.60342391;-56.67650211;-0.126948007;56.94254967;12.89580252;16.20174082;-9.190109696;14.84141755;6.546257524;-16.91969904;-0.087062247
4.377701983;43.09330513;18.74372902;-22.05763876;-0.128372359;-0.253182842;-3.19792341;-17.73897384;-36.07175416;-55.62212224;-1.79323928;53.73038584;8.397298915;10.25156601;-11.19810747;20.47073642;10.00933718;-18.85962236;-0.542553472
6.796614137;48.13788087;20.0026139;-20.06799635;-1.827904602;-0.233807071;-6.448007195;-18.79250989;-37.73087411;-55.88686777;-5.130488748;50.87869467;4.331278367;3.384428008;-13.31925108;21.80848091;13.01680556;-20.59758953;-0.969532297
7.534806522;50.95082387;18.62879863;-17.53061887;-2.396876935;-0.186405351;-8.528648934;-19.64543139;-39.40749423;-57.37509084;-8.302164728;49.71729317;2.09527004;2.310594988;-13.92757206;19.97776074;15.39536869;-20.56159155;-0.87592266
6.128209935;50.57422407;15.36736479;-15.06088212;-1.407341161;-0.102131763;-8.381999501;-19.32663661;-40.43007813;-59.89714739;-10.40967733;49.73501398;2.034336653;8.638439062;-12.99170748;18.05572982;16.94943598;-18.44158857;-0.250506637
2.748669839;45.80436821;10.01148048;-14.74405838;0.112043556;0.024395709;-6.39449715;-17.94946299;-41.20589446;-63.69767097;-11.95759748;49.00350722;3.387906409;17.28933501;-12.10783794;18.22048382;17.31386774;-15.41317877;0.361950776
-1.884492459;36.30403137;2.118957966;-18.84199741;0.733065879;0.164124549;-4.26263313;-16.78944259;-42.93925141;-69.21389113;-14.25917258;45.79503305;4.812187852;20.84156213;-12.96699912;19.88387892;16.18629253;-13.1520046;0.361020248
-6.742286794;23.79426036;-7.613725752;-27.72027826;0.02972915;0.25628498;-3.844692877;-17.32779675;-46.67402878;-76.22547245;-18.31371694;40.0703452;5.12902939;16.11401251;-15.6577708;20.5111593;13.72686501;-12.61773266;-0.315895019
-10.75614624;11.97783971;-16.76174719;-38.70731579;-1.011777474;0.251059694;-5.856074813;-20.04127294;-52.41037582;-83.28846385;-24.04576617;33.63157094;3.900271949;7.231002003;-18.41829204;18.34702432;10.70602512;-13.65937726;-1.088925708
-13.06288888;4.789952534;-22.17731397;-47.11323251;-0.959111174;0.154272088;-9.406406247;-23.9460247;-59.00490541;-88.23131099;-30.45162598;28.85225745;1.588528521;2.323762795;-19.15756212;14.47585071;8.163968183;-15.57554091;-1.240113475
-13.20919831;4.067942124;-21.95554027;-49.00446444;0.639830932;0.02843297;-12.704633;-27.2775752;-64.9382026;-89.55917139;-36.46034317;27.04831894;-0.71649361;6.474315726;-17.41685458;12.17774735;6.7749257;-17.8392461;-0.563359564
-11.27459473;8.439741799;-16.75287367;-43.83047352;2.720931888;-0.057040532;-14.34068591;-28.74698267;-69.34668583;-87.68661336;-41.77925038;27.77524244;-1.863170274;16.8369311;-14.95935331;13.97282527;6.414098752;-20.19387003;0.452957394
-7.832927559;14.42397473;-9.26503498;-34.91360897;3.584317162;-0.084773472;-14.14682708;-28.35477547;-72.53248315;-84.88446801;-47.05897524;29.49116394;-1.254243847;24.21113024;-14.35333098;18.93176142;6.321227867;-22.18207419;1.092589344
-3.71239256;18.99891551;-2.185821519;-27.32255465;2.407008864;-0.103928454;-13.05250549;-27.14753812;-75.61358679;-83.80757935;-53.2847689;30.88615037;0.770291905;20.05030863;-16.72919023;22.79;5.794796728;-22.91893932;1.099020574
0.354912463;21.67364495;3.701128557;-24.61446703;0.019780138;-0.184821802;-12.18769332;-26.20695729;-79.6557377;-85.66609465;-60.90237399;31.72230771;3.020009766;3.387104891;-20.70032469;21.07568921;4.896213151;-21.70612582;0.939207001
3.987236471;24.44754686;9.678451796;-26.78794218;-1.750263985;-0.352429616;-12.04372163;-25.78649518;-84.97168003;-89.46784891;-69.3570884;32.58522818;4.048824639;-17.83712784;-23.4664484;12.80504751;4.575759221;-19.07076269;1.38282733
7.135517038;29.72447187;17.31421327;-30.83845078;-1.578120836;-0.557657673;-12.33955616;-25.32914727;-91.04047637;-92.93106593;-77.37296202;33.94977129;2.988081589;-32.09944738;-23.1903945;1.636324227;6.037721769;-17.07149715;2.768975069
9.810950851;37.88050714;26.22042867;-33.30726107;0.339921821;-0.712112922;-12.56710865;-24.28626632;-96.95039694;-94.3144721;-83.73569535;35.50483877;0.120776595;-32.1433444;-20.57115033;-6.650671059;9.748122866;-18.14823533;4.628279627
11.78609486;46.43119429;33.30777472;-32.7652174;2.587047852;-0.755724188;-12.6172889;-22.93071028;-101.899815;-93.67698937;-88.00205477;36.33276278;-3.226743489;-19.44813231;-18.19957733;-8.45313237;14.80497094;-23.15682528;6.013593598
12.53873411;51.43335618;34.35033227;-30.40116859;3.779363218;-0.698377734;-12.89439005;-22.35420558;-105.3819443;-92.58654092;-90.66041639;35.69388262;-5.485171203;-2.315415511;-18.22590587;-4.994757741;19.18212757;-30.25197417;6.255291603
11.5208085;50.00410729;26.81929943;-28.52808633;3.595772338;-0.601982227;-13.85;-23.56427706;-107.0724269;-92.60973091;-92.68478213;33.63376489;-5.840677322;10.43927769;-20.37903225;-1.179913296;20.76327547;-35.84428921;5.480203212
8.56362145;42.07345747;11.88844245;-28.47618186;2.716381488;-0.523842732;-15.4076789;-26.42224689;-106.7241429;-93.90952724;-94.82855395;30.87075693;-4.734610371;15.15885895;-22.1044619;-1.574907285;18.53113899;-37.14894514;4.454516255
4.106169805;30.24255726;-5.890973129;-29.66608121;1.884892299;-0.475171474;-16.83088205;-29.37061922;-104.2910625;-95.12261018;-97.1282535;28.14964778;-3.479218004;14.43294824;-20.74891946;-6.764727039;13.1624917;-34.32623376;3.918454627
-0.931859875;18.14685232;-21.00201139;-30.47305114;1.117445051;-0.430233624;-17.17254515;-30.29143891;-100.1735776;-94.54897526;-98.89887815;25.73945836;-3.245570553;13.58699077;-15.92389439;-12.99806688;6.671018503;-30.34328968;4.015854086
-5.531197347;8.709715741;-29.72983599;-29.90090992;-0.142904876;-0.37081083;-15.93035395;-27.91453287;-95.26230522;-91.56806712;-99.17438369;23.55;-4.169158424;15.96421473;-10.00646687;-15.3267263;1.348201431;-28.51908575;4.298951948
-8.926007096;3.400120084;-31.46506793;-28.465805;-2.130953097;-0.316581785;-13.37360414;-22.72310232;-90.59345028;-87.05458017;-97.29744255;21.67387949;-5.251736338;20.71483114;-6.336321422;-11.61159363;-1.342115968;-29.73313613;4.242803647
-10.71712972;2.513676588;-27.98758237;-27.52415543;-4.114849388;-0.307534447;-10.31255435;-16.67505663;-86.79873581;-82.48866557;-93.3137213;20.7041039;-5.137342408;24.24950578;-6.639309341;-4.127953893;-1.301532643;-31.6766929;3.751327476
-10.7761764;5.672607562;-21.68055153;-27.75947391;-4.780583782;-0.354718925;-7.549916786;-11.96522385;-83.77826077;-78.60639901;-87.96499779;21.39966531;-3.166640693;23.52373507;-9.836102437;2.458454337;0.4376006;-30.85096866;3.188249787
-9.14758438;11.89038202;-14.16975344;-28.321354;-3.399661594;-0.41152534;-5.471949257;-9.75808151;-80.89131322;-74.81265972;-82.3054449;23.95260703;0.096063494;18.30441457;-13.161611;4.976009681;2.456149826;-25.65854542;2.94874748
-6.097306216;19.36852829;-6.175066591;-27.49465727;-0.688274461;-0.402564017;-4.047152096;-9.771184053;-77.54347547;-69.87677979;-77.16912861;27.58525762;3.245290385;10.95851161;-14.53798992;4.236765499;3.707564881;-17.95052731;3.029058021
-2.229596403;25.73838228;1.829071294;-24.33428615;1.553236735;-0.292557174;-3.11615038;-10.86595013;-73.70984775;-63.28769828;-72.7967306;30.96942173;4.997876875;4.51629606;-14.14381035;4.081261002;3.897158339;-11.68555348;3.033918535
1.558950163;29.09880203;9.137747583;-19.7436475;1.839565109;-0.133992862;-2.634464123;-12.02505914;-69.97277971;-56.05720811;-68.83677641;33.20014852;4.987757963;0.854589741;-13.92794673;7.792310002;3.382370272;-9.831837584;2.614842925
4.412577437;29.25820331;15.07697089;-15.89357789;0.25163845;-0.043021794;-2.643162375;-12.89180175;-67.03755488;-50.21947042;-64.70508573;34.48283925;3.835356313;0.199100693;-15.65226225;14.85757093;2.771140988;-12.14202688;1.895794831
5.967154457;28.04898699;19.62501051;-14.34353004;-1.604027638;-0.113025121;-3.045580784;-13.53563193;-65.09652442;-47.37022438;-60.04532468;35.8782554;2.549580963;1.736338494;-19.27151225;20.7935423;2.503913979;-15.64014471;1.441888354
6.549329846;28.12310241;23.54914791;-14.46055237;-1.965401229;-0.333027547;-3.462310742;-13.82952982;-63.51533719;-47.3897777;-54.95269151;38.27377587;1.824659674;4.364005568;-23.03907667;20.30024333;2.637857075;-17.28744175;1.765226862
6.882879001;30.9180894;27.67081444;-13.6168773;-0.457783549;-0.581089051;-3.353969411;-13.15075787;-61.06072862;-48.35377164;-49.78954052;41.47484966;1.781138717;6.986480511;-25.12050472;11.37422676;2.898310359;-16.4416212;2.819808158
7.459250013;35.37523819;31.80765311;-9.211716231;1.540916738;-0.704888199;-2.342995906;-10.78433099;-56.51178876;-47.70984296;-44.74334598;44.25322254;2.231998795;8.577388649;-25.18221362;-2.760058594;2.920322177;-15.01200158;3.971966222
8.063487034;38.58875853;34.42921929;-0.98598918;2.054287771;-0.630344064;-0.481647389;-6.725876812;-49.28576875;-43.860929;-39.51254356;45.35927191;3.083436047;8.49078006;-24.54519789;-15.39288204;2.52599276;-15.33764714;4.501961785
7.88999158;38.06;33.5698794;8.276124705;0.196278813;-0.414703731;1.739931179;-2.148296661;-39.7676322;-37.06608722;-33.44148786;44.63076094;4.428298715;6.985388486;-24.86305475;-20.51048033;1.881500281;-17.83893984;4.197356933
6.226227524;33.83911591;28.44082323;14.37017316;-3.055202599;-0.203988697;3.640480791;1.0031329;-29.2367769;-29.14548933;-26.07153903;43.20674;6.271134394;5.341944163;-26.60695032;-16.4590831;1.441629514;-20.60431238;3.506187287
3.183564285;28.78007813;20.44404033;14.50163579;-5.644486706;-0.129598499;4.668659143;1.140714905;-19.45449346;-22.33161927;-17.69604281;42.62130954;8.242909489;5.102743406;-28.73185841;-6.634703652;1.698053165;-21.22;3.117975952
-0.149564892;26.56104897;12.62328501;9.218795671;-6.077390917;-0.223335384;4.612647683;-1.869565247;-12.05103382;-18.08849018;-9.430365812;43.54094416;9.699090294;6.822836513;-29.74260671;3.047282405;2.858838391;-19.06341127;3.360835597
-2.334464597;28.91448442;7.788418323;2.00059495;-4.50847936;-0.40987954;3.637291113;-6.450436151;-7.896384108;-16.5642772;-2.643203149;45.23667536;10.2019528;9.415557822;-29.08991084;7.941105402;4.641858917;-15.88007813;3.958644591
-2.560198151;34.19949984;6.648918942;-3.168785269;-2.417771888;-0.571680695;2.198468598;-10.1310496;-6.701117492;-16.80626948;1.894202481;46.24441523;9.948800578;10.86718961;-27.58876307;7.11414089;6.320185859;-14.10226147;4.343339154
-1.226795946;38.44114368;7.365304983;-4.41315127;-1.279123253;-0.628527456;0.894901301;-10.92459863;-7.097628355;-17.41366975;4.51466408;45.62383893;9.673969453;9.911802038;-26.53243739;3.057318112;7.02433814;-14.50990436;4.198514461
0.331263724;38.05782407;6.88274185;-2.881095578;-1.451787874;-0.57344195;0.274582387;-8.372799613;-7.274781208;-17.19914179;6.41355422;43.70855199;10.00632425;7.265175946;-26.41370856;-0.702904351;6.157769145;-15.48422208;3.712477186
0.777333258;32.22936339;3.075035563;-1.44520234;-2.21266973;-0.451371902;0.617225167;-3.621537062;-5.896512403;-15.59857928;8.821429424;41.71096005;10.81073672;5.233266363;-26.49700693;-2.128078038;3.710183636;-14.63293052;3.322071587
-0.355232908;23.21758385;-3.843908363;-2.33094064;-2.737985778;-0.313797634;1.784810129;1.430875043;-2.759844841;-12.77139833;12.21192354;40.5795559;11.15352752;5.875386304;-25.62975972;-1.569316183;0.304600938;-11.31984586;3.232928017
-2.498415354;14.59328934;-11.56939598;-5.508471892;-2.992324623;-0.191698353;3.272248697;5.275678722;1.275733274;-9.430473801;16.1334872;40.17107817;10.04216854;9.235811807;-23.47635163;-0.699598212;-3.044111758;-7.692413198;3.215551903
-4.651154788;8.888167114;-17.27824983;-8.93967035;-3.659236476;-0.100196628;4.49719959;7.477672665;5.080620915;-6.473002806;19.74638861;39.49584183;7.386868196;13.20896967;-20.95298881;-0.615021697;-5.335695517;-7.085563743;2.890691801
-6.193585167;6.451486775;-19.2849942;-10.28924489;-5.237616843;-0.053942095;5.17444516;8.553223304;8.204456153;-4.542812821;22.58360633;37.79985794;4.345894721;15.2354828;-19.4135809;-0.743819391;-5.961746255;-11.07013199;2.210839956
-7.233948833;6.144589504;-17.6615534;-8.674684648;-7.265225161;-0.066324361;5.498159834;9.275542013;11.24276795;-3.727575264;24.90614645;35.46841899;2.657324734;14.41111215;-19.34661343;0.55494507;-4.8890959;-17.74746882;1.620577412
-8.257013607;6.983730696;-13.63558676;-5.176267697;-8.515611023;-0.130142468;5.958341761;9.985663986;15.29793924;-3.569920078;27.40518717;33.88554847;3.404907331;12.18421431;-19.83947969;4.209667744;-2.5844498;-22.91854514;1.675686384
-9.463240722;9.198001761;-8.507771756;-1.906722255;-8.06356551;-0.203991382;6.905633438;10.39217099;20.93552752;-3.393886728;30.57264993;34.33175602;6.199886303;11.02759204;-19.37051604;8.96589472;0.26686514;-23.28610839;2.449597135
-10.43938983;13.84261911;-3.017956969;-0.519094446;-6.238312399;-0.228159715;8.215049481;9.929589809;27.4802692;-2.726630842;34.31854334;36.88862943;9.48685172;12.2487905;-17.24310017;11.58721369;3.104536024;-19.05031409;3.320113398
-10.47602998;21.42828526;2.498806419;-1.297431163;-4.525889604;-0.16546779;9.351602581;8.339151964;33.26030208;-1.525064838;38.14485497;40.33161297;11.77781564;14.86383762;-14.34587016;8.896842126;5.723749602;-13.72788018;3.420591318
-9.246314822;30.85292899;7.588895454;-3.348320704;-4.422975062;-0.034304944;9.812452745;6.015058074;36.6562692;-0.08007843;41.65515673;43.11041131;12.8250417;16.51247927;-12.50795271;0.394558327;8.264582649;-11.36346005;2.413091576
-7.221831809;39.61330247;11.47222302;-5.510331177;-6.217750062;0.097728392;9.580790955;3.873200143;37.16271853;1.269865237;44.88347489;44.53630472;13.74912452;15.57913482;-12.99011218;-10.46795509;10.9579031;-13.47297867;0.881832936
-5.425247483;45.17259864;13.42195662;-7.157016189;-8.773027604;0.159342015;9.188236513;2.860541961;35.67317688;2.365871076;48.13642238;45.11393011;15.98181735;12.62617942;-15.44263313;-17.58610529;13.78070411;-18.19570958;-0.074718667
-4.705136189;46.42418423;13.36306248;-8.342686506;-10.50887067;0.125833026;9.307826031;3.46401738;33.84993824;3.269268224;51.54846937;45.74974104;19.8844636;9.885736009;-18.24010599;-15.63295967;16.26437229;-22.17372162;0.232708636
-5.145383947;44.16061056;12.06309359;-9.377539697;-10.72144942;0.034610223;10.21827366;5.54112497;33.16351146;4.204057284;54.85232338;46.62397117;24.21851807;9.303507238;-19.85931636;-3.599116978;17.63747454;-23.38076907;1.434629968
-6.111083185;40.27882313;10.64388897;-10.34263002;-10.09234814;-0.044628928;11.61273471;8.533050308;34.35513138;5.551007547;57.65162094;46.85425704;26.97862385;10.9033665;-20.04412348;13.92530462;17.27085387;-22.47300671;2.333133634
-6.881083007;36.40707499;9.772182411;-10.96851964;-9.983093381;-0.058776366;12.92997912;11.84383054;37.57206996;7.875901077;59.94056092;45.36290768;26.97361396;12.90858988;-19.74404576;28.82466386;15.15307492;-21.69980084;1.871272034
-7.308624756;32.98339353;9.208957106;-10.8847353;-11.18844666;-0.000596923;13.90917684;15.08192153;42.75514721;11.78133911;62.28155991;42.20566396;24.88210246;13.44423939;-19.98291944;33.84;12.04357184;-22.59681396;0.037168398
-7.930748512;29.36524011;8.11466297;-9.92492617;-13.26373456;0.099076916;14.84416667;18.01706668;49.67714227;17.43672383;65.30636583;39.07896356;22.88;12.23290621;-20.81188109;26.62189121;9.130078125;-24.63354944;-2.080607034
-9.430707506;24.74349265;5.865447461;-8.207727457;-14.97381521;0.200787086;16.2671616;20.37035769;57.51840485;24.00157134;68.875255;38.33874121;23.06135347;10.75327332;-21.38908791;10.92954118;7.363934996;-25.9474225;-3.157330571
-11.92271298;19.1039788;2.695820573;-6.001331554;-15.38693968;0.278035842;18.32156982;21.70911644;64.52986769;29.48896886;71.69588052;41.15925733;25.84952986;10.77208302;-21.10699131;-5.731602118;6.911918634;-25.31813311;-2.694754007
-14.68588252;13.55070851;-0.372960364;-3.597644277;-14.60090623;0.316828293;20.41305826;21.62779553;68.46236752;31.50143242;71.95876277;46.31991402;29.63471253;12.64443783;-20.61330173;-16.44088865;7.121414535;-23.45128509;-1.38529469
-16.5935264;9.81778257;-2.258135592;-1.357027447;-13.50133336;0.305151696;21.53210086;20.12614751;67.80252998;28.63945742;68.69864119;50.73958213;31.93300033;14.95221784;-21.58322416;-18.37949443;7.03995627;-22.37847781;-0.482624302
-16.89829202;9.329606323;-2.590078125;0.172006419;-12.8820865;0.233600767;21.05698705;17.86823169;62.98175358;21.68741834;62.84413794;51.52;31.19402756;15.78533598;-25.2436679;-13.48037292;6.112250942;-23.57563181;-0.737370486
-15.74313858;12.39091086;-1.902918434;0.315185519;-12.81568074;0.111699123;19.37814459;16.02757334;56.47227527;13.57814555;56.98542758;48.01134393;27.90164605;14.45472557;-30.90194227;-6.220471574;4.527885433;-26.56350056;-1.815680778
-14.0067094;17.94764566;-1.105952139;-1.354002271;-12.84265548;-0.019310496;17.7680407;15.7119907;51.42789857;7.885769755;53.83155845;42.31565643;24.17747276;12.05547648;-35.91306258;-0.428350737;2.954130389;-29.25212343;-2.675432898
-12.63852304;24.01978485;-0.698738737;-4.525751203;-12.69733777;-0.100082397;17.52308134;17.30833113;49.73187733;6.723042541;54.42294244;37.8149976;22.23871104;10.39148213;-37.37942518;2.66090719;1.87632605;-29.6615988;-2.531547756
-12.02691739;28.56979126;-0.392018748;-7.967503454;-12.74769589;-0.092290803;19.02665161;20.20961566;50.93150492;9.516405838;57.47249983;36.8128974;22.88322392;10.29467536;-34.35803789;4.121955211;1.097293526;-27.43975045;-1.544927408
-11.86533294;30.37033733;0.553339838;-9.936728167;-13.62806388;-0.012998046;21.48289723;23.15582378;52.93066803;13.60831156;60.39246107;39.03061112;25.0740123;10.90965028;-28.78682399;5.596289889;-0.163547938;-23.89026469;-0.6445876
-11.54392579;29.43691607;2.552997995;-9.07674313;-15.39098011;0.070095367;23.54;24.98367577;53.88983709;16.28988754;61.23231952;41.99944219;26.81386511;10.58698292;-24.27941645;7.736352774;-2.613689206;-20.66767355;-0.67397921
-10.68771904;26.80756995;5.125620103;-5.28057082;-17.06212086;0.086875563;24.29575334;25.27092204;53.73737102;16.73434767;60.00194487;42.93602923;26.56262288;8.518242718;-23.63489753;9.946635199;-6.189788762;-18.48235646;-1.635876789
-9.415338412;23.81140357;6.990278387;0.056564237;-17.17586798;0.021086625;23.87161315;24.43192623;53.98343092;16.33618321;58.34383982;40.63451113;24.15524989;5.563766051;-26.95475109;11.23690674;-9.905153661;-16.99210093;-2.689726491
-8.190994105;21.28487118;6.784569093;4.630696609;-14.94879744;-0.073222784;23.11876769;23.23679163;55.98700745;17.20807063;57.88246527;36.0353821;20.67203533;3.495537059;-31.78025349;11.13829754;-12.41792305;-15.77338036;-2.867051183
-7.483211759;19.24495115;3.899088427;6.378021583;-11.0740031;-0.113108866;22.75601379;22.16699413;59.23537939;20.07848185;58.68763411;31.24146904;17.52811953;3.368243865;-35.06245979;9.864184476;-12.92101798;-15.16942905;-1.848744535
-7.531485148;17.22152317;-1.126794312;4.538739663;-7.358088044;-0.055132417;22.70720221;21.13169173;61.28915709;23.3473858;59.19248632;27.90786428;15.5428883;4.544905289;-35.37609572;7.836973262;-11.68174105;-15.99263239;-0.139859441
-8.331399419;14.96349408;-6.858476756;0.043168771;-5.409288068;0.0654343;22.20720832;19.75223091;59.64791569;24.13981287;57.65629273;26.25310287;14.61171262;5.286054286;-33.70400781;5.350232274;-9.817555654;-18.32850432;1.444493047
-9.714874682;12.9275259;-11.64616651;-4.977886537;-5.446271001;0.158615363;20.56288996;17.93094304;54.04594219;20.56899103;53.90247318;25.28475042;14.04853877;4.350952565;-32.34544369;2.858938719;-8.485172501;-20.76184992;2.456892701
-11.36724095;12.10655388;-14.31003906;-8.275245325;-6.240108785;0.148780514;17.88442099;16.16370767;47.13160797;13.40916992;49.76361522;23.83587343;13.18919569;2.12615715;-32.97508848;1.517184705;-8.109942941;-21.09075729;3.042766438
-12.79539339;13.28181043;-14.5285556;-8.582251884;-6.245993554;0.032899428;15.13346759;15.26259232;42.70830536;5.81897463;47.72322268;21.48317817;11.7808238;0.257594377;-35.41514726;3.070135527;-8.232408799;-18.16381631;3.576305376
-13.41976307;16.2785287;-12.88400482;-6.190445098;-4.95710222;-0.118430272;13.43081894;15.67017732;42.77999797;1.293573228;48.79786896;18.69255685;9.981199668;0.170715004;-37.94973899;8.690300862;-8.047055691;-13.219752;4.141436877
-12.89433234;19.8502033;-10.67085718;-2.748091937;-3.324131388;-0.215559076;13.20381499;16.94342735;45.80662137;1.404596838;51.43861219;16.26393321;8.128347613;1.885542192;-38.72858915;17.47;-7.16714727;-9.311863997;4.411052304
-11.49350629;22.34277257;-9.542755153;-0.41385603;-2.898135536;-0.213473777;13.88486174;17.90984788;47.75783416;5.002424525;52.48497177;14.67330318;6.537819177;4.208725698;-37.05382389;25.96432142;-6.001289085;-9.022506955;4.048257643
-10.20817693;22.6725153;-10.99732773;-0.794565145;-4.455088077;-0.13439965;14.39633336;17.47808926;45.31984442;9.354025566;49.5475304;13.85228961;5.434022871;6.034820648;-33.63787498;29.62468759;-5.470782102;-12.29776245;3.206272964
-10.31331368;20.9033333;-15.74693412;-4.184564267;-7.288799285;-0.037444584;13.99660081;15.52421152;38.76417612;12.18944767;42.97686379;13.45916909;4.93521615;7.415703538;-29.86541365;25.47520514;-6.329074198;-16.32413433;2.577740668
-12.57259945;18.04059113;-23.20739845;-9.469799398;-9.759678294;0.031899248;12.78333924;13.14089803;32.10062785;13.04460658;35.81716444;13.26198413;4.986299564;9.304123458;-26.82556118;14.19581832;-8.628445156;-17.7151704;2.870126578
-16.607321;15.28495182;-31.46313019;-14.72443545;-10.60584989;0.067599486;11.47393518;11.97481271;30.21154562;13.01963039;31.68384724;13.23212896;5.266697054;12.22229621;-24.85672076;4.82722E-05;-11.70949965;-15.26416688;4.157292388
-20.93445012;13.37444913;-37.92261949;-18.16509312;-9.902562815;0.08775833;10.70748969;13.07252544;35.07755785;13.42440374;32.12903651;13.28938759;5.21861359;15.24721938;-23.74345643;-11.72301915;-14.64697382;-10.94351259;5.721915568
-23.73225388;12.47175692;-40.46453346;-18.93378961;-8.901981551;0.101190919;10.49521051;16.06789038;44.00817918;14.60340913;35.4794201;12.99577072;4.290469737;16.4909353;-23.15344374;-17.34679256;-16.75774797;-8.272114925;6.581978876
-23.85151902;12.51185578;-38.46832078;-17.28891794;-8.952581061;0.09279295;10.27534724;19.333509;51.30495661;15.89809101;38.02238667;11.55068082;2.296788615;14.81474299;-22.86107175;-16.49206581;-17.81444949;-9.422465617;6.266104196
-21.39497541;13.52516622;-33.07722976;-14.15667413;-10.43322673;0.041899174;9.480896654;21.02416846;52.16469609;16.60568364;36.65594117;8.17486926;-0.359873109;11.19680353;-22.68248787;-11.27974295;-17.92403548;-13.53205066;5.154773365
-17.50722493;15.55771461;-26.47564711;-10.40817465;-12.54605774;-0.047199218;8.089859124;20.28077264;45.93329258;16.92689156;31.06137128;2.635842119;-2.815059042;8.296116324;-22.38385748;-4.37161476;-17.30901119;-17.63668708;4.082732037
-13.59876317;18.30096091;-20.61406486;-6.394582134;-14.0436727;-0.136202368;6.665647858;17.74100813;36.35292603;17.97954873;23.86820134;-4.461476442;-4.194380835;8.338852641;-21.78632896;2.39785417;-16.22676347;-19.35399688;3.566371563
-10.60201672;20.92345708;-16.20576925;-2.055442737;-14.22118151;-0.177649298;5.852133763;15.01234755;28.74113829;20.84312859;18.77722384;-11.83995574;-4.128187735;11.09773941;-20.980471;7.872736232;-15.02639459;-18.92322042;3.364289363
-8.739207399;22.46425394;-12.62979919;2.545747193;-13.38619873;-0.152459649;5.757029646;13.51864587;26.2842844;25.46870515;18.03067573;-18.09700837;-3.007037269;13.86556394;-20.3637555;10.64700744;-14.14298772;-18.80037375;2.774710506
-7.807399218;22.59267081;-8.721712716;6.764246226;-12.53733804;-0.085944935;5.747052292;13.56680851;28.13060266;30.39907908;20.96273797;-22.33563542;-1.821376145;13.67073048;-20.3660793;8.927936586;-13.88563454;-21.19702438;1.391870907
-7.582511819;22.07987454;-3.8064493;9.460850623;-12.61770569;-0.027993492;4.836515134;14.28029996;30.46822061;33.55524499;24.49832337;-24.55051616;-1.687075236;9.934735822;-21.07403153;1.90790321;-14.13565316;-25.79922143;-0.389808431
-7.947557849;22.44079058;1.791482528;9.659895323;-13.93815727;-0.01608331;2.38076947;14.38141636;29.54150058;33.49235232;25.12712486;-25.57736755;-3.325446033;5.197256034;-22.12406908;-8.431468276;-14.25891554;-29.76521533;-1.615296578
-8.713633361;24.86268239;7.054712088;7.299430973;-16.09703023;-0.053664853;-1.433583328;13.18617588;24.30273182;30.21892064;21.01625792;-26.625893;-6.751968969;3.083853399;-23.00908913;-17.13048246;-13.42377535;-30.08478378;-1.564265303
-9.452494674;29.19374392;11.02678258;3.443019846;-18.29833517;-0.11874952;-5.634854021;11.06167424;16.92218369;25.08880444;13.01252217;-28.61241937;-11.28369048;5.113966894;-23.53556667;-18.72245159;-11.16483416;-26.26336597;-0.394019343
-9.651299044;33.82467439;13.33688756;-0.306635877;-19.76830242;-0.187312324;-8.988101688;9.047022706;11.08534058;19.98573443;4.092890634;-31.62047953;-15.82003906;9.112119566;-23.99168762;-11.06263957;-7.760753297;-20.94862191;0.958764578
-9.139749713;36.6508207;14.11287329;-2.815654398;-20.06164231;-0.244506699;-10.63149871;7.990397278;9.509292498;16.42794915;-2.272431738;-34.78996627;-19.26453912;10.76036346;-24.84378398;2.4468715;-4.086656166;-17.87025293;1.548851048
-8.383980984;36.45659724;13.51263626;-4.080528538;-19.21406635;-0.275081156;-10.44830483;7.905900651;12.38926911;15.08588512;-3.890732838;-36.74222663;-20.93242513;7.157310645;-26.24041209;14.47418812;-1.024804016;-18.79773332;1.194995924
-8.264458542;33.71556178;11.46935923;-4.988573511;-17.73256232;-0.252287469;-9.012562056;8.05017121;17.57581897;15.78095538;-0.86188978;-36.34979485;-20.80099752;-0.586346361;-27.81695453;18.59421894;1.085972048;-22.1022163;0.581779604
-9.387496832;30.24117389;8.010193179;-6.32786595;-16.36346118;-0.150172284;-7.206862052;7.633452919;22.05093954;17.74162732;4.601956654;-33.4198673;-19.49324326;-8.021886941;-29.02464099;13.93521655;2.486169129;-24.1654253;0.617368706
-11.45298727;27.99031818;3.86621883;-7.852273634;-15.63807757;0.022060532;-5.754942127;6.571143581;23.60845326;19.91437934;9.411240666;-28.86301559;-17.97539907;-10.90581382;-29.69071186;5.938103319;3.486042573;-22.46369212;1.630172131
-13.2632097;27.90997337;0.647241814;-8.250553307;-15.42253419;0.197538589;-4.90737643;5.6409791;21.81340971;21.28984925;11.25049233;-24.21263521;-17.08694547;-8.724382508;-30.24994178;2.28522394;3.896091688;-17.7392567;3.110881922
-13.49084187;29.58513688;0.092760035;-6.191076437;-14.86831411;0.27690468;-4.41925814;5.870262744;17.94078677;21.24336177;9.778961042;-20.77929108;-17.13957906;-5.200101266;-31.35836482;6.855962898;2.994814313;-13.44915123;4.196861962
-11.68277692;31.76862987;2.725858966;-1.700474315;-12.98408328;0.197905821;-3.820621436;7.589814631;14.14180362;19.76236342;6.699529854;-18.97498625;-17.81551919;-5.224447124;-33.18651946;16.36463208;0.186101465;-12.96632407;4.427604123
-8.707875811;33.25077604;6.955060718;3.275783479;-9.538903324;-0.002172584;-2.835429982;9.89049908;12.31532758;17.35649426;4.61808393;-18.22885669;-18.42955544;-10.65365293;-35.04573886;22.51098967;-4.156721196;-16.85062254;4.081426611
-6.231379066;33.43894629;9.587529865;5.784693333;-5.578744584;-0.191947007;-1.69986459;10.96572597;13.16291622;14.61723285;5.358004604;-17.50883321;-18.38632767;-18.4285956;-35.76317545;18.27511816;-8.449490511;-22.38515132;3.819739469
-5.552824225;32.42629953;7.741557383;3.794902209;-2.972743388;-0.231829732;-1.14483939;9.188036051;15.82434079;11.7215905;8.795959701;-16.06273696;-17.53419716;-22.6425349;-34.56724534;3.662570978;-10.6530098;-25.65883621;4.015689724
-6.674673989;30.7772917;0.965887925;-2.197337562;-3.141537064;-0.082481877;-1.990114142;4.208705458;18.31313856;8.321655971;12.98922236;-13.88989121;-16.19923859;-18.98321634;-31.7566478;-13.56424124;-9.608202561;-24.42794351;4.421436598
-8.327037035;29.3336485;-8.034075416;-9.155016214;-5.897182359;0.15253704;-4.573945294;-2.696080714;18.6174385;3.99381765;15.48781639;-11.70085518;-14.92268466;-8.056223018;-28.56343146;-22.91726732;-5.964831622;-19.49662917;4.482857204
-8.948366961;29.06816158;-14.8359658;-13.27825458;-9.412184829;0.294527346;-8.415658668;-9.312310123;15.89507979;-1.097598939;14.87467604;-10.49479614;-14.13534921;4.984177845;-26.28987464;-18.36101913;-1.913033102;-13.72265979;3.977412145
-7.880692468;30.77432448;-16.12414131;-12.44785412;-11.51725245;0.223901591;-12.40135216;-13.77145717;11.00100716;-5.961522526;11.42612138;-11.08563837;-14.01562092;14.11190514;-25.41861633;-2.390014648;0.20150089;-9.721700281;3.332687045
-5.870803792;34.50777854;-11.99176479;-7.635982191;-11.40003906;-0.023003148;-15.41838188;-15.5696392;5.923139964;-9.32465768;6.499944168;-13.82412983;-14.59003906;16.47983137;-25.41424006;15.89022163;-0.585070884;-8.243318037;3.283928465
-4.508306209;39.0969984;-6.044251115;-2.247956493;-10.31393106;-0.275044548;-17.00234419;-15.64584444;2.455299529;-10.62328475;1.291234503;-18.5349336;-15.91428585;13.80045022;-25.3327029;27.09249864;-3.300370893;-8.372832739;4.168207175
-5.046734251;42.26700204;-3.129389304;0.183796909;-10.60462523;-0.352989486;-17.51096424;-15.50955819;1.055524101;-10.59766359;-3.913171593;-24.55367485;-18.11003906;10.29889552;-24.66769839;27.55435827;-5.881789517;-9.020933626;5.525571559
-7.503925764;41.61896438;-6.217642777;-1.652455357;-13.73250863;-0.202761646;-17.68716628;-16.07768069;0.764628591;-10.8425794;-9.345297199;-30.80669962;-21.18501414;9.182034337;-23.69822961;20.81088947;-6.771270759;-10.11889555;6.42010414
-10.68738169;36.02347028;-14.57723266;-6.087965527;-18.87467232;0.070475915;-17.96392643;-17.06329684;0.252387105;-12.502992;-14.67400104;-36.00288837;-24.78557572;10.49447424;-23.0907506;13.94188415;-6.031392093;-12.39329269;6.230144467
-13.06566584;26.49302972;-24.45409107;-9.771427033;-23.31185991;0.291967861;-18.08660028;-17.32311122;-0.871976704;-15.1043768;-18.384452;-39.0060496;-28.13214806;11.79799904;-23.19234591;11.99953569;-5.139614313;-16.0430087;5.199906901
-13.79203079;15.8085909;-31.67582877;-10.02217929;-24.38863308;0.35397805;-17.37131862;-15.84764096;-1.606473203;-16.54968083;-18.4353228;-39.28368434;-30.26143645;10.69791819;-23.70268236;14.81474976;-5.665075252;-19.73308672;4.231059032
-13.14296857;7.026381036;-34.28853491;-6.549128461;-21.53709435;0.286905094;-15.37589;-12.61626617;-0.388695312;-14.47492391;-13.84953625;-37.1569188;-30.45945691;6.905559776;-24.01462173;18.24195984;-7.910731406;-21.07601363;4.072111229
-12.14545432;1.842461337;-33.44431207;-1.420661525;-16.77357631;0.212077546;-12.39461555;-8.682527196;3.459926013;-8.069602215;-5.914880913;-33.62746144;-28.60885117;2.239702875;-23.85355686;18.31118884;-10.61411169;-18.42030329;4.623746854
-11.78550732;-0.065633426;-32.12206843;2.489466352;-13.29728619;0.225644074;-9.332309419;-5.476293103;8.919633534;0.974432932;2.199777443;-29.85191806;-25.22729428;-1.099442764;-23.55223902;14.67877028;-11.94042316;-12.50811308;5.000112799
-12.42952269;-0.324663576;-32.79627956;3.306046198;-13.32026047;0.318644987;-7.057841328;-3.908990591;13.83560455;9.132774091;7.367059597;-26.63010485;-21.18958234;-2.264641947;-23.65409307;10.6741943;-10.96602326;-6.510402739;4.321601676
-13.81158102;-0.412684317;-35.74494133;0.940748436;-16.79137716;0.400236241;-5.807478625;-3.972556623;16.43823848;12.91806114;8.57;-24.27662828;-17.32845603;-2.052383394;-24.21289934;10.17304227;-8.464794181;-4.178347899;2.551118185
-15.43475525;-0.611211275;-39.00894325;-3.443827908;-21.84348926;0.395308763;-5.172207901;-5.067144971;16.55890225;10.70696922;7.45841933;-22.90419212;-14.15132067;-1.781259575;-24.50681819;14.04151269;-6.370194676;-7.361271735;0.622028562
-16.94207925;-0.099923373;-39.75025017;-8.54983294;-26.36444466;0.321242104;-4.672976691;-6.672462077;15.51808849;3.413031883;6.871774079;-22.75106448;-11.78929285;-2.036732362;-23.55191601;19.08267892;-6.330276709;-14.70284107;-0.288096371
-18.14643283;2.029990302;-35.91370961;-13.60360255;-29.30633213;0.270743235;-4.371793389;-8.719805198;14.80077683;-6.206935464;8.465866714;-24.12143845;-10.13242194;-2.479337858;-21.05715042;20.31165631;-8.468945128;-22.4861251;0.264468589
-18.79829814;5.7780373;-27.19332364;-18.14964162;-30.80621018;0.317311144;-4.902654851;-11.34003906;14.68883959;-14.93257967;11.36426863;-26.88872786;-9.022435439;-2.715790314;-17.9820846;14.78204343;-11.28177039;-27.02038895;1.594682214
-18.44080644;10.08321184;-15.03391155;-21.47633235;-31.36912998;0.434048967;-6.824729271;-14.27154947;14.06082558;-20.2477332;12.9552265;-30.02188039;-8.394847847;-3.144529014;-16.1081692;4.079432782;-12.70662922;-26.86851269;2.4226028
-16.61051845;13.57572384;-2.031952826;-22.51138916;-31.13844304;0.506303746;-9.8543706;-16.56479736;11.54472142;-20.86682777;11.18848142;-31.7365162;-8.320917728;-4.752378145;-16.84131521;-6.322473555;-11.53591542;-23.40843523;1.896223066
-13.28424823;15.53427985;8.823106836;-20.50106242;-29.9842052;0.432034283;-12.71919325;-16.98802645;7.011394551;-16.78182739;6.462861039;-30.42874361;-8.936984817;-7.95574113;-20.14606076;-10.3658949;-8.14481576;-19.4997393;0.259453069
-9.181097432;16.24614167;14.93388294;-15.90587696;-28.15967784;0.219775517;-13.88529118;-14.89834606;2.080078125;-9.153104238;1.513154383;-25.83576235;-10.27393391;-11.63883384;-24.46948689;-5.139381202;-4.096290466;-17.38397894;-1.365473934
-5.579361045;16.54447924;14.94879999;-10.56210856;-26.62831273;-0.008899299;-12.63832927;-10.86122382;-0.846544081;-0.080430552;-0.64120791;-19.51035273;-12.05711931;-13.49423241;-27.7550559;7.302362628;-1.037785855;-17.38238545;-1.869401111
-3.676182175;17.00930517;9.499895982;-6.694170074;-26.50421265;-0.121504211;-9.633516551;-6.426969423;-0.237883945;7.974917086;0.985273236;-14.08809073;-13.62638408;-11.61833391;-28.79157524;20.98233993;0.245610982;-18.21066957;-0.979150812
-3.902558724;17.54540224;1.294219729;-5.397563992;-28.03119515;-0.093588524;-6.426223227;-3.145937438;3.566929357;13.16720679;4.641806368;-11.73111677;-14.13304134;-6.107008343;-27.89280085;29.10364359;0.007689877;-18.43975634;0.619562462
-5.684176527;17.64263158;-5.894280889;-5.820362987;-30.13998804;-0.035764847;-4.343121945;-1.566477253;8.761164959;15.18116161;7.287941892;-12.827438;-13.01914108;0.736217481;-26.45146317;27.39579526;-0.993913897;-17.79465468;1.876713595
-7.833448488;16.99394664;-9.097452436;-5.838764873;-31.19193209;-0.097721184;-3.620170179;-1.024730217;13.40305647;15.34976956;6.961721516;-15.89640061;-10.52491099;5.859298663;-25.7913505;16.03847746;-2.167529179;-17.21278474;2.141635014
-9.302536622;15.86616463;-7.832800559;-3.82573485;-30.38803677;-0.328297621;-3.505410905;-0.405074683;16.48974922;15.65081598;4.150411204;-18.74712131;-7.811674043;7.47521624;-26.23610264;-0.561275091;-3.337066069;-17.66268152;1.49251043
-9.772205197;14.90300213;-4.363473424;-0.136519271;-28.5749191;-0.61531904;-3.18025941;0.768244474;17.97474128;17.15071619;1.160635982;-19.97310675;-6.43921739;6.059022232;-27.05766005;-15.79917277;-4.483305915;-18.79469761;0.470624214
-9.687691157;14.58480127;-2.151002365;2.948754113;-27.60087163;-0.765027229;-2.62990777;1.851799022;18.01528848;19.07275779;0.170356683;-19.6428685;-7.386409506;3.627719416;-27.22339768;-23.68492455;-5.354780023;-18.70465301;-0.436888998
-9.76700971;14.86314704;-3.445058148;2.893538516;-28.66545345;-0.660968389;-2.644130507;1.657781093;16.45735417;19.34041029;1.646795191;-18.75701795;-10.24706496;2.027551166;-26.26080335;-21.24573594;-5.397988735;-15.23854551;-1.090629244
-10.380556;15.28728368;-7.715963798;-1.071509504;-31.09655742;-0.369722095;-3.930119393;-0.385752875;13.22491907;16.31256764;4.333587604;-18.08561687;-13.27084411;1.695567122;-24.55973357;-9.61027562;-4.114871127;-7.975053133;-1.591822582
