Channel 1 - P4;Channel 2 - O2;Channel 3 - P8;Channel 4 - T8;Channel 5 - C4;Channel 6 - Cz;Channel 7 - Fz;Channel 8 - F4;Channel 9 - Fp2;Channel 10 - F8;Channel 11 - Fp1;Channel 12 - F7;Channel 13 - F3;Channel 14 - C3;Channel 15 - T7;Channel 16 - P7;Channel 17 - P3;Channel 18 - O1;Channel 19 - Pz
7.06709558;-22.94658527;-5.050540545;5.708597497;-51.26276703;3.186267633;2.351139738;7.526142051;-2.022665065;1.902060331;10.96272401;9.804886644;18.46601261;-89.24390906;-53.20876019;-21.1378458;4.429752665;-39.3743333;-10.44824112
10.94012802;-84.71107965;-26.96114022;-4.314534742;-93.70769652;2.578986534;-39.70482835;9.232601781;-34.99290574;-13.07088825;9.136802593;6.219840491;23.83357406;-116.1512465;-100.7337541;-68.38773532;5.866048764;-64.90978864;-24.00111709
8.282763568;-115.0567361;-38.8379213;-9.633633505;-92.42464457;0.657909903;-60.52634926;14.02786512;-47.87106677;-14.24412967;7.692384265;3.817353349;23.2271782;-93.58917781;-110.5091451;-83.68767863;3.84572857;-53.76691784;-24.657363
0.939928544;-99.75495158;-34.47037548;-7.314298632;-49.94836821;-1.2886481;-47.70890783;22.02070371;-31.1696728;3.406991696;9.159876105;5.116718185;18.62625312;-34.61046959;-79.1324576;-58.69193052;0.561226445;-16.02880594;-12.89495071
-6.263679009;-54.31404662;-18.29603978;0.530459879;4.737460698;-2.035286584;-11.29697462;31.70176721;5.258168933;32.33384814;14.21637885;9.632098713;14.25382972;25.14846305;-28.42273159;-11.89954618;-0.926511318;21.71527976;2.620463377
-9.000172992;-11.92468012;-1.967329354;8.558538924;37.47285808;-1.284747278;24.1991456;40.38288602;39.41017262;57.51944512;20.99650134;14.18893156;13.35894134;52.68736584;10.39703891;25.64872058;0.860802014;36.04228251;11.65632343
-6.314129606;0.658128974;4.078878752;12.24127574;32.79974318;0.198292703;37.7844406;45.49379738;52.86711284;66.96978065;26.24786082;15.26042207;15.99020633;39.79645528;18.43254041;33.01265796;4.685119534;22.56262465;9.73781451
-0.827264046;-19.03099841;-2.354574198;10.91365233;2.642115228;1.245445935;26.09626627;45.92684862;43.00482114;59.62832266;27.4585076;11.52572654;19.33611891;5.949182703;0.656102327;13.06372779;7.683900863;-3.466823096;0.660932928
3.620668356;-50.3785038;-14.66060875;7.550533651;-25.60779055;1.182677362;3.421682762;42.51647231;22.76025468;44.94599758;24.36499204;4.710883981;20.14773685;-18.93481604;-20.70982023;-12.43706871;7.763692398;-20.87016167;-7.325751947
4.851316151;-67.60317434;-23.21807911;5.741931336;-31.00242561;0.266170714;-11.22136934;37.33757209;9.045144574;34.94944593;18.80488365;-1.843082946;17.22003906;-17.4128959;-24.90056245;-21.33637528;5.313777935;-18.8517485;-8.229742496
3.523627474;-59.46430472;-22.66146824;6.586846325;-13.5179015;-0.636311033;-8.944975967;32.35808122;9.599438317;35.31540566;13.20419006;-5.665246529;12.0565781;4.586645614;-8.448264342;-8.009732816;2.846613317;-3.209930212;-2.515058887
1.962580963;-35.65853521;-15.0686659;8.106120474;9.135264422;-0.798701105;3.779389737;28.41857095;18.57304757;42.25633411;8.982819745;-6.731635089;7.428471964;25.91248876;13.8175321;14.15647976;2.899818859;11.08427024;4.185999501
1.920673496;-16.38242149;-7.162908264;7.471111459;17.94467039;-0.191116492;12.53826877;25.19483421;23.42621896;46.99789396;6.053261044;-7.014819352;5.191554837;29.0175582;22.42076614;25.378975;5.952780588;13.37744287;6.248441578
3.234073473;-14.99734857;-4.425076637;3.89037047;7.896196813;0.582157406;7.802069328;21.99722134;16.4898177;43.57365871;3.565221863;-8.563521722;5.129193747;13.55826239;9.868536336;15.95729152;10.05219612;5.285701037;2.589279968
4.340605967;-28.23542656;-7.073829483;-0.494787534;-9.875104524;0.846591727;-7.685169392;18.63125749;1.302951239;33.44855688;1.033917882;-11.78582229;5.555018625;-5.426542583;-13.23033709;-6.750570828;12.3913007;-2.755282654;-3.00915695
3.944707406;-40.98703156;-10.8060868;-2.506948848;-19.3092291;0.415268302;-22.35783473;15.58854798;-11.09777066;23.59995649;-1.182659874;-15.29576962;4.923756799;-11.59926304;-27.11747957;-25.56205157;11.48741333;-2.159173829;-5.597303863
2.222943161;-40.28264865;-11.04819539;-0.895408446;-13.3648575;-0.312603296;-26.18302986;13.48598073;-12.08748062;20.23720262;-2.368585727;-17.28658058;3.014881244;-0.928113686;-19.23493245;-27.85949044;8.180039063;5.817000145;-3.31873289
0.544940083;-26.09721946;-6.800019531;2.338414175;1.123704044;-0.744957011;-18.68993934;12.35279442;-2.796556212;23.67129194;-2.301430128;-17.1339169;0.830308717;16.27495651;5.42705895;-14.93889673;4.729618996;11.58378015;1.358325515
0.105114748;-10.33554031;-0.982244784;3.530488304;10.77691122;-0.605458908;-8.243332354;11.49313007;7.185710768;28.44314033;-1.593903001;-15.84577767;-0.456200046;25.38910958;28.26694048;0.723881099;2.892366854;6.412054473;4.172626045
0.8110897;-5.886594565;2.526304577;0.560023193;7.790629575;-0.122306733;-4.028896876;10.12195803;8.221212411;28.20401973;-1.191400747;-15.05816639;-0.432446864;20.07048674;31.98800432;6.867149975;2.627633655;-9.0911481;2.876963724
1.450634126;-15.72480709;2.232126201;-5.097604964;-3.90321372;0.22733456;-8.205942947;8.247158321;-1.261111203;21.02788819;-1.511471737;-15.54270254;0.499407745;6.653138015;14.47399353;1.297471142;2.450190742;-24.67758188;-1.02378889
0.930092773;-31.16162318;-0.135295771;-9.313671594;-13.15273346;0.154913325;-14.87775037;6.984025215;-13.70629159;10.84913024;-2.049251984;-16.55805589;1.782734363;-2.518313219;-9.441191618;-7.774033699;0.987477405;-28.52907922;-3.904638528
-0.60614754;-39.94456753;-1.673428842;-8.551779698;-11.94657341;-0.211680903;-16.14528761;7.907229508;-18.94776438;4.204321609;-1.838034392;-16.57900641;3.269650055;-0.143528633;-19.74039466;-10.20932575;-1.690809023;-16.81299221;-3.338297685
-1.829468334;-36.59100758;-1.060298793;-2.753945858;-2.150499521;-0.485273453;-9.405185564;11.83991966;-12.5154604;5.259326341;-0.361958395;-14.71679468;5.095026316;10.35123459;-7.36284194;-3.150134716;-4.118039681;3.169955415;-0.103834949
-1.415693375;-26.10581215;0.555408353;4.518036579;6.95707717;-0.388541305;0.570848537;17.99578398;1.142425219;13.11788587;1.907451839;-11.56730852;7.06718923;18.80801217;17.79087432;7.077703182;-4.743835307;18.55387952;2.747598351
0.707651043;-18.55723817;1.147277886;8.795276569;7.487415681;0.006890846;6.236411776;24.18924009;12.74406006;23.1274028;3.857484102;-8.755444262;8.343772554;17.68462827;33.228416;11.46708611;-3.307748141;20.36457798;2.734518575
3.18542282;-19.93132692;0.150477029;8.042285988;-0.129322386;0.370786506;4.087726611;28.05;15.65050608;30.56363741;4.690048828;-7.584226927;7.919031331;8.259305578;20.00846885;6.918560453;-1.060950288;9.314720926;0.078456472
4.303217697;-27.38119436;-0.797410667;3.955235487;-8.097013079;0.427408841;-2.422756608;28.42427927;10.41771397;33.52428065;4.662508103;-7.952039591;5.617883663;-1.319113509;-23.09690492;-0.906920104;0.327516029;-6.058001853;-2.684398319
3.375444943;-32.54960307;0.541430135;0.309058214;-8.752438847;0.195742023;-6.223450748;25.9955218;3.125552117;33.0934034;4.943343287;-8.449984069;2.669587109;-3.655323061;-77.51731632;-2.884261588;0.188602182;-16.52944751;-3.098464573
1.260713883;-29.42051306;4.569355095;-0.130503911;-1.547166684;-0.052408047;-2.969540255;22.72314963;-0.366855063;31.40434316;6.640396401;-7.549503103;1.154935779;1.752033911;-116.1450946;5.023234668;-0.65241847;-18.47316024;-0.95209426
-0.412305265;-19.55375831;8.918750076;2.440287925;6.706648269;-0.058852188;5.278969257;20.52965727;1.007312311;29.76273939;9.749819274;-4.903932984;2.556392905;9.039536879;-119.9480626;17.63054405;-0.718026323;-14.75861237;1.680971052
-0.610791382;-10.38746366;10.02626141;5.499764927;8.234446703;0.185782616;12.08013216;20.15500294;3.7417381;28.36272832;12.86662454;-1.732637435;6.489467485;12.01328137;-88.80113602;24.50332859;0.701075818;-10.69805152;2.424501308
0.320388743;-8.612561412;5.974923018;6.646868315;1.336696551;0.450290309;12.25476999;20.90653529;3.878366714;27.26862924;13.9334588;-0.018996829;10.68513783;9.743642043;-40.07219622;18.63087472;2.793391836;-9.286846231;0.729101215
1.090136846;-14.70046088;-1.786819484;5.651078982;-8.237921439;0.493905192;6.089590117;21.35966124;0.89731221;27.14893273;11.54123808;-1.163591851;12.37467256;6.690401943;2.955351863;2.393387587;3.7958606;-9.671801748;-1.747530617
0.675228431;-23.14951918;-9.301324088;4.418682558;-12.57710961;0.296803543;-1.367085076;20.42774907;-2.070417627;28.77515545;5.909207554;-5.072904902;10.12930332;7.707306273;24.50370458;-14.17230103;2.405500153;-9.266650017;-2.745396598
-0.757053786;-27.67840755;-12.82858214;5.08103247;-8.590747311;0.076146766;-4.901732416;18.05619769;-1.514106963;31.82782126;-1.091473551;-10.24745509;4.82526084;12.97219013;23.19834189;-21.24392016;-1.141090033;-6.738243236;-1.452990186
-1.991387529;-26.4;-11.25586615;7.989639527;-0.453763803;0.077855867;-3.348867049;15.15215606;3.009742029;34.45327579;-6.871280684;-14.68565733;-0.949616145;17.68212226;9.410202608;-16.62833365;-5.185746454;-2.94663525;0.846732365
-1.80738974;-22.53257473;-6.409192582;11.35618116;4.435562362;0.340914617;0.135460172;12.9158904;8.438361054;34.36101917;-9.442259577;-16.94136942;-4.582020132;16.68926873;-3.563232091;-6.773993235;-7.822995244;0.535499349;2.035947084
-0.013286809;-20.58292292;-1.30828426;12.7563269;2.100284971;0.65261926;1.527224502;12.08694152;10.9731171;30.68996458;-8.386497474;-16.73567444;-4.998119546;9.605685036;-7.912035542;-0.952315105;-8.159586704;3.241382115;1.10262421
2.377679138;-21.96699282;1.9994229;11.1166325;-4.760995282;0.735644267;-0.359690648;12.56922295;9.326007331;24.95838946;-4.995829551;-14.92911288;-3.085952289;1.538724697;-4.316887366;-3.737141522;-6.707038196;5.859143395;-1.007788899
3.917395437;-24.12989407;3.332549669;7.486987056;-9.603218591;0.496854535;-3.281440201;13.57190111;5.470102298;20.09029498;-1.570364441;-13.02206847;-0.857562347;-1.267606429;1.053661058;-11.92518762;-4.737917629;8.57826337;-2.337939417
3.760903927;-23.6223363;3.646697853;4.043212678;-8.109413313;0.114266014;-4.313633092;14.07434538;2.410603743;18.20383488;-0.267046519;-12.46516854;-0.097360838;3.092702727;2.26013604;-17.97363964;-3.269111236;9.796376215;-1.726536004
2.152052374;-19.83525899;3.742193254;2.288657015;-1.932284143;-0.113640209;-3.048672384;13.30118656;1.264585024;18.99929694;-2.070285467;-14.01699456;-1.441235058;10.55898709;-2.257398939;-16.58337956;-2.524134152;6.990270953;0.184442455
0.072014502;-15.67025981;3.70512638;2.010209988;3.116009603;-0.020352392;-2.096512179;10.99085305;0.436273498;20.11733453;-6.374820919;-17.35714003;-4.334567785;14.74143615;-9.439026777;-8.801324876;-2.18636019;-0.707802328;1.610783425
-1.541786075;-14.54496036;3.394086506;1.773844218;2.524101831;0.295957413;-4.44623991;7.422723731;-2.434186701;19.15446523;-11.36913884;-21.16152133;-7.630203829;12.4929509;-14.5973691;-0.545769693;-2.029141758;-10.67254232;1.285339071
-2.339581671;-16.72251335;3.159670983;0.384658249;-2.89168183;0.568878681;-10.26984788;3.289419243;-7.714025818;15.62587413;-15.00064108;-23.72443357;-10.25807024;6.43780289;-14.99886038;2.703963627;-2.246037772;-17.7866619;-0.421852231
-2.522659461;-18.61720734;3.825776525;-2.012428031;-7.957784229;0.595426996;-16.27185869;-0.488941457;-12.89;11.27869426;-15.98248523;-23.89470105;-11.57361589;2.335464637;-11.50521917;0.338025808;-3.185348875;-17.8975571;-1.908041156
-2.424228645;-15.89940219;5.855096227;-4.079525797;-8.020216224;0.396993747;-18.28810457;-2.966077463;-14.42326755;8.628365971;-14.27125865;-21.77303723;-11.38150087;3.821346172;-7.465184109;-3.388687365;-4.810293184;-11.00457853;-1.837445973
-2.167952566;-7.606243562;8.600568727;-4.434374502;-3.158298528;0.177085458;-14.80286416;-3.38741282;-10.6590418;9.068698722;-10.77540702;-18.63439332;-9.846789448;9.302987464;-5.999215474;-3.393433718;-6.472073344;-1.470942287;-0.337687072
-1.671611746;2.552162609;10.57744996;-2.751130007;2.054501691;0.128165515;-8.203807825;-1.417670974;-3.169682969;12.10891314;-6.567951505;-16.02729982;-7.425607083;13.67865505;-7.745101641;1.817739241;-7.271186708;5.003696096;1.174775356
-0.873493771;8.9874444;10.70238237;0.072061261;2.863214543;0.267397226;-2.675659901;2.674747222;4.596024947;16.14620518;-2.213352728;-14.65840344;-4.76495414;13.12610476;-10.59634518;8.968119996;-6.710157591;5.217559142;1.32772178
0.129958487;8.715255816;9.400624076;2.688113582;-1.334602687;0.442211878;-0.6867341;7.970756594;10.02314766;19.82508384;2.301681247;-13.93388847;-2.489760788;8.524107602;-11.4760128;12.72937265;-5.052621888;0.118620853;0.034236645
1.185560634;3.605261646;8.45;4.268140917;-6.565921096;0.485886886;-1.23739828;13.07810859;12.93448478;22.7008607;7.058347146;-12.57933384;-0.947471628;4.466743996;-8.779500052;9.853592102;-3.063211507;-6.707444716;-1.477425033
2.274948903;-1.488083405;9.531165237;4.885263887;-8.031743409;0.371156448;-1.344227722;16.54476374;14.80361595;24.8104658;11.64488116;-9.878876725;-0.112737913;4.914211709;-3.699108118;1.422408506;-1.362556677;-12.01087839;-1.826587277
3.539182297;-2.928224053;12.69975676;5.153699661;-4.503268559;0.222703911;0.762323331;17.39286425;16.59557136;25.89920869;15.12570601;-6.491544182;0.231256154;9.531423796;0.539362753;-8.211894547;0.025159169;-14.66223422;-0.738293106
5.069289868;-1.073855163;16.19315249;5.586454669;0.64040732;0.187012571;3.779172839;15.54380768;17.48463054;25.31637072;16.64470125;-4.078155214;0.1788579;14.02582612;1.001212334;-14.53368672;1.537584265;-15.09264656;0.746839498
6.672171621;0.683510806;17.8668434;6.238739468;2.583210716;0.288907245;4.553455824;11.8898863;15.73392759;22.76164709;16.15333891;-3.956891655;-0.429373286;14.09241908;-2.746634783;-15.4943929;3.493875528;-13.59774453;1.264024338
7.882121539;-0.511600921;17.08221609;6.808360479;-0.525464086;0.409642684;1.226803085;7.905959712;10.83095061;19.03138921;14.56251376;-5.890901379;-1.773947831;9.329117297;-8.185660991;-12.01871037;5.611483746;-9.643464359;0.37553657
8.255783901;-4.212058001;15.37866126;6.933119388;-5.940824276;0.402794652;-4.669015692;4.944402212;4.67180477;15.77515377;13.07059967;-8.096503;-3.639419394;3.601466588;-11.56113229;-6.639293215;7.073399025;-2.990981505;-1.062915575
7.692976419;-7.206272116;15.25381612;6.362147825;-8.858489005;0.235754363;-9.198933158;3.574442342;0.431305305;14.22901578;12.1657126;-8.581131087;-5.247140396;1.606662467;-10.56322996;-1.722901551;7.10754943;4.704518239;-1.723568113
6.475141755;-6.718196613;18.01359808;4.950501303;-6.726203331;0.024508034;-9.315573103;3.348729336;-0.035423205;14.01970031;11.17257301;-6.770121265;-5.63552294;4.785236707;-5.990876644;1.492032918;5.588390694;9.92977694;-1.030080566
4.977131841;-3.18779955;22.4982682;2.665929081;-1.425664922;-0.068305447;-5.556075285;3.149650395;2.076874946;13.27050593;8.823290318;-4.065248559;-4.417441523;10.21193647;-1.102127371;2.893455036;3.153078332;9.587806086;0.342121407
3.335743808;-0.025013022;25.78066155;-0.272336085;2.544919292;0.024116989;-1.734421116;1.91068204;3.338718817;10.13773052;4.452471203;-2.823103746;-2.335109847;13.33204401;0.921227389;3.102648552;0.742803665;3.739001965;1.120530506
1.417412059;-0.593261704;25.27583495;-3.270828921;2.119565587;0.219454552;-1.858013582;-0.734617168;0.873447164;4.535420246;-1.193810394;-4.562886013;-1.073250152;11.97565838;-0.519528182;3.125788678;-1.041817938;-3.838747882;0.613275498
-0.863321324;-5.23290321;20.5401228;-5.51437247;-1.742074227;0.365863575;-6.909147586;-4.268578701;-5.248761699;-1.516946349;-6.300845129;-8.870907295;-2.31098589;8.062269074;-2.943239565;3.960509518;-2.25331937;-8.241943633;-0.678207992
-3.194734119;-11.0383369;13.36676853;-6.418245135;-5.149534631;0.376154448;-14.18690958;-7.639164544;-12.06316737;-5.359903807;-9.282647147;-13.8666101;-6.6;5.613194763;-2.78516897;5.94818014;-3.367670487;-7.300553316;-1.55223285
-4.888345855;-14.50872414;6.276179634;-6.038879165;-4.909451643;0.293478096;-19.61894822;-9.854599476;-16.11140852;-5.782204564;-9.961928152;-17.73832193;-12.85301957;7.024375377;1.604595806;8.137128715;-4.757190514;-3.415622465;-1.223426918
-5.344803209;-14.55078905;0.81322206;-5.02274126;-1.327377038;0.235364825;-20.91361368;-10.40790932;-16.05014071;-3.907266849;-9.576326706;-19.94363587;-18.83011998;11.000195;8.353354511;8.376658129;-6.321821794;-1.592124698;-0.027012632
-4.593613501;-13.06448123;-2.935209571;-4.047051982;2.269613919;0.277632792;-18.8662278;-9.304773926;-13.23025036;-2.059362355;-9.527797191;-21.03083418;-22.3166494;13.90458195;13.27271327;4.576223317;-7.55045388;-5.136436899;0.919241636
-3.393843482;-12.67097542;-5.42945712;-3.220919563;2.680282064;0.390751152;-15.94532167;-6.801841956;-9.917805486;-1.592318591;-9.929539731;-21.36791429;-22.22592395;13.15386776;13.11285425;-3.438558984;-7.903147543;-12.63918875;0.757423447
-2.721105335;-13.84108993;-6.499089915;-2.043258611;-0.325316658;0.48405431;-13.73174082;-3.161497856;-6.973787367;-1.637644421;-9.293469072;-20.15212918;-18.96604494;9.51781648;8.359436104;-12.88831233;-7.169903923;-18.91499251;-0.334392325
-3.012786123;-14.2296321;-5.187569009;-0.04314488;-3.99848989;0.50638728;-11.65084339;1.360432923;-3.228902925;0.054014225;-5.800813519;-15.87224492;-13.96037096;6.315498804;3.218076326;-18.99340311;-5.547697851;-19.22829885;-1.33313304
-3.805972284;-10.91905424;-0.824222536;2.461559392;-5.272619705;0.498953516;-8.040241094;6.352140244;2.880194972;4.893959518;0.796969639;-8.012217343;-8.760019531;6.355967837;2.49327644;-17.71194262;-3.459702526;-13.27247373;-1.328209763
-4.112946391;-3.493629059;5.75566907;4.289961227;-3.510693824;0.546778835;-2.330511688;11.16149728;11.04205937;11.87809546;8.294661057;1.552044365;-4.345469324;9.442294744;7.545058402;-8.558684498;-1.339631311;-5.514020229;-0.350732088
-3.257954309;4.996022341;12.17228995;4.275201309;-0.826972251;0.67847003;3.889569613;15.07259966;18.46866433;18.1671475;13.12946566;9.011127547;-0.945827353;12.62191366;14.46570052;4.541863723;0.443521395;-1.589942488;0.67951536
-1.48206568;10.23463401;15.92451096;2.450262858;0.157658344;0.818438675;8.014012908;17.65532353;21.75839363;21.42039263;12.82547142;10.9903084;1.703962629;12.8284017;16.19176551;15.18852227;1.550014648;-3.804632763;0.817990761
0.208579643;10.15248444;16.16128063;0.448757562;-1.124544093;0.847058743;8.705414646;18.98999701;19.7041109;21.84077041;7.947458822;7.112884599;3.974039409;9.481662092;7.390865072;18.10309749;1.684636488;-9.505180135;-0.040032349
0.8455634;6.619546867;14.2536456;0.546977591;-2.759851499;0.717602655;7.142195491;19.53592719;14.52788194;22.03889144;1.958216083;0.594245235;6.072026702;4.813284131;-11.24705911;12.08729217;0.747566002;-13.60554103;-1.084586515
0.289980343;3.765927298;12.59614239;3.92428881;-2.396417568;0.517030774;5.998085035;19.71871265;10.30683511;24.69951716;-1.054819401;-3.875264433;7.969302978;1.836406543;-32.50912668;0.481871328;-0.989538776;-12.98569289;-1.354711448
-0.647515645;4.376381512;12.6138468;9.522048245;0.270903939;0.40341794;7.049185501;19.58443365;9.815587349;30.01332716;0.862325938;-3.480528928;9.475894103;1.932423776;-46.59468688;-11.00315219;-2.891073511;-8.981690288;-0.621753932
-0.855358521;7.54;13.68221426;14.55781291;3.007166532;0.467306241;9.606517804;18.84207981;12.45349876;35.14829019;6.350756387;0.757792521;10.40855253;4.154167366;-46.99966395;-17.52613645;-4.236113533;-5.951583799;0.418716195
0.207312575;9.628542732;13.89647051;16.4587434;3.056866205;0.64133339;11.23173611;17.28091162;15.03165382;36.34261166;11.98498286;5.029571055;10.79525861;6.585786119;-34.42764215;-17.37474669;-4.614033773;-7.326148934;0.80561532
2.132678264;7.71578246;12.00782721;14.75629652;-0.20327821;0.746793701;10.08804337;15.18812219;14.71943894;31.93873703;14.90194732;5.972091356;10.9949632;8.206608455;-16.13366991;-12.11937269;-4.149497941;-12.62811471;0.198888644
3.958287151;2.384193275;8.799634965;11.40204818;-4.489072488;0.644969263;6.750550796;13.33889458;11.56525627;23.81470588;14.72649419;3.421587013;11.5609401;9.434692496;-1.251803431;-5.016090027;-3.382613089;-17.94173389;-0.823037986
4.954929634;-2.585770497;6.641203981;9.175730849;-6.497178447;0.363306538;3.766384523;12.47007813;8.37667601;15.98250714;13.34299743;0.336955478;12.78775013;11.00847859;4.647105518;1.013664595;-2.90137332;-19.24274281;-1.313962913
5.124703541;-3.390153077;7.538622564;9.408346054;-4.775900883;0.082694313;3.303209959;12.61543186;8.05796996;11.5021293;12.8410204;-0.101351009;14.16875139;12.57420697;2.180445867;4.581789611;-3.013729317;-15.61011435;-0.835408498
5.019483312;0.520670533;11.3234969;10.84381016;-0.97960073;-0.008411103;4.994583463;12.86892368;10.7395847;10.26403751;13.42566917;2.230346864;14.23233948;12.6095807;-3.459125409;5.807090288;-3.687633318;-9.655345031;0.152369923
5.102409202;5.882718891;15.53139132;10.57754146;1.618972201;0.130607901;5.969319561;11.85989415;13.24705287;9.42567748;13.05621139;3.651254978;11.12521876;9.908524128;-6.769574407;5.524504453;-4.738408271;-5.078935741;0.731723943
5.258578295;8.215400465;17.10420958;6.341687536;0.991591882;0.361745839;3.13808668;8.667066372;11.46632223;6.030471578;9.120509538;-0.640090332;3.807037516;5.183178619;-5.623223329;4.512139014;-6.034686305;-3.708753297;0.379025057
4.89119922;5.323403223;14.53601459;-1.676633768;-1.991303814;0.488594211;-4.185040349;3.520354629;3.69307047;-0.459580397;0.783682607;-12.43352432;-6.863085618;1.066705564;-1.923818901;3.238923756;-7.514168606;-4.568734973;-0.563067479
3.492030426;-1.205372565;8.762079189;-10.90592123;-4.546376429;0.422565641;-13.55188645;-2.239297336;-7.783398272;-7.808848004;-9.884634581;-28.27849257;-18.02081079;0.239660578;0.748052836;2.099763055;-9.018767382;-5.475332897;-1.217757549
1.152399553;-7.563990957;2.199098503;-18.24047683;-4.60604329;0.251249991;-21.12865036;-6.927505834;-18.13738891;-12.98558847;-18.91412393;-41.15905121;-26.0081621;3.216239739;0.30459674;1.721907173;-10.15939643;-5.365577049;-0.989673606
-1.44572825;-10.77927691;-3.11748148;-22.16097045;-2.634882366;0.152546801;-24.40449598;-9.457644666;-23.29245607;-14.65003906;-22.81860235;-45.02083462;-28.30527616;7.783915235;-2.374874256;2.910672163;-10.40732422;-5.106776908;-0.105930084
-3.536597247;-10.58621746;-6.709769773;-23.47874512;-1.004945391;0.233818312;-23.61229493;-9.794496633;-22.42409085;-14.0055848;-20.61221111;-38.79540115;-24.9471556;10.70279584;-4.564688808;6.11904609;-9.391290253;-6.196670147;0.608426892
-4.810796236;-8.746940766;-9.302644713;-24.24072445;-1.60296311;0.438904392;-20.84264322;-8.659855422;-17.86100697;-13.39615691;-14.09511318;-26.89191409;-18.40994827;10.27025817;-4.185646767;10.76176778;-7.165270838;-8.849237432;0.499672379
-5.517583796;-6.812829088;-11.49596548;-25.81227785;-3.967788233;0.602630567;-17.85973268;-6.805370816;-12.76915169;-14.01792654;-6.408084036;-15.83965188;-11.96398349;7.564733366;-1.500737686;14.96312623;-4.21043462;-11.48526762;-0.317226456
-6.076040996;-4.609858531;-12.82235967;-27.7212575;-5.715193475;0.600614794;-14.64491059;-4.45827575;-8.708757675;-14.80955698;-0.060063171;-9.702176752;-7.586570486;5.334394113;1.292186611;16.19150187;-1.157259266;-12.17819425;-1.078451333
-6.588213009;-0.839286734;-12.08281781;-28.10746443;-4.835688389;0.459462728;-9.870453469;-1.340988944;-5.002967099;-13.45335903;4.202649849;-7.720690843;-4.872103462;5.560405376;2.047239569;12.66962316;1.54307868;-10.62171461;-1.085145342
-6.714762654;4.936520367;-8.605909905;-25.27846357;-1.687955084;0.33064984;-2.681911607;2.834384661;-0.135495995;-8.524860532;7.159977593;-5.775368949;-1.674697995;7.847483195;0.464146091;4.765915496;3.734054764;-8.621648382;-0.344734229
-6.013307053;11.00107043;-3.204960451;-19.05947156;1.207422446;0.353831818;5.974918168;7.867890032;6.320187424;-0.861042035;10.03517659;-0.243088316;4.027159775;9.990350847;-1.787671501;-4.697791332;5.402535093;-8.517632991;0.448243248
-4.397340363;14.31319096;2.118593807;-10.93952021;1.417092596;0.531897415;13.72575389;12.99850339;13.01169636;7.020344088;13.51159326;8.909068965;12.41544139;10.09424348;-2.604274543;-11.7647845;6.467004923;-10.96323323;0.562705997
-2.263336197;12.88602762;5.540368242;-3.074585375;-1.178034212;0.726592188;18.46418445;17.29978938;17.86933069;12.87096736;17.42226838;18.12605454;21.48160863;8.281288745;-1.255829019;-13.70104306;6.767795835;-14.18515903;-0.095793876
-0.154695258;7.64565338;6.702889552;2.936583132;-4.237547112;0.775365228;19.80996006;20.20515476;19.84833883;16.29262137;21.01524638;23.10572445;28.2288595;6.475379833;1.055977495;-10.84949253;6.30723814;-15.50742033;-0.908629754
1.719528565;2.067689725;6.852534328;6.596513751;-5.048244233;0.625356807;19.06392512;21.75;19.76028767;18.62184707;23.35866898;22.032274;30.51644651;6.550502251;2.282502777;-6.515318174;5.494945944;-13.79500613;-1.124949768
3.638678019;-0.222416563;7.74551174;8.191125374;-2.945719025;0.370497272;17.82613743;22.37866758;19.49584745;21.33799597;23.62416189;16.66750269;28.26477624;8.592573709;1.257523227;-4.702996555;5.070697047;-10.55461596;-0.555005912
6.016721149;2.019011431;10.26959299;8.146423983;0.127705155;0.166767595;16.63667763;22.50932615;20.36904045;24.485909;21.32680394;10.68031142;23.3026708;10.85385182;-1.400092773;-7.188841374;5.621257797;-8.625168709;0.263723137
8.83743366;6.961607664;13.89178624;6.703928509;1.416367873;0.105931527;14.8648455;22.19903524;22.01646948;26.50699784;16.65836761;6.818876943;18.13032095;11.38526651;-3.904888259;-12.12587841;6.99621503;-9.619893153;0.572477466
11.40103896;11.24835193;17.25879286;4.081422626;-0.157794137;0.156809385;11.80319545;21.11921706;22.73208834;25.56809721;10.765042;5.255252306;14.53337505;9.809004677;-4.835429764;-15.39367841;8.118835393;-12.47324871;0.093519896
12.66246371;12.39526357;19.29192785;0.764385611;-3.07127544;0.215396944;7.762933309;18.80019977;20.88272931;21.17290496;5.568980778;4.215486749;12.90117191;7.619073165;-4.256761099;-13.81348894;7.472428887;-14.46218097;-0.720697013
11.93338866;10.15757634;19.79900471;-2.498055472;-4.64709678;0.20726808;4.016129307;14.94806846;16.21621645;14.66857312;2.916951747;2.026364056;12.46978392;6.787602161;-3.546258778;-7.766217165;4.044550702;-13.78834764;-1.114644105
9.389984702;6.051531777;19.18742878;-5.045554301;-3.510523277;0.146470787;1.611646852;9.664509086;10.07472797;8.289903073;3.422201683;-1.337018157;12.08613889;7.995728713;-4.167796128;-1.059155677;-1.88924185;-11.33096723;-0.730458392
5.967612111;1.791887046;17.72228025;-6.675719073;-0.798532226;0.104762778;0.248488184;3.516126018;4.47147924;3.633128332;5.835135398;-4.454195426;10.9041264;10.09628694;-6.47648523;1.99271764;-8.726874977;-9.90198586;0.067013691
2.717690831;-1.902378988;15.12963271;-7.692280876;0.949497904;0.131544896;-1.6042095;-2.534825198;0.829505764;0.825006015;7.605953869;-6.00858437;8.67824519;11.23678449;-9.506692875;0.004100513;-14.3501061;-11.62980049;0.535755582
0.132167818;-5.312602582;10.92084427;-8.630229619;0.155007295;0.206243362;-5.321574806;-7.341140395;-0.71314877;-1.083520651;6.480198607;-6.127257607;5.687362065;10.55229429;-11.79706543;-4.347061827;-17.29508342;-15.86514661;0.2459844
-2.048924872;-8.902342594;5.071238362;-9.947428557;-2.370600488;0.266141831;-10.69552333;-9.927133556;-1.093765073;-3.054317831;2.104579237;-6.257715167;2.494205825;8.872044252;-12.46631232;-6.533302519;-17.52610977;-19.5896036;-0.526426659
-4.435005453;-12.64722048;-1.646328303;-11.91381516;-4.21944218;0.275643506;-15.81207386;-9.899715183;-1.538233756;-5.327061674;-3.539153397;-7.720932637;-0.309193994;7.850719763;-11.66901941;-4.026844079;-16.31302012;-20.04379464;-1.062259805
-7.344579946;-16.06641105;-8.002123619;-14.62112724;-3.631118878;0.263525175;-18.43038395;-7.686780616;-2.782302625;-7.505190695;-7.284409355;-10.28476264;-2.320950157;8.395253769;-10.20874095;1.383497358;-15.31340469;-17.22505291;-0.868109815
-10.43712028;-18.65927928;-12.97735181;-17.86686555;-1.102541584;0.28967901;-17.68352565;-4.367551881;-4.688937735;-9.10157553;-6.768721332;-12.07557772;-3.462785408;9.859005975;-8.813241277;4.832776586;-15.47985077;-13.94414811;-0.13059981
-12.86995592;-20.09242821;-16.11111935;-20.87526438;1.096969513;0.375878039;-14.59843773;-1.082948233;-6.317945389;-9.838050906;-1.874649882;-10.96159532;-3.923504644;10.70646709;-7.740549157;2.305203582;-16.49691443;-13.29633693;0.46198665
-13.81110053;-19.93147566;-17.24836957;-22.19938111;1.01615402;0.473372067;-10.988071;1.646224038;-6.32751807;-9.437140537;5.364948733;-6.264508942;-3.866072119;9.974937838;-6.926317989;-5.909188779;-17.06905232;-15.76691506;0.360687084
-12.90384156;-17.39920946;-16.07365257;-20.22948291;-1.230174634;0.505027775;-7.752649762;4.195392628;-3.571605566;-7.33982552;12.24427259;0.615904325;-3.062894044;8.160273318;-6.323805154;-15.10177641;-15.8161656;-18.60504708;-0.336496382
-10.38630597;-11.74959408;-12.08869021;-14.27901728;-3.641333225;0.444558164;-4.176809447;7.422065231;2.271966771;-2.949347461;17.09964893;7.153390877;-0.805031011;6.740928121;-5.983030829;-19.57052735;-12.17187473;-18.13753726;-0.979007225
-6.875882762;-3.186012694;-5.257323724;-5.555928674;-4.213648081;0.353795279;1.098214722;11.784958;10.31531923;3.581388595;20.03320193;11.41591779;3.667064282;6.831929523;-5.815587836;-16.87885634;-6.734381353;-13.07014301;-0.96969301
-3.053875445;6.512572731;3.218656108;2.890453121;-2.74111556;0.33413592;8.305052214;16.64528693;18.61852587;10.74798742;22.26060036;13.17841487;10.3721833;8.226876768;-5.423098099;-9.54143041;-0.911157097;-5.876908472;-0.319166164
0.530590298;14.50218169;10.86749343;7.563084992;-0.877293095;0.430085449;15.65100054;20.36162424;24.96216599;16.09699455;24.76384458;13.63687285;18.01701742;9.666477453;-4.338408472;-2.82755768;3.857665624;-0.982516299;0.364927143
3.500546181;18.45879731;15.04085179;6.52;-0.46413552;0.574226999;20.24021198;21.24419251;27.87908949;17.65829788;27.37763875;14.11925351;24.24471782;10.01330489;-2.546580523;-0.534623843;6.796550218;-1.216067563;0.443153673
5.642214543;18.12823753;14.5403655;0.616761374;-1.753767735;0.632101896;20.16010281;18.75865321;27.31245802;15.41608425;28.97290447;14.95730663;26.78328713;9.216414881;-0.733857717;-2.186313063;8.024903843;-5.531973926;-0.160001831
6.935857792;15.5577309;10.57349458;-6.977951821;-3.214553926;0.516361888;16.00089926;14.09549653;24.44809972;11.55918851;28.46933003;15.43216611;24.84662675;8.222992211;0.140893263;-3.84921666;8.261506105;-9.927283276;-0.882967728
7.593352028;13.69875576;6.182409663;-12.7290202;-3.082785559;0.27225406;10.4998137;9.607643403;20.84454755;9.102765289;25.78418563;14.71926523;19.79576753;8.01629251;-0.296290431;-1.738292423;8.261341925;-10.76653762;-1.04703985
8.00121781;14.40144195;4.394353924;-14.77936996;-1.15166971;0.055033808;6.562183587;7.416314574;17.50403619;9.799914245;21.96441701;12.90726022;14.46445675;8.736269971;-1.334554987;4.456929455;8.361500263;-7.710948752;-0.490583592
8.536839887;17.33905015;6.336883042;-13.67258607;0.941154526;0.011600964;5.25623539;8.105188757;14.53867484;12.92530772;18.46077864;11.14954414;11.47507506;9.670436175;-1.639274489;11.22470115;8.388463713;-3.846936556;0.271392662
9.359361759;20.62412241;10.63350395;-11.39360891;1.237915162;0.163653362;5.356640522;10.39061013;11.5626091;15.88573863;16.16473351;10.78672155;11.64044679;10.01900156;-0.423073239;13.99807116;7.919057963;-3.015165583;0.517820612
10.32947886;22.47460113;14.46913044;-9.668494513;-0.634040225;0.391514315;4.679881093;11.98453694;8.340825344;16.17044719;14.93274472;12.16376514;13.54861344;9.629074991;1.696485138;10.64187599;6.667964006;-6.646532037;-0.00388092
11.11993;22.48744456;15.51469868;-8.927777018;-3.009755805;0.532930474;1.989260234;11.05087209;5.082071945;13.09728086;13.8637257;14.12582663;14.61582291;9.017467365;3.06814584;2.859513243;4.728486651;-12.67946688;-0.822379411
11.42550299;21.55554657;13.3471105;-8.613336001;-3.680896659;0.513175502;-2.110905924;7.285656878;2.18638067;8.029892411;12.01003906;14.63466883;12.85797402;8.769090226;2.484238349;-5.364367941;2.530220846;-17.25533509;-1.156405449
11.11434741;20.73786616;9.46895345;-8.27785295;-1.984066507;0.397438181;-5.894290882;1.966984663;-0.17970607;3.039168607;8.958440063;12.07709161;8.146933536;8.999204911;0.530271348;-10.70092502;0.586593471;-17.58638575;-0.63930448
10.24025876;20.27987798;6.089813551;-8.292067061;0.486951552;0.325231453;-8.056678746;-2.949239017;-2.16224704;-0.755357318;4.937423005;6.331984898;2.137211837;9.408654482;-0.544888003;-12.30661069;-0.763952691;-13.62852231;0.299212215
8.971130745;19.69781576;4.643576597;-9.47334993;1.2887583;0.387968441;-8.702997956;-6.009250669;-3.850097656;-3.761754259;0.530112741;-1.122341056;-2.969776487;9.754384247;1.36234722;-11.3441332;-1.450949643;-7.469479195;0.75676087
7.540743683;18.71373644;5.035181772;-12.07116789;-0.569913566;0.555884171;-9.026052637;-6.957500781;-4.898690704;-7.030704093;-3.672711737;-8.06675903;-5.862138191;10.08622723;6.064389076;-9.151001705;-1.578957365;-1.368975214;0.128048064
6.252617934;17.96694317;5.95416355;-15.21374904;-3.549024653;0.711898334;-10.11899315;-6.608316581;-4.67828335;-10.81672853;-7.214130929;-12.72787641;-6.75197134;10.39558941;10.50134538;-6.053779274;-1.269980659;3.661481974;-1.340575721
5.45404807;18.65994805;5.849912375;-17.49044028;-4.78956179;0.754233958;-12.03388527;-6.113425424;-2.958070956;-13.92812628;-9.701193927;-14.52339988;-6.881242009;10.08540642;10.55353346;-1.903843265;-0.580522665;7.682112176;-2.698124528
5.395727471;21.38931885;3.859780502;-18.21209801;-2.615189111;0.67316918;-13.8290996;-6.163559864;-0.493092771;-14.46084531;-10.710666;-13.99748357;-7.401669232;8.054142267;4.112719373;2.481689337;0.473397052;10.65829469;-3.025134366
6.024482822;25.2930379;0.195059248;-18.14147794;1.89408434;0.538327869;-14.39395032;-6.597513545;1.204754009;-11.28660144;-9.844663828;-12.15469715;-8.498537037;3.667271271;-6.95415593;4.797781037;1.868989102;11.78697489;-2.146747609
6.892554764;28.43588076;-4.086749795;-18.87890641;5.701060668;0.419021595;-13.22375733;-6.581149715;0.956558748;-5.042309363;-6.952386563;-9.741225646;-9.333829055;-2.120097656;-17.66565428;2.617342314;3.604240556;10.12816168;-0.738733938
7.340781202;29.21465467;-7.699243744;-21.32505274;6.331642481;0.320185351;-10.54713771;-5.200106957;-0.968670123;2.157152454;-2.386489447;-6.944733137;-8.736929538;-6.697343532;-23.17663909;-4.306679411;5.786128695;5.887524343;0.237605736
6.902092843;27.56624539;-9.830805422;-24.59210293;3.920344888;0.195898827;-6.939680035;-2.133398009;-2.783771849;7.971998082;2.87806421;-3.617922758;-6.083083464;-7.287682305;-22.03020552;-12.91823442;8.646252914;0.916092264;0.281420153
5.647565204;24.87590736;-10.64878787;-26.46301152;0.989934728;0.023082686;-3.010698236;1.943381372;-2.465204073;11.02213297;7.381290009;0.238098199;-1.773499548;-3.074986225;-16.90970876;-18.26957393;12.36514648;-2.324082378;-0.330427359
4.18230628;22.65050185;-11.34285511;-25.16164315;0.177026688;-0.143672112;0.505209207;5.47293395;0.501440852;11.19118162;9.595910691;4.135124871;2.918355436;3.792540026;-12.30544497;-16.71953175;16.75992614;-2.586900914;-0.871432679
3.24916316;21.17350747;-13.55371664;-20.9611868;1.927716772;-0.199488783;2.546884245;6.686251327;4.37410525;9.103651684;8.534371219;7.170604598;6.46230961;9.42111379;-10.95024655;-8.552361236;21.08185581;-0.8599765;-0.811536234
3.224042133;19.40386059;-18.33372712;-16.17665612;4.191570996;-0.082569306;1.979433903;4.572444838;6.205826488;5.493475166;4.318833131;8.48183488;7.774984012;10.92272343;-11.85318249;2.035937446;24.18284985;0.404112112;-0.225123242
3.90016417;16.23631586;-25.18575024;-13.43030878;4.345456203;0.151546969;-1.581657787;-0.363300517;4.04403698;1.067332006;-1.610331492;7.787421741;6.678659035;8.583517349;-11.45132363;9.613796744;25.07274191;-0.743643985;0.342838173
4.735893175;11.9426132;-31.89512881;-13.60831502;1.597803806;0.351208693;-7.006540684;-6.085270678;-1.416318574;-3.22359869;-6.911252704;5.646675348;3.944313028;5.607541008;-6.864542802;10.84576667;23.55617851;-4.235917811;0.377503176
5.353141981;8.375427558;-35.51431344;-15.27068198;-2.274724771;0.379237639;-11.82498182;-9.942326855;-7.11155952;-6.109240774;-9.351869843;3.228019513;0.914601549;5.498527832;1.446613862;6.101720214;20.48761383;-8.177293122;-0.194308349
5.85445438;7.604187935;-34.08046158;-16.06379067;-4.489059098;0.223429765;-13.57230391;-10.11121205;-9.715801048;-6.536238997;-7.969962934;1.684776905;-1.147413674;9.139900428;9.784298855;-1.519640174;17.38501821;-10.4690269;-1.005227884
6.679388102;10.10284421;-27.98499443;-14.93046218;-3.694031787;0.010298164;-11.48413483;-6.717385687;-7.996834675;-4.510597972;-3.695000173;1.504727756;-1.699745339;13.98841221;13.95706643;-8.586378366;15.5885583;-10.38075667;-1.597887369
8.124390521;14.09820039;-19.96503512;-13.16264126;-1.110482381;-0.095321529;-7.212516302;-1.858002026;-3.617095562;-1.442513857;1.055168716;2.246473687;-1.206138472;16.11089322;12.41221673;-13.14214031;15.50730028;-8.74054348;-1.780769125
9.954237108;16.73552199;-13.55767415;-13.30696108;0.60907398;-0.023825695;-3.85;1.592780658;0.193027228;0.536476616;3.676864668;2.846178156;-0.841055127;13.42852995;7.264608629;-14.82858017;16.46850805;-6.768000445;-1.697157352
11.46350541;16.15081241;-10.97498651;-16.81847496;-0.254460176;0.144283693;-3.865593423;1.682379746;0.986098797;-0.06033039;2.819429518;2.306301035;-1.722556454;7.492796817;2.512918295;-13.88019869;17.26468356;-4.83092537;-1.609332281
11.9565659;12.75094815;-11.85489893;-22.51724592;-3.007601581;0.248719038;-7.480264954;-1.530850892;-1.37084973;-3.056487935;-0.967923636;0.315876255;-4.137828991;2.318313754;1.006520115;-10.40839861;16.99470348;-2.391172875;-1.64447288
11.24590873;8.696594663;-13.76625944;-27.27826565;-5.222940736;0.185376308;-12.71328865;-6.2257952;-5.055921198;-6.798010692;-5.806989205;-2.604577246;-7.317800173;1.246080587;2.612676894;-4.764365151;15.60409437;0.841430559;-1.733173686
9.750281363;6.13170041;-14.0777597;-28.46749415;-4.910471518;-0.00688327;-17.01201295;-10.19530889;-8.032890895;-9.44548203;-9.853280546;-5.509021058;-9.988100349;4.431282709;4.887048325;1.596708678;13.79044946;3.801647654;-1.749266551
8.124937562;5.721566859;-11.80384793;-26.07761872;-2.2294116;-0.180540634;-19.1269751;-12.33661206;-9.620078125;-10.34745532;-12.45787632;-7.674313053;-11.34947772;8.973852872;5.432774763;6.030736081;12.43319911;4.323038623;-1.667963649
6.763043279;6.663091967;-8.099501231;-22.70267181;0.731916459;-0.20333546;-19.75969169;-13.18592552;-10.65829664;-10.38782537;-14.30837804;-9.028062917;-11.75373174;11.4560536;3.84826318;6.003836029;12.03129542;0.812807651;-1.576824334
5.604475022;7.925943892;-5.144107143;-21.31109872;1.823297562;-0.065855618;-20.58774959;-14.17885052;-12.35903711;-11.05859356;-16.52702995;-10.07705635;-12.4960122;10.66750246;1.713049153;0.962001544;12.54362033;-6.021185869;-1.556073962
4.390254219;9.385781763;-4.381497781;-22.68501029;0.633185782;0.115899287;-22.62237262;-16.29525532;-15.01847829;-13.077904;-19.50607268;-11.43013862;-14.79140971;8.262484535;0.852908944;-6.826774943;13.63848396;-13.01188105;-1.587406506
3.082981179;11.72121655;-5.502569043;-24.72809216;-1.340087891;0.200231425;-25.3293857;-19.18697728;-17.74880064;-15.73149768;-22.42932342;-13.28390578;-18.67095238;6.969759164;1.566550943;-13.39337412;15.02931178;-16.33941544;-1.605723601
2.022991508;15.23422891;-6.874641114;-24.28035081;-2.184254548;0.133813984;-27.18513181;-21.45226548;-19.34041148;-17.46492261;-23.83781786;-15.22378424;-22.67438687;8.078924145;2.395469913;-15.49716749;16.58243869;-14.0395357;-1.632293099
1.649244451;18.8797022;-6.937544157;-19.93173723;-1.297216388;-0.014616266;-27.0607231;-21.77843515;-19.33527493;-17.17452775;-22.74119864;-16.43490849;-24.66907017;10.43599429;1.567381847;-12.58610244;18.18218747;-7.311391505;-1.816672611
2.044573134;20.66329441;-5.373730686;-13.43956653;0.212334767;-0.122256379;-25.16244423;-19.99262178;-18.29645524;-15.07744047;-19.36206187;-16.14223181;-23.27203736;11.72247415;-1.233757874;-6.853420108;19.61014487;0.334256097;-2.298427607
2.761003969;19.27072029;-3.154035113;-8.504565945;0.71553144;-0.11661428;-22.74418473;-17.18074913;-17.11547169;-12.4548898;-14.95250097;-14.00650237;-18.85455811;10.72795774;-4.35985036;-1.479380849;20.66026731;5.342213615;-3.00258368
3.144311805;15.52248079;-1.545367467;-7.882829076;-0.343591981;-0.025961669;-20.95;-14.82988051;-16.13883853;-10.56163022;-10.91384657;-10.30591254;-13.37412527;8.499889658;-5.412706892;1.467676974;21.403405;6.047244867;-3.593171221
2.91013347;12.22157695;-0.986963712;-11.21934351;-1.945107805;0.06040374;-19.89044667;-13.74205606;-15.01588269;-9.686060331;-7.993200136;-5.886044149;-9.126527187;7.350510975;-3.171085847;1.904014237;22.25993;3.014283976;-3.692370123
2.455634483;12.28020288;-0.748621239;-15.38912463;-2.501735575;0.077475703;-18.76087022;-13.60558657;-13.38687669;-9.145274647;-6.17327541;-1.925304503;-7.299123445;8.675866148;1.340711785;1.000639283;23.64220055;-2.041402708;-3.217331701
2.585667729;16.53783196;0.444075158;-17.03988826;-1.389741986;0.03554169;-16.80461555;-13.5073817;-11.63715662;-8.128832838;-5.191393611;0.453497176;-7.337455279;11.6009789;5.467542618;-0.169138627;25.35508664;-7.519809334;-2.534585388
3.838435849;23.04797947;3.418599119;-15.21936622;0.435782295;-0.004815377;-14.15527575;-12.86542853;-10.83631378;-6.565169015;-5.055737081;0.673784656;-7.524398507;13.68451082;6.695964385;-1.288017247;26.30606769;-12.34410585;-2.249467302
5.966703985;28.44736481;7.991711055;-11.95295516;1.294237061;-0.002659266;-11.76557359;-11.94325125;-11.79180794;-5.221652557;-5.99292945;-0.877359311;-6.295625904;13.04158534;4.233695574;-2.323544427;24.97391252;-15.57211659;-2.75578311
8.024176116;30.31122471;13.14922918;-10.38862658;0.294905068;0.01901991;-10.53755473;-11.52800384;-14.09691643;-4.988483914;-7.890817002;-2.803111124;-3.33461751;9.980644362;-0.670445555;-2.683465945;20.4971341;-16.1285387;-3.900187231
9.000304666;28.61388227;17.6427594;-12.13742513;-1.868123052;-0.002724907;-10.53658917;-12.11899567;-16.19220325;-6.040403301;-9.889192539;-3.245191331;0.273155219;6.714674688;-5.703983898;-1.119916189;13.62048694;-13.33806103;-5.049492986
8.480888476;25.21948915;20.44807094;-16.02644248;-3.524441433;-0.10295621;-11.07101158;-13.40349279;-16.58096817;-7.649798916;-10.72761936;-0.904047952;2.827820384;5.442525887;-8.920667726;3.270506672;6.653234658;-7.890931957;-5.527233595
6.800428672;22.00547737;20.84550996;-19.21088577;-3.438581334;-0.244036139;-11.55430909;-14.51882249;-15.21713555;-8.799456747;-9.762522763;4.011493705;3.108384362;6.523699426;-9.660613305;9.763027984;2.232987267;-2.129312399;-5.080488344
4.608188812;19.31488892;18.35173856;-19.59746043;-1.74829537;-0.339504091;-12.26903493;-14.87003906;-13.78317321;-9.010786758;-7.823209659;9.582665366;1.021041682;8.329823738;-8.555977098;15.69198757;1.625901485;1.047767177;-4.014807035
2.285548831;16.03158406;12.85699754;-17.50470876;0.333281843;-0.327555456;-14.19781912;-14.74564231;-14.45344421;-8.634179303;-7.006840541;13.03779182;-2.536096713;8.822146778;-6.874278586;17.65984589;3.779693274;0.086344529;-2.914541915
-0.23829598;11.08206201;4.989846849;-15.23265805;1.652234062;-0.227068298;-17.96476419;-15.12525237;-18.0703529;-8.373968428;-9.288035144;12.27915583;-6.363802305;7.385894082;-5.726994596;13.57821025;5.918851842;-4.031889892;-2.203854964
-3.123028531;4.919320104;-3.687968297;-15.01870996;1.979115116;-0.122786017;-22.83497455;-16.78467696;-23.25834258;-8.533984957;-14.85570244;7.152985829;-9.672864858;5.295882437;-5.53719744;4.142659601;5.378248663;-8.447902296;-1.909511506
-6.098651907;-0.39540953;-11.08198984;-17.15947449;1.869423959;-0.089949619;-26.78778213;-19.45181108;-27.28361179;-8.708797683;-21.49945582;-0.391347634;-12.38168651;4.47734601;-5.908409552;-7.264738532;1.42387288;-10.56664881;-1.781371969
-8.363779964;-2.635004459;-15.52048687;-19.82854157;1.81222041;-0.124897058;-27.79195999;-21.78113031;-28.0149027;-8.20409937;-25.71431982;-7.404379696;-14.91210897;5.753119357;-5.892138678;-16.14468916;-4.240352018;-9.983397873;-1.607045019
-9.104075568;-1.165139814;-16.66414908;-20.62677893;1.626010032;-0.145484262;-25.32848;-22.25538526;-25.40658356;-6.773231702;-24.90833186;-11.59881346;-17.7042779;8.161712112;-4.573927513;-18.9232112;-8.652830665;-8.578500805;-1.410986677
-8.233020415;2.450019531;-15.6577605;-18.48858229;0.738050849;-0.064650156;-20.89903077;-20.34075121;-21.33123619;-4.957214618;-19.18269369;-12.49176103;-20.77592044;9.8911122;-1.74852524;-14.39613703;-9.612370268;-8.687175556;-1.372382727
-6.673582477;5.4909686;-14.32157157;-14.3960658;-0.973981188;0.125082027;-17.03726601;-16.97792204;-17.98752615;-3.686460324;-11.3735764;-11.33797696;-23.56913253;9.899228487;1.723684258;-4.096621119;-7.092027791;-10.92925739;-1.578672367
-5.824136948;5.942513153;-13.92396552;-10.46101086;-2.719484199;0.33086822;-15.56260652;-14.00094913;-16.28283894;-3.494305788;-5.284779342;-10.0282135;-25.16584615;8.729228689;4.246940964;8.281169395;-3.08546606;-13.62101351;-1.882344729
-6.539645415;3.76285731;-14.42791933;-8.290507182;-3.304935841;0.424688349;-16.44078262;-12.9204886;-15.52697568;-4.063245963;-3.365245523;-9.811865518;-24.78677831;7.840534397;4.461200199;18.07795783;-0.089987905;-14.32770676;-2.012982732
-8.421831494;0.723218868;-14.74639309;-8.011090066;-2.220999704;0.343416228;-18.10654986;-13.99310092;-14.55838989;-4.531146065;-5.468614459;-10.71515858;-22.34153299;8.162385365;2.246225132;21.25108624;0.609323324;-12.20334401;-1.83573347
-10.02716533;-0.888212264;-13.75811657;-8.602484453;-0.258295195;0.141805842;-18.89835662;-16.23536224;-13.15364637;-4.29328804;-9.476923471;-11.90923889;-18.70924426;9.248522626;-1.049369863;16.04708921;-0.361647804;-8.992206816;-1.497063005
-9.89;0.337956082;-11.26699478;-9.02334911;1.0362011;-0.046030953;-18.37478265;-18.26889271;-12.3673704;-3.575199995;-13.15133436;-12.5601016;-15.48770516;9.786449268;-3.480738926;4.130087891;-1.166230478;-7.671843663;-1.30376584
-7.598598798;4.328433231;-8.186945877;-9.034578026;0.671659248;-0.106472244;-17.45272419;-19.25110222;-13.46999356;-3.23959083;-15.69773282;-12.42539038;-14.21136829;8.921869317;-3.919590095;-9.672049803;-0.205479464;-9.793274943;-1.43976991
-4.103542764;9.870512442;-5.884430055;-9.062000426;-0.877494191;-0.028025854;-17.34574256;-19.16578401;-16.46110687;-3.963875743;-17.86663409;-11.80200899;-15.41020079;7.117566138;-2.893953329;-19.37373082;2.786981897;-13.81995912;-1.787674209
-1.036427787;15.42485171;-5.25325805;-9.393914313;-2.045807563;0.0986913;-18.28434357;-18.36379782;-19.56194659;-5.48933408;-20.64628421;-11.02650226;-18.10796225;5.743732433;-2.099571301;-20.84539227;6.707853822;-16.04514159;-2.029742469
0.419363706;19.83501737;-6.221023463;-9.587067381;-1.566044808;0.15928131;-19.13495032;-16.90432623;-20.2594404;-6.607504418;-23.75139879;-10.06975521;-20.20035137;5.81095011;-2.906990686;-14.11420209;9.959557092;-13.52115747;-1.940646356
0.249775086;22.67387772;-7.956858509;-8.684865044;0.354285873;0.106991407;-18.23477648;-14.38346737;-17.12932137;-5.950297809;-25.25707247;-8.601230822;-19.62031932;7.055018926;-5.098137223;-3.34151609;11.47942902;-6.663082903;-1.59980274
-0.563797095;24.26251745;-9.488420736;-6.054789863;2.156450879;-0.005350091;-14.73983138;-10.4488496;-10.98430924;-3.001607487;-22.78619726;-6.427157519;-15.62053499;8.228943046;-6.958004439;5.731726108;11.20138475;0.675130097;-1.321706076
-0.882138392;25.44086365;-10.21570725;-2.084622837;2.287718452;-0.074906563;-9.393399251;-5.528002172;-4.443892856;1.418118274;-15.39422978;-3.868536902;-9.325953985;8.306640611;-6.718699985;9.294741565;9.778050109;3.86396774;-1.365212828
-0.207186667;27.10316793;-10.04235486;1.877799416;0.593649726;-0.03645215;-4.134278983;-1.039904292;-0.293477914;5.524785663;-4.703976725;-1.717297017;-3.134327029;7.447617822;-4.141747459;7.574372862;7.949362055;0.886776116;-1.691598411
1.132307811;29.59389879;-9.231620356;4.288971632;-1.518436132;0.083307762;-0.892885056;1.24862197;0.104708655;7.506759867;5.629206001;-0.790974531;0.681501418;6.809893771;-0.826381863;4.125270052;6.092180687;-6.186816677;-1.99861061
2.422915077;32.29068711;-8.250603396;4.26412439;-2.31962879;0.186591992;-0.493723535;0.337800943;-2.728291394;6.396715972;11.82299255;-1.441582027;1.245926359;7.394006144;1.100625682;2.916650665;4.203918664;-12.78417552;-2.001047133
3.163558877;33.77913898;-7.6976433;1.91750177;-1.306940344;0.181966775;-2.391375051;-3.248617941;-7.136071252;2.407548151;11.97240627;-3.384089136;-0.615799129;9.018562827;0.815103451;5.398708994;2.179601465;-15.20735926;-1.696983385
3.319787492;32.69792707;-8.169585953;-1.922404393;0.334629801;0.056789009;-5.265906635;-7.681143735;-11.4726059;-3.312018677;6.860149963;-5.924327048;-3.190927453;10.40792176;-0.477151104;9.632492889;0.069254343;-13.17525061;-1.370368409
3.129760995;28.76233399;-9.931442892;-6.252361407;0.786905391;-0.110626693;-7.908633042;-10.91561916;-14.76769789;-9.225203635;-0.828514209;-8.361308497;-5.160281086;10.33123958;-0.613962449;11.9242588;-1.875634254;-9.637486537;-1.326276464
2.766569928;23.17508632;-12.52912347;-10.25381488;-0.758989059;-0.206934816;-9.768488433;-11.90125038;-16.6875103;-13.95560444;-8.192977422;-10.26651388;-6.398493669;8.744614033;1.554269253;9.559543835;-3.329467893;-8.162003579;-1.605682849
2.222605652;17.98901946;-14.73226155;-13.35056095;-3.334653793;-0.164983123;-10.93003906;-11.06669154;-17.21784355;-16.68867349;-13.51440177;-11.51464866;-7.760928506;6.874846381;5.055017307;2.608196183;-4.046062691;-10.06137639;-1.946967598
1.48469735;14.80592225;-15.07739169;-15.15517717;-4.986608123;-0.011004659;-11.73887782;-9.788719427;-16.54711171;-17.38513278;-16.55935338;-12.1571599;-10.11788287;6.1553176;7.580708013;-6.283252754;-3.949084533;-13.50318495;-2.03097005
0.7402269;13.79492601;-12.80585708;-15.50171961;-4.428761648;0.154642722;-12.4318219;-9.28651192;-15.15243789;-16.74448134;-17.87864162;-12.29650792;-13.44600986;6.97910256;7.515427991;-13.61018034;-3.171552248;-15.17226417;-1.780334724
0.326401783;13.81329948;-8.548832806;-14.52725977;-2.105515536;0.227541885;-12.96932987;-9.758914055;-13.70911087;-15.84250515;-17.87641843;-12.02530858;-16.68357338;8.398110367;5.388567703;-16.83054161;-2.068844559;-13.02687033;-1.432028922
0.426109535;13.51588841;-4.149254254;-12.60990433;0.237218287;0.17014872;-13.05077231;-10.34073553;-12.62048375;-15.51178397;-16.43066079;-11.38902764;-18.41745189;9.025228485;3.409773567;-15.21722278;-1.163158716;-7.91981141;-1.314268901
0.820571383;12.50576478;-1.594612532;-10.10396138;1.044797393;0.035430561;-12.23143295;-9.822342031;-11.51942901;-15.7850199;-13.25958575;-10.33994599;-17.82373784;8.299319575;3.461605867;-9.693756598;-0.957094274;-2.865982876;-1.537256451
1.006426241;11.5602297;-1.737786815;-7.091128621;0.172775954;-0.070959067;-10.11699134;-7.548133536;-9.368312482;-15.82135845;-8.572900854;-8.738229643;-15.13196115;6.958797021;5.360833588;-2.276509238;-1.657008352;-0.636989416;-1.889303411
0.648851567;11.8012323;-3.717362512;-3.446953455;-1.195784156;-0.062598271;-6.622144702;-3.852433011;-5.352965047;-14.48385127;-3.340944862;-6.47774585;-11.30710935;6.314668946;7.007687199;4.427374265;-2.989888636;-1.629390097;-2.037211072
-0.015250151;13.61927811;-5.516561855;0.75490424;-1.754951921;0.070561121;-2.175148887;0.209739128;0.062581143;-11.24211654;1.120654226;-3.696096833;-7.269238593;7.018510699;6.339744887;7.795601525;-4.307851091;-3.65257707;-1.842250905
-0.231086096;16.34248341;-5.266061138;4.87493972;-1.239022388;0.257236748;2.337286076;3.566235457;4.954580076;-6.734626086;3.951748543;-0.87778615;-3.295169912;8.466520902;3.317164387;6.135532633;-4.979779045;-3.741556632;-1.492197278
0.729504443;18.90138883;-2.360246319;7.838783701;-0.500181819;0.39379499;5.979043586;5.742207453;7.096224143;-2.489576681;5.29200471;1.330462712;0.954828785;9.37186678;0.064989056;-0.232050549;-4.809273899;-0.559229252;-1.322554733
2.95;20.78181743;2.356966422;8.82949868;-0.522440884;0.412973471;8.324017312;7.002110004;5.734315343;0.076234941;6.108910166;2.541404842;5.866440919;8.953817574;-1.049705691;-8.608253339;-4.139713464;4.437600412;-1.495473582
5.707381403;22.3052333;7.340294457;8.027416915;-1.384465991;0.325626379;9.735071048;8.004588006;2.512114138;0.655205892;7.402990493;2.963078335;11.25094423;7.638522494;0.312328971;-15.00326914;-3.528845142;7.919084311;-1.84299464
7.939310994;23.9793789;11.34844116;6.689470631;-2.181682666;0.207981177;11.04932475;9.262744863;0.541511045;0.249779986;9.373079038;3.297975488;16.16884049;6.640078125;1.988822209;-16.36049165;-3.240922209;6.99604844;-2.027646188
8.978393426;25.63385405;13.9449254;6.323205064;-1.956441273;0.144941322;12.80952002;10.76250262;2.09642614;0.365217066;11.17262745;4.175049924;19.32346747;6.833542075;1.213812715;-12.47003906;-2.993520636;1.261694297;-1.869769184
8.947254483;26.31529676;15.25700495;7.502407621;-0.699003807;0.170597775;14.61662619;11.92826593;6.664683693;1.780283504;11.4580212;5.522437959;19.73164618;7.971088731;-2.739274282;-6.0447758;-2.210936764;-6.853392071;-1.525978457
8.486036926;25.15870309;15.39744721;9.292141572;0.585211911;0.248382599;15.1840071;11.89916875;11.00396158;3.844869488;9.343833526;6.442796309;17.21812343;8.948967832;-7.608516817;-0.720090332;-0.604397751;-13.61085374;-1.339923909
8.057402812;22.39242154;14.16419211;9.854123715;0.834800863;0.303700914;13.16687727;9.939015665;11.3398688;4.864799145;5.07376241;5.813075782;12.45225286;8.84673428;-9.912624252;1.565373212;1.410277019;-16.29108509;-1.502248218
7.448036577;19.36031537;11.2774949;7.847357113;-0.004394859;0.282765472;8.199064552;5.788577709;6.102846453;3.290755901;-0.08353825;3.219348237;6.572745277;7.758147977;-8.0042959;1.734726683;2.845287066;-14.74933798;-1.851054568
5.925214338;17.33375594;6.862146055;3.523030226;-0.870925988;0.192155135;1.336735162;-0.169952866;-2.908739538;-1.191705667;-4.64407463;-0.528977855;0.679709866;6.657550009;-3.688662876;2.343064909;2.761224506;-11.23101043;-2.021700633
2.939014296;16.15491672;1.648520722;-1.40572736;-0.598747897;0.089455947;-5.477535419;-6.98968648;-11.84584385;-7.473890044;-7.844068584;-3.812354541;-4.516756419;6.464415576;-0.829765481;5.031689379;0.894699114;-8.685616511;-1.817803184
-1.228058049;14.13105259;-3.35547693;-5.052927137;0.879772358;0.034296998;-10.56360962;-13.45581856;-17.55175516;-13.81663712;-10.03579035;-5.321778833;-8.764077931;7.209053002;-2.024481731;8.911630247;-2.202721365;-8.800706849;-1.440975984
-5.444475711;9.563937106;-7.461432961;-6.764704796;2.310568233;0.04039549;-13.41934274;-18.5026351;-19.5799758;-18.95688714;-12.27729564;-5.044577165;-12.11064647;8.076358823;-6.2443956;11.34351232;-5.599780244;-11.08532877;-1.323212291
-8.407451617;2.690836363;-10.64779603;-7.479398298;2.174352346;0.067485474;-14.75178048;-21.58333112;-20.00563772;-22.68702707;-15.43841896;-4.306429979;-14.6823268;8.249756848;-9.627096908;10.45470953;-8.602117707;-13.53352958;-1.677959563
-9.493880067;-3.834539941;-13.362132;-8.755619756;0.117679361;0.05838826;-15.68071547;-22.81761732;-21.39157203;-25.56315059;-19.48738236;-4.777721065;-16.53358653;7.715018516;-8.866146942;7.111089429;-11.03577264;-14.2728183;-2.185734587
-9.112837333;-6.692403551;-15.97090796;-11.31494591;-2.560533554;-0.011286614;-16.80155221;-22.83249006;-24.71252538;-28.11423403;-23.46609662;-7.188948511;-17.63098551;7.236677318;-4.282203539;4.436048318;-13.02384347;-12.94314494;-2.159508689
-8.297026616;-4.624481429;-18.35175491;-14.36011601;-3.887111743;-0.11346902;-17.83536931;-22.37258684;-28.89337953;-30.26245588;-26.131656;-10.75471497;-17.93308838;7.53152453;0.192255825;5.110313726;-14.56648981;-10.81535698;-1.121630436
-7.890744983;0.236444187;-19.97398181;-16.25378356;-2.859866305;-0.194290767;-18.04657879;-21.893039;-32.09139216;-31.39015125;-26.74532063;-13.74284747;-17.47206476;8.455393402;0.246942017;8.748859971;-15.40480251;-9.638597131;0.678959369
-8.00049589;3.838364177;-20.36629459;-15.95534932;-0.322014497;-0.222846509;-16.96779688;-21.3614331;-33.34360011;-30.89450179;-25.41007813;-14.70024877;-16.34773173;9.029369322;-5.074957503;11.766684;-15.33671636;-10.17185457;2.296705527
-8.120803907;3.483675588;-19.54171099;-13.94906532;1.729784876;-0.218152597;-14.78064636;-20.3659783;-33.03267824;-28.68766989;-22.7501974;-13.33655638;-14.62029292;8.33814545;-12.40227621;10.09871456;-14.64966506;-11.57616835;2.728546235
-7.761635364;0.157993174;-18.02484929;-11.84110602;1.825931616;-0.229248739;-12.08092864;-18.43673159;-31.87948174;-25.22527541;-19.27127854;-10.40214273;-12.19351979;6.480954176;-16.74089526;2.639123864;-14.13717063;-12.14666333;1.696744159
-6.989498897;-2.232245533;-16.50753381;-10.97155137;0.235719311;-0.285006684;-9.325936481;-15.36416769;-29.64111995;-21.11206187;-14.99237748;-6.782757176;-8.831263668;4.657437737;-15.58112824;-7.49978043;-14.51110932;-10.78438628;-0.062269305
-6.396813006;-0.240866135;-15.47267802;-11.25459471;-1.338298207;-0.358393644;-6.504663778;-11.3238332;-24.99584683;-16.6961546;-9.686010055;-2.694259605;-4.375340108;4.241080133;-10.87500619;-15.09362039;-15.63243646;-7.999660988;-1.281999666
-6.531023762;5.996332232;-15.08935235;-11.26298653;-1.295333363;-0.379321008;-3.303909016;-6.760860617;-16.93581431;-12.01553308;-3.505195495;2.280675659;0.945680108;5.629505552;-7.180472998;-16.66774524;-16.28990707;-5.601147574;-1.085755703
-7.295364793;12.73857924;-15.36240901;-9.483642635;0.460599967;-0.288923743;0.445257424;-2.146382086;-6.437380982;-7.090078125;2.613197282;8.383247068;6.372622209;7.893525183;-7.6064758;-13.00964999;-14.90776518;-5.285549668;0.36239801
-7.868616143;15.91125313;-16.25892235;-5.649875711;2.469214418;-0.091483381;4.496313442;2.216521115;3.294486393;-2.228244956;7.246579692;14.91224049;10.84735969;9.547020691;-11.10724361;-8.325440038;-10.78403679;-7.250113882;1.985745431
-7.258379253;14.84834569;-17.6012851;-1.000187136;3.018707946;0.139710076;8.333996872;6.218263807;8.585728047;1.968336672;9.380414894;20.31174696;13.56842891;9.76;-13.47244296;-6.804291463;-4.905427862;-9.954396119;2.604572981
-5.070543628;13.04659783;-18.84107839;2.733707433;1.621134364;0.308853981;11.55137766;9.809113079;7.847829464;4.908369134;9.225964488;23.15197205;14.51594172;8.950469945;-11.10057802;-9.444214801;0.415834245;-11.23892514;1.800451775
-1.888117526;14.99260674;-19.06007813;4.695417811;-0.636430552;0.359846029;14.0545106;12.82378567;2.861794746;6.335721702;8.239870652;23.18910618;14.51514537;8.26717988;-4.208695789;-13.65256638;2.965129429;-9.91356222;0.182017268
1.047836391;21.72442609;-17.40533724;5.429140205;-2.119292892;0.305767383;15.89684735;14.90497503;-2.372426921;6.387213631;8.191847127;21.54237916;14.68902386;8.482698557;3.330205416;-15.72308365;2.12075319;-6.562910531;-1.115439232
2.627779803;29.22199271;-13.73821653;6.145755587;-2.076726027;0.20604192;16.95465454;15.60120627;-4.425820006;5.36738709;9.898756126;19.75834466;15.62369548;9.326606312;7.319063517;-13.92414758;-0.704204042;-2.9815639;-1.272207282
2.564474932;31.4693208;-8.962514589;7.455317558;-1.190516252;0.11543;16.84637459;14.60495474;-2.713535829;3.492645341;12.58855582;18.52291105;16.86238606;9.846602188;6.745687099;-9.614033848;-3.044578832;-0.78124608;-0.318111318
1.515704995;25.84894627;-4.640087891;8.761233224;-0.805487988;0.049601437;15.26310939;12.00371644;0.489181017;0.860602561;14.44281357;17.14305408;17.16894701;9.412150195;4.386068141;-5.68585584;-3.086669911;-0.346435852;0.998904138
0.60104965;16.10239754;-2.051243086;8.886371923;-1.615422949;-0.007229018;12.43100698;8.387617182;2.172214704;-2.355642625;13.96304008;14.28990995;15.43446677;8.382520724;4.071129233;-3.977891342;-0.845196651;-0.928784581;1.827827273
0.687762796;9.823985036;-1.359966722;7.346584988;-3.035829118;-0.067194388;9.214955019;4.712312184;1.013010004;-5.743509561;11.11713897;9.386871606;11.56639448;7.79453245;7.167707252;-4.004536389;2.013058716;-1.628116795;1.793786907
1.922388011;12.16090334;-1.539229995;5.053064364;-3.811700314;-0.114691383;6.641252263;1.939366276;-1.891258618;-8.764728775;7.334404284;3.409819399;6.652950192;8.363840281;11.45582618;-3.94336731;3.484970097;-2.245690064;1.128429115
3.75283306;21.05769402;-1.147201841;3.704479431;-3.245871504;-0.118339432;5.154358384;0.613303024;-4.439601752;-11.11667171;4.303641966;-1.679754538;2.227358992;9.75249564;13.33476691;-2.669684716;2.645487763;-3.192654459;0.348969212
5.341187652;28.56280609;0.633192371;4.316884987;-1.874892321;-0.066809549;4.236365273;0.606127489;-5.687872793;-13.02318873;2.51982856;-4.470289976;-0.824894616;10.81474158;11.2419051;-0.765380575;0.14171941;-4.602652845;-0.171851555
6.06391992;27.69637464;3.498854828;6.177049589;-0.964553026;0.008910668;2.78395482;1.203707311;-6.760240833;-15.12664783;0.809546748;-5.309738654;-2.851972904;10.61645577;7.105137114;0.414032109;-2.456748177;-5.631682277;-0.392038956
5.824791679;19.2557241;6.43808147;7.220814192;-1.31573528;0.053068757;0.018391645;1.528290888;-9.679120075;-17.9634803;-2.650655091;-6.086038894;-5.022909549;9.289647283;4.518295675;0.525600114;-3.794379294;-4.827782949;-0.468020687
5.072741718;12.29094202;8.663307119;5.64065803;-2.512175088;0.03083289;-3.773658158;1.079761065;-15.15910392;-21.38380849;-8.520984055;-8.644781641;-8.220140793;7.922651156;5.382828145;0.897320022;-3.436157918;-1.456242766;-0.513290714
4.571391016;16.86390456;10.25743119;1.440447862;-3.315451128;-0.038797678;-7.277057424;0.072939463;-21.36616689;-24.38810268;-15.14200228;-13.0912334;-12.12077141;7.575594596;8.171368464;3.187215602;-1.726570166;3.344618176;-0.501549696
5.037975317;34.3918885;11.99218594;-3.366520819;-2.830562706;-0.095653914;-8.962997029;-0.658694323;-24.85291609;-25.57923011;-19.12240259;-17.40021384;-15.22357734;8.323980165;9.436999402;7.243320755;0.857480815;6.767702651;-0.371986837
6.787145055;53.73068114;14.50431299;-6.13155211;-1.345082721;-0.089321861;-8.064163251;-0.16472086;-23.02816437;-23.96932468;-17.46945459;-18.73845814;-15.8290456;9.211775286;7.142389151;10.38224074;4.167702151;6.051689309;-0.176588036
9.523871916;57.33032323;17.57787169;-5.444253794;-0.056238268;-0.024650623;-4.98357492;2.008448649;-16.18833165;-19.59869508;-9.803396259;-15.51151352;-13.21340251;9.155110087;2.659018891;9.174790091;8.275399923;0.54127385;-0.081935005
12.41248574;33.90267855;20.19125037;-2.033565565;0.054287001;0.040263803;-0.889855994;5.475278221;-7.45159542;-13.54202123;1.023419754;-8.537843219;-8.088340583;7.957535484;-0.485275133;2.473258952;13.02457453;-7.522624445;-0.209855817
14.44990821;-11.69660683;21.31934622;1.958802128;-0.860412773;0.045226696;3.1001765;9.163323412;-0.617561843;-7.304935777;10.51064332;-0.44415516;-2.031436315;6.49628812;0.028704722;-6.99593482;17.80598422;-14.22952723;-0.485805276
14.99179112;-59.37524848;20.81023654;4.656544152;-1.662917616;-0.014887815;6.47968008;11.86919547;2.381612128;-2.028727154;15.28919216;6.197753403;3.589776662;5.911448749;3.011863566;-14.18027094;21.85881771;-16.45404453;-0.670533013
14.13081601;-85.76751383;19.56420304;5.681750921;-1.311686122;-0.078625222;9.282604479;12.87121528;2.502651546;1.975434304;15.14547581;10.49030219;8.299745446;6.557499599;4.780246366;-15.43084194;24.84345055;-13.7859022;-0.571018718
12.65481675;-79.15748471;18.81928236;6.014092479;0.142237779;-0.066417127;11.59400476;12.22827041;2.41774215;5.102154433;12.83210271;13.34858197;12.29808608;7.694873062;2.635935971;-11.40176954;27.11130893;-8.578264367;-0.238704166
11.55872357;-46.7996677;19.10742126;6.759886558;1.580890523;0.049039377;13.17776305;10.61512213;4.201921832;7.893869649;11.81563192;16.18952959;15.65648238;8.203685314;-2.421432103;-6.575057715;29.34397379;-4.186885906;0.044378587
11.40248671;-9.526558749;19.74458365;8.010836191;1.851719477;0.210429191;13.58121277;8.84810506;7.728435391;10.48232654;13.64520652;19.39779305;17.76440418;7.642678394;-6.391577741;-5.610144719;31.82451743;-2.780806729;0.001842245
11.95174525;12.2318277;19.29939982;8.801929944;0.846194639;0.312326828;12.58889669;7.428960791;10.92573214;12.42550061;16.90820208;21.91759463;17.62419833;6.652690247;-5.889258929;-9.448563011;33.98675178;-4.27951158;-0.379684327
12.36497438;10.91273743;16.69282935;8.13579756;-0.386699524;0.280542416;10.56163298;6.371653668;11.53101608;13.03567209;18.52739504;22.2928614;14.80202418;6.323225901;-1.389706074;-14.43728851;34.68904284;-6.964791421;-0.806527727
11.80090951;-5.65259253;12.06870953;6.069872895;-0.60807394;0.13140358;8.307013962;5.349237514;8.878352097;11.9454032;16.35534568;20.19350212;10.18382665;7.125505104;2.997951446;-15.28896599;33.03607515;-9.026288149;-0.899356649
10.00469737;-22.32806821;6.756931186;3.817711441;0.457208984;-0.03731556;6.560694218;3.988722408;4.380830051;9.489907799;11.01797311;17.02409984;5.761220558;8.43748183;3.204868318;-9.49309258;29.07866688;-9.763690436;-0.496733496
7.445674232;-28.39582363;2.368520097;2.722117851;1.858538533;-0.117668493;5.509536283;2.09771713;0.477121949;6.603866103;5.542677999;14.98860888;3.453221219;9.136194886;-0.954055634;0.45181318;23.80880601;-9.694540771;0.217222358
4.925984938;-24.08762954;-0.270732666;3.004126509;2.303500113;-0.069511699;4.749590604;-0.273105538;-1.042718356;4.265923963;3.045258647;15.32144068;3.811280421;8.713581974;-5.377043333;8.823543299;18.46832837;-9.807916835;0.865531358
2.98917515;-17.97533342;-1.547430009;3.447443378;1.372129031;0.054465763;3.699186889;-2.874024735;-0.090963083;2.862466555;4.298051222;17.15824284;5.634162981;7.842158893;-5.284887489;10.99995289;13.7744829;-10.76980703;1.173000638
1.603079185;-18.56087125;-2.572147694;2.40177139;-0.074011569;0.153175383;2.122306669;-5.30100878;1.919428147;1.947820587;7.13360555;18.0546354;6.851623479;7.797029905;0.307673587;6.801444843;9.712926469;-12.64483551;1.149689551
0.353277452;-27.32133813;-4.200941691;-0.664715578;-0.685645817;0.153570387;0.363675855;-7.017952486;3.215947368;0.640557647;8.216497692;15.83729819;6.044315842;9.211633124;7.376201537;0.25742403;6.017008199;-15.04867016;1.021180655
-1.043606282;-38.3640216;-6.325343851;-4.376098491;0.100719588;0.060154517;-0.840727179;-7.44089775;2.863137635;-1.566566268;5.828193397;10.37075742;3.454944383;11.31626531;10.2272038;-3.765638054;2.821068015;-17.2951482;0.993041621
-2.362298146;-44.02665375;-7.934626466;-6.18614315;1.497138167;-0.055894283;-0.796642051;-6.167864818;1.25183339;-4.177535281;1.443402036;3.845371437;0.732288406;12.43056542;6.539736574;-3.122055976;0.817211936;-18.35662862;1.074699556
-2.96637637;-41.18652836;-7.856487992;-4.194092298;2.058373691;-0.113067163;0.766784467;-3.297716129;-0.305233835;-5.805145642;-1.245921345;-0.675102483;-0.372232555;11.36074563;-0.448835273;0.71928828;0.709235969;-16.94369931;1.115241833
-2.319116853;-33.16754932;-5.613051247;1.3066099;1.024531795;-0.075107329;3.542086516;0.382927246;-0.494896153;-5.083121038;0.783552353;-1.366471552;0.655735491;8.497052753;-4.733047362;4.794958208;2.43115057;-12.09990586;0.997128506
-0.491644928;-26.29898972;-1.804091712;7.751368967;-0.919718039;0.032659006;6.717173639;3.583114175;1.163287293;-1.781173382;7.293913405;1.158770744;2.721274906;5.6135789;-2.927386629;7.51410876;4.87014306;-4.188677827;0.788987859
1.7614011;-24.57543836;2.199198383;11.83263407;-2.193976071;0.149663118;9.217227868;5.096536839;4.045370279;2.768215808;14.57380786;4.429835578;3.949288167;4.488900495;2.613192567;9.568888853;6.441815471;4.50075677;0.706668416
3.448639544;-26.9374161;5.011688982;11.59346579;-1.71582651;0.221715778;10.08432462;4.518952207;6.845668647;6.427473037;17.92754694;5.984358025;3.044497433;5.507968315;5.897018786;12.21928478;6.135194753;10.35434138;0.92062159
3.98415753;-28.98174167;5.969163248;7.650488194;0.110876501;0.22687203;8.938883689;2.630319675;8.447266736;7.797201248;15.09286304;5.103610146;0.16790939;7.436760755;2.85683227;14.86834898;4.210790352;10.2735505;1.396018737
3.541182757;-27.09064854;5.439548797;2.747858075;1.720638351;0.17477326;6.325233712;1.099016941;8.716915382;7.408878444;8.015976316;3.160314509;-3.25362105;8.541960902;-4.682014961;14.59035565;1.983801628;3.709806037;1.920646433
2.858639148;-21.29451182;4.572857791;0.000755919;1.7546638;0.090806276;3.633041736;1.566597518;8.669839627;7.508119724;1.571993363;2.405353751;-5.553504713;8.060498246;-10.41046133;8.47414002;0.855017903;-6.573459439;2.296548077
2.66332681;-14.74865762;4.630566814;1.018936024;0.255087451;0.001835477;2.43053574;4.605511303;9.76799439;10.35035293;0.098390734;4.168578124;-5.897543758;6.744610997;-9.256920742;-3.095753687;1.348072157;-15.75705332;2.514901915
3.151183824;-10.79007813;6.2212632;5.074632823;-1.387697238;-0.070340699;3.467128956;9.201909107;12.69804105;16.15216163;4.285127056;7.820258531;-4.683016558;6.055957926;-2.261496393;-15.27901035;2.876811163;-19.58438401;2.747462146
3.899498913;-10.37830887;8.829135368;9.71035826;-1.690291883;-0.112883152;6.001090282;13.15454556;16.47215151;22.3231039;10.74087381;11.2171745;-3.103943628;6.786348923;4.043800703;-21.25867208;4.347515502;-16.67811069;3.159385972
4.234137856;-11.94925512;10.93423806;12.265506;-0.406081529;-0.127713043;8.069435068;14.23363801;18.66554291;24.82707533;14.57017636;12.25708277;-2.294118568;8.362115292;3.505543914;-16.84197494;5.035282543;-9.083871716;3.717289845
3.739461174;-13.34135365;10.77007813;11.33282416;1.26744124;-0.134576138;7.718828905;11.45279724;16.89967017;20.94224799;13.03877631;10.39970089;-2.649006125;9.429555296;-3.72920038;-3.717256927;5.016144129;-0.81832756;4.175090694
2.530942964;-13.73816315;7.401178426;7.344284938;1.788202748;-0.162436573;4.436785794;5.698764744;10.69670215;11.4839746;7.584080349;7.087879611;-3.691916096;9.138944195;-10.83820528;11.24889381;4.882918839;4.470019531;4.259537405
1.136230647;-13.9070525;1.517199816;2.097971795;0.678299341;-0.228976831;-0.292026171;-0.67484526;2.329009298;0.74321647;2.671882852;4.801323463;-4.451802241;7.92387295;-10.27373727;20.2829805;5.100743969;5.193546562;3.894795612
0.140822551;-14.82917756;-4.626599802;-2.35571968;-1.038404365;-0.322277739;-3.858937411;-5.068938053;-4.197282847;-6.029984885;2.371238108;5.404294079;-4.05576091;7.065821998;-0.919657604;19.4402411;5.616749827;2.029005844;3.268263711
-0.104075448;-16.30018331;-8.250171981;-4.775250631;-1.774594216;-0.402567823;-4.3286525;-5.970138606;-5.573287818;-5.928777875;7.227983721;8.889205081;-2.213331758;7.471034166;10.2045147;10.46735536;6.033935159;-3.07480549;2.681207015
0.469717776;-16.92409171;-7.552443212;-5.175318008;-0.851124184;-0.427667173;-1.865955044;-3.633929893;-1.413789744;-0.135006076;13.78349394;13.32683556;0.60885736;8.81318288;13.78367238;-1.196174995;6.106667845;-8.127483514;2.317820539
1.782740458;-15.44029163;-2.753997361;-4.500189406;0.834847668;-0.384121338;1.333968003;0.23241573;5.384906699;7.146313387;17.10035807;16.04839354;3.38196642;9.843718284;6.778632185;-10.33872382;6.032041233;-11.80282477;2.132530696
3.726133303;-12.01672566;4.051316467;-3.801778593;1.572322003;-0.297586576;2.648795267;3.536948755;10.55859465;11.74183109;14.42206902;15.31838477;5.014764654;9.574514787;-4.091235793;-14.73891039;6.243913961;-13.53252845;1.940926914
6.131684531;-8.225082643;10.21139377;-3.462945066;0.37338446;-0.211416742;1.004303524;4.948191485;11.36956487;12.25973311;7.272446666;11.46656705;4.96107514;8.217427937;-7.75900254;-15.08661371;6.925811467;-13.36396207;1.613559739
8.658059067;-5.719198325;14.14842938;-2.961595341;-2.081001585;-0.150232709;-2.285635681;4.455671689;8.382773685;10.53268826;0.471454171;6.780395947;3.622319355;6.989432986;1.028520698;-12.92423855;7.752577629;-11.87246509;1.186064156
10.7798409;-4.868790606;16.18270189;-1.331234158;-3.948938564;-0.100607191;-4.488588094;3.094370562;4.80825001;9.591701257;-1.19955391;4.203313978;2.249040178;6.957748789;15.84489521;-8.928544402;8.162486014;-10.04904367;0.789960854
11.9893258;-4.60213224;17.95735198;1.984609325;-3.77574791;-0.028014828;-3.514288801;2.114470512;3.931188748;10.94077348;3.716977973;5.602522403;2.283587866;8.014942732;23.09636728;-3.095480953;7.938198678;-8.94;0.487440665
12.10801838;-3.535340519;20.88344421;6.481822351;-1.744986385;0.082864814;0.508914282;2.18920608;6.621482633;13.38726949;12.41488363;10.64384136;4.462076614;8.972715877;14.07196327;3.712346081;7.528633656;-9.084693168;0.190260914
11.45272838;-1.263509559;24.77077325;10.65590871;0.462448555;0.200588911;5.348022168;3.159322075;10.83724998;14.34246972;19.801088;16.96944055;8.242555863;8.715126954;-5.691609294;8.838376013;7.72164991;-10.15717754;-0.236092466
10.6662017;1.410153905;27.70686125;12.81655361;1.098511343;0.260384852;8.363613546;4.400191168;13.44822929;12.43957372;21.9221231;21.59959242;12.00006104;7.321125865;-18.93375858;8.964279776;8.855105905;-11.19937416;-0.766229723
10.27519441;3.469056528;27.33040503;12.15600116;-0.144918942;0.21246124;8.469219496;5.460229771;12.86419585;9.210039063;18.46964206;22.72590313;13.94170095;6.034385043;-10.818691;2.720127874;10.22910706;-11.35111966;-1.108318378
10.27902976;4.872138829;22.58272745;9.340165702;-1.83165299;0.067107312;6.861909408;6.455798669;10.33862854;8.315310438;12.772422;20.80007813;13.17351441;6.008624791;16.0417644;-7.449019293;10.31178771;-10.48359933;-0.834735593
10.0906077;6.714647108;14.62048359;6.17791028;-1.940231352;-0.102487257;6.022874241;7.921500466;8.918961033;12.8294901;9.471321801;18.2385387;10.20852499;6.958680128;38.88007813;-16.09206239;7.72756185;-9.16494548;0.312886078
8.911780692;10.11887206;6.16367098;4.55463373;0.473531903;-0.206038329;7.820268962;10.2443875;10.92805813;22.68157259;11.56552738;17.91998548;6.586388759;7.074766255;28.95825989;-18.08087134;2.357393329;-7.993697786;2.172272544
6.300482839;14.84520291;-0.287205111;5.339669987;4.463922714;-0.197195776;12.17339381;13.14228368;16.0296069;34.28518817;18.74415487;21.41255211;3.912514312;4.516759257;-26.29885319;-12.13806977;-4.286322356;-6.975801977;4.17385738
2.531104459;18.95055613;-4.070148243;7.996639323;7.856600963;-0.103174744;17.21250381;15.63397011;21.42043035;42.69061034;27.87714879;28.02899583;3.01995697;-0.649500254;-109.8141997;-1.848994736;-9.761646641;-5.630880971;5.63658441
-1.50897615;19.94458401;-6.617966934;11.11612114;8.80876438;-0.001093677;20.67653707;16.59178346;23.95338623;44.66;35.08043949;35.26590594;3.800171621;-5.791442444;-181.6105422;6.761373392;-12.05252037;-3.796752299;6.148915192
-4.808038997;16.58968961;-10.14792374;13.43085193;7.028560325;0.038941704;21.40449618;15.51870068;22.46374578;40.42832205;37.89500052;40.29465397;5.67814123;-7.152252302;-202.8343503;9.40039863;-10.6847045;-2.3049025;5.773772881
-6.75213308;9.915964237;-15.74032677;14.56128448;3.780336671;-0.000293696;19.84917444;12.98455936;18.47912831;33.01754151;36.29131924;41.53277501;8.206867653;-2.525141804;-160.8678711;6.379480822;-6.891260422;-2.651777469;4.950384381
-7.327338688;2.662029728;-22.22583804;14.99747145;0.8156964;-0.080245287;17.41543335;10.35949578;14.85822086;25.87;32.13956552;39.34452676;11.24160267;6.825655914;-77.80607427;2.088643265;-2.789119113;-5.677406401;4.186626423
-6.913648488;-2.383994755;-26.72879023;15.43038469;-0.840663488;-0.142136849;15.32682168;8.970078125;13.56003906;20.71769869;27.75583952;35.54633068;14.61429815;16.54912406;3.779650603;1.505805595;-0.173964844;-10.34264822;3.769819858
-5.898557952;-3.880111904;-26.52901007;16.02020196;-1.352234602;-0.147951608;13.94666505;9.230246607;14.34099431;17.17063685;24.54931389;32.16692445;17.73504615;21.76232714;47.68594492;6.344144112;0.294509846;-13.90338415;3.679577332
-4.454502611;-2.297730629;-20.97;16.17770217;-1.594567484;-0.09595168;12.94372184;10.34734207;15.28991599;13.96901434;22.52407389;30.31096494;19.63325775;20.02088293;44.83;13.64923815;-0.883131355;-13.73241672;3.716684005
-2.651543485;0.791760633;-12.11551666;14.98567867;-2.287883889;-0.00707018;11.94117287;10.82285516;14.5611924;10.53720833;20.73988868;29.7818563;19.53150866;12.66062156;14.41542085;17.81994274;-2.64133514;-9.5193935;3.70933344
-0.762083755;3.687179433;-3.724296414;11.88703336;-3.45767063;0.09622516;10.96835001;9.419356853;11.76422523;7.44793021;18.26049989;29.54338822;17.49948698;3.697840511;-13.34151701;14.56305515;-4.051112454;-3.952620667;3.632537804
0.577910603;5.049596798;0.768153524;7.108579655;-4.532010805;0.19631893;10.34871078;5.945728408;7.920814725;5.551089987;14.91998711;28.57676484;14.57591356;-2.772512322;-18.97166633;3.989845891;-4.689678126;-0.993541938;3.575729135
0.588731119;3.902413729;-0.016727291;1.558619946;-4.84041291;0.271411319;10.24360015;1.352311671;4.2321807;4.770732368;11.45071765;26.54686367;12.15215479;-4.812600957;-4.383589931;-9.236089128;-4.585079118;-2.829820028;3.621268843
-1.135676192;-0.324324723;-4.939505343;-3.634580121;-4.062338607;0.290500161;10.37723148;-2.878769186;0.918925449;3.83366382;8.9583248;23.93757889;11.05077276;-3.147480146;13.42979536;-18.70761922;-3.949496686;-7.898591409;3.751928798
-4.185386459;-7.350904706;-11.25550474;-7.55362705;-2.363965125;0.228905437;10.24899449;-5.583388472;-2.757339825;1.288355425;8.135511578;21.69852546;11.03905118;0.024248657;18.40698792;-20.10038239;-2.977257222;-11.76726837;3.860599066
-7.354069602;-15.53977479;-16.17695767;-9.637900805;-0.273599067;0.096907245;9.640471811;-6.425453191;-7.330594424;-3.05521382;8.756424466;20.68936342;11.19078684;2.740329841;7.799959417;-13.54834051;-1.827570795;-10.45481803;3.842975615
-9.210103204;-22.07468346;-18.12267254;-9.612667705;1.527497006;-0.046719019;8.923352923;-5.801169268;-11.96827418;-7.588256417;9.803560997;21.21833499;10.79845263;4.249860432;-7.839161748;-3.202768933;-0.717933815;-3.707648773;3.691060129
-8.907758617;-24.18463867;-17.09094589;-7.46037678;2.415112137;-0.118829693;8.839626698;-4.347410198;-14.52839573;-9.872118911;10.15409348;22.84521773;10.04763791;4.84302353;-15.16586206;5.525461203;0.021428389;4.420750847;3.512037637
-6.720520285;-20.82089363;-14.23103812;-3.579714212;2.053428353;-0.065167418;9.895490115;-2.520329272;-13.01780705;-8.443033288;9.354508486;24.49796384;9.840078125;5.069918923;-9.287378121;9.165497503;0.018000248;8.323955338;3.45656324
-3.930417024;-13.56196459;-11.09218723;1.016804526;0.614150289;0.095766691;11.86260421;-0.55887329;-7.365368911;-4.040279532;7.92241339;24.88169093;10.87494567;5.174230208;3.300259372;7.866524632;-0.976218127;4.925108651;3.604702701
-2.120213705;-5.886242491;-8.997142804;4.791683155;-1.187384068;0.27663036;13.81271121;1.255765891;-0.013676937;0.739674075;6.932803231;23.08183403;12.76967589;5.121812874;11.38838916;4.708800525;-2.921224093;-4.038716604;3.886539866
-2.301729741;-1.135387179;-8.690807538;6.236131306;-2.402378093;0.376926888;14.69200802;2.424250731;5.336190754;3.135934423;7.177604837;19.13915938;14.03846803;4.960470171;8.802420835;3.306007603;-5.427447418;-13.29146598;4.095655279
-4.406834816;-0.547396895;-10.18236024;4.681763948;-2.419320292;0.352264164;14.02392607;2.430674384;6.061915253;2.004277427;8.538269893;14.27507796;13.07722518;5.00390891;-1.032077309;5.324492133;-7.846415108;-17.82923923;4.0002947
-7.414296936;-2.753436955;-12.7096879;0.852543307;-1.412872732;0.244852898;12.2397742;1.223740082;2.382150706;-1.596653813;10.07783393;10.51530797;9.459862413;5.622751094;-8.844905255;9.450775246;-9.498342234;-16.29149957;3.496066523
-9.975096666;-5.039138296;-14.9033453;-3.311084344;-0.267018791;0.150741661;10.41804173;-0.465758413;-2.753136779;-5.340755581;10.79806932;9.759163216;4.525171683;6.877016196;-7.672113167;12.34220771;-9.953108115;-11.36837112;2.707609482
-11.11582043;-5.337597386;-15.26533767;-5.594912189;0.064886366;0.147958167;9.624453417;-1.377264426;-5.599305837;-7.279944245;10.44472943;12.73066786;0.718742317;8.378751705;1.636802627;10.86239733;-9.231026245;-7.167379012;1.961687888
-10.61689253;-3.429928333;-12.8824208;-4.731927319;-0.686756331;0.239964455;10.28546701;-0.510699004;-4.033828122;-6.95658032;9.660632163;18.44291646;0.087701396;9.521556653;11.6796492;4.176453638;-7.799360319;-5.865339556;1.624394176
-8.929105635;-0.560585902;-8.009978269;-1.1645814;-1.856185349;0.356097576;11.96607584;2.073369691;1.192842675;-5.283195872;9.307926427;24.59757461;2.979981108;9.852694558;14.75359683;-5.552108617;-6.338670758;-6.374198791;1.886741478
-6.79389816;2.007526818;-2.086763696;3.159148332;-2.344663627;0.405760415;13.65105646;5.091554778;7.137497706;-3.496324678;9.518709199;28.79135696;7.865145734;9.262468403;8.5647194;-14.22735621;-5.402153696;-5.907538908;2.634285177
-4.863549033;4.170348415;2.96347641;5.884172293;-1.505699192;0.34283011;14.34438673;6.749391558;10.67791013;-2.139627717;9.358544747;29.8543518;12.38011693;7.897076499;-2.958544566;-17.97446124;-5.183380884;-2.870117428;3.498921371
-3.523931231;6.908815403;5.780398356;5.609324006;0.30694372;0.192754949;13.65237523;5.901167013;10.41905148;-0.864309537;7.555115416;28.49584139;14.83801438;5.994391018;-13.56566133;-15.136906;-5.545881699;1.515277036;4.0748024
-2.92018421;11.12205557;6.278938611;2.700874701;1.992398375;0.027769895;12.03971396;2.839678209;7.275308992;0.922391304;3.833772957;26.8284937;15.16245628;3.879789465;-19.38435947;-7.058057181;-6.26921111;4.20612986;4.161597739
-3.046717434;16.46628172;5.508239185;-0.928816087;2.554902895;-0.083760891;10.60799507;-0.884232541;3.54164918;3.218753034;-0.248175104;27.04597436;14.68626009;2.107496106;-20.56340113;2.664659741;-7.281698326;3.006426135;3.869309142
-3.777449963;21.25666964;4.740630878;-2.939173651;1.848104394;-0.112852943;10.48170548;-3.514858013;1.293307157;5.149335175;-1.856588612;30.07295662;15.07731646;1.474816798;-19.27465449;9.944294411;-8.651853951;-1.457947409;3.512391099
-4.832364649;23.54932968;4.466887025;-1.897201699;0.60548533;-0.06891369;12.11283093;-4.265711311;1.262304497;5.482727564;1.312394944;35.01814324;17.20381252;2.680357689;-16.74220862;12.0387562;-10.3283635;-6.144205162;3.373958688
-5.776164043;22.51587445;4.078869828;1.966676317;-0.228945705;0.02543628;14.91442257;-3.762904701;2.810721354;3.531207423;9.180591934;39.73320852;20.67276965;5.750760712;-12.35214057;8.604214098;-11.88193025;-7.984280786;3.516167689
-6.133189426;18.99962834;2.5093111;7.005166529;-0.26438155;0.15420391;17.5023581;-3.45027693;4.749055355;-0.261543158;18.82601764;42.07597688;24.21506265;9.696560089;-5.412339329;1.593316497;-12.5648887;-6.205983431;3.772697326
-5.595430992;14.84650137;-0.662051543;11.19316917;0.127600324;0.305178796;18.47648915;-4.42324622;6.210789068;-4.472053285;25.95010509;41.06628905;26.51516317;12.81485844;2.647290423;-5.821738805;-11.76697351;-2.681323607;3.91350803
-4.196486941;11.59962355;-4.536037546;13.26561594;0.281636453;0.454098834;17.29565209;-6.568536461;6.936630998;-7.460155747;27.4061465;37.25862965;26.89233431;13.5956157;8.273914337;-10.73271383;-9.575414847;-0.156017986;3.838253554
-2.317739585;9.597696691;-7.258127191;13.23988587;-0.097469994;0.560324458;14.67014031;-8.625877733;6.938228142;-8.206962006;23.07436301;32.20662246;25.47923135;11.66603244;8.397834594;-11.70034168;-6.966591844;0.004069177;3.641713672
-0.496067212;8.095946689;-7.218439579;12.06252143;-0.695415903;0.586900654;12.1613314;-9.075650955;6.055310141;-6.700279687;15.77271851;27.46491641;22.94520696;8.082037971;3.349176606;-9.156958635;-5.366553821;-1.370293471;3.510058594
0.86033177;6.155201473;-4.202966667;10.73344401;-0.958322302;0.531320139;11.20578223;-7.156691346;3.952581909;-3.705192297;9.284580757;23.79240033;20.05859432;4.701051419;-2.787874374;-4.868708692;-5.797426244;-2.416769243;3.550247228
1.6712222;3.476946521;0.392544375;9.599050198;-0.673841061;0.437807523;12.20171121;-3.283648994;0.626184076;-0.179222411;5.92463731;20.98911186;17.35863549;3.039903673;-5.092448092;-0.797852788;-8.19711419;-2.177795572;3.704017633
2.170262979;0.534527303;4.468776003;8.323318898;-0.18503534;0.373756773;14.27731269;1.348482316;-3.069990805;3.223378876;5.340549028;18.33;15.0316144;3.409932261;-1.722802818;1.955120622;-11.43036544;-1.506284636;3.815465574
2.684663785;-1.963393807;6.565737384;6.481928606;-0.037986285;0.383215482;15.88728886;5.559393444;-5.509968286;6.255822125;5.270204469;15.19462019;12.9467715;4.914680846;4.527355637;3.493209024;-14.01391009;-2.169030138;3.782542502
3.350719701;-3.6787501;6.631685029;4.216260816;-0.42602958;0.452555106;15.80010785;8.731779948;-5.182473032;8.818648212;3.519906971;11.45636791;10.78717759;6.252734894;8.511904863;4.59139043;-15.03450817;-5.045022978;3.65196932
3.95689295;-4.751287148;5.692865732;2.341899044;-0.991544683;0.517100087;13.78828521;10.77431414;-1.860092773;10.63271293;-0.385024724;7.456086525;8.246034203;6.688441365;7.054505091;5.774636928;-14.59012644;-9.118392442;3.57157643
4.037514079;-5.374138834;4.803690444;1.778529861;-1.189338133;0.5062964;10.60251794;11.70477771;2.861472529;11.17043563;-5.02467118;3.709090598;5.252318491;6.474291347;1.672593046;6.804184529;-13.46595456;-12.21548116;3.641619126
3.188819949;-5.322372551;4.228474391;2.776820672;-0.853038878;0.394357359;7.367446464;11.36101413;6.258875088;9.947341635;-8.311404304;0.641519265;2.130885;6.467265903;-2.676951727;7.043154175;-12.36509791;-12.84082849;3.793086551
1.428489124;-3.952002473;3.556685041;4.643001147;-0.391768611;0.218629309;4.927983657;9.564531167;6.149695924;6.96659229;-9.012449594;-1.457668587;-0.424531319;7.304106319;-1.858239456;6.384558426;-11.34932178;-11.46490849;3.795237561
-0.6394737;-0.730642839;2.586185216;6.274326524;-0.399702556;0.053069308;3.60482963;6.581113316;2.465457383;2.943820236;-7.394437593;-2.323896184;-1.606456358;8.811464467;3.766597613;5.8168582;-9.932598703;-10.09011259;3.387252411
-2.01047017;4.150800936;2.069201679;7.105354463;-1.04935032;-0.041430297;3.392395393;3.385973056;-2.43669429;-0.940514329;-4.667780135;-1.658170945;-0.863498776;10.11173338;9.452146976;6.878317034;-7.695631823;-10.43809467;2.437231363
-1.773410054;9.638704312;3.47249936;7.630714887;-1.880432081;-0.052189809;4.252169035;1.356405151;-5.106256457;-3.667746398;-1.899422903;0.717107034;1.830315559;10.3313153;10.04555191;10.20194102;-4.845843441;-12.32200432;1.027452821
0.339582232;14.31327947;7.76122797;8.940395218;-2.229904959;-0.011810172;6.150650656;1.494848463;-3.195951857;-4.96425579;0.6264998;4.549046096;5.968844924;9.348984741;4.5775237;14.33336582;-2.211849258;-13.63120211;-0.566180716
3.687437006;17.15691407;14.1696058;11.52969393;-1.90687009;0.035244609;8.832467819;3.724138757;2.951228435;-5.377683421;3.169648411;8.95633657;10.75289055;7.978840061;-2.476125912;16.08477394;-0.669887084;-11.99279563;-1.964343509
6.956351606;18.0244724;20.12167439;14.36713121;-1.426490127;0.06666509;11.6536137;6.816747963;10.45977515;-5.713370183;5.834539803;12.60924457;15.39756285;7.390545795;-4.612102415;12.59025785;-0.502249296;-6.760498048;-2.795265306
8.825961623;17.52184605;22.64807316;15.16385156;-1.500739622;0.090540601;13.78756745;9.086445369;15.76901272;-6.19624769;8.207358561;14.32062686;19.32081867;8.139821851;1.10718155;3.714754704;-1.24278315;0.291747476;-2.80537651
8.702672086;16.49062144;20.40809131;11.90848713;-2.217104563;0.125669242;14.7540306;9.416980228;16.91394261;-6.008765576;9.725942406;13.76003906;22.16530282;9.516454232;10.77672056;-7.162620898;-2.126865194;6.127233743;-1.960240768
7.067208718;15.56668175;14.78631168;4.648145828;-2.720693286;0.17524905;14.84775757;7.952256215;14.66489961;-3.65877193;10.41138009;11.82917681;23.75771532;9.770192345;15.61587885;-14.97859674;-2.725182513;8.524837144;-0.49767688
5.187672575;15.11441633;9.092396548;-3.900100042;-1.830780101;0.218846782;15.03648705;6.004455061;11.77378769;1.962668504;11.17675429;10.36274171;24.13077689;7.21174418;8.117745071;-16.38768023;-3.185198505;7.465618647;1.130901661
4.344408561;15.42383757;6.299817469;-9.611722237;0.84;0.229764121;16.30292107;5.260590321;10.9394604;10.54062495;13.26444911;11.20326646;23.60714835;1.552297135;-12.01719968;-12.22877826;-3.874338456;4.838968259;2.453839789
5.043436413;16.79990744;6.934916198;-9.426913967;4.25515298;0.201946589;18.88929988;6.798776435;12.99478849;20.1012281;17.16003906;15.10654154;22.80401195;-5.433100418;-36.63089565;-6.994226375;-4.78471708;2.82890607;3.221840824
6.723067021;19.31768027;8.708837307;-3.371437621;6.491754621;0.161854184;22.03237685;10.48753469;16.5757402;27.84849419;21.87767949;21.10501898;22.41859616;-10.51592815;-53.70053481;-5.465272445;-5.305677092;2.302204667;3.52972282
8.142370218;22.42469245;8.220697315;5.341514164;6.141512548;0.153009083;24.41453936;15.0517267;19.37043529;31.57238341;25.30165135;26.75233952;22.8288682;-10.71564592;-54.71807967;-9.003304062;-4.657157399;2.384886559;3.693367017
8.185511016;24.84463485;3.4963198;12.28115319;3.459036238;0.203657912;24.9956218;18.69243809;19.87559131;30.69945731;25.44900603;29.19642243;23.75092331;-5.137352196;-39.81556145;-14.45496043;-2.663142607;1.402674482;3.940281436
6.540296409;25.07924065;-4.519835285;14.50780307;0.254841864;0.302558396;23.60171375;19.8986591;18.30061004;26.31585887;21.75908595;26.55522447;24.24045636;4.234415982;-17.26238811;-16.6756544;-0.173721914;-1.655470902;4.154855295
3.812230707;22.30818973;-12.61102451;12.15278293;-1.460924289;0.402769744;20.87063922;18.07403576;16.03025917;20.24925499;15.45767677;18.8801014;23.13339739;13.41088767;2.039047325;-12.74751967;1.330068359;-6.256146242;3.92468665
1.043771067;17.06697679;-17.54229114;7.835526088;-1.011670272;0.452546079;17.68609453;13.74464413;14.22777823;13.96;8.737656497;8.201005158;19.71292712;18.52432887;11.07966599;-4.462915398;0.750122299;-10.56639425;2.911245561
-0.9770458;11.13205228;-18.20160988;4.462954732;0.498796175;0.431857427;14.61319355;8.295409042;12.79157644;8.041840893;3.38639351;-2.3648865;14.20057827;17.93150589;9.964416436;3.06631983;-1.747469347;-12.53290141;1.272631047
-2.117279026;6.57847666;-16.06652118;3.092157233;1.202268334;0.368040921;11.76750052;3.347407172;10.50639371;2.551450628;-0.134608118;-9.972389622;7.755118658;12.97986495;4.188891787;5.642937193;-4.697152314;-11.03364321;-0.243330917
-2.764687617;4.599498714;-13.7857445;2.396469844;0.092642793;0.318317556;9.114016324;0.030282171;6.211948187;-2.320444259;-2.561759239;-13.18821461;1.973352358;6.974293863;-0.11534047;3.557340313;-6.233519556;-6.459531841;-0.703571051
-3.336494173;4.889617233;-13.11333772;0.010370791;-2.107454964;0.330271621;6.81291587;-1.510318016;-0.001633356;-5.958797725;-4.887586275;-12.38012648;-1.801398773;3.071708439;-0.260140364;1.370979329;-5.297090527;-0.538205536;0.344348898
-3.86718253;6.0038489;-13.83492036;-5.366431107;-3.56339205;0.407450261;5.239968866;-2.08614265;-6.540481704;-7.71542888;-7.417630095;-9.246721279;-2.965645627;2.518030805;2.242568988;3.860949104;-2.282350135;4.396315192;2.448994555
-4.010188022;6.405103688;-14.40790424;-12.70942333;-2.890426022;0.504674665;4.671702853;-2.884693689;-11.18532584;-7.597674833;-9.539011183;-5.822885651;-1.716730709;4.330230184;4.091311923;11.39711099;1.306643808;6.341546184;4.455298779
-3.422432389;5.440222059;-13.59711065;-19.13613727;-0.329420186;0.557816636;4.976523242;-4.643642896;-12.42564307;-6.544464071;-10.27989794;-3.521132527;1.237144853;6.451924207;3.348374728;18.76509546;3.887501483;4.444990011;5.248533599
-2.172951922;3.600313868;-11.6177608;-21.68010543;2.444437441;0.528814374;5.65601224;-7.105317948;-10.29855825;-5.916672284;-9.121369197;-2.673767223;5.054742389;7.38279821;0.794624101;18.81628393;4.746612229;-0.585235046;4.516288335
-0.795088073;2.006923914;-9.807096979;-19.07483519;3.683612701;0.434930352;6.238161255;-9.148344169;-6.237122201;-6.53826051;-6.401702964;-2.707860142;8.998760195;7.060719979;-1.225584;8.335464277;4.276761531;-6.703397234;2.947220399
0.097044449;1.635005127;-9.168981345;-12.38488601;2.925603928;0.340451864;6.670166184;-9.550126849;-2.173309842;-8.072434263;-3.061633935;-2.723631448;12.49187767;6.481608692;-1.080686481;-8.558811183;3.468482873;-11.40502727;1.697876273
0.329500253;2.885112603;-9.140469282;-4.241962348;1.222338571;0.314081804;7.33748636;-7.867741021;0.431176194;-9.285795436;-0.025875916;-2.067040727;15.11344323;6.571069382;0.824553249;-22.48786783;3.150608601;-12.92516997;1.528573458
0.385938834;5.707884759;-7.765697791;2.619845562;0.123201866;0.379735897;8.675374312;-4.801112404;1.085036649;-9.022748128;2.251938267;-0.576573073;16.65887063;7.343115992;2.659602145;-25.13077296;3.551661283;-11.12113789;2.27542674
1.097877663;9.954868651;-3.266848581;6.545333612;0.352693006;0.495099939;10.72098474;-1.756197257;0.206403867;-7.111832106;3.777289682;1.54169609;17.2448892;8.01611384;2.934861363;-15.11658484;4.386539264;-7.467740116;3.059480537
2.997555821;15.46100422;4.223672839;7.297140774;1.322885861;0.575085306;13.01507841;0.083482114;-1.255606671;-4.482777597;4.66350662;3.996287006;17.31507786;7.87;1.754639873;1.00928686;5.229715092;-4.097850486;3.042317806
5.808754349;21.70273624;12.23054296;5.66471883;1.827148155;0.546774461;14.93917444;0.495242462;-2.258485431;-2.442472331;4.824895717;6.568693299;17.42267379;6.999621441;0.516587893;13.51647199;5.790338661;-2.469621481;2.103019973
8.479049767;27.40196579;17.28147629;2.831034915;1.213046239;0.39952309;16.16839971;0.233096412;-2.06236282;-1.754675761;3.993492938;9.030019531;17.84609231;6.266423235;0.481048231;16.3271677;5.919160154;-2.541485185;0.892649263
9.773052742;30.64977025;17.11003906;-0.108346635;-0.041398259;0.195546281;16.81706425;0.352392511;-0.545398661;-2.284080434;2.013706037;10.95307089;18.28285487;6.506819303;1.594287922;10.82090348;5.490132806;-3.00765239;0.249858505
9.035686289;29.76142404;12.10343428;-2.393722884;-0.827421136;0.032688521;17.15553202;1.402632079;1.697016493;-3.412266897;-0.872498868;11.68912136;17.89217877;7.729882212;2.613704783;3.927926836;4.397879798;-2.394290056;0.491186261
6.603729044;24.40970336;4.954271032;-3.722307863;-0.468761251;-0.01586013;17.19920813;3.113048708;3.651732429;-4.724501464;-4.005537158;10.66377029;15.75524527;9.039060809;2.341608564;2.289526168;2.725653811;-0.200920771;1.178098228
3.588225172;16.19015592;-1.159161509;-4.289932304;0.649367136;0.055825879;16.60543341;4.753513868;4.55542042;-6.254549564;-6.571411836;7.853662986;11.5170017;9.357326829;0.782688521;7.167012787;0.88570612;2.732813793;1.542215638
1.187685542;8.046313823;-4.471001667;-4.678861872;1.449385688;0.189153306;15.01845086;5.785014016;4.519249429;-8.055237733;-7.951816166;4.073845905;5.789648206;8.319908869;-0.83725806;13.91991364;-0.505828032;4.850349923;1.185202596
0.004513297;2.779232206;-5.261007531;-5.548702841;1.16522423;0.304192376;12.54608147;6.203806687;4.536783165;-9.584496477;-7.94272476;0.749144396;-0.003241756;6.558377573;-1.186309378;16.10158495;-1.022246176;4.972882081;0.443479321
-0.19153873;1.578466621;-4.95600278;-7.273481594;0.050433066;0.350414747;9.875438013;6.302926732;5.660910997;-9.663739822;-6.767540827;-0.817775709;-4.317099251;5.146291002;-0.054077642;10.65344044;-0.798819391;3.048541723;0.107201326
-0.14181406;3.556600329;-4.632835804;-9.787633032;-0.848138555;0.329397578;7.83489186;6.131988343;7.856300917;-7.278621976;-4.958504615;-0.262799806;-6.317664049;4.711177335;1.394451339;0.102673142;-0.539721652;0.07202387;0.741866919
-0.49438121;6.573926573;-4.223506925;-12.76771593;-0.630030518;0.277556207;6.73348717;5.228591108;9.510870257;-2.652941344;-3.203975467;1.510602621;-6.33068089;4.987422387;1.531103091;-9.67162597;-1.079976827;-2.653538107;2.195698393
-1.359111563;8.724010318;-3.015156831;-15.96549263;0.662174643;0.227828656;6.069960095;2.951431955;8.276330173;2.392430431;-2.183191547;2.797907309;-5.608474173;5.165977164;-0.476494744;-13.98140385;-2.796666564;-4.295268409;3.705067823
-2.311447082;9.418821819;-0.887954343;-19.32870898;2.09337661;0.183182597;4.92745572;-0.826188707;2.880252265;5.329063355;-2.360986033;2.129820257;-5.549733637;4.683091472;-4.109982974;-12.48167954;-5.317941551;-4.773447754;4.493334496
-2.791843947;9.384177546;0.897796966;-22.72796371;2.662218203;0.121923283;2.769458603;-5.290864411;-5.414328903;4.572992082;-3.773301992;-0.7766766;-6.868719588;3.724614335;-8.006988958;-8.701964071;-7.765255133;-4.486071843;4.34865921
-2.570418833;9.733257551;0.170367211;-25.53426622;2.149868207;0.026851892;-0.039958444;-8.994495272;-13.03823434;0.680210661;-5.939764582;-4.799439068;-9.239971795;3.01608036;-10.9601726;-6.785835465;-9.35165544;-3.850201117;3.710686795
-1.924333675;10.94030984;-4.678058887;-26.55646224;1.253376565;-0.089269268;-2.474118759;-10.74703801;-16.22126584;-3.906596249;-8.047708306;-8.098417355;-11.61836966;3.132408;-12.52466727;-8.320772081;-9.887618787;-3.090068359;3.237178784
-1.407548531;12.49910233;-13.31119601;-24.62807648;0.930485924;-0.185137188;-3.676020489;-10.4181879;-13.63532585;-6.474985188;-9.390238061;-9.265006847;-12.97775552;3.982940795;-12.86131224;-11.66606614;-9.834916056;-2.382682373;3.260618878
-1.399108307;13.41591247;-23.23898369;-19.53942923;1.571368398;-0.218751034;-3.678073926;-8.984118359;-7.580239814;-5.855710652;-9.808656473;-8.168650349;-12.94456355;4.935692627;-12.20708366;-13.86933984;-9.912136188;-2.096973243;3.601166468
-1.775278505;13.01991181;-30.99462987;-12.55640405;2.713311255;-0.178623159;-3.359197718;-7.741096255;-2.604993614;-3.071836473;-9.796259134;-5.948118126;-11.91010983;5.43643688;-10.61961331;-13.20711957;-10.58551712;-2.767588801;3.848558835
-1.955169975;11.41162714;-33.9167368;-5.932972597;3.480029297;-0.092524054;-3.631106769;-7.29318384;-2.350125672;-0.35264219;-10.1014781;-4.188904252;-10.59970226;5.52460363;-8.193958853;-10.22880239;-11.8169697;-4.701222214;3.798778442
-1.295095522;9.277627544;-31.37700052;-1.585329581;3.285453755;-0.00665328;-4.534995259;-7.130193855;-6.858328754;0.685052571;-11.03961082;-3.876336048;-9.465392602;5.761630123;-5.3359313;-6.784560587;-13.19013598;-7.493371592;3.619402841
0.446801527;7.35765551;-24.76667615;0.141209206;2.177533892;0.047756457;-5.05927678;-6.152221181;-12.41286885;0.247957517;-12.01186678;-4.831438236;-8.370642401;6.648813121;-2.594303297;-4.279728604;-14.23384443;-9.90786469;3.607567841
2.906998286;6.06285907;-16.44857084;0.609571407;0.613430014;0.073816439;-3.914625644;-3.731146047;-14.15428839;0.039185232;-11.67979125;-5.962472017;-6.788081261;8.091022191;-0.115901518;-2.798741827;-14.66075142;-10.3773057;3.811011988
5.32187529;5.480873256;-8.500255743;1.720174333;-0.992840874;0.09991219;-0.687360274;-0.450074463;-9.627960544;1.701016933;-8.825544491;-6.092584957;-4.334561466;9.416599796;2.628316257;-1.63902876;-14.38521397;-7.939902985;3.917603854
7.001076743;5.583479826;-2.018499874;4.29452161;-2.461098259;0.150873601;3.575368304;2.103034947;-0.656950555;5.304251877;-3.404532786;-4.765952231;-1.221918528;9.943018734;6.313699682;-0.394983996;-13.40775301;-3.047963251;3.55290979
7.739933745;6.305384969;2.812620025;7.332404809;-3.648412583;0.223155861;6.886615554;2.378666869;7.856169225;9.096585685;2.951705168;-2.515928956;1.719898849;9.571215597;10.73305803;0.637301274;-11.74278721;2.349512597;2.709988464
7.887669299;7.407474531;6.24845804;8.83699071;-4.206612475;0.283489584;7.61759393;-0.010266168;11.31949671;10.70610258;7.470584543;-0.492031701;3.467074165;8.866872433;14.31696188;1.074856158;-9.465569865;5.664458353;1.870820599
8.034897333;8.379030489;8.604136513;7.623681687;-3.703362579;0.291501119;5.619161703;-3.902290063;8.551632;8.858923333;7.656213404;0.236512031;3.378925765;8.559605894;15.0113764;1.265418726;-6.794747581;5.084458945;1.639497233
8.554648299;8.670759776;10.18643457;4.630945504;-2.099439154;0.228895356;2.33536671;-7.211969397;2.387218103;4.30253781;2.806051959;-0.763773402;1.552378802;8.918060627;12.09183289;2.252408626;-4.080631695;0.719037879;2.170439573
9.330911825;8.20010955;11.39232849;2.53490252;-0.101262994;0.114195068;-0.162070184;-8.12827446;-2.515367292;-0.727773229;-5.333661778;-3.166987607;-1.240196295;9.556848027;7.347485062;4.742677916;-1.675570943;-5.30949246;2.91240358
9.866158299;7.676309378;12.71692923;3.794807827;1.100523695;-0.006328978;-0.503955017;-6.106030109;-2.937739313;-4.056470299;-13.29038357;-6.173167823;-3.946592249;9.822889205;4.241854859;8.067727647;0.201984193;-10.03491282;2.95798194
9.679854678;8.30223853;14.59115358;8.590471595;0.657976474;-0.084356694;1.203408381;-2.092150457;0.925522988;-4.984639927;-17.65628199;-8.958692004;-5.712928578;9.3838939;5.297591943;10.31889852;1.485760019;-11.45183884;1.76574851
8.699165698;10.9117187;17.19802587;14.33933379;-1.192044757;-0.09521626;3.603288014;2.025529555;6.012117398;-4.616610545;-16.94260407;-11.02985906;-6.216613414;8.484133437;9.746611038;9.808884042;2.167547215;-9.797371813;-0.336083664
7.354607412;15.17907662;20.44605124;17.33446873;-3.178574522;-0.049234024;5.015386527;4.32298724;8.769119709;-4.980314818;-12.3904962;-12.3462969;-5.76039135;7.669349016;13.69185026;6.68473694;2.22926008;-7.354916939;-2.315675871
6.315047375;19.62411757;24.09569302;15.38085713;-3.923249973;0.015757243;4.357184825;3.60851645;7.477607976;-7.643536924;-7.226542916;-13.22587481;-5.143581099;7.278342948;13.11548016;3.166589668;1.72326454;-6.763277928;-3.180546152
6.060104009;22.55397801;27.85985702;9.451944327;-3.033959257;0.055271031;1.519540398;-0.206899562;2.962279366;-12.75288722;-4.793455826;-14.12041517;-5.356794726;7.185962444;7.467949912;1.947550122;0.951870217;-8.920228333;-2.713076308
6.598187175;23.2766763;31.34285949;3.068046989;-1.428319292;0.04146483;-2.835370838;-6.144326118;-2.473518331;-19.00384638;-6.679817876;-15.36521354;-7.15402355;7.005033395;0.631185416;3.908948125;0.536572249;-12.02990099;-1.602187915
7.519727864;22.60500935;33.91661108;-0.177379789;-0.5552468;-0.022440308;-7.700147543;-12.50238299;-6.766908327;-24.39978918;-11.96165719;-16.9962282;-10.6170704;6.50446625;-2.051810107;7.05750763;1.200533709;-12.68624683;-0.866341598
8.325303976;22.1877298;34.80131671;0.907246413;-1.136883677;-0.104328372;-12.0293011;-17.42957949;-9.131043601;-27.25257707;-17.95061786;-18.71032192;-14.9224966;5.819510318;1.451297092;7.743921575;3.325225822;-8.432476934;-1.047970485
8.777556838;23.17221849;33.49076506;4.480177047;-2.512895972;-0.162443202;-14.87440648;-19.60888549;-9.890642811;-26.8991214;-21.88948997;-19.99586701;-18.52931472;5.277676494;7.447613089;3.408098862;6.588047843;-0.000280097;-1.842360964
9.028664166;25.29382686;30.29307462;7.282498502;-3.187780303;-0.172640695;-15.52284311;-18.81978974;-9.631569647;-23.89595245;-22.48109175;-20.37829774;-19.82745603;5.068823007;9.120169415;-5.200078125;10.00362951;8.578585922;-2.449704554
9.45347628;27.15571151;26.48365824;7.167515896;-2.140761431;-0.147129712;-13.76226995;-16.06917905;-8.570128533;-19.73330691;-20.34207781;-19.65328959;-17.98239865;5.128001195;2.591206049;-14.0714696;12.4206659;12.39295277;-2.326909582
10.32753262;27.45672618;23.71735093;4.544517522;0.236624432;-0.129681265;-10.14935025;-13.12821768;-6.621763364;-16.24342465;-17.26732314;-17.98406905;-13.49917369;5.332787438;-8.600404503;-18.32841365;13.16825377;9.103904888;-1.685467321
11.57866016;26.10631309;22.90720759;1.658501525;2.422510166;-0.165700761;-6.011440687;-11.66679258;-3.92788225;-14.9098877;-14.988774;-15.83166795;-8.118746353;5.732361993;-15.13091319;-15.30157152;12.40014161;0.94969002;-1.308689386
12.76678079;24.26374486;23.32998712;0.381162452;3.062150285;-0.264558606;-3.036101984;-12.48827189;-1.24680566;-16.30430793;-14.34632276;-13.79696382;-4.049565821;6.454643681;-9.440229945;-6.191570862;10.89177279;-6.351182678;-1.84587355
13.28736967;23.28704408;22.75143493;0.372801703;2.16953012;-0.382117056;-2.608043184;-15.34322918;0.154939469;-19.87761529;-15.32826842;-12.48314846;-2.969875375;7.299875532;6.356804343;4.69675177;9.451575272;-7.285812016;-3.184191006
12.66987185;23.54219435;18.72503468;-0.840911713;1.167281738;-0.44202025;-5.260497854;-19.39595161;-1.004149831;-24.23360548;-17.68899443;-12.410516;-5.383380354;7.472447628;19.13709897;12.46194671;8.390237164;-0.347526319;-4.432401404
10.817741;24.13835002;10.31259981;-5.878527593;1.684382509;-0.387552073;-10.53202649;-23.92655739;-5.508150448;-27.78991328;-21.42626201;-13.91696484;-10.64515614;5.926505173;12.57596807;14.14489498;7.424896962;10.76049815;-4.541728323
8.089650044;23.80485902;-0.99063585;-15.13952034;4.113729185;-0.229843273;-17.2363743;-28.68685108;-13.34738812;-29.50573256;-26.63163551;-16.97863616;-17.4971716;2.271667329;-20.55981848;9.851043623;6.042690759;19.46037774;-3.072315456
5.192337189;22.07513596;-11.92060481;-25.93658318;7.166686303;-0.054479716;-23.91580037;-33.65487249;-23.6190517;-29.30515044;-32.89214597;-21.01413252;-24.64213557;-2.46095318;-70.66394738;2.138600763;4.002615991;20.58673521;-0.512292433
2.91359276;19.65721481;-19.39600643;-33.87243063;8.831197254;0.025744747;-29.23966992;-38.49126186;-34.55277417;-28.01298643;-38.92362506;-24.8738192;-30.98112772;-6.004956215;-114.7387546;-5.59684145;1.586197239;13.6326782;2.067901115
1.779855635;17.63394271;-22.46555673;-35.53106931;7.951771326;-0.055039146;-32.27636189;-42.3004942;-43.7585503;-26.91128404;-42.98846715;-27.19044401;-35.53569798;-6.147523694;-129.8063656;-10.70173349;-0.558423047;2.745939384;3.722680122
1.782928726;16.2610974;-22.85569657;-30.59983886;5.12472654;-0.265329093;-32.69437572;-44.04815888;-48.88678652;-27.19588164;-43.96448891;-27.027369;-37.39875418;-2.308946705;-107.4623467;-12.14017951;-1.81767676;-6.347515536;4.157553256
2.342995061;14.56716802;-23.65812583;-21.9919548;2.187161235;-0.487834744;-30.89907213;-43.36864058;-48.64551621;-29.55879236;-42.26498199;-24.46611532;-36.00543185;3.818860897;-59.40079952;-10.53787686;-1.956533543;-10.13673651;3.736889769
2.595549848;11.25427423;-27.0317907;-13.99390257;0.761234468;-0.589464655;-27.970962;-41.05456934;-43.66554203;-33.95224499;-39.77365437;-20.69317397;-31.62680421;9.215379279;-9.94090491;-7.576360799;-1.212013634;-9.132689526;3.07177418
1.901450417;6.157724027;-32.5470506;-9.79761522;1.078858978;-0.504151366;-25.25996555;-38.68238226;-36.50460247;-39.50625265;-38.6620732;-17.41734466;-25.63269556;11.48173378;19.18861626;-5.009671746;-0.157546507;-6.650572905;2.577199801
0.287803498;0.886361232;-37.382817;-10.04739156;2.019483213;-0.272559357;-23.7139492;-37.52214733;-30.48963605;-44.64663421;-39.87374348;-15.92356449;-20.11421562;10.37027462;21.23062286;-3.666231607;0.522726243;-5.840019531;2.322395049
-1.501525922;-2.115927018;-38.27329293;-13.14984486;2.230831738;-0.01253471;-23.31973693;-37.54310122;-27.9332756;-47.54714243;-42.42556513;-16.3852033;-16.92572475;7.731127794;5.882812459;-2.932858791;0.252823423;-7.393737858;2.188782246
-2.449741341;-1.456405657;-33.84104951;-16.81694047;1.305826831;0.15744542;-23.10220428;-37.36664598;-28.86819132;-46.9343115;-44.13077996;-17.92523099;-16.72377374;5.942291626;-9.957762488;-1.156684384;-1.23054672;-9.56580686;2.09745467
-1.955320375;1.939446035;-25.6721937;-19.58904452;0.016727256;0.188220154;-21.80326201;-35.33;-31.22671123;-42.93074526;-43.26249704;-19.38603761;-18.68119071;6.091763946;-14.50318922;3.069264836;-3.700978982;-10.1495189;2.078091403
-0.285159204;5.341834789;-17.39078774;-21.34518638;-0.510464293;0.117728459;-18.83877736;-30.91964776;-32.39668618;-37.34892403;-39.90413747;-20.22682455;-21.09932963;7.349495807;-7.491156231;9.466061483;-6.406152889;-8.55370133;2.166449982
1.574915198;6.210603422;-12.40517484;-22.71163675;0.130899697;0.030782046;-14.83555298;-25.45156217;-31.04456051;-32.98777068;-35.92132388;-20.8532337;-22.47222148;7.951730047;2.788068109;15.56095458;-8.32555765;-6.240917707;2.301484786
2.615923421;4.095802199;-11.89578383;-24.07619134;1.284025201;-0.004491956;-11.28591149;-21.37813571;-27.86981334;-32.10337165;-33.53809292;-22.11816825;-22.22657714;6.874856917;7.947129375;17.75608917;-8.719060293;-5.31609795;2.369163078
2.554410833;0.914285743;-14.36819725;-25.05320888;1.883123732;0.022998571;-9.505730516;-20.63474193;-24.77917373;-34.93123487;-33.60425991;-24.39579332;-20.66095572;4.740400795;6.043546107;13.52991816;-7.677865218;-6.627612183;2.353506236
2.04831996;-0.580447136;-16.93844439;-24.74414248;1.462829645;0.073998961;-9.651153539;-23.21575106;-23.21170045;-39.3288438;-34.91809071;-26.99680734;-18.2921028;3.210936273;1.507980436;3.370414346;-6.235903337;-9.063127187;2.41319423
2.166770836;1.172972987;-17.32932164;-22.48036722;0.580942198;0.099558004;-10.56123156;-27.0582775;-22.99765353;-41.98424557;-35.17142746;-28.45263746;-15.29885459;3.469942201;-0.2154379;-8.974052523;-5.802553719;-10.60451705;2.759982893
3.484792922;5.665287209;-15.18286211;-18.42515108;0.274487691;0.080305724;-10.5937506;-29.37460915;-22.65399119;-40.54035542;-32.81750642;-27.51896463;-11.6076148;5.161961786;2.123028636;-18.27865443;-7.173338372;-10.16632581;3.422096491
5.511723508;11.15613546;-11.92719239;-13.60521525;1.060792376;0.035979991;-8.855547276;-28.51073765;-20.80640329;-35.22120633;-28.41598698;-24.16241988;-7.509228274;6.729711913;5.020850824;-20.61451962;-9.794747323;-8.591237343;4.123391033
6.951062973;16.28881292;-9.52232255;-9.401101229;2.407528555;0.003711259;-5.901196939;-25.02082555;-17.49742391;-28.77043643;-24.37992446;-19.76627145;-4.12044914;6.826708985;4.181365434;-15.3783073;-11.90828078;-7.91973248;4.436505656
6.653671267;20.95450998;-9.121538193;-6.874357974;3.167216596;0.007209405;-3.358436883;-21.21849211;-14.26657673;-24.6584163;-23.26039464;-16.35381828;-3.051061941;5.527619425;-1.131088812;-5.38852421;-11.61883592;-9.519096037;4.123912062
4.551035975;25.71389068;-10.56079824;-6.338652639;2.598934301;0.04191815;-2.746960075;-19.55498287;-12.94733099;-24.77204749;-25.8259347;-15.35165969;-5.322410629;4.247623972;-7.411897097;4.818465834;-8.216833833;-12.61752082;3.386005633
1.815922961;30.51581846;-12.83683037;-7.355184915;1.067113341;0.084445829;-4.364425048;-20.97434957;-14.20569371;-28.21;-30.3687375;-16.74820694;-10.33522671;4.440528561;-10.30356312;11.27043337;-2.802902634;-14.48339533;2.780546665
0.0644161;34.12341342;-15.00217592;-9.065827636;-0.216665923;0.114283469;-7.055236857;-24.35055369;-17.03412361;-32.01928684;-33.77349229;-19.20551024;-15.82168752;6.239204951;-8.673466262;12.08782181;2.30043213;-12.21125122;2.840999545
0.165983387;34.93628546;-16.73293155;-10.63880108;-0.209486086;0.128381698;-9.012495234;-27.3085407;-19.57715392;-33.29846884;-33.60384902;-20.99861733;-19.04149948;8.259916218;-5.536810616;7.7057909;4.993090478;-4.860263763;3.679696776
1.570513058;32.4813573;-18.24546941;-11.61407368;1.046620227;0.138285863;-9.011777322;-27.78870783;-20.54351294;-31.12560951;-29.74590721;-21.10382947;-18.49220077;8.765404997;-5.048530417;0.148638535;4.689656012;5.55375915;4.887883501
2.698301213;28.10765217;-19.81951524;-12.02438324;2.383760925;0.155273208;-7.197704521;-25.28834865;-20.01535103;-26.96690495;-24.49154096;-19.71893971;-14.90918045;7.181368754;-8.448730869;-7.939068478;2.543361163;14.88828215;5.810793335
2.130807024;24.10882792;-21.43502771;-12.2655183;2.385428461;0.17774435;-4.911865903;-21.03234392;-19.04798867;-23.40368744;-21.04736753;-17.95128369;-10.779647;4.645526891;-12.75127369;-14.08804023;0.473183781;18.99490465;5.979983216
-0.287363058;21.99080663;-22.80449544;-12.78194323;0.476667198;0.1911733;-3.746298302;-17.08401355;-18.51870912;-22.24363608;-21.50039963;-16.9830626;-8.677894496;3.108364898;-13.38175584;-16.62787149;-0.252118687;15.86395385;5.376029809
-3.27246027;21.46783101;-23.65638079;-13.72064117;-2.621990705;0.179429035;-4.50639529;-15.05467453;-18.29216977;-23.42816762;-25.55336302;-17.31289692;-9.606958962;3.75357019;-8.341618697;-15.20088343;0.176843678;6.642577173;4.354382358
-4.988097411;21.12522783;-23.90988186;-14.74971523;-5.385219524;0.137456589;-6.748771637;-15.21945016;-17.41873403;-25.41386721;-30.75126202;-18.53157387;-12.51027698;6.072313364;-0.113928775;-10.95922976;0.450774355;-4.899609577;3.345408296
-4.325619724;20.08803681;-23.54937448;-15.17868383;-6.489036094;0.075472301;-9.109667736;-16.49502525;-15.12352711;-26.54123354;-33.94288547;-19.68732146;-15.21606067;8.335394316;6.388152923;-6.102790147;-0.716065532;-14.09130807;2.594904949
-1.626615897;19.01286269;-22.36314467;-14.34595331;-5.572949257;0.012318109;-10.12670471;-17.18401129;-11.64791555;-26.23876694;-33.02454116;-19.93534356;-16.01469808;9.005462072;7.95442307;-2.758237616;-3.559671631;-17.43192374;2.126159573
1.653902095;19.33438453;-19.89414023;-12.04822028;-3.285541142;-0.036306959;-9.020823362;-15.98821895;-8.174128343;-25.19928597;-27.97668672;-19.0525572;-14.67445624;7.87514931;5.601255789;-1.804281658;-7.101386009;-14.11071175;1.880636862
4.028571584;21.45258389;-15.77337469;-8.722844792;-0.731452859;-0.066106888;-6.028351917;-12.71973135;-5.911512463;-24.56967935;-20.73014341;-17.53565976;-12.24350115;6.033865287;3.32580677;-2.492834673;-9.865925366;-6.303933582;1.84660037
4.94959822;23.75930347;-10.2250294;-5.235969988;1.178557225;-0.083542621;-2.190053711;-8.361672461;-5.167598972;-24.93177483;-14.08104516;-16.25768413;-9.980293336;4.821852913;4.348801722;-3.210878296;-10.8434097;1.948833814;2.039764326
4.963209775;23.77191293;-4.2997918;-2.398530414;2.051615238;-0.097176607;1.21493192;-4.491711266;-5.208329066;-25.87084496;-10.31651865;-15.89276815;-8.381745123;4.764186519;8.292760369;-2.797669489;-9.971491599;6.848080821;2.384489854
5.019887953;20.58556495;0.459536444;-0.53347744;1.957029233;-0.107188643;3.28196646;-2.403652751;-4.976834917;-26.33135891;-10.24833814;-16.44235386;-7.069045528;5.379489237;11.77252818;-1.309680763;-7.904220148;6.879435422;2.664990812
5.569917026;16.28685346;2.788956983;0.613091391;1.219220049;-0.100803798;3.863239314;-2.409564825;-3.978654323;-25.3321464;-13.05258962;-17.16415222;-5.486007363;5.885868828;11.7093589;0.418654873;-5.428792756;3.59987823;2.649486182
6.191566237;14.57479028;2.420053711;1.577074869;0.269798329;-0.058406123;3.563062842;-3.708007366;-2.542588903;-22.46745938;-16.87817561;-17.00675215;-3.676256647;6.019281929;8.235380828;1.949078627;-3.082544569;0.539419469;2.300824756
6.018601517;17.36145181;0.257197143;2.743570477;-0.434591772;0.031381378;3.35673984;-4.892924598;-1.29377578;-17.96877058;-19.82396553;-15.34527663;-2.399242144;6.166155434;4.524370754;3.906071429;-1.20342894;0.744844984;1.865950168
4.572015259;22.36778541;-2.102791621;4.115671407;-0.540463259;0.156405185;4.022824317;-4.801739911;-0.423510032;-12.52088847;-20.74850647;-12.55785663;-2.478610963;6.751933049;3.770787777;7.278923221;-0.171025053;4.517372748;1.716812386
2.293571515;24.40165512;-3.187412196;5.448997704;0.012284382;0.27724883;5.698321798;-3.182152511;0.494646794;-7.106961194;-19.52802476;-9.984486254;-3.971757972;7.580565269;6.163870797;11.82874123;-0.425645551;8.973298963;2.039116
0.347231692;19.94585531;-2.299492343;6.610058594;0.894787604;0.342083748;7.830039063;-0.758768382;1.958569079;-2.897763392;-16.74110741;-9.157479176;-5.909244084;7.861782727;8.678123464;15.16226935;-2.13509296;9.930194008;2.629166185
-0.149813553;11.34347264;0.321878066;7.827148301;1.557101658;0.315373774;9.571111341;1.329935862;3.82907637;-0.968377291;-13.11768333;-10.71909116;-6.86488567;6.964141631;7.887732495;13.76848006;-4.816258143;4.956267116;2.999401292
1.129249488;6.383500237;3.800662537;9.58682395;1.613847991;0.203810196;10.37118404;2.324924258;5.236122386;-1.748293547;-9.199154976;-13.77333312;-5.920916039;5.175622796;3.226796528;5.702601155;-7.364535365;-4.568497008;2.742484015
3.545798019;12.45212792;7.108547596;12.22482117;1.157287126;0.060317266;10.34839162;2.310279404;5.313447619;-4.510767583;-5.419482949;-16.23909784;-3.278089971;3.68160562;-2.298805059;-7.060829165;-8.62570309;-13.99125569;1.872352829
5.974179992;29.23243825;9.465969123;15.5314309;0.701983661;-0.041500538;10.1616345;2.02878188;4.143130251;-7.445427761;-2.404545904;-16.11339474;-0.066922223;3.675399915;-4.630009766;-18.76423873;-8.136463948;-18.32407887;0.855188148
7.540962533;46.11500795;10.55654283;18.71564923;0.756755549;-0.050144;10.46452091;2.209518279;2.978978189;-8.570771192;-1.04627559;-12.85295984;2.44423839;5.347696245;-2.165808461;-22.951999;-6.437052595;-15.57878787;0.282474503
8.095539051;47.65896885;10.5815671;20.81804104;1.365609538;0.03057919;11.34990904;2.927494278;3.373455325;-7.052472627;-2.084859964;-7.889455428;3.61362045;7.668575356;2.853350485;-16.61564261;-4.660358838;-8.095475308;0.429687584
8.144052963;24.28819513;10.17671392;21.31752752;2.028365452;0.141534317;12.21930906;3.481643995;5.816068189;-3.978081487;-5.424698013;-3.82911262;3.627090188;9.195343476;6.284821258;-2.441572692;-3.69390535;-0.851350224;1.044980368
8.387700959;-19.3345785;10.15636563;20.50648567;2.104195409;0.203965276;12.19243958;2.878214686;9.032883141;-1.84256135;-9.796141834;-2.814675263;3.091769352;9.219337693;5.579824525;12.58631477;-3.581376005;2.058232229;1.535893995
9.241271144;-65.03564953;11.09029428;19.34928438;1.369824221;0.168550053;10.75119588;0.5534112;10.66585185;-2.900154985;-13.25075715;-5.161781305;2.432844819;8.251566041;1.747253835;21.33695215;-3.640705077;0.204820525;1.410941748
10.6337254;-91.49032163;12.88061575;18.89635331;0.240661155;0.045143708;8.128034799;-3.190449657;8.947879716;-7.476403826;-14.34202818;-9.217113874;1.575555372;7.440981313;-1.841836955;20.54502831;-3.17243602;-3.155064916;0.637821627
12.1325292;-87.53212841;14.64081385;19.64081045;-0.561959963;-0.106472392;5.154131633;-7.321909621;4.122264287;-13.51660843;-13.17894495;-12.5153594;0.092239932;7.485715667;-2.574303102;12.02626203;-2.131490226;-3.80231916;-0.347599279
13.2209075;-59.15087986;15.08791312;21.24772123;-0.62637444;-0.217107056;2.709217746;-10.64972315;-1.528741719;-17.82741705;-11.45499936;-13.38572186;-2.378217913;8.049851928;-0.755417701;0.659155103;-1.175811764;0.055115258;-0.974460613
13.52957292;-25.20065739;13.32276634;22.82482357;-0.211183215;-0.250615555;1.210992005;-12.40807782;-5.139249898;-18.21400719;-11.24534745;-11.88003906;-5.776212372;8.214083406;1.06156465;-8.938936664;-1.057713417;6.285905276;-0.952357806
12.93724045;-4.909000196;9.522150895;23.52602965;-0.019932932;-0.219274129;0.5106389;-12.50426166;-5.152109394;-14.99591169;-13.36298206;-9.45980195;-9.538643387;7.508861621;0.775767519;-14.50322009;-1.909011339;10.35595777;-0.466459991
11.56667231;-6.060140017;5.016256643;23.05627461;-0.571396342;-0.164533766;0.200959901;-11.37586301;-2.275802269;-10.79356265;-16.55220714;-7.820685192;-12.77117781;6.512151077;-1.1745743;-15.91572837;-3.074076649;8.720839605;-0.030807846
9.726790144;-21.87718104;1.594792865;21.73630645;-1.713877073;-0.121346769;0.014741424;-9.668251199;1.136280288;-8.731496657;-18.27802817;-7.807726332;-14.54700245;6.381851668;-2.321493137;-13.74208215;-3.666941562;1.552306955;-0.127693207
7.815980414;-37.94441424;0.44595783;20.12012808;-2.719601212;-0.094602747;-0.029830264;-7.973586364;2.748582294;-10.34785054;-16.64898645;-9.163769483;-14.23087583;7.698368993;-0.752274264;-8.389628576;-3.380175736;-7.227725988;-0.89196775
6.190249593;-43.23478105;1.453435314;18.49029629;-2.89164203;-0.064209184;0.200130925;-6.70811763;1.718878768;-14.66445357;-12.03254356;-11.1001092;-11.77033443;9.692434671;2.740360144;-0.703019014;-2.822556312;-12.62917149;-2.037578113
5.041141109;-36.93664324;3.367629903;16.64165463;-2.160981896;-0.011616432;0.708019986;-6.048714669;-0.967025257;-18.96432922;-7.030215683;-13.03857811;-7.857065848;10.65738131;5.071692435;6.994633024;-3.041590808;-12.02761336;-3.043846864
4.36388301;-26.76982171;4.743076595;14.13622266;-1.149765256;0.055878508;1.338390197;-5.857728534;-3.326748045;-20.58183879;-4.688158763;-14.86193839;-3.800853789;9.303414064;3.57016419;11.12039261;-4.58470719;-6.870790006;-3.461165497
4.054165253;-21.31585811;4.956939829;10.83667408;-0.636508402;0.103758623;2.0030117;-5.655911451;-3.613799855;-18.39;-6.223893593;-16.56525964;-1.028589309;5.926620023;-1.486555501;8.857233611;-6.876540696;-1.471706352;-3.152185914
4.062806699;-23.08279328;4.550625755;7.285226685;-0.880491781;0.093737517;2.909331412;-4.774598663;-1.106542885;-13.07669289;-10.01518713;-17.78405019;-0.369226736;2.350638412;-6.895350924;0.561107767;-8.469916515;0.184134705;-2.35003418
4.463144529;-27.58106386;4.646122607;4.581269867;-1.389551864;0.014520876;4.49448322;-2.708749268;3.8427512;-6.309354353;-12.68760233;-17.76081272;-1.542513538;0.616352851;-9.202385183;-9.717190801;-8.034927901;-2.701065368;-1.52272789
