Channel 1 - P4;Channel 2 - O2;Channel 3 - P8;Channel 4 - T8;Channel 5 - C4;Channel 6 - Cz;Channel 7 - Fz;Channel 8 - F4;Channel 9 - Fp2;Channel 10 - F8;Channel 11 - Fp1;Channel 12 - F7;Channel 13 - F3;Channel 14 - C3;Channel 15 - T7;Channel 16 - P7;Channel 17 - P3;Channel 18 - O1;Channel 19 - Pz
-114.9950282;-194.5628491;-171.5486668;-23.60130628;-87.3063343;-17.89544669;-6.731197099;79.70359798;-38.3494494;74.29563882;-135.8315628;-220.6795395;-185.0559835;-206.2956935;68.23831538;12.35636044;-214.9746841;-195.5407324;25.36609961
-101.0227457;-133.0681253;-131.0183512;-19.56559458;-73.68551938;-20.99262664;-13.61427803;46.72150693;-40.87441389;42.02085001;-83.07277782;-166.3910158;-134.6515883;-148.0507553;53.13235466;8.196646096;-165.1447913;-141.4629356;4.882476551
-54.16300694;-38.49422516;-50.58708165;-6.714990284;-33.02543473;-14.49020991;-12.69433877;6.25953486;-34.68067556;-0.36261279;-7.748843939;-56.76690298;-47.57274629;-49.34510299;30.83156479;4.239355538;-65.3421576;-49.92453765;-11.53557085
-2.173828193;36.23989425;21.00569524;6.675351193;11.19859798;-2.636237034;-5.943442861;-20.45508835;-25.24206275;-30.69361855;47.68787694;41.87584175;28.2263418;31.41259378;14.98169161;3.523897671;27.6109341;25.49546451;-16.01266659
27.15334669;56.85558356;46.6672055;11.79917575;36.13896125;6.910078125;0.662456274;-23.97574465;-20.2695443;-37.85904474;57.71611541;78.45841678;57.35916824;54.90872143;11.79294207;5.627001596;67.6959979;47.88015279;-9.328908641
24.1372019;27.89898045;23.98606204;5.734755745;34.10500619;8.474548858;1.836081688;-10.732805;-23.78046096;-26.95638788;29.7835693;50.21263726;38.36355666;24.31367094;17.47781967;7.807661091;48.29697358;19.5372708;0.784946798
1.32274196;-15.60879814;-17.93943571;-6.606325995;15.49055182;2.12885358;-3.222633661;4.130266095;-33.16628156;-12.73624075;-4.490266442;-1.905502184;-0.281727903;-23.15945352;23.20581253;7.88507359;1.115154906;-24.87576299;6.051767007
-18.38802761;-36.73732461;-43.34120479;-16.38010919;-1.037488337;-6.879214072;-10.78566724;8.702221325;-41.48690239;-7.520039063;-15.05215382;-29.25615421;-24.42440062;-47.45997381;22.84335464;6.224439237;-31.36134939;-47.26805927;3.576584374
-19.54090107;-22.92306025;-36.03645396;-17.37692951;-2.803763796;-12.32691397;-16.00557553;1.806345766;-43.02144698;-13.13012983;4.396656531;-12.87287927;-19.0973211;-34.48782342;17.16905864;5.17846601;-27.31339527;-33.7883365;-3.057180745
-4.164547479;8.944770086;-7.64495836;-10.1486848;8.995042526;-11.45472764;-16.74188248;-8.687588008;-37.58553553;-22.1313136;34.36765183;26.83421416;4.368487646;-1.556507338;11.79894373;6.661222977;2.474100257;-0.919961901;-7.757311644
12.60343328;29.96974511;16.09341134;-0.762197845;22.78617813;-6.333935743;-14.70236891;-13.92913512;-30.28088392;-25.8752427;47.65989569;52.80822046;22.04007813;21.50173159;11.44110639;10.16330144;28.66862868;22.03592759;-7.236914405
16.32553075;23.4542058;17.62949517;4.397297701;27.35914464;-1.498157055;-13.27610516;-11.26543574;-27.12674372;-21.9337343;31.83807623;44.83424224;18.67675895;17.87606523;15.78682374;13.06498303;29.47444535;17.84560556;-3.28973274
4.762769362;-3.428101633;0.140093994;3.393656012;20.65225949;-0.115554288;-14.24264026;-5.066738448;-30.27595206;-15.06841465;-1.888478247;15.11241468;-1.009177516;-4.775937275;20.36233259;13.0135008;7.079773739;-6.577295772;-0.547180001
-11.67140728;-28.0821664;-18.26366054;-0.571012959;10.0048358;-1.861038246;-16.30079855;-1.631076455;-36.63099935;-11.94271581;-29.28058556;-5.646224203;-18.82358569;-24.10303858;21.07140131;10.25486641;-17.21591333;-28.78359826;-2.076638816
-19.62505189;-32.14766135;-21.60479977;-2.614411926;4.811535066;-3.929721502;-16.55748254;-3.360571508;-40.7107415;-14.92220442;-33.13603635;2.498635241;-19.90285657;-23.40763947;18.05225409;7.787176479;-22.69641613;-30.70877548;-6.74678445
-13.81760135;-15.54516045;-9.071371348;-0.519386504;8.484131509;-3.924164116;-13.44839224;-7.269464736;-39.15225917;-20.4069921;-16.03047484;30.41897662;-4.866671141;-4.680578325;15.39903754;9.048249861;-6.126123424;-12.56342509;-10.46429374
-0.35922622;5.689144877;6.238164079;3.680843138;16.38659851;-1.95062819;-8.379435209;-8.530746846;-33.1177022;-22.65025097;3.809518151;48.18244431;12.29101872;15.46034033;17.18247;14.97629512;17.55702553;9.772989137;-9.943144717
9.460774664;14.28246951;10.145951;5.889468145;20.7537377;-0.217625443;-4.632457137;-5.318934109;-26.87285863;-19.18296126;8.700209824;31.87527107;17.35862755;21.4765826;23.48857935;22.87587913;29.49667243;19.69106538;-5.599738238
8.821986013;5.893811931;-0.287066733;3.684297943;17.69262977;-0.743031134;-4.563922939;-0.458826078;-24.06176787;-12.9257568;-4.33395076;-14.76092902;7.935679737;11.74944724;30.04346992;28.08970396;22.7326077;13.34642952;-1.123015799
0.200585046;-8.92878239;-15.3639957;-1.702378531;10.12399207;-3.374623248;-7.610591122;1.369930152;-24.94290931;-9.370429976;-22.62;-62.44258232;-5.782625638;-1.919862306;31.70792588;27.23022941;6.328139373;0.765849098;-0.249030582
-8.029959692;-15.34722514;-22.37177001;-6.682902565;4.5614899;-5.895306356;-10.83383972;-1.939191716;-26.7452918;-11.64483312;-29.59559752;-79.93658517;-11.13394518;-6.190576436;26.72572439;20.51674191;-4.30729423;-4.748817043;-3.626584617
-9.445545284;-7.321301398;-16.87449716;-8.49408941;5.081210037;-6.028798144;-11.4509007;-7.941731536;-26.48865952;-17.91550921;-18.52595822;-58.74809378;-4.37430012;2.011044386;18.06822803;11.52817179;-1.229383054;1.522375152;-8.43128366
-4.773428264;8.005299924;-5.74499817;-7.382727941;9.952011951;-3.477135279;-9.076644375;-11.77445713;-23.59186114;-23.2273604;3.045521631;-18.40975421;6.676142236;13.96271031;10.87540219;4.710877527;10.24671876;12.85694513;-10.91206742
-0.336184054;17.49757289;-0.025486368;-6.029482652;13.64183499;-0.166371247;-5.736350939;-10.32872292;-20.02531031;-23.8736194;20.61443198;10.94117541;10.43260469;18.18240656;8.381443432;2.594981145;17.85040004;18.54546713;-9.562696258
-1.795086799;13.66631832;-4.734740339;-6.973118249;12.03137169;1.470564719;-3.749551005;-4.72244218;-18.10215944;-20.33651243;24.47278289;12.9292686;2.29165341;11.07945771;9.84385677;4.65622265;14.04603147;13.88624834;-6.214276199
-9.075984804;0.474511484;-14.85613329;-10.44700025;6.028351798;0.604383321;-3.47712031;0.957517444;-18.09758383;-16.38396754;15.9043843;-4.244546498;-11.29548719;-0.336511608;12.00426102;8.305187416;2.374742907;3.615083121;-4.257504785
-16.77893505;-11.11170389;-20.60951517;-14.44926086;0.509709599;-1.353718738;-2.996716135;3.294094121;-17.92281772;-15.44181355;3.747022126;-18.2150552;-18.68605714;-5.431675127;12.41964897;10.90087725;-6.645651831;-3.489377256;-5.668204766
-19.21935787;-13.07722093;-16.67633404;-16.73603175;-0.181434883;-2.103718653;-0.000758745;2.2421257;-15.13345564;-17.65040295;-4.170557233;-13.34874749;-13.28580051;0.339965361;11.49983257;11.21047498;-5.541469268;-2.919982476;-9.408525374
-15.28971736;-6.683286492;-6.878040246;-16.75743164;3.988863734;-0.552982934;5.799615799;0.645379606;-9.421211924;-20.14011044;-6.590960853;6.574145183;0.904933393;11.80017707;11.51775935;9.539600516;3.572641533;2.262677671;-12.45017971
-8.912449739;0.094501121;-0.36536233;-15.79870576;8.971451359;2.200918631;11.94943416;1.281216052;-3.307370994;-20.0127464;-7.16590785;23.95285975;12.98025998;19.23275219;13.78732564;6.943258504;11.53250789;5.662893225;-12.3839458
-5.0991143;1.019136395;-3.167915614;-15.3857948;10.41500146;3.832851437;14.92352571;4.26206564;-0.348899592;-17.13550682;-8.503336175;24.62357326;14.40781476;17.12875062;16.89377093;4.449547418;10.8528157;4.50384373;-9.333905841
-5.513372012;-2.217964206;-12.89291885;-15.62900929;7.450819901;2.815655708;12.83197913;7.085886732;-2.336614716;-14.20779486;-8.518055351;10.48317832;5.69552597;8.515079642;17.79071506;2.809337477;2.391099855;2.237800753;-5.658664964
-7.545497927;-1.868445472;-21.16463947;-15.13856019;3.141629908;-0.264164077;6.906208378;7.09592534;-7.818161184;-14.16502442;-2.803643196;-3.47903115;-4.976052875;1.466220337;14.78600427;2.54402213;-5.954296828;4.403458965;-3.892240388
-7.41734749;7.66685375;-21.27666281;-12.56744061;1.409764336;-3.201546172;0.567452329;3.968655386;-13.13355086;-17.38544594;9.531080618;-3.958501933;-9.330343128;1.60836814;9.541893839;3.810236002;-6.900039063;12.15538944;-4.790068359
-4.121660879;22.91249118;-14.0120861;-8.249367634;3.40712364;-3.991432756;-3.089852176;-0.019591952;-15.06123086;-21.2368403;22.70491395;8.352299655;-5.797711726;7.617327304;6.003969066;6.030980378;-0.507618031;20.24453668;-7.055452183
-0.427489935;32.34271446;-6.556003465;-4.290294522;6.632456657;-2.387125912;-3.323197818;-2.058783735;-12.93738518;-22.30381139;27.50926663;20.22155128;0.184138064;13.35587324;6.977250341;7.796437248;6.123066001;21.84397503;-8.735205535
-0.102319972;25.11703231;-5.809596837;-2.922568747;7.469013674;0.073445862;-1.753592943;-1.216644723;-8.699750966;-19.24796595;18.61700883;19.23670051;1.978394514;13.97250333;11.35132623;7.515831518;5.671512786;15.71383151;-8.8737026
-4.08230178;0.459647101;-12.32203984;-4.575506604;4.689731174;1.471281734;-0.616081282;0.969341095;-5.089586698;-13.7999376;-0.394136413;6.149349106;-2.03054783;9.994490557;14.61730987;4.611610348;-2.493329231;8.470277255;-7.987561562
-9.260728031;-30.24202402;-20.19177316;-7.426445451;0.674376247;1.044324412;-0.906831302;2.103145684;-3.642938157;-9.152285329;-18.90368741;-5.589165393;-7.389544874;5.955321736;12.53067633;0.33752245;-11.61409112;8.994566036;-7.152045975
-11.08729954;-50.71092952;-22.70303618;-8.884996578;-0.761390914;-0.433170193;-1.952988615;1.123092073;-4.00533398;-7.317550855;-26.68667676;-2.854061747;-8.233565941;5.582831222;4.953214451;-2.654008954;-13.5682134;19.51649293;-6.762327284
-7.634080594;-50.93;-18.36419254;-7.728757203;2.065055492;-1.609573621;-2.509100127;-0.942145457;-4.777280606;-7.780126582;-20.87935705;13.63011042;-2.997797363;8.618563336;-3.452025818;-1.954913121;-6.064792687;31.64734973;-6.204555391
-1.435320118;-33.62321381;-11.92913497;-5.024200425;6.966619642;-1.854974901;-2.12770859;-2.202502444;-4.824163698;-8.440107067;-7.013306419;28.10855268;4.138482288;12.18120226;-6.496174353;2.846393945;5.422243251;31.85547181;-4.682711999
2.575554474;-11.3764863;-9.749098492;-3.049618931;9.553031206;-1.697640738;-1.463050716;-1.796402955;-3.850113929;-7.75599711;6.126071998;22.78531837;7.22362346;14.64909226;-1.235096034;9.65885063;12.53300438;12.61569328;-2.297883716
1.214674114;2.892590107;-13.92396036;-3.201693264;6.862089475;-2.079434986;-1.327656123;-0.60028418;-1.992991634;-6.056387316;12.9868786;-6.077794702;4.061973576;17.40307423;9.560882689;15.11960202;11.17279203;-19.99935277;-0.250291279
-4.345964629;4.543715271;-20.58849014;-4.737433195;-0.160118308;-3.226956008;-1.575363155;-0.164597942;0.785012302;-4.949702994;13.73247123;-43.19909935;-1.834260397;22.14803654;19.25463686;16.72832798;4.58;-49.1397359;0.097953411
-9.707519373;-1.317182596;-23.69251362;-5.433138334;-7.377565805;-4.261906735;-1.041773096;-1.036386056;4.645373039;-5.595606585;11.52323897;-65.27487421;-4.558678992;26.56026187;22.10846838;14.35289266;-0.143899862;-58.80891243;-1.546983697
-10.99414711;-5.673015541;-20.60643062;-3.554640621;-10.65530857;-3.949754124;1.291290248;-2.195344544;9.149882931;-7.573073629;8.170513822;-59.00327269;-1.22798079;23.51724996;17.31003906;10.08001953;1.406668359;-45.31152688;-4.03585569
-7.91133323;-3.309821973;-14.38438457;0.569700463;-8.788787175;-1.90619928;4.998633457;-2.191618602;12.74485717;-9.364307134;2.73029587;-31.14732624;5.473217926;6.246384659;9.276095345;6.663885616;7.300039063;-19.52270775;-5.632594854
-3.589507347;3.780562933;-10.75796205;4.674392244;-3.867460113;0.860479307;8.113679717;-0.849760774;13.3134017;-9.859396376;-5.842493371;-2.480601409;9.844217307;-24.23520955;4.213272216;5.816303881;11.62195928;1.607140026;-5.362769474
-1.620755047;9.324699825;-12.79657582;6.20019113;0.897270282;2.607755371;8.519288207;0.227713084;9.678076616;-9.349831073;-15.23077864;8.914299111;8.36871491;-56.33905538;5.71358493;7.51654013;10.35035666;7.334319756;-3.68797742
-3.076565503;8.758450095;-18.18953367;4.057847237;3.757368306;2.186095293;5.724315902;-0.977745564;2.89825426;-9.069650978;-19.73369165;0.917961349;2.802943423;-73.73787118;12.62980641;10.55351781;5.193909721;-0.404322992;-1.972002482
-6.064994251;2.984124001;-21.5490797;-0.829430455;5.231641051;-0.086432594;1.461823316;-4.830284037;-3.874369631;-9.820692359;-14.552649;-13.28957273;-1.561157844;-66.50614649;20.44986014;13.5501312;1.908780941;-10.68871038;-1.289668848
-7.921408105;-2.932206836;-19.47898661;-6.398799662;6.759616858;-2.724404629;-1.520901687;-9.233889419;-7.164014862;-11.11840783;-0.713348771;-18.12824565;-0.751763269;-39.01547954;24.6820211;15.55970539;4.774828773;-13.47759915;-1.666980906
-7.77374784;-4.463508587;-13.69617773;-10.80147764;8.78664903;-4.260927139;-1.568468511;-11.04657355;-5.41;-11.75030273;14.29821411;-8.994702734;4.353725401;-7.78284579;23.53885334;15.98420303;12.39704259;-7.177939789;-2.365691084
-7.088037308;-1.433701744;-9.398312963;-13.15784049;10.18769672;-4.30557961;0.595192979;-8.680517758;-0.053930686;-11.19857996;21.61222902;5.118197389;8.936156457;9.746954521;18.21557129;14.31469423;18.69891818;1.730748137;-2.817467863
-7.862997845;2.184121997;-10.47683883;-13.43456212;9.486951951;-3.633970275;2.463684944;-3.684606735;5.329587025;-10.46019972;17.9488102;10.97153992;8.62139016;7.072724246;11.18584201;10.2930545;18.19922879;5.558869989;-3.22867083
-10.38233071;1.992108174;-16.00661344;-12.00831454;6.567345977;-3.340068359;1.742347873;0.148456093;7.220597922;-11.31963903;8.496545607;3.284405929;3.329515814;-7.954255596;4.331271797;4.484634869;10.81223294;2.184577148;-4.250374898
-12.76515737;-2.938682504;-21.17196963;-9.544719941;3.139783527;-3.860009766;-1.878180351;-0.448764372;4.125412449;-14.62423374;2.822525821;-11.04450426;-2.789953054;-20.5133515;-1.613000982;-1.400458427;1.922023018;-3.883868727;-6.063059338
-12.74887732;-9.22417712;-21.68242892;-7.160493206;1.47753416;-4.699281696;-6.553498908;-5.762730989;-2.887104707;-19.15845927;6.860923018;-19.73771706;-5.097187235;-20.67261221;-6.302206335;-5.071285868;-2.226575567;-6.246562142;-7.839542838
-9.961679657;-11.87623609;-17.59334978;-6.273236547;2.583868024;-5.004893503;-9.748961032;-12.89516852;-11.13997888;-22.28119738;17.61481191;-16.12557346;-2.39734913;-10.1302463;-8.908940802;-4.969635309;0.344942577;-2.311434817;-8.225721163
-6.458448379;-8.20724767;-13.09669094;-7.779910014;5.47711817;-4.3799605;-10.06188132;-17.8925778;-17.85049285;-21.92507423;25.19979591;-4.319191257;2.395482151;1.039422513;-8.224624907;-1.38432097;6.156341392;5.04514615;-6.505406385
-4.938610781;0.16599951;-12.59047215;-11.06034026;8.20359033;-3.195006488;-7.962622267;-18.43864234;-21.15512675;-18.28298267;20.80551088;5.53617386;5.236604148;4.015332443;-3.700274105;3.624145143;9.803002144;10.68385099;-3.404266243
-6.270856235;8.604491625;-16.6928264;-13.84984866;9.579253764;-2.180307497;-5.040188443;-15.04281578;-20.34325381;-13.71220045;4.145714928;6.897092013;4.677497005;-1.377229073;3.615479641;7.598297226;8.817463629;11.77242262;-0.726883943
-8.639191712;12.84086999;-21.80604505;-13.52949662;10.03479184;-1.753494869;-2.601521678;-10.06597571;-15.70781328;-10.91649607;-15.72525756;2.291836895;2.947905431;-7.552072219;11.24794263;9.374594261;5.489837381;9.576764316;-0.030136001
-9.14743032;11.9120657;-23.51087961;-9.119101049;10.84996186;-1.730274124;-0.887503102;-5.72131205;-8.491377138;-10.95209674;-26.9632423;-0.039437617;3.57611648;-6.81727939;16.59963274;9.768577402;4.24971116;7.470250729;-1.416311395
-6.445374155;8.650976727;-20.59178582;-2.372409699;12.61313506;-1.646326326;0.543976905;-2.821731829;-0.88824405;-12.71052456;-23.62702757;5.366789239;7.90927669;1.481311364;18.40956714;10.70153116;7.278572728;7.720199248;-3.474601938
-1.978059839;7.598776256;-16.02203882;3.164770058;14.45472173;-1.319914652;1.836025908;-1.091889545;4.375080881;-14.18125331;-9.68306704;15.80746359;13.77668917;10.68166695;17.26632989;13.48195181;12.47629941;10.21887635;-4.432919349
1.296548266;11.83963612;-14.11491579;4.662971654;14.82128945;-1.078818991;2.321279669;-0.328607238;5.148088182;-14.23230611;4.564908321;23.0807394;17.43456315;13.26121994;14.87915557;17.64959621;15.55065332;13.77538912;-3.546214074
1.565383971;20.72600725;-16.56059503;2.183044798;13.04363028;-1.433629915;1.028002265;-1.017772136;1.183618676;-13.28533388;10.43410166;21.44;16.8903127;7.841526416;12.80264148;21.3141387;14.13204853;17.77952823;-1.555732593
-0.222446249;29.76808834;-21.00067829;-1.308905957;10.15480447;-2.534397354;-2.26224206;-3.745570553;-5.32;-12.39712878;6.824127947;13.17101939;13.53538465;0.309174484;11.64212976;22.67496347;10.01853879;21.9404662;0.125481361
-1.253376773;32.75257922;-23.36370004;-2.237503775;8.098047102;-3.960078125;-6.428341399;-8.083243258;-10.66065393;-11.80324082;-0.137933887;6.523417593;10.69714071;-1.804583681;11.22722533;21.44966179;7.497936216;24.40751322;0.737654449
0.545364153;25.07586835;-21.70217431;0.751233963;7.993720228;-5.063594914;-9.523403303;-12.24449865;-11.71012778;-10.47728377;-2.805902807;8.008705325;10.58920252;3.654001319;11.37108566;19.06322819;9.3730392;20.9997147;0.82494029
4.546376507;6.667331883;-17.94767708;5.719009587;9.069654113;-5.550892162;-10.0478127;-14.10956818;-7.816936936;-7.243181368;1.898115572;16.36142196;12.51882444;11.56656275;12.39292309;17.5146471;14.40502904;7.677088851;1.650251884
7.876977287;-17.09832048;-15.99968829;9.009263648;9.303422948;-5.73573773;-7.971365574;-12.85667536;-1.195085443;-2.402300646;10.6696326;23.85540876;13.90069187;14.49590511;14.88976099;17.90749266;18.51094645;-14.99263814;3.918070976
7.884766788;-37.32993601;-17.98328559;8.162075518;7.266106831;-6.209578881;-4.701705867;-9.742703582;4.517272813;1.798252828;17.02334475;23.72656946;12.9515257;9.856589951;18.96452893;19.81097578;18.548354;-39.49582651;6.958772494
4.420881287;-45.80388837;-22.18313322;3.761060155;3.524394747;-7.219737446;-2.068155594;-7.227840627;6.535425948;2.575216932;16.31759968;16.69066302;10.43047295;2.590716957;23.61475397;21.82158921;15.15354598;-54.44112469;9.116803214
-0.059768262;-39.34938722;-24.57715005;-1.257377404;0.306460476;-8.336891702;-1.153298594;-7.081396862;4.476572806;-1.109594206;8.588219031;10.34580975;8.80596401;0.728973832;26.87737173;22.67996636;12.02183457;-51.88906461;9.030410623
-2.613884205;-21.8408434;-22.55268429;-4.12603944;-0.327348129;-8.742710326;-1.831423384;-9.031881225;0.215999127;-7.332515318;-2.359160173;11.89988588;9.736167798;7.778771498;26.75095463;21.95460707;12.33182693;-33.55513246;6.72230357
-2.223473919;-2.279733903;-17.37840604;-4.370318897;1.773667352;-7.908279964;-3.211113995;-11.08469434;-3.642460564;-12.23329128;-11.96427226;21.00483218;12.3505563;18.94950908;22.35054616;19.86551599;15.6502599;-10.52480996;3.595612953
-0.397413264;10.21118055;-13.15433487;-3.748945447;4.715064925;-6.076909353;-4.454210751;-11.2081407;-5.445464235;-12.618656;-17.25146384;29.58327305;14.02397292;24.94525105;14.58708098;16.68923703;18.20612088;4.045376961;1.368855204
0.462574593;11.5141837;-13.18790648;-4.222316567;6.134751017;-4.133660386;-5.263832078;-8.943984335;-5.165622808;-8.141114071;-17.15349157;29.17041088;12.93055934;20.26372489;5.953900637;12.52337493;16.3318885;3.96699891;0.856171595
-0.647818628;4.480247573;-17.08200169;-5.912692452;5.107493454;-2.978379077;-5.767360895;-5.627981831;-3.838433965;-1.375754742;-11.70109828;19.21330662;9.942308034;8.67198738;-0.496433833;7.700224528;9.971914561;-6.200690923;1.566366026
-2.483670739;-3.5588359;-21.15300133;-6.969474535;2.743790951;-2.932846608;-6.095354001;-3.154280034;-2.467472806;4.173208024;-1.729719969;8.502835944;8.021967227;0.673935952;-2.492808887;3.338564144;3.076041512;-15.54152984;2.344470398
-2.846046566;-5.973515889;-21.76460775;-5.455963888;1.042475104;-3.645035124;-6.146588836;-2.449608113;-1.341322756;6.479613086;10.44547469;7.82505031;9.601082205;4.626411589;0.431167673;1.231303587;0.474175117;-15.63910171;2.402307472
-0.755591;-1.074550303;-18.54370752;-1.467672124;1.093542379;-4.492091175;-5.729685195;-2.965379211;-0.169481611;5.972070801;20.59997461;19.87587772;14.33617192;18.82997941;6.720693125;2.8258875;3.939008341;-6.651823303;1.836455836
2.527303914;7.478709208;-14.59935962;2.576809698;2.236870759;-5.066333276;-4.846233696;-3.490119331;1.302486177;4.558775121;23.86224881;35.37359616;19.32037413;31.47615132;13.51745281;7.981401745;10.81573212;4.075752412;1.276766495
4.560984856;14.09253046;-13.60981833;3.886755724;2.848621823;-5.326179103;-3.763026252;-3.395533464;2.853719198;3.796233638;17.54285938;39.37026483;21.58515076;29.02846008;17.99337943;14.60029335;16.29488019;9.112097237;1.109978294
3.864963495;15.63561588;-16.45655816;1.814432479;1.939565578;-5.371778259;-2.791625693;-3.131160441;3.88724511;3.823706653;3.54398861;23.11283051;20.63502159;6.679703581;18.64954161;19.66868179;17.24670597;7.28076459;1.057392678
1.184381061;13.40166679;-20.43518818;-1.372642609;0.064347056;-5.175054101;-2.031804006;-3.584932952;3.893811037;3.778955692;-11.87027407;-8.137482934;18.74543941;-27.28836806;15.91326827;21.10753444;14.32531347;3.822693404;0.490375618
-1.244435713;11.32611981;-21.69806882;-2.305685101;-1.256164699;-4.597283586;-1.37275013;-5.02662968;2.831564687;3.007019113;-21.32085721;-37.86459997;18.81455826;-56.6631753;11.73768857;19.09599456;10.75824736;4.694203461;-0.853719959
-1.708732545;12.21202907;-18.67719103;0.54761617;-0.996797964;-3.678973373;-0.747696474;-6.712183399;1.140497405;1.767532916;-20.54247672;-49.66684043;21.77719967;-68.02787131;8.482761898;15.84980238;9.209979953;10.55730342;-2.466729759
-0.456004666;15.25577619;-13.41783126;5.379867093;0.423246729;-2.852330043;-0.332346525;-7.544114358;-0.525867873;0.808228813;-10.67581315;-38.43869426;25.92474655;-59.06017674;7.764118701;14.0032416;9.653510539;16.09790955;-3.388108244
0.724834176;16.94;-9.700814134;8.388716673;1.58094573;-2.759734757;-0.41069473;-7.138667483;-1.583342167;0.374513473;2.855822321;-12.9932467;28.65158641;-38.69349359;9.900230288;14.80999723;10.0195899;15.24900539;-2.982439001
0.324071176;14.43133218;-9.721300959;6.936961346;1.433388503;-3.750987438;-0.996877453;-6.246071165;-1.663796988;-0.218341115;13.82222196;11.19660333;28.89;-19.86130934;14.1118001;17.47850822;8.726032089;7.361384844;-1.484571426
-1.394270022;8.453021641;-12.31042453;1.869033074;0.318779179;-5.500825855;-1.62611017;-6.084232404;-0.690730815;-1.926102592;18.42247331;22.84476615;27.90652066;-10.83198737;19.11157144;20.02974137;6.517084035;-1.573865784;0.176583566
-2.613094769;3.031633345;-14.19907431;-3.030496063;-0.379767244;-7.152990757;-1.641458137;-7.188443273;1.012665528;-4.846643234;16.31092449;20.97215955;27.74297205;-11.3499428;23.58141251;20.89126743;5.836563591;-4.008231641;1.127776109
-1.677067014;2.201537814;-13.05719559;-4.044849788;0.403426478;-7.948008432;-0.830428463;-8.859891391;2.652513333;-7.784125099;9.451449204;12.68479054;28.86505777;-15.35725049;26.34376253;19.96689823;8.374494871;2.30580005;1.23090381
1.302291512;6.436037426;-9.520863756;-0.495696504;2.314762684;-7.826480037;0.157346301;-9.755357492;3.145392821;-9.063767717;0.386846691;5.927335867;29.37494627;-16.97801202;26.45510554;18.46585999;13.16883688;12.02966946;1.123653874
4.444912529;11.9589092;-6.456387792;4.818881533;3.8048698;-7.464779094;0.10467633;-9.099021948;1.643482907;-7.954346061;-8.619150038;3.807851479;26.68575634;-14.70123029;23.53309892;17.80933624;17.1159298;16.85525536;1.612204839
5.714596237;13.76360478;-6.269010981;8.075535139;3.524422393;-7.667111412;-1.855909204;-7.403180804;-1.847710225;-5.405857726;-15.48306318;4.496268941;20.19052854;-11.10967018;18.26393075;18.57878112;17.4887548;13.04122729;2.948552197
4.675529041;9.99835397;-8.77746165;7.676325795;1.643968029;-8.612132424;-5.393854459;-6.015191733;-6.241461091;-3.360238754;-18.25932683;5.224655039;12.404248;-9.483864517;12.59040963;20.26520277;14.19979779;5.025002029;4.590458407
2.799896957;4.011124508;-11.53627186;5.543361245;-0.117567445;-9.614946589;-8.948124535;-5.874480444;-9.837872337;-3.171270536;-15.91202173;5.671208495;7.344836916;-10.74274218;9.077160771;21.81491937;9.782729975;1.592207717;5.609216541
2.066838011;2.032803712;-12.17726634;5.374114796;0.165520185;-9.64624255;-10.65134993;-6.59226058;-11.27787214;-4.504512035;-9.424927977;7.554080543;7.415314775;-13.11232547;9.539584988;22.36286709;7.147831019;7.775899107;5.380188174
3.151049543;7.977339613;-10.52997443;9.348352745;3.050116384;-8.198417763;-9.565136792;-6.69404259;-10.33977872;-5.692181634;-1.952077424;11.57474887;11.47731831;-14.13437067;13.76481651;21.57463184;7.155549944;19.73548161;4.009032383
4.860181036;19.37590881;-8.5960417;16.07018379;7.256285115;-5.773617112;-6.291989715;-4.839185602;-7.99410474;-5.227825197;2.715152256;15.55588449;15.82862467;-12.77300148;19.34515715;19.5303996;8.147913001;27.52017838;2.219712981
5.327443166;27.92371909;-8.516517982;21.47453491;10.67562961;-3.575146971;-2.508797448;-0.976142109;-5.684746461;-3.06653804;2.54747482;16.18814766;17.25730191;-9.822660059;22.97270629;16.51423033;7.745852032;23.7109565;0.873855331
3.861819284;24.76993243;-10.51742681;21.95595276;11.9586926;-2.651762615;0.177499632;3.538913238;-4.402951517;-0.579087317;-1.312717856;12.81889765;15.51897358;-6.718738822;22.44446183;13.01792675;5.177868033;10.48702267;0.519472862
1.760928267;7.019896395;-12.75468612;17.17743478;11.34642991;-3.194992071;1.144352265;6.925537232;-4.250019531;0.7672901;-5.42091571;9.22082748;13.11995071;-4.24466117;17.99148285;9.860196179;2.004054464;-1.382462331;1.23844427
1.329049435;-19.24404308;-13.13251751;10.346906;10.14966506;-4.536812225;0.792854628;8.209319856;-4.732043915;0.772921108;-6.651015011;10.85799456;12.70881112;-2.358023341;11.96712188;8.052638589;0.641811968;-1.338089652;2.762841156
3.951190236;-41.8278655;-11.31462942;5.846262972;9.484398479;-5.784930805;-0.155255567;7.707740668;-5.399332739;0.650243812;-4.530019531;19.4839537;14.50430665;-0.980097656;7.143712153;8.250246808;2.116021372;11.53531538;4.655815155
8.901575433;-49.48311728;-9.014918055;6.16634278;9.446872728;-6.508285165;-1.372289503;6.493301872;-6.199857265;1.802741118;-1.416120887;29.91678252;16.10925777;-0.610299222;4.915469166;10.12741511;5.102647605;26.56056885;6.420834307
13.89038548;-38.53864673;-8.324552172;10.47834304;9.385947276;-6.898030209;-3.01528635;5.431632852;-7.265243356;4.350205436;-0.40792488;32.5342766;14.86143661;-1.954970613;4.724921635;12.29017291;7.081546298;29.14738362;7.573982419
16.81645779;-14.82427681;-9.699180573;15.69312875;8.850269159;-7.341989048;-5.216707563;4.65400264;-8.445741091;6.769365352;-2.736614376;20.28386137;10.54746663;-4.928712201;5.002434953;13.01664218;6.479366553;12.23561222;7.771431911
17.18743415;10.13496105;-11.53380165;18.88054402;8.183228454;-7.883155616;-7.587245874;3.806327602;-9.174555052;7.03997343;-6.775739585;-5.131757447;5.954444241;-8.140567695;4.695875911;11.41637931;3.854016219;-17.65608279;6.971757711
16.06356114;25.89659506;-11.72740759;19.07143859;8.153564089;-8.104917157;-9.308230247;2.670832922;-8.906533084;4.348888506;-9.407637881;-33.05761875;4.670320766;-9.561885086;4.080996113;8.136870048;1.150342806;-44.7032146;5.483618952
14.76083894;28.43127173;-9.740866945;17.27804698;9.011762748;-7.549868148;-9.779266802;1.48837675;-7.755247182;-0.100287346;-8.535756565;-50.31095331;8.023154955;-7.929089882;4.269739161;4.99562057;-0.139592847;-55.03266388;3.786704433
13.6278542;20.99660653;-7.175010052;15.15287022;9.972010843;-6.253756292;-9.194541515;0.713667107;-6.660527418;-3.861793409;-4.673840768;-49.65386949;13.84688745;-3.697865969;5.996748819;3.7388377;-0.145744742;-46.15917247;2.217488453
12.02606749;10.75363216;-6.290278673;13.65584319;9.740396056;-4.853651866;-8.434562789;0.54980711;-6.786386158;-4.95969357;-0.419752161;-34.13131158;18.17027172;1.266703453;8.834254983;4.847518034;-0.109900938;-27.53122318;0.778672127
9.421206334;3.949080302;-7.842386297;12.74247906;7.692685764;-4.122953461;-8.294268397;0.802544169;-8.580250173;-3.155937568;1.611381095;-14.33242716;18.37421794;4.983707344;11.49761857;7.298121264;-0.847858405;-12.41433369;-0.73841205
6.406107591;2.84421675;-10.28105193;11.96457983;4.617482592;-4.328458964;-8.735652895;1.198085109;-11.33334053;0.139927898;0.676125905;-0.997996989;15.11647663;6.561194954;12.85829309;9.420612506;-1.797004224;-8.053729556;-2.410959939
4.541083008;5.790932358;-11.10760036;11.1127597;2.259243628;-4.990452043;-8.901160165;1.764131134;-13.72644967;3.049360317;-1.772461738;1.426541692;11.45687607;6.431909607;12.66435564;10.11716893;-1.629978451;-11.79459855;-3.951210449
5.044666506;9.535224301;-9.16872195;10.25127904;1.962697741;-5.277571373;-7.956605911;2.77553241;-14.97451105;4.401085687;-3.354027617;-3.997117694;10.08261446;5.647442009;11.3369301;9.455923793;0.17157543;-15.3889672;-4.853046418
7.514965812;11.66116283;-5.760591398;9.317561166;3.567104491;-4.698804321;-6.031746927;4.244543115;-15.56649038;4.034151522;-2.494301884;-10.64972118;11.13119706;4.999076752;9.177854058;8.239141316;2.388603945;-12.96633629;-4.847135225
9.928135388;11.62174353;-3.486563205;7.96447922;5.533432945;-3.484948481;-4.344816246;5.506920055;-16.84656175;2.301679678;0.607574064;-13.67680416;12.46212392;4.686298198;5.932605003;7.044021313;2.826052317;-5.714178786;-4.266607713
10.06032856;10.24210101;-3.880916363;6.001190564;6.228981017;-2.330161938;-4.261667028;5.4925155;-19.66614409;-0.436488296;4.208060544;-12.60608854;11.98231889;4.598994108;1.287036062;5.659692538;0.202127466;0.164727681;-3.937749827
7.200039063;8.644963947;-5.971691607;4.015368632;5.277831705;-1.740200494;-6.008283881;3.64790579;-23.23081536;-3.724291032;6.023906255;-10.03812814;9.823048039;4.725543079;-4.134291423;3.43452804;-4.532359734;-0.363063733;-4.596036354
2.716019642;7.554249241;-7.123805349;3.390539727;3.822195613;-1.58494349;-8.165445267;0.752410279;-25.24833669;-6.540470369;4.343966078;-8.447127863;8.381771273;5.239509205;-8.368290212;0.183691605;-8.716524391;-6.646606751;-6.269073431
-1.000511842;7.207034084;-5.426399008;5.419694971;3.490658516;-1.259823459;-8.509426116;-1.226636481;-23.47551629;-7.244345368;-1.14539907;-8.134424976;10.21971881;6.285215066;-9.019939202;-3.23243741;-9.988899527;-13.27230626;-8.161006185
-2.334349521;7.49421821;-1.464418529;10.13447685;4.990322782;-0.299188151;-5.650837663;-0.359715554;-17.55699828;-4.413149328;-8.955850076;-7.722012434;15.72924352;7.810181228;-4.999197008;-5.277097122;-8.084565876;-15.09;-9.197538354
-1.519089066;7.978488853;2.146306493;15.90685766;7.540097656;1.134389991;-0.199871044;3.790653205;-9.676253579;1.906499214;-15.9993613;-6.109100495;22.64755379;9.651349181;2.299317613;-4.828184801;-4.892667401;-11.53443827;-8.842356564
-0.197692693;7.88581491;3.060186234;20.33144247;9.591353377;2.353963242;5.507458736;9.667188367;-3.376734626;9.659234032;-18.65974478;-3.764060957;27.81032384;11.70641521;9.498416338;-2.099762138;-2.781878177;-6.486573936;-7.543980258
0.014182494;6.407345066;1.272021292;21.78998828;10.14370697;2.774127231;8.969073421;14.66101796;-1.32742543;15.69732054;-14.63123974;-2.239363862;29.56597839;13.8999983;13.23227157;1.394079763;-2.704043473;-4.220550832;-6.448351565
-1.320024414;3.3455364;-0.907987886;20.44095086;9.473889467;2.50058485;9.190805243;16.82938858;-3.656403093;17.70765087;-4.651988567;-2.634331033;28.76492628;15.94983226;12.17870087;3.831935785;-3.706898106;-5.462292932;-6.596018508
-3.479896894;-0.394389779;-0.949714557;17.8162859;8.670279463;2.332836838;7.222233077;16.06856195;-8.053089489;15.74144977;7.204092822;-4.614095094;27.58569675;17.28686991;7.589596339;4.243862211;-4.151951715;-7.173189719;-8.224139349
-5.551478579;-3.087645336;1.618269252;15.40328214;8.462814526;3.133592344;5.217251346;13.87211638;-11.48014167;12.11708239;15.42505118;-6.860899122;27.39;17.40688876;1.995109535;2.935794693;-3.391884848;-5.977874581;-10.68007813
-7.300232746;-3.295182787;4.789947931;13.47855583;8.46170599;5.077143463;4.828581272;11.97752097;-12.14304863;9.719791971;16.35225563;-8.376739554;27.57736947;16.42150469;-2.752597303;0.929269081;-2.318557031;-1.73599012;-12.938294
-9.138251878;-1.014863596;5.885861272;11.22058969;7.520245191;7.411210565;6.190857054;11.08547944;-10.28873022;10.01053352;10.70214455;-9.311976171;26.39877063;15.18631035;-6.459171654;-1.003386014;-2.322154621;2.240359355;-14.24803581
-11.33066207;2.159482133;3.953074545;7.94392662;4.89588389;8.945939343;8.172590239;10.67243735;-7.450633804;12.26720324;3.276088638;-10.57258368;22.87851647;14.65929026;-9.907916737;-2.838822096;-3.720497759;2.515575993;-14.41363467
-13.34609209;4.208800964;0.623096499;4.234481174;1.146699564;8.88571546;9.516847598;9.886050744;-5.008484924;14.52700149;-0.320368507;-12.68163034;18.02497355;14.95697393;-13.35376548;-4.950658378;-5.208563597;-0.84149386;-13.60375329
-14.1;4.355300295;-1.306931691;1.809832165;-2.07628112;7.354392139;9.842159715;8.562510715;-3.342206401;15.29541282;2.21292772;-15.04003906;14.22178591;15.11444604;-15.7420374;-7.323686825;-4.904238454;-3.914848304;-12.01355885
-12.93751744;3.790598535;-0.273922318;2.084609519;-3.209080219;5.241080512;9.73053656;7.38384375;-2.151132461;14.54767693;8.007633038;-16.28432897;13.36024781;14.08997162;-15.47598121;-9.156347378;-2.054584799;-2.388147;-9.770798752
-10.42805108;4.67351974;2.799419983;4.670633416;-1.946795158;3.551340108;9.988262628;7.084490379;-1.376785296;13.30216694;11.0231936;-15.39021202;15.37413355;12.2960418;-12.05686326;-9.320740938;2.1697375;4.337800038;-7.148859721
-8.149727646;8.088712405;5.451304559;7.236853185;0.558050581;2.805226406;10.84634544;7.559446178;-1.644770844;12.36687349;6.625268037;-12.52995847;18.41626372;12.04658598;-7.029697511;-7.356225291;5.5412229;12.24540146;-4.771623249
-7.543066766;12.72973351;5.900019531;7.056334978;2.597500714;2.903236182;11.81127142;7.82336904;-3.682876685;11.54252445;-4.624605382;-8.978519395;20.42547184;15.88080178;-3.225713503;-4.141557924;6.54222444;16.04093751;-3.456018366
-8.787152675;15.67512378;4.524257819;3.093389397;3.128143989;3.437533985;12.20891794;6.927386242;-7.255847921;10.02025113;-16.90330511;-6.218787117;20.6551308;23.61019167;-2.816332538;-1.593862678;5.469237572;13.83495979;-3.69565706
-10.6801695;14.9036134;3.338083782;-3.076172142;2.327135493;4.075168528;11.83375404;4.962709357;-10.75689244;7.494569051;-22.97987911;-5.004040774;19.89457187;30.59100926;-5.799591825;-1.517256203;3.944539068;8.894226204;-5.203166685
-11.6495087;11.51574021;4.039303591;-8.334028098;1.135801105;4.673264888;11.08273256;3.121395798;-12.10774094;4.794706663;-19.22249725;-5.034830561;19.38055441;29.4306734;-10.20103999;-4.420808904;3.364398166;6.731188815;-6.97898423
-11.03694814;9.51806733;6.460039063;-10.28383523;0.307303338;5.120465242;10.49787442;2.64106756;-10.42240022;3.307444854;-8.109005657;-5.329120293;19.55731263;14.85145572;-13.76736521;-9.169189371;3.744580056;10.03330323;-7.964034807
-9.575275559;12.81821219;8.802550763;-8.927771584;-0.184112812;5.183878258;10.21725124;3.556604994;-7.043080248;3.679262733;3.535953351;-4.891314094;19.85943322;-11.46562758;-15.61845476;-13.69674616;3.986020165;16.04678796;-7.805309023
-8.68839868;21.47918422;9.365225054;-6.446339474;-0.936733289;4.603618093;9.89697865;4.469170604;-4.878448118;5.075423266;9.19875292;-3.248058748;19.62400856;-40.02215328;-16.40715349;-16.23325126;3.216552739;18.9981451;-7.102388584
-9.259437996;30.30362201;8.118465749;-5.312863076;-2.422157895;3.375503436;9.176930789;3.684443007;-6.299997309;5.839816224;6.831814036;-0.660457027;19.13668509;-58.16645812;-16.95536554;-16.17438198;1.860048828;15.62811552;-6.892398133
-10.92775065;31.41505814;6.686396078;-6.293270081;-4.476973032;1.914980958;8.204194616;0.799166454;-11.12178704;5.087857108;-0.326840279;1.996694653;19.70725338;-57.70245516;-16.7918981;-14.08529895;1.372955714;8.895628607;-7.763561235
-12.45995531;19.54414221;6.79962573;-7.905640118;-6.399699159;0.864016675;7.644217599;-2.70170947;-16.31157881;3.785469291;-6.539932449;3.675021658;22.61755645;-40.24900687;-14.14617263;-11.01048144;2.879456537;6.180674044;-9.319629217
-12.79007813;-3.557589443;8.686503466;-7.675157451;-7.472519083;0.636240881;8.091768768;-4.496558678;-17.8620398;4.18896758;-7.705076356;3.83386943;27.87193105;-16.34625467;-7.585591185;-7.716432717;6.005277889;12.97579778;-10.44643043
-11.79437022;-28.90222247;10.88704885;-4.088537525;-7.388464451;1.075288165;9.395262209;-3.339681483;-13.59327402;7.944905917;-3.898627788;3.036271241;33.8956435;1.310488675;2.150240464;-4.405969124;9.048243845;27.17932371;-10.17316799
-10.19007813;-44.81191665;11.62835657;2.304514311;-6.259817285;1.545276727;10.5563248;-0.210091553;-4.863692739;14.43022667;1.174826188;2.919658452;38.49299224;5.808996076;11.93440355;-0.970137551;10.38241433;39.06645453;-8.43046216
-8.772768099;-43.49065843;10.46213835;9.385881165;-4.352842678;1.40974669;10.39531894;2.36227497;4.108879653;20.85589118;3.069470672;5.23132157;40.27949612;-0.439919143;18.14596159;2.579886047;9.833152381;37.63806999;-6.099342455
-7.756097715;-25.46624409;8.655164058;14.99434482;-1.935338709;0.508901168;8.485499187;2.314721141;8.893252918;24.21807021;-0.351730902;10.36321619;39.43201953;-8.799933922;19.25925632;5.912343063;8.768759166;18.833954;-4.335071937
-6.782116052;0.786571372;8.003444408;18.21304538;0.594892874;-0.764314052;5.570623325;-0.251296463;7.616277208;23.56735872;-7.649891943;16.52406286;37.24436544;-11.42158948;16.95356929;8.534301464;8.827097375;-10.66072178;-3.730537958
-5.470766954;23.53097626;9.194352861;19.54393139;2.548053217;-1.841817157;3.071157401;-3.138581256;1.958967106;20.70511469;-14.86780382;20.55453982;34.9993142;-6.722330146;14.70937509;10.11814518;10.44587963;-37.0854857;-3.973486542
-3.875233261;33.66007813;11.22739026;20.11223;3.128709719;-2.468335254;2.03612434;-3.853764048;-4.210274844;18.68364858;-17.99601817;20.20783607;33.14691226;0.549743003;14.98471676;10.7112278;12.53461747;-48.19079403;-4.204828949
-2.371991553;28.41618736;12.39509084;20.75441446;2.012748338;-2.867875472;2.370625011;-1.628918577;-7.480830434;19.33620241;-15.28118585;16.28894941;31.3544169;4.100478831;17.33057656;10.70246226;13.5608051;-40.58092555;-3.712848389
-1.149272365;11.44186247;11.88099996;21.70413251;-0.142231148;-3.455556777;2.955323644;2.035259743;-6.9385881;21.90287067;-8.113958988;12.68542367;29.15158976;1.461789979;19.05327664;10.63041184;13.0139025;-20.8252931;-2.388325386
0.089787107;-9.947981572;10.48931209;22.8761804;-1.835702938;-4.376078022;2.551229374;4.73660946;-4.301945916;23.90016503;-0.105182291;13.67678006;26.44695516;-4.364413582;17.85698257;10.98855103;11.87201129;-0.165689535;-0.654546984
1.793411781;-28.20024443;9.857681781;24.20675157;-1.627302965;-5.304374693;0.757390141;5.245582659;-2.302350453;23.46941196;5.08847807;20.16530369;23.49010258;-7.919015479;14.16602725;12.09931001;11.63831333;12.80817384;0.93544364
3.856412055;-38.04426835;10.91823812;25.62218515;0.783933639;-5.699750803;-1.725358941;4.495755037;-2.644879255;21.16905254;5.961946348;27.79579118;20.50706166;-6.028626783;11.05970649;14.02784833;12.85855495;16.2959511;2.018458882
5.285382094;-37.66210405;13.04667061;26.76818424;4.184438641;-5.286427277;-3.683535524;4.663677178;-4.997871631;19.64516486;4.051514353;28.96620959;17.54258594;-0.20391298;11.78716396;16.51157166;14.5258144;14.12040549;2.437728917
4.741666398;-28.79438447;14.66999227;26.99323403;6.594823269;-4.322722684;-4.30812896;7.177553955;-7.543523983;21.42743404;2.8210724;17.89590944;14.71787277;5.077278818;16.92932453;18.96743547;14.96118167;11.33225733;2.104662863
1.669686304;-15.97725411;14.73751436;25.8333643;6.668576311;-3.409082535;-3.696348621;11.41112715;-8.457216112;26.70363103;5.0718954;-4.682892887;12.54779725;6.38316977;23.62480294;20.67221104;13.38296651;10.55196529;0.99866282
-2.930068359;-4.83431025;13.67356833;23.63202709;4.685699826;-2.999924322;-2.589831768;15.19777411;-7.136641316;32.95505486;10.55579655;-30.82482923;11.80318537;4.043969768;27.56456019;21.1059369;10.71702188;11.48103087;-0.626226238
-6.876189668;0.35207239;12.93950042;21.60785602;2.346349429;-3.049409201;-1.646495526;16.69744;-4.375607633;36.77438906;15.64513364;-49.6214287;12.86535867;1.385232319;26.14929115;20.27751941;8.873656006;12.86584835;-2.099509508
-8.219976803;-1.240053711;13.63972217;21.06924151;1.499490239;-3.098983417;-0.895937928;15.97028988;-1.564456398;36.37559829;15.67049005;-53.73984237;15.14223829;1.463268883;20.26416905;18.78565962;9.111543089;14.33043043;-2.587985481
-6.669520019;-6.593117881;15.48586393;22.28843624;2.787517368;-2.719360137;0.175674063;14.87652001;0.322299556;32.77244753;8.520386886;-43.78132934;17.21614541;4.377386209;13.3311633;17.50985504;10.94893333;16.3116185;-1.722431115
-3.872037644;-10.83956766;17.07670729;24.02745432;5.247123421;-1.910140903;2.017044789;15.38605471;1.181113309;28.76117383;-3.185688948;-27.46942211;17.77816886;7.501245684;8.5769728;17.09173812;12.59753356;18.6764091;-0.114223427
-2.241070989;-10.54873245;17.21159376;24.31357777;7.12968216;-1.111288969;4.412605221;17.76383656;1.465279489;26.66686563;-13.33824161;-14.37487255;16.61502877;8.22420512;6.844295401;17.54472794;12.52691337;20.04244372;0.807494903
-3.165062619;-6.011988391;15.99786584;22.02658113;7.238067639;-0.836410461;6.398443334;20.20448818;1.509504051;26.75007813;-16.49575703;-9.997565176;14.74234207;6.550316828;6.637281218;18.26269452;10.76225414;18.97965085;-0.268532154
-5.957029351;-0.732093859;14.72446616;18.05219638;5.713010007;-1.269477075;6.778572209;20.24858286;1.110389131;27.47940882;-11.99194884;-13.23301081;13.47919826;5.133834921;6.070569287;18.42525372;8.781910194;16.0582707;-3.431757316
-8.360347558;1.569119712;14.64048883;14.94114965;3.711029678;-2.176840745;4.87425839;16.80337855;-0.314632232;27.22552139;-4.672552813;-18.52778995;13.24347104;6.738887778;4.794329672;17.5251301;8.157598106;14.4074412;-7.181840266
-8.238601605;0.038804603;15.79909134;15.14469984;2.338290016;-3.17888257;0.994868888;11.097963;-3.167944931;25.77522042;-1.318105317;-20.58921373;13.18425725;11.48039664;4.158061081;15.67369395;9.197015845;17.51445431;-9.250325166
-5.185428049;-2.70771265;17.05131573;19.09307732;1.765709692;-4.0944453;-3.655671839;5.812466362;-7.189053753;24.35476174;-5.259430886;-17.978788;12.06665228;16.41183885;5.59455824;13.51040788;10.79848559;25.62650441;-8.144761816
-0.876253726;-3.028991052;17.18206913;24.63370252;1.220777754;-5.023721889;-7.543666913;3.12498836;-11.42687172;24.26064191;-13.42741893;-13.24692224;9.660537822;17.91773385;8.855549118;11.80739128;11.58308158;33.90614418;-4.292466242
2.056512469;0.354390622;16.10191347;28.37639092;-0.219418837;-6.107618753;-9.495379762;3.247519227;-14.67771559;25.43936807;-18.45007813;-10.14092055;7.327106523;14.8474651;11.83311095;11.03082359;11.20175522;34.59062879;0.139857172
1.777509148;5.067895114;14.95523421;28.02982653;-2.748389443;-7.228824301;-9.163416623;4.531889049;-16.07157148;26.35807166;-14.46116204;-10.47945087;7.124913911;9.6344329;12.20671548;11.10678594;10.5938793;22.27631896;2.705152198
-1.596337152;7.199467556;15.0270351;24.01638827;-5.580511042;-7.986331715;-7.096527968;4.908716152;-15.4318062;25.3126631;-2.124345306;-13.08326495;10.0799569;6.383576981;9.452070817;11.49244613;10.98753059;-1.388146935;2.367720618
-6.153016327;5.092883055;16.47048082;19.16869073;-7.479704245;-8.011936437;-4.438167439;3.414879214;-13.24241834;22.01875629;11.28857952;-15.17595534;15.10572935;7.541799951;5.384881781;11.48964236;12.61968745;-27.37949237;0.16119529
-9.425605352;1.390302613;18.06652024;16.7456532;-7.598274272;-7.349394376;-2.407100363;0.656108993;-10.33414337;18.06776783;17.13501571;-14.72250558;19.60930375;11.98651808;2.70918409;10.63507475;14.40748774;-44.12276502;-1.684281774
-9.824202062;1.199811673;18.28055653;18.2399892;-5.988989227;-6.518143235;-1.768362867;-1.95179765;-7.53518005;15.81212402;12.00697923;-11.76141453;21.40274499;16.12882741;2.816869288;8.97263593;14.89216867;-44.4043342;-1.471485253
-7.38755395;7.634384505;16.67186062;22.54163342;-3.495305252;-6.143999874;-2.5074367;-3.339968117;-5.461350643;16.59121196;0.462220036;-7.955178564;20.37632168;17.02769523;4.743854472;7.051532828;13.56440439;-29.66310842;0.701801902
-3.54023468;18.52573706;14.36139824;26.9469276;-1.216877972;-6.435759794;-3.862068339;-3.360362687;-4.452051928;19.75764311;-8.431024444;-5.112026843;18.52877658;14.81112065;6.149417412;5.606738079;11.30582813;-8.782809377;3.088417568
-0.167198129;27.47122196;13.10520599;29.1351608;0.02445122;-6.958578963;-4.721116061;-2.474290845;-4.55571524;23.26925484;-8.138095282;-4.030996814;18.31276643;12.35210814;5.394197358;5.058494681;9.506824837;7.586748706;3.683036125
1.383429759;28.81101381;13.78695458;28.61976238;-0.061427753;-6.931625174;-4.20575757;-1.068642714;-5.506066619;25.30548359;0.240128315;-4.409884008;20.67376819;12.55673136;2.855321055;5.134096447;8.682883798;13.16080098;1.754929694
0.86181649;22.5724433;15.67508763;26.72013002;-1.249434829;-5.838856208;-2.122548757;0.865005931;-6.740039063;25.56582819;8.86501595;-5.508021997;24.40080636;15.68886798;0.356086969;4.924839168;7.926874553;8.660568482;-1.634570452
-0.944796917;15.01622763;17.10031293;25.28219159;-2.936413116;-3.865840017;0.966617426;3.439024927;-7.553343502;25.25130982;9.372013932;-6.75291906;27.25976147;19.10127777;-0.684862293;3.455673531;5.794790178;-0.148373869;-4.450553346
-2.769533064;13.80650565;16.92960086;25.25166586;-4.325125723;-1.805597962;4.082594798;6.373453637;-7.398604791;25.86494437;-0.48910694;-7.819119443;27.85852644;19.62721615;-0.628480465;0.461997691;1.879791134;-6.907371697;-5.133841402
-3.600362996;21.37406342;15.5096695;26.1546678;-4.693857587;-0.505909122;6.348135514;8.893242453;-6.172479461;27.90720555;-14.95593644;-8.374608419;26.63209866;16.54238749;-1.214824658;-3.186255389;-2.385443956;-8.269490598;-3.568104142
-3.218592731;31.92673385;14.25811639;26.7182537;-3.746946279;-0.295818555;7.373191041;10.19895891;-4.267685757;30.53139857;-24.4648475;-7.98039866;25.19985149;12.45812421;-3.73313028;-5.837797303;-4.556468758;-4.669406006;-0.927982958
-2.258459462;34.98606254;14.31882943;25.98829521;-1.868606587;-0.826833559;7.326933508;10.10395737;-2.289169343;32.34833111;-22.57807425;-6.339735923;24.82508942;11.24568571;-7.455804383;-6.094473703;-3.069934906;1.291468315;1.318530725
-1.741613451;23.17291044;15.53313825;24.03841332;-0.023793459;-1.410542388;6.751855;9.247121738;-0.590630907;32.61937978;-10.3212296;-3.629356014;25.45396399;14.66207886;-9.857870062;-3.867646482;1.356561108;6.936064132;2.389629581
-2.350370518;-1.63237136;16.65626765;21.81700346;0.763446884;-1.540482496;6.310680515;8.668250389;1.021577734;31.83171366;5.060784335;-0.523633367;26.17123493;20.56830882;-8.585060612;-0.650526379;6.042245515;10.58768427;2.44314247
-3.905816513;-28.64748139;16.58385692;20.39213513;0.071378377;-1.179901345;6.600474131;9.096395533;3.133486236;31.23818112;15.46628026;2.162930943;26.50827163;24.42179695;-3.555765368;1.32789565;8.203652782;11.59302636;2.083655746
-5.428284546;-45.04454448;15.42554425;20.24324096;-1.602304698;-0.641875739;8.016409369;10.52324188;6.155024389;31.80634066;17.03254268;3.9110705;27.19896744;23.02;2.622941938;0.590950087;6.91;10.17307581;1.701122295
-5.775916274;-44.30956077;14.41973716;21.07910714;-3.163711957;-0.244803557;10.584373;12.33858258;9.735550517;33.43950586;11.37055386;4.664605287;29.50428314;17.47540523;6.379537228;-2.480527236;3.618554999;7.599836858;1.247566362
-4.42935846;-30.01421872;14.76791189;22.17440053;-3.701994486;-0.079948447;13.78738157;13.80896989;12.66433856;35.0348769;2.844691783;4.68630019;33.64531433;12.79826651;5.72306967;-5.770370327;0.947057114;6.184224955;0.564303728
-1.855063689;-12.51400488;16.47132964;22.85555865;-3.154211947;-0.068053889;16.56783107;14.45719169;13.46932552;35.26092417;-5.11543685;4.342158338;37.87;14.05118025;1.610633869;-6.779185512;0.738036707;8.238882908;-0.160968116
0.821418321;-1.448712747;18.25452021;22.78428423;-2.340573098;-0.184835371;17.68650368;14.11746128;11.41336856;33.44661276;-11.50712986;4.021010283;39.26019807;21.83690303;-2.892669249;-4.305106645;2.930788216;14.11460666;-0.32686283
2.577452056;0.205586088;18.66341648;21.97128773;-2.336072494;-0.584754883;16.37841516;12.82170889;7.220398607;30.00250372;-16.41515888;4.1314235;35.86239639;30.68458103;-4.918925705;0.724083446;5.971370842;20.76067961;0.63275376
3.106670642;-3.509397765;17.35081792;20.68801649;-3.665165025;-1.477277657;12.93116643;10.79914514;2.95253178;26.20115273;-18.93722829;4.980678263;28.4422745;31.97071517;-3.729827978;5.857662166;8.206146725;22.53691882;2.665513248
2.84181993;-6.184732483;15.39075568;19.42298415;-5.933562626;-2.874023685;8.721776152;8.623178551;0.992285246;23.5459042;-16.94107707;6.527389475;20.30288831;19.70029185;-0.870189721;8.731643995;9.024141008;14.54717561;4.928816353
2.442655169;-4.419373274;14.34458445;18.83070342;-8.143895373;-4.467994646;5.542558964;7.216977358;2.70652836;23.09021126;-9.161864617;8.287562232;15.13791454;-4.786655669;1.358391704;8.546642753;8.927462344;-3.451363672;6.252465643
2.232938144;0.293157258;14.92407806;19.50512629;-9.397437753;-5.790186571;4.561716362;7.438976352;7.628668704;24.96903284;2.394051891;9.654894132;14.52810488;-32.61203801;1.724273613;6.419989386;8.730841176;-25.5580081;5.929586652
2.063965023;3.999655691;16.44147123;21.5466063;-9.418457901;-6.526328637;5.603319715;9.384445726;13.68527478;28.26664626;12.38121392;10.47214557;17.02471508;-52.09960499;0.762314104;4.463179605;8.771450451;-42.34240267;4.241941766
1.659128419;4.274446812;17.50580367;24.18143261;-8.548791421;-6.71822323;7.282609291;11.97452582;18.31941688;31.2790824;15.09580486;11.27684183;19.48756868;-55.5101731;-0.007821087;4.324573434;8.810523356;-46.30594226;2.312155101
1.045569653;2.135652956;17.30036797;25.83993001;-7.329509478;-6.672403772;7.952367743;13.36794951;19.80081056;32.16327903;8.463063977;12.78647209;19.53086038;-43.427275;0.515114359;6.218276462;8.534977269;-36.59565169;1.376792445
0.615829591;0.553895826;16.2802546;24.88214011;-6.093606644;-6.664444065;6.821907442;12.12634373;17.95062873;29.79462147;-4.128770389;14.92724936;17.10312988;-24.01783168;2.183180553;8.991538505;8.008300121;-19.60346241;1.992081491
0.738863108;1.356810664;15.69139182;20.66474686;-4.897041204;-6.713436195;4.464284254;8.355207216;13.958336;24.43518373;-15.76403445;16.38407822;14.05237481;-7.814400292;3.86220007;11.0002041;7.576555324;-4.896688995;3.711221512
1.299612289;3.539169028;16.39415666;14.24162936;-3.751345182;-6.633311383;2.361818187;3.883179726;9.569860662;17.76517229;-20.39383503;15.45;12.25097886;-1.551867889;4.346693982;11.08166037;7.379670657;0.736566147;5.419552561
1.64906414;4.409487484;18.08200357;8.063585411;-2.849430833;-6.305903217;1.836204106;1.176651231;6.243190913;12.11452614;-16.49876733;11.79685922;11.99136631;-4.988191154;3.085712207;9.031913882;7.064982679;-2.971241136;6.066091573
1.079848637;2.295970712;19.58482742;4.649537449;-2.534643776;-5.9054643;3.141683306;1.671309821;4.722157709;9.240470101;-7.486310419;7.614041787;11.98700831;-12.38824246;0.271124004;5.490678037;6.095853733;-10.62552461;5.301844198
-0.563003128;-1.794173109;19.9360867;4.970387664;-3.057099703;-5.836581527;5.348888013;4.733316395;5.067155918;9.367844022;1.166768832;6.6153499;10.83146276;-17.1414363;-3.487122255;1.54093279;4.406067174;-15.62341945;3.644707553
-2.693461412;-5.037963749;19.20230671;7.64360892;-4.379991526;-6.404202095;7.047182147;8.057223068;6.874318323;11.11385089;5.697065945;11.0268447;8.51178391;-16.08742132;-7.40426605;-1.655478506;2.726477923;-14.73809834;2.115275377
-4.425301861;-5.271187078;18.33201239;9.631085479;-6.229315451;-7.488288626;7.313265635;9.243040335;9.434324438;12.36712358;6.079303166;18.69822323;6.60794514;-10.75133327;-10.50953396;-3.122841345;2.153561385;-9.629541298;1.597495179
-5.282786714;-2.763195353;18.20911321;8.148666763;-8.31277506;-8.517952816;6.258635049;7.40749556;11.82890734;11.56381808;5.235283017;23.07114492;7.030739928;-5.182162034;-11.68171924;-2.354430615;3.238904198;-4.66627088;2.304687196
-5.556216823;0.234988942;18.8192526;2.588213265;-10.45716758;-8.804728576;4.836257856;3.68122942;13.1378885;8.561535814;6.46160364;16.96269801;10.43174095;-2.498998581;-10.08460512;0.37647017;5.386215329;-3.206135133;3.645252383
-5.97459382;1.591017373;19.29823974;-4.891051973;-12.51807759;-8.000451597;4.134633245;0.31291578;12.83040457;4.622054784;11.06353957;-1.956768871;15.64762011;-2.850048828;-5.880857838;3.917424926;7.146192444;-5.312626508;4.559316942
-6.979143471;1.039265031;18.7861228;-10.62680974;-14.19326603;-6.339818492;4.69615991;-0.868882653;11.13492892;1.619252201;17.57895136;-28.03601425;20.58406853;-4.030596162;-0.592898322;6.639267264;7.244642741;-8.360263943;4.148926474
-8.258495171;0.078748775;17.26290559;-11.81951085;-15.02086146;-4.494656032;6.281886312;0.496836632;9.029148863;1.033541852;22.66975462;-49.79833918;23.70632038;-3.805802132;3.465204154;7.306770996;5.533490004;-9.564844067;2.256034001
-8.993765243;0.341487624;15.58287793;-8.406848359;-14.67980415;-3.161018719;8.124796278;3.374344525;7.684484423;3.299246607;22.8753636;-56.614377;24.87319753;-1.806764859;4.550795707;5.911446938;3.097311155;-8.155829303;-0.360565666
-8.630355226;2.104541531;14.69406821;-3.112817147;-13.36890688;-2.681041846;9.395055261;6.243276476;7.642245417;7.729632765;16.35557946;-45.5450521;24.93867649;0.478224158;2.729234069;3.793215775;1.443633681;-5.573263708;-2.402767328
-7.500753347;4.285694782;14.79122851;0.414606242;-11.8682101;-2.939108511;9.555790331;8.029642166;8.318719969;12.88493464;4.062899622;-23.45894981;24.65902539;1.326215299;-0.050232957;2.780788365;1.441736409;-3.908457387;-2.793184595
-6.718714317;5.698826444;15.19344627;0.088061992;-11.10041219;-3.543732303;8.472629706;8.424129573;8.305450423;17.12093212;-10.05908304;-2.711328864;23.97296763;0.398298087;-1.286957422;3.828143083;2.824871501;-4.166716913;-1.370742169
-7.382254456;6.153349975;15.03722297;-3.284797234;-11.46194388;-4.1112534;6.344674967;7.602783238;6.372158636;19.13674443;-20.22056514;6.68470569;22.25337513;-1.080363489;0.200405852;6.125926056;4.547049049;-5.779203983;0.945779444
-9.725645415;6.307666463;14.10553485;-6.775337921;-12.47128887;-4.446709822;3.585213986;5.842905772;2.498533636;18.42889956;-21.26079826;2.916393008;19.17145626;-1.602714947;3.262191633;7.447170063;5.586991462;-7.491233398;2.689452014
-12.91748728;6.610888871;12.99989341;-7.623529414;-13.08845011;-4.548273771;0.70838049;3.449374495;-1.861013112;15.52906279;-11.54591925;-7.669870407;15.27698317;-0.823320626;5.105050333;5.622901557;5.523819153;-8.577382926;2.768549344
-15.65915643;6.667821422;12.50335922;-5.314741673;-12.51181855;-4.504767211;-1.795855053;0.943026924;-4.581724709;11.84705169;5.41285805;-15.99806117;11.73734509;0.208531642;3.258966366;0.160897317;4.538546276;-9.261640208;1.172053673
-17.06987936;5.869723206;12.76207596;-1.876184868;-10.82171913;-4.395466175;-3.598452069;-0.87469236;-4.263290182;9.047921257;22.06791909;-16.71427409;9.512285837;0.209163906;-2.584045788;-7.177608682;3.044034654;-10.13961503;-1.043308784
-17.13343168;4.640288146;13.08912541;-0.190195573;-8.92144178;-4.241864774;-4.609967582;-1.237435239;-1.253114414;8.195917096;30.54731162;-10.96228344;8.755358153;-0.928305907;-10.20581767;-13.33639191;1.389519533;-11.34398357;-2.496606826
-16.40039509;4.748256209;12.60013439;-1.656126088;-7.795680228;-3.995180483;-4.922340779;0.078732535;2.460111266;9.172223784;26.92745634;-4.028285535;8.962562539;-1.855964627;-16.24787338;-15.85313102;-0.144210959;-12.31179133;-2.438443766
-15.30377787;7.917850906;11.08871033;-5.041053111;-7.690429232;-3.541853759;-4.63625463;2.531495113;4.470058594;10.81305183;13.33056945;-0.439693621;9.635801048;-0.951043583;-18.36243897;-14.3888489;-1.235809099;-12.3147488;-1.231562717
-13.75989266;13.80565976;9.30303189;-7.427009144;-7.904520252;-2.749158296;-3.723015436;5.153174793;3.495425188;11.75480843;-3.559007675;-0.695764583;10.74276931;2.103364595;-16.63313905;-10.85405851;-1.593630113;-11.15886323;-0.011792722
-11.41966056;19.45884183;8.333453664;-6.507929076;-7.376123357;-1.575557005;-2.079446357;7.221684375;0.212474481;11.42378888;-16.47171595;-1.91217024;12.50118601;5.81808804;-13.34457203;-8.080423873;-1.226915291;-9.362749331;0.204140589
-8.299276276;21.33509224;8.655376415;-2.419039575;-5.572159474;-0.202137166;0.221786384;8.684855849;-3.165412665;10.43385185;-21.23253895;-1.156771083;14.73653922;8.014198677;-11.35916274;-7.986973887;-0.603311101;-7.69392143;-0.716284731
-5.139590422;18.53234941;9.708134491;2.347830602;-2.928165459;0.933837339;2.689073918;9.950484797;-4.259664644;10.0647736;-17.84508198;1.810322573;16.5389756;7.622216426;-12.26747555;-10.47807629;-0.38716075;-6.553634924;-1.955785026
-3.071598518;14.28421784;10.4064746;4.867162293;-0.471418743;1.302092462;4.44;11.23443484;-1.943409799;11.20666354;-8.930317391;4.719045134;16.69393074;5.579182529;-15.51760664;-13.72417122;-0.858885837;-5.763616485;-2.406094194
-2.800998486;13.79536258;10.12062115;4.008510766;1.039833948;0.596629187;4.591429549;12.09995617;3.070794569;13.59716442;2.495331131;5.35590769;14.60591402;4.019726873;-18.9735844;-15.4971788;-1.525137951;-4.839652087;-1.519522099
-3.996450782;19.60488299;9.224293244;1.21601536;1.720115471;-0.995729157;2.806842493;11.68881771;8.749572134;15.96019272;13.86929946;3.877394858;10.89773021;4.479189239;-20.40168973;-14.58111218;-1.382310549;-3.380572682;0.30715593
-5.442341929;28.25314383;8.707685563;-0.73552823;2.397337566;-2.80348333;-0.381467554;9.519167119;12.92915755;16.93184375;22.39884299;2.691852731;7.083511144;6.706721913;-18.87314731;-11.36484289;0.252198648;-1.218274811;2.085519334
-5.890727285;31.5743024;9.219256228;0.035213749;3.850177866;-4.013021734;-3.752503896;6.155861713;14.39387377;16.02392414;24.5823096;4.144309226;4.51542121;9.113211654;-15.24832817;-7.385550685;3.005373489;1.63579563;3.007034519
-4.955225947;22.40196143;10.43188394;3.097859964;6.114459564;-4.148530338;-6.022223423;3.08137254;13.24710344;13.86338081;17.62141729;8.285279664;3.463112324;10.37215406;-11.55080511;-4.287335798;5.512263902;4.966178374;3.005754859
-3.341137375;0.615893789;11.32907657;6.17238373;8.448720456;-3.358985206;-6.540490713;1.737232907;10.5024376;11.567065;2.278457927;12.82765855;3.087297168;10.64111331;-9.700160898;-2.919058091;6.358156567;8.18991831;2.688713138
-2.241936941;-25.37353748;11.15034865;6.998296123;9.95967935;-2.297719629;-5.623017792;2.43729024;7.296081008;9.832308287;-15.46343704;15.26335949;2.288561727;11.25867779;-10.3852703;-3.043799862;5.200529076;10.40463193;2.742034962
-2.398075047;-43.39284484;10.11584995;5.041567897;10.31931972;-1.672423624;-4.321292315;4.036152046;4.26273813;8.526081386;-26.46010301;15.08400964;0.653275479;13.24398153;-12.71469738;-3.663083478;3.137176651;11.00149408;3.335708073
-3.558522822;-45.35076771;9.24650532;1.703606176;9.951973021;-1.787117227;-3.795341996;4.681727533;1.407341978;7.075924799;-23.85907522;14.02031027;-1.331548472;16.0977812;-14.80922802;-3.635587187;1.956546877;10.57634202;4.017449218
-4.728305105;-32.42472216;9.430809879;-0.991229929;9.560406433;-2.397582337;-4.682549213;3.12856573;-1.557364747;5.240058594;-8.277166418;14.15709127;-2.924439327;18.1421746;-14.96650686;-2.240997354;2.828494876;11.18619508;4.154836375
-4.9493577;-13.78535645;10.59243072;-2.003816625;9.444780805;-2.957674315;-6.813116945;-0.362767199;-4.710231369;3.509858396;11.6706853;15.8173591;-3.967597045;18.14633563;-12.70439533;0.507234461;5.475542439;15.12786216;3.527503408
-3.976127111;0.000465477;11.73080982;-1.817615513;9.230898222;-3.042540792;-9.375480277;-4.198271397;-7.611835785;2.757427574;24.76346663;17.2978242;-5.084972254;16.66915392;-9.056059761;3.853614487;8.473478326;22.61467053;2.564283737
-2.355490445;3.787336742;11.80987479;-1.571541644;8.238558991;-2.625460825;-11.37407023;-6.534772474;-9.386544595;3.451133963;25.00369067;16.70870033;-7.028935986;15.71010755;-5.931335303;6.591542431;10.39157223;30.11916983;2.034135346
-0.930457263;-0.027725355;10.6891539;-1.716723891;6.148488241;-2.030504202;-12.1055641;-6.458632846;-9.155271916;5.171334566;15.94227556;14.08196752;-9.789400716;16.83918007;-4.936571;7.599535081;10.80537957;31.32;2.455390251
-0.215693068;-4.984234624;9.247053483;-1.502574799;3.377387642;-1.647101597;-11.43329406;-4.444801186;-6.57440535;6.893021633;7.812324307;11.5941886;-12.33753026;19.52728881;-6.398703138;6.448493568;10.37715921;20.91682682;3.704492946
-0.117357844;-6.154628482;8.582122425;0.219964494;0.847149819;-1.654687552;-9.778366633;-1.884445695;-2.165058228;7.800221738;9.335651075;11.5623285;-13.31636424;21.3891069;-9.214522499;3.766360887;10.036928;-0.920680898;5.119818294
-0.133917945;-3.216358724;9.020893353;3.646928067;-0.634352945;-1.950468167;-7.873351065;-0.144557211;2.787708303;7.902858302;20.52023127;14.11440531;-12.11813118;20.34231364;-11.60084984;1.055169264;10.05966221;-26.92689852;5.985154567
0.199784308;0.891505845;9.837136792;7.442648611;-0.856565499;-2.277520326;-6.400499372;0.150043335;6.759807731;7.900738987;32.30640604;16.9158042;-9.404900126;16.78440226;-12.22478314;-0.080617417;9.859475231;-45.92874371;5.991041999
0.982487454;3.637505436;9.935271672;9.588330756;-0.197717503;-2.398157614;-5.669327973;-0.763269025;8.682407824;8.432814148;33.61180941;17.45132401;-6.598772305;13.62769974;-10.97129804;1.073016887;8.62455873;-49.37580928;5.333158365
1.9209493;5.141760392;8.868378969;9.006922848;0.775691305;-2.170397279;-5.481776769;-2.133622238;8.423358857;9.428958433;20.31637711;15.79149838;-4.776334112;13.85081982;-8.909797338;3.750121538;6.154830224;-36.87351026;4.435139538
2.547890696;7.154002706;7.257251522;6.540549265;1.689419529;-1.521641881;-5.266883545;-3.128064375;6.766948734;10.20041693;-1.03566262;14.98444757;-3.929852802;17.60267174;-7.598919659;5.993813449;3.124618001;-16.59522623;3.584097492
2.499616039;10.35339173;6.228227332;4.342958813;2.409286641;-0.423030588;-4.435306746;-3.088919474;4.889733405;10.21407248;-17.94302428;18.1796152;-3.223135539;21.61495406;-8.266291552;5.767498593;0.568167393;0.044101344;2.794012888
1.71530517;13.15489923;6.38712838;4.114616626;2.822343829;1.057660329;-2.76281682;-1.644855203;3.644178786;9.816671832;-21.43113563;24.72478885;-1.970419711;21.85158784;-11.34130936;2.255284144;-0.888819085;5.793510154;1.970083008
0.516069279;13.48097839;7.270058594;5.670019531;2.688927688;2.67079544;-0.563903166;1.180235274;3.093437992;10.14996829;-12.75823868;28.92438763;-0.413761388;17.36211582;-16.43179977;-3.480908483;-1.332970271;1.728873107;1.169069785
-0.445548429;11.66135417;7.773338888;7.122965717;1.802013532;3.996453851;1.471613914;4.855742379;2.584135033;12.19643096;-1.979734915;23.32586331;0.438090459;11.84612904;-22.51302511;-8.958891762;-1.177615244;-4.725873018;0.681505546
-0.391920467;11.0899963;7.167924802;6.620163301;0.324673859;4.622116748;2.684242227;8.408083901;1.289695517;15.72206912;0.414106727;4.580339638;-0.218839116;11.02283025;-28.12061797;-11.61500935;-0.549434466;-6.110650803;0.846245982
1.224242703;15.2122963;5.770589736;4.179189901;-1.080509356;4.395479626;2.820377009;10.79858635;-1.15717036;19.08523211;-8.029816272;-22.68857951;-2.095073311;17.46282396;-31.60821369;-10.2197049;0.880906297;-0.510472849;1.764567091
4.343988369;23.18649065;4.658363567;1.99126238;-1.586970034;3.553237614;2.117223964;11.47454489;-4.376856909;20.22258363;-19.9895096;-47.54335373;-3.862173812;27.10262366;-31.67411788;-5.521584413;3.419354987;7.83163104;3.175439313
8.144816809;28.54038631;4.68616538;2.766573589;-0.836393686;2.590404471;1.047166836;10.7018008;-7.485547687;18.12772945;-24.64688876;-59.32251271;-4.190115925;30.83165195;-28.12925987;0.22212119;6.700612957;12.90415152;4.606822392
11.29016753;23.0973177;5.700335342;7.358893087;0.635654101;1.936843555;-0.070773112;9.362009116;-9.679632107;13.65738891;-16.71026555;-54.57385617;-2.914171171;20.67246827;-22.44257699;4.474084384;9.577614223;12.28052992;5.670799386
12.53279928;3.798578893;6.66016639;13.62253438;1.599506477;1.679516127;-1.281613932;8.304512529;-10.73993001;8.981708674;-0.747092651;-39.20044935;-1.305369222;-3.815208165;-17.43975253;5.635149348;10.77732794;8.84175863;6.249371937
11.35024532;-23.13486666;6.554885074;17.58312496;0.905851458;1.552411345;-2.85575956;7.746657644;-11.10369823;6.072814481;12.64141059;-24.18610812;-1.139155496;-33.91870851;-15.97175974;3.59573112;9.810126009;7.62461583;6.429644578
8.22371386;-44.83590939;5.287484984;16.19650337;-1.689754434;1.208706221;-4.908393892;7.229501563;-11.46858555;5.408390935;15.51837415;-18.09596479;-3.268305944;-56.59680827;-19.19145241;-0.534397278;7.326066502;10.86282934;6.285613177
4.390952101;-50.07019641;3.735548695;9.664807862;-5.25643714;0.556693281;-7.086255341;6.189878937;-12.22484874;5.892033354;8.945349426;-21.88355307;-6.850643254;-62.5497219;-25.60646045;-5.169310781;4.573838648;15.80515568;5.747552362
1.249840496;-37.14299351;2.948237174;1.533729383;-8.187294019;-0.120773917;-8.597379489;4.660123597;-13.12636894;5.99511683;1.769856122;-29.56587609;-9.880265752;-51.82447978;-31.7475385;-8.943015747;2.429770533;17.3146476;4.713047205
-0.211448014;-15.21838993;3.212628057;-3.568098239;-9.136328621;-0.374472074;-8.613334708;3.444993302;-13.43498719;5.134927052;2.9568629;-33.71452638;-10.6369005;-33.0732916;-34.20070961;-11.04371991;0.866953665;12.87840168;3.309599695
0.323671801;2.212722933;3.824831354;-2.936309625;-7.776141119;0.031747387;-6.798756752;3.538310942;-12.43831363;4.144233798;13.83110523;-31.17907352;-8.947441129;-17.30824293;-31.68970374;-11.21760923;-0.669783327;5.393377259;2.039161058
2.552476411;6.785908309;3.753003418;2.587233127;-4.926193498;0.875368529;-3.618470891;5.213138502;-9.983008454;4.479838112;26.58936265;-24.72091805;-6.314087201;-10.90310807;-25.74533378;-9.663671106;-2.373835491;1.010058594;1.595231081
5.730687407;0.387082273;2.578630749;9.436511205;-2.047924762;1.575288552;-0.205304384;7.572302588;-6.655987375;6.882625233;30.27848056;-19.83629062;-4.843854216;-12.7247103;-19.47714361;-6.963312343;-3.572754027;3.769291629;2.413211126
8.830392166;-7.766460679;0.870647553;13.84553733;-0.477033219;1.585215632;2.158636207;9.037708209;-3.48395079;10.64103225;19.43050009;-19.88301512;-5.795373695;-16.77232481;-15.36667473;-3.984421992;-3.173668293;11.79500613;4.274269974
10.71961395;-9.304794832;-0.323707498;14.18207489;-0.832169581;0.799138452;2.667269477;8.49701602;-1.343144302;14.06862344;-1.4477147;-23.61350115;-8.773770557;-17.54034501;-13.72974711;-1.614155125;-0.718643544;18.61548855;6.302373245
10.49028571;-3.287032617;-0.392883459;11.50758105;-2.841248696;-0.33062677;1.387183332;6.231945067;-0.464092689;15.76496046;-20.8820685;-26.80688078;-12.0569938;-13.75765166;-12.94723732;-0.322456574;2.926648783;18.6968334;7.43038235
7.910481474;3.998627022;0.339812897;8.211644049;-5.570714816;-1.059732388;-0.782731108;3.841694464;-0.356730483;15.58109251;-28.38267746;-26.15389612;-13.71712932;-8.109743566;-11.16278979;0.19049559;5.977796558;12.40849794;7.054982671
3.72518047;5.31976559;0.951368388;5.973783483;-7.894051489;-0.830191773;-2.573842307;3.121614519;-0.209394121;14.49762478;-21.20942381;-21.89468651;-12.7343172;-4.046186331;-8.014960256;0.92030498;7.001801914;5.915048041;5.430852905
-0.530537368;-0.870480362;0.752716972;4.649639618;-9.001306875;0.353802686;-3.010704726;4.688179729;0.495228127;13.5785285;-5.205939263;-17.14390965;-9.454414649;-2.8330943;-5.013849216;2.944343195;6.012705708;5.838254871;3.517031333
-3.258890751;-9.182816754;-0.136738711;2.80786386;-8.755069353;1.893291823;-1.947624833;7.389954052;1.553096503;12.9559171;10.18238781;-14.87293849;-5.279025538;-3.178458534;-4.32367192;6.580190335;4.440500652;13.23839122;2.372968607
-3.674585451;-12.25385217;-0.959792974;-0.682174849;-7.719610329;2.921199014;-0.193202714;8.991413593;2.093729598;11.75175877;18.35281816;-15.4314549;-1.937581084;-3.154231389;-7.002531738;10.91379952;3.969388434;22.31951172;2.522729547
-2.22;-7.333251912;-1.036731273;-5.369969744;-6.794285933;2.78591159;0.878083562;7.674332846;1.100485547;9.004553596;18.69745215;-16.72871301;-0.79034655;-2.218825711;-12.12550452;14.15039809;5.224757921;25.31308929;3.720944316
-0.181091034;1.356755039;-0.359245258;-9.289843375;-6.604357941;1.409729582;0.062332238;3.290299094;-1.929470759;4.771669553;14.97389252;-16.63190986;-2.413038917;-1.455740034;-17.42007813;14.69327696;7.423608015;19.51718359;5.251873648
1.240142189;6.470901986;0.445207629;-10.33889251;-7.026512345;-0.671507485;-2.974035038;-2.519627685;-6.613660048;0.39740566;11.26436394;-15.16243759;-6.48218082;-2.094738077;-20.7996808;12.27547759;9.251480605;10.25888313;6.502328256
1.697860326;4.071532097;0.689102487;-7.939674809;-7.234297885;-2.594992982;-7.44470959;-7.395297409;-11.84778564;-2.366369289;9.189205779;-14.40640499;-11.89845298;-3.998487941;-21.54583977;8.31837492;10.13851744;6.747108033;7.364347142
1.729278177;-2.982038625;0.18322429;-3.750403838;-6.33113223;-3.616998466;-11.83107083;-9.734098616;-16.39895788;-2.713737935;8.139202111;-16.28503324;-17.11837848;-5.638953905;-20.33740227;5.154221491;10.75415155;13.87764546;8.179138438
2.055658825;-7.733815168;-0.704483667;-0.855380895;-4.168164919;-3.476182498;-14.71116508;-9.55024347;-19.53951212;-1.498592068;7.312957907;-20.35819297;-20.66216695;-5.49770972;-18.37382521;4.5480887;12.25075051;26.87077362;9.30355619
2.790438298;-5.434597075;-1.467023554;-1.911658025;-1.70078672;-2.484483488;-15.53325756;-8.194610026;-21.31637097;-0.679606146;7.036401676;-23.81631954;-21.65984175;-3.444921124;-16.52913601;6.512291079;14.93430807;33.72044229;10.67599778
3.272169237;2.210068359;-1.899462194;-7.433949895;-0.494793808;-1.306167879;-14.84315307;-7.245233259;-22.31672062;-1.885327219;8.115932353;-23.79706525;-20.18588268;-0.779399906;-15.23260082;9.27363328;17.59663629;24.14210393;11.75197073
2.696786156;8.634552419;-2.149787266;-15.32871165;-1.631892826;-0.558320724;-13.82043402;-7.421031469;-23.14631536;-5.207437022;10.29550844;-19.99285041;-17.16858621;0.998640137;-14.91532272;10.47271908;18.19780161;-1.840019531;11.87810284
1.001458047;8.409119858;-2.401421057;-22.01352047;-4.800039063;-0.469125336;-13.44577599;-8.263418058;-24.02;-9.164431264;11.8786107;-15.16511157;-13.88116331;1.402539711;-16.25738732;8.788044078;15.4089372;-32.63461672;10.81417858
-0.819243016;2.252625304;-2.583877821;-24.47481194;-8.312484399;-0.798062265;-13.87656774;-8.709345218;-24.74098474;-11.86199477;11.29898563;-12.98414272;-11.28735006;1.026184215;-19.71532556;4.845249135;9.750486648;-52.52259404;8.980019531
-1.339817095;-3.481782233;-2.448125714;-22.02470684;-10.14039964;-1.060984317;-14.45309866;-8.034415825;-25.0175698;-12.44360758;9.200731967;-14.98167835;-9.621403386;0.591205955;-24.6651209;0.767424246;3.373337593;-52.31876373;7.208333403
0.162893657;-2.488632024;-1.923725683;-16.67396768;-9.252514926;-0.904745559;-14.29565056;-6.433452301;-24.79666959;-11.70806575;8.692582058;-19.240729;-8.439327274;0.14281054;-29.10421061;-1.297973846;-1.342902875;-35.23679851;6.173611452
2.99654374;5.652278717;-1.338840762;-11.86235078;-6.274637618;-0.372239438;-13.02520435;-4.834595272;-24.2996208;-11.42324329;12.91379055;-21.99682986;-7.081742381;-0.691473489;-30.548817;-0.599295935;-3.240823785;-13.73991719;5.938138359
5.416060656;14.77061594;-1.19559735;-10.29988813;-2.974948434;0.128974809;-11.06860983;-4.130724271;-23.72250721;-12.86373949;21.66034876;-20.82927272;-5.240949213;-1.724549379;-27.71862248;1.871166941;-2.777060915;-0.182669022;5.987449645
5.874832064;17.39799188;-1.662294164;-12.2559125;-0.979129225;0.131501931;-9.342213649;-4.427036008;-22.88065398;-15.67753519;30.13960221;-16.73572681;-3.277084501;-1.766515027;-21.73431652;4.304841779;-1.196636299;1.379422697;5.755742121
4.240078125;11.59761021;-2.299014616;-15.39659781;-0.703845017;-0.537701593;-8.582767389;-4.873368187;-21.16517746;-17.93120085;31.53399454;-13.30878159;-2.088755661;0.503523841;-15.71321315;5.528764539;0.655359292;-3.743980177;5.242889521
2.026180735;3.287341036;-2.381255424;-16.31854588;-1.292123941;-1.618710399;-8.84420365;-4.225576944;-17.95021186;-17.32343729;21.92838785;-13.68355565;-2.601632405;5.02226043;-12.82547816;5.860819019;2.830998953;-6.897856985;5.212162244
1.424418469;1.65435637;-1.620190768;-12.83213202;-1.512668781;-2.602721848;-9.523549058;-1.769405498;-13.21512477;-12.74440891;3.905090468;-17.81610729;-5.155198518;9.788974192;-14.14498716;6.73703527;5.767078045;-3.626891678;6.740426835
3.810719993;11.13493717;-0.625033673;-5.526780178;-0.828855967;-3.103427281;-9.860399566;2.016422474;-7.925752534;-5.155412032;-14.23298463;-22.38368702;-9.144381063;12.18560829;-17.91302797;9.438104872;9.399694421;3.457506411;10.38067235
8.791877927;26.58953887;-0.586375548;2.422891817;0.231978849;-3.137289949;-9.508776935;5.526760292;-3.838048488;2.749881202;-23.43613332;-23.40738075;-13.16952933;11.25243071;-20.82331587;13.92473976;12.84330982;8.260125362;15.53083309
14.43534883;36.00671467;-2.327053936;7.123403097;0.640462291;-3.102558547;-8.763802566;6.838207263;-2.76855678;7.86220724;-19.64804401;-19.43621045;-15.68972855;8.8;-20.3985477;18.68196061;14.97741606;7.471588402;20.51826547
18.4691014;29.10738556;-5.491556726;6.324167739;-0.195044528;-3.474576597;-8.319098091;4.801723542;-5.739311182;8.170716801;-6.209848145;-12.68505347;-15.86534955;8.025298308;-16.68856891;21.68;15.38370216;3.770301167;23.4396314
19.59801908;5.415206717;-8.629061507;0.778526461;-1.930560605;-4.446552182;-8.779137122;-0.229738215;-12.48985486;3.677364039;8.700509453;-7.230474495;-14.09298614;10.587691;-12.05485219;21.71680261;14.72418237;3.201045546;23.26181228
18.09901827;-24.4135062;-10.21451578;-6.227378301;-3.605900749;-5.779676764;-10.28754353;-6.486925484;-21.61184667;-3.672610773;17.56043215;-5.785555592;-11.84317858;14.8059197;-9.284290851;19.1597788;14.17093771;9.176422192;20.47264905
15.43416335;-45.1464471;-9.829078345;-10.82433124;-4.429105165;-6.96419986;-12.48966954;-11.65848655;-31.19052698;-10.90970377;17.90362617;-7.693537631;-10.81656097;16.95613259;-9.519663866;15.6080241;14.39566421;18.46946724;16.83718536
13.27453616;-46.6936544;-8.515879709;-10.73544248;-4.311169484;-7.564861422;-14.78150494;-14.06806878;-39.5889825;-15.33309524;12.73502772;-9.716306534;-11.91179395;14.89079736;-11.54698698;12.81734135;15.05596248;22.844015;14.39204715
12.60315485;-30.10527038;-7.964517886;-6.382311309;-3.73055015;-7.50269902;-16.62773425;-13.49654407;-46.01377985;-15.62883217;7.247853765;-8.87883585;-14.69699046;10.74868724;-12.86243966;11.72014297;15.26645373;15.21238811;14.30443484
13.36728928;-5.977277305;-9.149055449;-0.394937185;-3.150058594;-7.089481573;-17.75804901;-11.20814441;-50.68535507;-12.39205061;4.774064143;-4.99060065;-17.78292673;9.820240633;-11.58873452;12.18716429;14.62401807;-4.539528089;16.29842522
14.73131928;12.99875918;-11.52503067;4.00616702;-2.595899435;-6.814673589;-18.19513626;-9.206920161;-54.63603675;-7.86260483;5.029570725;-0.810184941;-19.85965638;15.81452393;-7.774852893;13.530156;13.81646975;-28.64447338;18.96738014
15.66502203;19.740614;-13.45370972;4.720270531;-1.797312476;-7.043736512;-18.18136765;-9.180457625;-59.26204992;-4.962693616;5.499686687;0.202997084;-20.6399867;26.27403254;-3.224445274;15.18996255;14.19174418;-46.15809906;20.71844568
15.52710026;15.65847368;-13.51779138;1.665784664;-0.700776057;-7.817359806;-18.07914313;-11.7256675;-65.77708794;-6.008111846;4.246246223;-3.339560436;-20.98885308;32.487814;-0.168362898;17.01935561;16.59995743;-49.74206653;20.71939575
14.39354618;7.665907438;-11.66092237;-3.433822791;0.215487393;-8.849995574;-18.26793371;-16.23373588;-74.72608308;-11.65323374;1.572695278;-9.693107388;-22.13473474;24.99388835;0.127651562;19.01932933;20.50367969;-39.72133452;19.27113827
13.00699068;2.429103447;-9.234702544;-8.075504167;0.216767543;-9.699802997;-19.03748681;-21.3980926;-85.73706644;-20.58847134;-0.67562829;-15.39521587;-24.59709942;1.044846883;-2.123763178;20.89388208;24.1625714;-22.98948931;17.44250461
12.35103024;2.249779846;-7.936025565;-10.22658355;-1.018323091;-10.00415991;-20.50567164;-25.96732163;-97.65133819;-30.17894867;-1.225859534;-17.91879794;-27.71361637;-31.79794256;-5.730750461;21.91949669;25.79535035;-8.172960048;16.27917828
13.01664088;4.941896463;-8.507803175;-9.258553786;-2.955783852;-9.66698604;-22.61237178;-29.2898292;-109.0162484;-37.73946611;-0.838576589;-17.40844717;-30.16966038;-59.31178213;-9.426367634;21.30526109;24.79607624;-0.735821555;16.12755054
14.69814117;6.775743324;-10.2295313;-6.225383159;-4.460087891;-8.9177703;-25.19807269;-31.3971365;-118.7028422;-41.76685319;-1.799512666;-16.20122837;-31.08963747;-69.40330102;-12.4511498;18.76143953;22.04819675;-1.016827827;16.48172819
16.19087309;5.646901696;-11.54863497;-3.372697618;-4.59416727;-8.209424673;-28.09243282;-32.68711629;-126.288697;-42.45933314;-5.926274539;-16.67128246;-30.75347062;-59.79622773;-14.54764808;14.80436739;19.14906835;-5.604522744;16.3955018
16.02878185;2.187679877;-11.2905578;-3.018627728;-3.296361973;-7.981840756;-31.11051721;-33.49164289;-131.9675657;-41.27777816;-12.81370925;-19.22799788;-30.3020556;-38.99510878;-15.63945103;10.54913968;17.24512444;-10.24676656;15.15509573
13.46375596;-1.387760361;-9.483015731;-6.249072163;-1.337925396;-8.391761321;-33.9425591;-33.82764682;-136.074256;-39.88938939;-19.7473535;-22.04238757;-30.66811838;-19.94116513;-15.62391586;7.159394924;16.4261528;-12.13465696;12.78516064
9.150289481;-3.217287902;-7.215974128;-12.09644293;0.409854374;-9.163706849;-36.06336615;-33.46255624;-138.6115866;-39.19224753;-23.29357989;-22.58518301;-31.67;-11.25224037;-14.44348703;5.368092374;16.06851238;-10.5972165;10.09703914
4.979281031;-2.876649663;-5.751938389;-17.78420961;1.745466395;-9.689995774;-36.83181167;-32.20220077;-139.1799879;-39.00637956;-21.31727343;-19.61796217;-32.10305427;-12.50671313;-12.25468513;5.366344349;15.68769732;-6.590528409;8.269085224
3.041287298;-1.116184029;-5.632750742;-20.10245821;3.241100508;-9.373467183;-35.81394119;-30.16964433;-137.3907389;-38.52122421;-14.06562543;-14.04077733;-30.80539465;-16.55225537;-9.4337732;7.017214607;15.49028829;-1.806666689;8.20370915
4.342419081;1.066052299;-6.41980485;-17.25209897;5.570144747;-8.028692742;-33.1347399;-27.8599367;-133.4267519;-37.07190088;-3.876408214;-8.060293736;-27.79282639;-16.25648501;-6.377055686;10.10421642;16.17721833;2.145264617;10.0117614
8.143831396;3.039091857;-7.136861132;-10.05372019;8.664111384;-6.070720332;-29.55633321;-25.90899966;-128.2492245;-34.64602819;5.933119678;-3.529689067;-24.43727258;-9.9991748;-3.30459408;14.37233323;18.25646199;4.422728972;12.90067964
12.40713816;4.471191981;-6.975289875;-1.672629664;11.49729814;-4.324435413;-26.13682876;-24.71183691;-123.201465;-31.79987677;12.19507369;-0.862338233;-22.45913441;-1.85658366;-0.286507688;19.38263365;21.52126396;5.357844747;15.53752873
15.05688338;4.969379755;-5.746790519;4.092395498;12.77105352;-3.542632688;-23.65563979;-24.14636174;-119.252133;-29.14978035;12.71763326;0.739557441;-22.54802972;2.855251323;2.526553955;24.41332509;25.12577884;6.222471313;16.71678077
15.19554033;4.02924372;-3.880628279;4.945467728;11.97023251;-3.948014993;-22.22012927;-23.61859928;-116.4463723;-26.9158167;6.972635545;2.199163917;-23.79999296;2.334990955;4.72410575;28.60332131;28.11820981;8.213068972;15.99424056
13.46975391;1.472709238;-2.115403326;1.312993482;9.895378256;-5.125227124;-21.36428442;-22.44691275;-114.003038;-24.89815486;-3.308404784;3.736552299;-24.49422555;-0.689663747;5.751425281;31.29673535;29.93;11.25;13.9417284
11.43140354;-2.033085926;-1.146692678;-4.110907145;8.175305586;-6.34814477;-20.55890682;-20.35962482;-110.990684;-22.86302317;-14.11787596;4.998058781;-23.57302088;-2.059889491;5.299950718;32.34109945;30.46793662;13.68977903;11.85770127
10.45025608;-4.975552565;-1.374301947;-8.137461622;8.106793331;-7.104147704;-19.69467746;-17.76129079;-107.04349;-20.95058927;-20.40040315;5.81972007;-21.54544693;-0.163902597;3.676555247;32.11105854;29.89892876;13.55696996;11.06445167
10.97112556;-5.746901692;-2.762598047;-8.969366606;9.734006569;-7.424367583;-19.10493781;-15.54127257;-102.5437317;-19.69783773;-18.48034276;6.666758456;-20.00357295;2.876060941;1.822478334;31.24907736;28.47923865;10.55715231;12.17450162
12.53277911;-3.74159255;-4.829470281;-7.002331354;11.88755321;-7.77826195;-19.09704548;-14.50752084;-98.14688259;-19.61173405;-8.445051072;8.160397932;-20.14811077;3.633083235;0.89827617;30.32888403;26.61271146;7.087069058;14.75361224
14.33960594;0.010467032;-6.836784907;-4.1623237;13.11934849;-8.632534007;-19.42893669;-14.82083019;-94.0907676;-20.6417318;5.325559733;10.12833908;-21.621277;0.887774271;1.671532413;29.66771555;24.94849318;6.893406406;17.58932132
15.82443799;3.321566114;-8.192994648;-2.395986308;12.76032702;-10.03618361;-19.27256726;-15.84656287;-89.9261361;-22.02807223;16.39854035;11.28547515;-22.7221659;-3.137383434;4.085751217;29.34317248;24.19131109;11.91445908;19.40642987
16.80003906;4.366287894;-8.871400652;-2.399526277;11.27832694;-11.56206643;-17.80862028;-16.56181747;-84.94581033;-22.71745892;20.23183002;10.22125884;-21.88542023;-4.886390782;7.262865988;29.28885202;24.59151096;19.69997932;19.58649662
17.24813665;3.319272157;-9.500138775;-3.354106888;9.732951922;-12.63686415;-15.00746052;-16.23890506;-78.96201614;-22.06227481;17.18192092;7.098474446;-19.16024967;-2.825045665;9.920740281;29.32357275;25.52574755;23.88659472;18.44512389
17.09897863;2.797085441;-10.92699976;-3.667031462;8.862663184;-12.97383172;-11.89299718;-14.89400462;-72.72458633;-20.25089087;12.21324069;4.48281624;-16.35308187;1.14486797;10.97003906;29.11171316;25.67904829;18.08417594;16.9141904
16.26325514;6.321524369;-13.48090549;-2.093566806;8.57952397;-12.74945171;-9.938836941;-13.15320888;-67.52;-18.09980169;11.18350812;6.064705393;-15.60588975;3.505306239;10.00119908;28.1896913;23.8964076;0.708098837;15.87217862
14.83886922;15.37158338;-16.50322811;1.486615678;8.230219431;-12.39262946;-9.966652007;-11.64869952;-64.17266557;-16.34927164;16.22700011;13.67494215;-17.54759106;2.434315401;7.454588679;26.16410628;20.13218069;-22.88789797;15.58966545
13.19691887;26.95980753;-18.63136945;6.008741443;7.311718718;-12.18568105;-11.40526276;-10.45421849;-62.22668805;-15.03195745;23.71606648;24.70169985;-20.59300668;-0.476283377;4.405077821;23.00243719;15.69578395;-42.96185723;15.65211577
11.77414244;33.9324321;-18.75609038;9.789308019;5.988156316;-12.0284045;-12.57064789;-9.057934263;-60.03638669;-13.45970312;26.5917219;32.27497341;-22.05837651;-1.657045995;2.038712427;19.18057215;12.46854413;-51.18416919;15.36843964
10.72698758;28.73889717;-16.96610057;11.36499862;4.993546748;-11.56534833;-11.84658845;-6.926794611;-55.82228591;-10.88477984;19.61114935;28.8837661;-20.2520504;1.205291979;1.043291018;15.50160721;11.60721839;-45.71707905;14.33180603
9.788812506;8.871421567;-14.68694934;10.22030841;5.059151833;-10.55839117;-8.899909403;-4.187930406;-48.97863877;-7.316866878;3.700928813;11.49544269;-15.85931484;7.084417511;1.227136992;12.64932413;12.7328339;-32.00470506;12.71576729
8.510106543;-19.69874599;-13.79091381;7.104175519;6.372231252;-9.177373803;-4.983731245;-1.795445737;-40.66046008;-3.794524527;-13.95662943;-15.28891798;-11.49386245;12.49045301;1.625855653;10.78153397;14.26620984;-18.81811055;11.11277181
6.696003134;-44.22403861;-15.28627214;3.755809356;8.471373015;-7.955799329;-2.069765188;-0.939443393;-33.16981955;-1.803739867;-24.41811936;-40.62886055;-9.778813086;14.39044949;1.104212954;9.478642117;14.65431511;-12.52741203;10.07252003
4.644428384;-51.99536621;-18.59238865;2.061422706;10.56947537;-7.443781827;-1.468136708;-2.10118687;-28.54040786;-2.221531507;-22.93280475;-53.06233615;-11.49791198;12.50509329;-0.880916789;8.107289889;13.50275463;-13.67706862;9.707108328
2.953300394;-38.36854123;-21.99143116;2.978974859;11.97373932;-7.836831285;-2.992375608;-4.523031675;-27.3121802;-4.591617015;-12.0507586;-47.05024803;-15.24658323;9.082290012;-3.869333065;6.337440842;11.72073461;-17.96056705;9.65096682
2.064058936;-10.46217112;-23.91837667;5.846612945;12.30209367;-8.861910492;-5.275736345;-6.599088735;-28.33735393;-7.338556509;0.381508478;-26.28193034;-18.7369702;6.682977066;-6.667807127;4.429455039;10.62462248;-20.30401011;9.375062177
1.961189496;16.68337055;-24.07044191;8.64206304;11.47373578;-9.97584678;-6.914232247;-6.970566376;-29.68637972;-8.818313056;6.841451937;-1.539798676;-20.57120255;6.243459815;-8.15406866;3.086404079;10.80997994;-18.65998274;8.589695846
2.300039063;29.55322144;-23.46762262;9.236902328;9.657010002;-10.68472961;-7.471777408;-5.505887295;-29.92741109;-8.433172839;5.223865238;15.56873334;-21.0128608;7.113989364;-8.040613664;2.995859374;11.74606776;-14.78946731;7.427849053
2.817207624;24.92992885;-23.46591737;6.942703735;7.292875347;-10.73609686;-7.555570292;-3.380144193;-28.83813322;-6.953524158;-0.262953491;19.0537455;-21.24493992;8.607660946;-7.017687431;4.397441759;12.36626493;-11.97507174;6.29572932
3.591522563;11.64627315;-24.58456356;3.246150948;5.093031438;-10.09429318;-7.989765318;-2.154144823;-27.11214332;-5.786302076;-2.861989678;11.20805552;-21.92858051;11.07022152;-6.163375496;6.954286163;12.04515891;-11.97392748;5.53987191
4.862766776;3.724398636;-26.13078607;1.024494931;3.827582841;-8.815224569;-8.875222859;-2.553934697;-25.4232656;-5.757981089;1.314898678;0.131927524;-22.41993777;15.1538904;-6.097582742;9.958380284;11.05588482;-13.75922356;5.203034167
6.5674795;9.639957207;-26.89471053;2.587743676;3.90863361;-6.994330967;-9.3808087;-3.908200365;-23.67806801;-6.380485732;10.33235204;-5.911960213;-21.33527383;20.14090495;-6.567715025;12.68300758;10.13468746;-14.78245831;5.04257491
8.084319438;25.59033983;-26.26470238;7.870410805;5.065779467;-4.832036681;-8.437867764;-4.683726895;-21.07404183;-6.203973714;18.03122905;-3.506790008;-17.91308171;23.51074378;-6.781558733;14.66625736;9.632867851;-13.33188667;4.763124562
8.544686112;37.95141971;-24.77643331;14.17358788;6.465317408;-2.691736521;-5.703621034;-3.677744607;-16.88677858;-4.000912649;18.76018815;4.597201873;-12.91519826;22.88407028;-6.149066974;15.83327112;9.115778604;-9.863249801;4.255501007
7.540838158;33.34159098;-23.63497667;17.83396843;7.307825187;-1.001246041;-1.9245865;-0.903303635;-11.3006199;0.150535754;11.53700572;12.25828895;-8.236198041;18.84585131;-4.736510073;16.48274726;7.826108381;-6.327966108;3.65470414
5.62534285;8.921612335;-23.65993162;16.75217698;7.485469408;-0.006713837;1.634891442;2.525882102;-5.554148337;4.759988182;0.567727523;14.57623082;-5.539641045;15.59654537;-3.016597369;17.16995568;5.580058594;-4.336894815;3.195582651
4.080747674;-24.76240964;-24.59438697;11.95848992;7.720743437;0.424907171;4.205616584;5.366362834;-1.218574166;7.911500097;-8.03110651;11.18105968;-5.083052974;17.82509875;-1.188169262;18.46665172;3.207840908;-3.87536926;3.008223157
4.029374015;-50.57425429;-25.37045335;6.992855619;8.961693398;0.742170354;6.079832066;7.223145058;0.873655549;8.592333536;-10.60390129;6.141411267;-5.705926943;25.75736746;1.194421755;20.60255902;2.028633886;-3.600435368;3.026161085
5.554584178;-56.22873217;-25.06562202;5.457584034;11.43679752;1.373795035;8.227707564;8.707746467;1.22996957;7.332205886;-8.098628743;4.807250002;-5.934827241;32.80130214;4.775667732;23.13581973;2.739759417;-2.269030222;3.068754298
7.567597312;-42.04426425;-23.68642751;8.485493371;14.14371454;2.366471503;11.29155942;10.67195833;1.339779086;5.661251444;-4.612440336;9.868243356;-5.219673355;28.89378762;9.416975072;24.92729404;4.690736051;0.079997548;3.009952052
8.577259729;-19.66221773;-22.10016544;13.96987469;15.29291827;3.309350043;14.8398683;13.21981094;2.585116063;4.83224478;-3.825402219;19.31285864;-4.260213305;8.075450781;13.60110455;24.61092818;6.245419347;2.208951745;2.883405407
7.772087277;-3.262844595;-21.21559021;18.11045247;13.4972713;3.649992358;17.55873991;15.40019867;5.208088704;4.839868233;-6.28878219;27.66745954;-4.215292625;-25.32389362;14.9952162;21.42160251;6.014829479;2.852961281;2.839057173
5.549820951;-0.170751859;-21.17735805;18.11569811;8.867622504;3.177409938;18.26610191;15.90184764;8.104668711;4.5323951;-9.584295984;29.73911821;-5.548394151;-57.3712794;12.01530939;15.88330596;3.970299983;1.879500858;2.992820863
3.083620931;-7.573684182;-21.29633271;14.07585843;3.174821512;2.280108916;16.92717022;14.20191281;9.622074896;2.731152291;-10.90480681;24.39924507;-7.523356952;-72.665999;5.269737567;9.80469212;1.50794531;0.43540668;3.291821571
1.319524198;-16.85872945;-20.74701515;8.697790449;-1.098358398;1.741582758;14.82549402;11.19907355;8.800898285;-0.551405557;-9.682408704;15.77463368;-8.748467139;-64.49960929;-2.36561446;5.419446022;0.392252965;0.010690815;3.496440507
0.266563634;-21.20643674;-19.36484384;5.217833695;-2.177606694;2.201219601;13.71884143;8.752961112;6.162026639;-3.813166928;-8.013978051;10.75477718;-8.261368558;-39.50011932;-7.342754838;4.121027783;1.426476858;1.244590043;3.288755769
-0.833505251;-20.19554715;-17.8032581;5.117997635;0.07630709;3.685912593;14.61828079;8.433793145;3.449303118;-4.997812255;-8.595963959;14.14823918;-6.24078639;-13.05952059;-7.682790218;5.612276526;3.899161922;3.436651871;2.43479208
-2.644349265;-18.3777245;-16.9164528;7.29668153;4.303134344;5.572296748;17.11278472;10.43076599;2.488052442;-3.006068452;-12.00428297;24.63258925;-3.820389686;1.179966201;-4.21850695;8.084855405;6.188873007;5.092171682;0.910331373
-4.967372545;-20.02392499;-16.95316147;9.153326096;8.627060738;7.004636663;19.71472337;13.45025403;3.97023927;1.359542895;-15.7081082;34.52421389;-2.255044997;-0.045300859;0.138090473;9.357225237;6.967008605;5.026070121;-1.061492131
-6.760393162;-25.0674523;-17.31852007;8.622224868;11.72836526;7.444130271;20.9167543;15.66328471;7.050078125;5.774453563;-15.78128967;34.12689258;-2.154561964;-9.106701386;2.586688222;8.223953801;6.021549556;3.201326342;-3.06560603
-6.940187174;-29.5908875;-17.13198057;5.613875845;13.31504399;6.945201085;20.16233215;15.96945623;10.05700517;7.888485328;-10.06122604;18.26370483;-3.308284363;-14.85159098;2.429502623;5.11796308;4.140758218;0.7552789;-4.625081028
-5.284707984;-29.8737818;-16.0691206;1.928818619;13.85903087;5.995923845;18.08532104;14.65336128;11.80758614;6.908368321;-0.283218222;-9.310704478;-5.043715133;-11.56144113;1.350248575;1.684101491;2.322982063;-0.742122562;-5.378084551
-2.671573465;-25.97302275;-14.70496535;-0.092556374;13.9975416;5.107626426;15.97474011;13.02826941;12.52708179;4.16122323;8.561283367;-36.99263144;-6.665425941;-2.430991945;1.815047197;-0.368702963;1.076603041;-0.288645838;-5.250745875
-0.46394183;-21.57456863;-14.02558948;0.909880974;14.11221992;4.502102568;14.95119983;12.43238004;13.64507968;2.24672302;11.31877925;-51.78465452;-7.625912778;4.568842027;4.905014041;-0.3072828;0.352562302;1.906946792;-4.540322228
0.433231087;-20.4686568;-14.53511233;4.63793142;14.29066089;4.107594921;15.41920811;13.35295107;16.55840526;3.353845004;6.071551282;-47.17934403;-7.48720013;4.240168161;9.313551982;1.356478867;-0.011793377;4.528400461;-3.821731531
0.088336684;-23.06180516;-15.76399035;9.54372635;14.49630415;3.783706445;17.02466582;15.23957644;21.26632679;7.854829013;-4.530183487;-27.18199704;-5.970656266;-1.529309411;12.28276196;3.410029297;0.082587738;5.980758221;-3.666454318
-0.715333857;-26.13906477;-16.63460391;13.81466405;14.66544445;3.516486027;18.95781586;16.98622213;25.95848163;14.05332102;-14.88718913;-3.577856319;-3.216127562;-6.065814235;11.70227119;4.776325149;0.874090333;5.489939111;-4.297195387
-1.194108764;-25.97333247;-16.37437555;16.21987039;14.64705773;3.402203415;20.31465596;17.61585237;27.99373514;19.17301381;-19.86410701;11.78038375;0.000229469;-4.289041333;7.701428809;5.022103084;2.258089224;3.761600599;-5.399528919
-1.093534053;-21.79700933;-15.17377798;16.43910547;14.14266065;3.474419592;20.37270349;16.69961269;25.67651599;20.89929139;-17.7055603;14.29404268;2.461609605;2.721447773;2.520427081;4.289941763;3.48952854;2.629865901;-6.267365485
-0.654101904;-16.41218267;-14.00918007;14.94436998;12.82361486;3.588279033;18.80754161;14.37729023;19.57388378;18.52646527;-10.65063871;8.443610866;3.166886482;8.922587283;-1.167380882;2.882159423;3.465437687;3.741376214;-6.256593278
-0.189094191;-13.45261635;-13.78839071;12.68341552;10.59308405;3.509034283;15.86878024;11.15881875;12.354875;13.11517399;-3.074543956;3.105283369;2.005487314;8.919351492;-2.131610456;0.918197395;1.4272435;7.112177318;-5.280039063
0.233206779;-13.93688908;-14.57082723;10.70625791;7.757656969;3.131982926;12.39426242;7.725670029;7.156983162;6.720572464;1.430311568;4.234474901;-0.140514472;2.783448441;-1.253228885;-1.693730736;-2.496408935;10.74666088;-3.984479399
0.701437395;-15.37430538;-15.53935014;9.750078125;4.909724298;2.609510879;9.500498156;4.776750237;5.569984543;1.264263129;2.109537203;10.67804027;-2.045891399;-4.208904987;-0.609815601;-5.04994408;-7.36332181;11.93305062;-3.416557858
1.134890377;-14.25480668;-15.73202991;9.861285052;2.578878512;2.233640924;7.988545833;2.834128142;6.659738269;-2.286061998;1.065734083;16.21617163;-3.067415336;-6.499794423;-1.825181099;-9.044564254;-12.01788917;9.524486774;-4.332907852
1.150640515;-9.545790695;-14.87889842;10.29407278;0.938369847;2.158496549;7.811935064;2.001337558;7.746550514;-4.06477685;1.448879948;15.79701695;-3.571291902;-3.234208418;-4.974606852;-13.30064401;-15.6780234;5.435405922;-6.59983238
0.350513966;-3.82748404;-13.61399197;9.907009209;-0.182671145;2.22187887;8.050837891;1.84698975;6.392909189;-4.857725084;5.111180703;10.46325274;-4.470229111;1.218395174;-8.741605484;-17.19872942;-18.04092671;3.785750954;-9.128483173
-1.210420183;-0.880445001;-12.89776201;7.957887215;-1.008844634;2.060662519;7.540276902;1.619012941;2.170237266;-5.431003294;11.212284;6.578400816;-6.246356012;1.575438731;-11.48224202;-19.92215542;-18.95198066;7.788801564;-10.4591135
-2.86189805;-1.911056502;-13.17648216;4.79426662;-1.536736367;1.45224236;5.781583107;0.765685597;-3.065214433;-6.055815761;16.57568817;9.83093902;-8.318943503;-3.254844713;-12.24867664;-20.56080695;-18.12526484;16.4882857;-9.654097621
-3.712154714;-4.029274544;-14.01495292;1.853577426;-1.536633163;0.587169509;3.453534682;-0.577315104;-6.557580034;-6.457566663;17.52950589;19.13331264;-9.356789201;-8.998266064;-11.06910187;-18.40804021;-15.33485245;24.10369312;-6.910614267
-3.322602365;-2.660876972;-14.50086737;0.81070656;-0.834977515;0.003600745;2.051760337;-1.559976799;-6.64900717;-6.144203875;12.13289018;25.98360739;-8.328847644;-9.87446175;-8.536323192;-13.46104791;-10.96675508;23.16447075;-3.462830871
-2.078983873;4.063615198;-14.04099771;2.37938591;0.40428649;0.190788914;2.82198159;-1.17983199;-3.917339595;-4.862104756;1.507030293;20.52972793;-5.429556599;-3.9967599;-5.301640728;-6.846444129;-6.348176327;9.716891114;-0.821198951
-0.897721135;12.94853269;-12.85122787;5.643062638;1.69128995;1.165766873;5.7331959;0.919745626;-0.660691524;-2.880787037;-10.4929873;-0.109962254;-2.092054084;4.604499855;-1.964862847;-0.730798531;-3.34640827;-13.10109951;0.140998396
-0.485348222;17.87166741;-11.74255569;8.498086247;2.53261594;2.381533445;9.279382125;4.024631048;0.816861305;-0.92887306;-19.10790162;-28.0317281;-0.057270951;9.228480818;0.709794775;2.503187739;-3.342557763;-36.08918551;-0.363742733
-0.779172203;14.95831747;-11.42914573;8.999598041;2.784426027;3.074210659;11.32941007;6.683281323;-0.194480617;0.180045776;-21.01723509;-48.82328881;-0.244055305;6.188406523;1.743226922;1.498681773;-6.30064814;-49.36872362;-1.335801709
-1.050852022;6.410766487;-11.97214377;6.704093029;2.721228183;2.801366388;10.48133047;7.617321871;-2.473994018;0.004301997;-15.92515788;-51.2097138;-2.292300561;-2.072265187;0.405607173;-3.174561734;-10.6902052;-48.50851541;-1.780153059
-0.570393495;-0.601676566;-12.80505769;3.056839129;2.768970793;1.760014648;7.000541412;6.568947355;-3.935373542;-1.263413371;-6.55928514;-34.94306275;-5.038402257;-9.133203273;-3.028597854;-9.147900262;-14.39500625;-36.98630837;-1.395124165
0.766092451;0.438410057;-13.25112937;0.532689616;3.160626889;0.639729892;2.713149891;4.472353472;-3.184506434;-2.88406412;2.82992916;-10.94362716;-7.397341504;-10.0398308;-6.909764927;-13.46244651;-15.9639601;-23.18848763;-0.667952915
2.393070178;9.641748519;-13.03701959;1.11040419;3.828273639;0.127389961;-0.048597561;2.837335058;-0.382489291;-3.950680174;8.542848384;6.427400069;-8.869180889;-5.207334237;-8.766357053;-14.14690645;-15.29765687;-14.25975613;-0.354542079
3.619427627;19.65783841;-12.37458686;5.095838373;4.595020264;0.440772961;0.259716176;2.806264633;3.12951567;-3.827426064;8.918164858;9.11217939;-9.355292657;0.540323379;-6.647172471;-11.15433997;-13.34241213;-11.49146972;-0.789165349
4.226710178;20.58755338;-11.61920931;11.0166971;5.423235592;1.224607645;3.647617106;4.541206908;5.992573138;-2.405755197;4.576177624;-0.079746105;-8.682606529;2.692642792;-0.431464349;-6.081200027;-11.16530367;-10.63070632;-1.580309178
4.561845271;7.35517878;-10.89179261;16.55594425;6.424028311;1.847005018;8.733848265;7.291389688;7.788848392;-0.073312296;-2.38963442;-11.03039098;-6.496962253;1.107555305;7.838472099;-0.949415639;-9.219819967;-6.509564489;-1.923508129
5.067231731;-16.06078374;-10.03229166;19.8450525;7.598710826;1.838152735;13.54835635;9.968610101;9.101207483;2.527375707;-9.505510093;-14.61129577;-2.74624159;-0.268137497;14.96323497;3.040200709;-7.334509081;2.038712571;-1.263924374
5.742925287;-38.82417553;-8.887658015;20.32210566;8.603364383;1.148139991;16.45553901;11.74975643;10.78574588;4.77931971;-14.61491382;-9.01864298;1.73396536;2.408973194;18.39535714;5.948711004;-5.258364416;11.08368131;0.233748712
6.103599641;-50.27502425;-7.598191259;18.75699801;8.863076619;0.088977943;16.75609069;12.33574278;13.18330488;6.278556709;-16.08814413;0.398948435;5.275661856;8.833066352;17.74120125;8.580787581;-3.126157508;15.10601082;1.787686222
5.700887067;-46.64108581;-6.558868393;16.59546699;8.038190248;-0.918150056;14.82389463;11.8562348;15.93330172;6.903714918;-12.96605329;6.79716587;6.309093626;14.55076415;14.99540979;11.57311013;-1.373123486;11.97733784;2.588245683
4.696120166;-32.72983384;-6.070836181;15.10165754;6.452179192;-1.561742085;11.86474408;10.66837601;18.44060523;6.811522751;-5.414585606;7.700130365;4.549803599;15.10454475;13.32449227;14.84881251;-0.234461304;5.068049779;2.398098554
3.866885084;-17.84664111;-6.023436264;14.76226551;5.028928391;-1.697061231;9.438572688;9.254345355;20.46545667;6.386560808;4.695928316;6.224949377;1.426144344;10.46721786;15.11556311;17.77196712;0.591136616;0.641146254;1.684828068
3.946830176;-9.381467898;-5.938084022;15.18299731;4.673769108;-1.293892045;8.865671762;8.190117624;22.26211883;6.124376558;13.7902084;7.226128325;-0.765959578;5.507271149;20.46670869;19.71314179;1.687685844;2.750792884;1.192458401
4.86874656;-8.764877393;-5.366651389;15.45149589;5.553987613;-0.406915143;10.67322422;8.019341217;24.17761238;6.430680753;17.74693458;12.31317792;-0.451742241;5.809459486;27.04406462;20.45993532;3.257013695;10.00091212;1.31504186
5.658424697;-12.16122503;-4.291486308;14.7553461;6.904169605;0.780924998;14.31915838;8.978130542;26.15642819;7.398750956;13.97361128;18.33911522;2.110890607;12.52410566;31.42213071;20.16482682;4.690971684;16.90481404;1.791218664
5.190813064;-14.51490737;-3.154123277;12.93632908;7.591534353;1.927981569;18.40623179;10.75246498;27.67929307;8.706418343;3.235870477;20.53603252;5.113010051;21.01269476;31.13120811;19.0151908;4.884277223;18.6243187;1.967203091
3.218009266;-13.40760548;-2.471673858;10.65473285;7.024256057;2.634976164;21.36891093;12.5347871;28.22831585;9.748282843;-10.11439562;17.20258921;6.680480439;24.76401895;26.18343703;17.05175161;3.12798938;14.98353358;1.400740339
0.748188458;-10.01713602;-2.378909372;8.996646647;5.644441892;2.675811787;22.28744437;13.44497745;27.83688176;9.967831195;-20.01219696;11.53786149;6.377288863;21.24674299;19.12478745;14.34115558;-0.159516332;10.3378419;0.291905913
-0.650717166;-7.174516031;-2.508563555;8.688375261;4.555940744;2.195492223;21.32629839;13.05276491;27.16267197;9.185657019;-21.7628495;8.922105868;5.502558473;14.40677657;13.53874282;11.27452274;-3.550484283;9.522874592;-0.633317666
-0.11574293;-6.688050461;-2.320993791;9.417631929;4.569077376;1.679837745;19.49681703;11.59987455;26.9456593;7.687880534;-14.53141524;12.13065855;5.937570316;11.3307153;11.90087364;8.573352869;-5.569524275;13.52619712;-0.706121982
1.738171416;-8.151627992;-1.590931596;9.817650123;5.473073409;1.657344045;17.90764292;9.73616867;27.30101438;6.000015259;-1.724667076;18.84205297;8.490753234;15.82111446;14.13083368;6.853425197;-5.756805846;18.72628346;0.111672521
3.244620879;-9.760682215;-0.619190269;8.290554924;6.187529388;2.320549259;17.04348045;7.98970493;27.50197638;4.51422436;10.91413478;23.71157889;12.10039502;24.61587373;17.76930874;6.082200374;-4.964473326;20.35;1.147372793
3.019713683;-9.94556731;0.016106757;4.215444938;5.699876688;3.354022679;16.5876286;6.423217765;26.51460517;3.260998666;18.2506781;23.14476121;14.54949577;29.91058159;19.64205701;5.481084599;-4.637270592;17.01751151;1.519471262
1.115084608;-8.307783706;-0.052267814;-1.324963346;3.996325108;4.124900178;15.87569879;4.762754118;23.88157796;2.002739365;17.98604952;18.4574394;14.12065818;26.32585052;17.86553503;4.10846123;-5.670791572;12.22172448;0.832541162
-0.986227314;-5.369874793;-0.676252578;-5.957343375;2.159883981;4.120377433;14.57501367;2.853170998;20.20665394;0.558215066;11.09561371;14.55494605;10.88547851;16.28240769;12.82903023;1.746857035;-7.781547367;11.28134779;-0.495191284
-1.553889321;-1.822706954;-1.322199107;-7.449865506;1.499510621;3.32046711;13.02808389;0.989887751;16.79451457;-0.931340613;0.686129818;15.31340626;6.659042813;8.716050315;6.55788906;-0.644066025;-9.871282938;16.38482328;-1.548881835
-0.006218141;1.824591986;-1.504328242;-5.23731333;2.413437228;2.234679026;12.00242343;-0.212859878;14.71367201;-2.034884529;-9.651259878;19.87176905;3.732694084;11.61182976;1.076492621;-1.387102571;-11.02122574;24.20488894;-1.64191927
2.629556317;5.023632633;-1.145039959;-0.930987626;3.95216024;1.579041313;12.08906018;-0.317952113;14.05881853;-2.340675861;-16.99655633;23.30507104;3.414275724;24.34362649;-2.882927666;0.778798961;-11.24323805;28.46675644;-0.879355737
4.552274103;6.991189591;-0.576518457;2.636383138;4.488434675;1.830323637;13.26440851;0.538600072;14.03686471;-1.769753652;-19.52875475;21.24442701;5.438680895;36.48494638;-5.833883637;5.714380869;-11.36909586;25.50650612;-0.109462621
4.597446428;7.087416008;-0.221914099;3.22697456;2.982370852;2.967959758;14.9561863;1.752726164;13.79822302;-0.611491933;-16.64468913;14.36828257;8.519517606;34.78361823;-8.334615987;11.81046773;-12.23013062;18.01148765;-0.290801744
3.05319448;5.546595541;-0.251739584;0.619344982;-0.17492525;4.55599507;16.50456097;2.801026948;13.27906787;0.750694017;-9.174608298;8.571430657;11.4158007;13.32122647;-9.844468956;16.91447148;-13.88209006;13.37276937;-1.759279369
1.255561292;3.730432702;-0.489620842;-3.353663086;-3.418576475;6.063566928;17.58607185;3.731844134;13.2866693;2.161257611;0.444526178;10.23794855;13.61539411;-20.99869533;-8.832406961;19.57743355;-15.5503324;17.53318032;-3.954424554
0.383063269;3.362041278;-0.595191844;-6.141297612;-5.154470968;7.170576005;18.24476281;5.094948537;14.69943147;3.734190612;8.592774608;20.34696983;15.22194779;-52.11753602;-4.218957097;19.73392357;-16.30776663;29.20666577;-5.802481979
0.510667531;5.190969255;-0.324803777;-6.205643121;-4.877612048;7.855856681;18.56314538;7.2899322;17.43504244;5.53220946;11.7955135;32.4182488;16.36426476;-65.14822399;3.062067868;18.41807334;-15.85571711;39.448839;-6.448304243
0.692924192;8.262946615;0.344308852;-3.947456418;-3.412870594;8.254845964;18.3426708;9.87741802;20.09551535;7.160295838;8.476363066;36.38192347;16.77850398;-55.83646933;9.91569084;16.8806175;-14.7165642;37.50510339;-5.778303506
-0.078496554;10.61526991;1.270975115;-1.280217806;-2.165999533;8.443382489;17.1447116;11.52618138;20.68999955;7.700348245;0.02948269;25.70071185;15.92770601;-32.46567724;12.83481979;15.86327904;-13.69532639;18.83507369;-4.369302137
-1.92834604;10.98130065;2.270434235;-0.281306529;-2.048292096;8.332495934;14.69299386;10.79956991;17.96772811;6.186513497;-9.69975242;2.38818872;13.46729745;-9.369050878;10.39549744;15.51497324;-13.11912888;-10.73376337;-2.963199304
-3.969803437;10.05897231;3.176666948;-1.905498433;-2.919215316;7.74739006;11.28084992;7.27423323;12.37398808;2.367091633;-16.42966996;-23.87426046;9.57464178;2.667679877;4.515966441;15.79338355;-12.54343854;-38.01894854;-1.925049741
-5.038538921;10.09636834;3.846251508;-5.541679346;-3.885424168;6.614939656;7.788233644;2.127996592;5.897651703;-2.81496635;-17.7653024;-41.83173354;4.857523903;2.136532971;-0.713447038;16.78477886;-11.18353799;-50.64182781;-1.113146075
-4.595700714;12.93877793;4.18716275;-9.506949405;-4.085692405;5.108672736;5.231236448;-2.340596095;0.902981959;-7.479290172;-14.33911728;-45.47210016;-0.012821921;-4.658981564;-1.928784152;18.55302863;-8.687906307;-44.56245443;-0.216280491
-3.036542234;18.11948863;4.240520816;-11.99177443;-3.282176919;3.637631878;4.1613218;-4.019534232;-1.227218486;-9.763498173;-9.054874173;-36.85913137;-4.572592953;-9.92541207;1.062083436;20.69561373;-5.580247686;-25.85566893;0.785133726
-1.240862145;22.75799107;4.221286094;-11.8733428;-1.866647814;2.673292681;4.361242705;-2.249610535;-0.727700691;-8.912630643;-5.02077717;-23.54438618;-8.537999539;-10.08504681;5.247623657;22.17506077;-2.990546723;-5.948022928;1.471611469
0.124956908;23.65477016;4.402066578;-9.106038831;-0.440818545;2.510790618;5.047094985;1.803786759;0.95549961;-5.78498268;-3.617960546;-13.07619576;-11.62626943;-6.878102228;6.898028817;21.80600363;-1.893419462;5.855043892;1.307016197
0.912594197;20.08510035;4.869491714;-4.701542703;0.572870812;3.101196729;5.395821428;5.894439869;2.18401401;-2.406804758;-3.954334716;-8.731358993;-13.52448064;-4.158465919;4.629627977;19.15275901;-2.456891914;7.277799865;0.169639826
1.240252071;14.97055872;5.363693311;-0.382301009;1.005427702;4.0564632;5.003168604;8.021044563;1.999164146;-0.822908896;-3.903326584;-8.986551594;-14.11182518;-3.962644023;0.572015253;15.1028317;-3.978247573;2.616469853;-1.372957443
1.100445504;13.14721436;5.41528315;2.068919247;0.809441751;4.838156861;3.990982537;7.477044756;0.364404502;-1.941101711;-1.841839845;-10.13989794;-13.7173661;-5.240492892;-1.36135682;11.51797424;-5.397586997;-1.758615719;-2.326366515
0.342051903;17.66765488;4.755227807;1.671301186;0.017898927;5.036648412;2.786955926;5.050523332;-2.141622926;-5.056526667;2.148221024;-9.475433284;-13.09383498;-5.694131961;1.246568439;10.07520649;-5.962071054;-2.069650034;-1.920963866
-0.921645501;26.78178283;3.680058594;-1.036440116;-1.102136597;4.582478063;1.817153788;2.403278266;-4.754353478;-8.301824337;6.318787061;-6.707691233;-13.03164645;-4.388614365;7.136812405;11.11687939;-5.579190994;1.236621139;-0.173687109
-1.96624353;34.05285728;3.00257144;-3.967066541;-1.929042022;3.753745749;1.324488063;1.114263631;-6.75271765;-9.714865227;8.334293978;-3.328338923;-13.89137441;-2.537376251;12.11459402;13.41154303;-4.703431219;5.240636223;2.082627683
-1.696692811;31.98948658;3.519467088;-4.450681414;-1.703730452;2.960412068;1.340634479;1.92371251;-7.521906565;-8.297332119;6.598918271;-1.057160636;-15.43878923;-1.982672654;12.20020809;15.06689632;-3.942630558;7.517438219;3.758765055
0.550735835;17.0448227;5.36364376;-0.833647178;-0.07629998;2.439527084;1.708413861;4.459824757;-6.685131315;-4.506691795;1.083659503;-0.74423041;-17.10479955;-3.158762732;6.736111783;14.93881836;-3.685076626;7.806242922;4.269448078
4.300249579;-7.33194728;7.787235552;6.277340039;2.437949946;2.077986225;2.093037846;7.449787025;-4.386492451;0.021843788;-6.630243901;-2.150975206;-18.41136561;-4.640444769;-0.987910656;13.47026858;-3.92631174;7.510804432;3.942540496
8.043416366;-31.82460183;9.630946417;14.09830721;4.58293988;1.510381894;2.045432169;9.282741431;-1.484889525;3.324590617;-13.93659232;-4.232907883;-19.17857413;-4.644176107;-6.072636958;12.31354208;-4.302539478;8.072754127;3.769380447
10.23950905;-46.13666621;10.17196447;19.23160709;5.133488489;0.442396317;1.206377541;8.75367209;0.688579726;4.081208342;-18.11498215;-5.540898115;-19.38307394;-2.880402742;-5.486630677;13.01608457;-4.271139508;9.853021522;4.662544575
10.46948705;-44.74323663;9.681343784;19.77028794;3.796087863;-1.038240097;-0.40084852;5.745099787;1.061198263;2.238803761;-17.31811303;-4.777507718;-18.91411068;-0.858755583;-0.048021404;15.75911308;-3.396251237;12.25048581;6.744586447
9.76641241;-29.97197477;9.207280774;16.49911816;1.512308712;-2.423228424;-2.212300803;1.504620128;-0.391118646;-1.004154092;-11.40438563;-1.590243014;-17.5768819;-0.332523965;6.455156033;19.08826049;-1.673681241;14.5087854;9.174375746
9.769027106;-10.4991845;9.721048209;12.31422464;-0.146667217;-3.088225514;-3.313137694;-1.77578437;-2.432173002;-3.84814439;-2.29170703;2.832353537;-15.3983595;-1.439162074;10.1267501;20.82822192;0.27288901;16.23022991;10.64283313
11.33915433;3.799562672;11.30861231;10.25822075;-0.075127824;-2.738141694;-2.943603001;-2.041841077;-3.241919351;-4.85793641;6.508636625;6.16977471;-12.8913981;-2.423595153;9.530125741;19.51761443;1.344721202;17.23608791;10.20689389
13.78548136;7.442177566;13.08295418;11.58038408;1.627021041;-1.652576399;-0.997785588;1.401519875;-1.620087891;-3.731008548;11.23680886;6.643365868;-10.86903199;-1.301230801;6.164861761;15.36794053;0.53590659;17.25332918;7.902923993
15.37431608;1.947580077;13.90725035;15.17863058;3.844982148;-0.518809183;1.867844266;7.314571693;2.119331696;-1.414844213;9.629662064;4.925290012;-9.808753271;2.10415149;2.858512071;10.1371356;-2.348227182;16.04464054;4.737714812
14.74166946;-6.013057294;13.33753656;18.7010662;5.390537032;0.045284878;4.627625666;13.10172749;6.251042992;0.541727103;2.167497279;4.449565518;-9.29348464;5.770227946;1.637805754;6.071085192;-6.330209072;13.94468746;2.076651724
12.05266097;-9.508051035;11.99861521;20.34499103;5.909342333;-0.079355927;6.495038828;16.31387824;8.719843376;1.046869448;-7.971412126;9.115111278;-8.156069597;7.260596221;2.745179781;4.640087891;-9.639709367;12.10195029;0.841171698
8.94875738;-5.935322699;11.07759661;19.9682483;6.030736198;-0.466874531;7.282487416;16.1436187;8.45241566;0.267270626;-16.35476467;19.56104063;-5.421237605;6.118278346;5.225945751;5.830475041;-10.71746897;11.8543273;1.031754236
7.323278102;1.723318314;11.36201917;18.80468406;6.700695465;-0.520259099;7.26747136;13.89107515;5.979466902;-0.392179105;-19.39479251;30.97696044;-1.37153344;4.580916852;8.147499919;8.317297755;-9.209542823;13.55543429;1.854560557
7.922091738;7.653918308;12.62940079;18.22955895;8.319095337;0.038863869;6.756067621;12.04299839;2.975464878;0.813911023;-15.94928207;34.92780057;2.232282669;5.739337534;11.20170167;10.30303791;-6.226729724;15.93473903;2.324492731
9.875469341;7.826813219;13.88643277;18.68336312;10.41440035;0.965758995;5.796507674;12.58151783;1.128414858;4.745849877;-7.612533742;24.79664443;3.193763946;10.61108208;14.30477001;10.49653365;-3.62641407;16.84238212;1.91949348
11.46232978;3.052814923;14.22796557;19.55011961;12.06561207;1.737982528;4.331774969;15.69227133;1.197136164;10.64491384;2.281176432;1.258434054;0.562942443;16.77316537;16.9023339;8.730943338;-2.795817221;15.03946301;0.858478182
11.40228159;-1.749308156;13.56935617;19.87580839;12.61998706;2.034430119;2.625903638;19.74176437;2.868788755;16.41790523;10.20292973;-26.55314028;-4.332587149;20.03544267;17.94587069;5.967231888;-3.804569852;11.57477814;-0.147540956
9.618176869;-1.453247781;12.64197077;19.15070644;12.05309186;2.028406479;1.476047056;22.46541755;5.33752667;19.78742704;13.66797941;-45.78639631;-8.451753412;18.01924467;16.7342313;3.730465439;-5.517145133;9.360705451;-0.462493515
6.965138765;5.233963916;12.2982495;17.50359884;10.72685576;2.229363557;1.861288371;22.46256306;7.981177197;19.56506958;11.76858488;-47.71518705;-8.960205316;12.65946765;13.8193717;3.268455585;-6.519135816;10.96412378;-0.001402041
4.340087891;14.73546572;12.76595786;15.33987963;8.901241117;2.99745604;4.19626813;19.96106571;10.55364678;16.23216515;5.159466634;-33.24479756;-5.164567391;9.247357659;10.96912423;4.850936681;-6.108350629;16.26651748;0.710769494
2.04575798;21.38971462;13.50496207;12.97874809;6.560835589;4.149502221;7.798778454;16.4412258;12.85173548;11.50665071;-4.161691988;-12.05718117;0.983708612;12.33719104;10.00214309;7.591856428;-4.615326155;22.05530891;0.926016074
-0.0799838;21.8577987;13.75925427;10.70731315;3.73750997;5.015486112;11.11371923;13.55548312;14.34225042;7.263502503;-13.19044718;4.037573725;6.222040452;21.51677623;11.40041094;9.941744281;-2.911734802;24.24085376;0.228198183
-2.048922148;17.62903518;13.27461341;9.069557391;0.931347042;4.930948842;12.65670097;12.18713498;14.26671674;4.55714222;-18.59371347;8.711650879;8.173441711;30.48085119;13.91669721;10.6224802;-1.620748951;21.21307974;-1.131480693
-3.359040904;13.59457127;12.52368307;8.826762908;-0.948358945;3.775199484;12.01494276;12.21628411;12.25260545;3.321414269;-17.88904552;4.26648703;6.800309472;30.5714459;15.58495091;9.463360706;-0.7141592;15.64254871;-2.351966236
-3.328557643;13.85348497;12.24762538;10.32870832;-1.256977531;2.11084538;10.12318324;12.93213159;8.905228813;2.782044354;-10.78754379;-1.57084258;4.121064342;16.62460254;15.3106316;7.585180001;0.237382847;12.94264143;-2.579304672
-1.83546785;18.24321577;12.75224178;12.76907198;-0.363600313;0.800643394;8.566511776;13.60620365;5.759816763;2.149127163;0.130214309;-2.250189392;2.538148549;-8.900039063;13.68029841;6.748474081;1.493236839;17.12635424;-1.458061441
0.291729519;22.5705369;13.61426069;14.19521637;0.302570189;0.406471034;8.434906454;13.81160478;4.463874952;1.090721355;10.16709276;2.871660851;3.118318479;-36.50964169;12.29409294;8.231347655;2.823146577;27.018351;0.618991035
1.714376046;22.46028651;14.06860844;12.66603153;-0.823266173;0.849758301;9.61946048;13.44985383;5.732416486;-0.210341795;14.66616346;9.041933606;5.058253652;-54.81014458;12.21753047;11.95020287;3.710127238;35.89215219;2.717499507
1.568234433;17.59365079;13.71764773;7.891329886;-4.152927054;1.585456191;11.07498997;12.7023271;8.880793487;-1.266118244;11.51248513;10.8420896;6.537261885;-56.9389199;12.92341739;16.40671665;3.823652302;35.31097688;3.886265802
0.155524893;12.54959757;12.9061556;1.991210657;-8.359819694;2.108383216;11.77304638;12.03073941;12.32881946;-1.510675792;2.435321689;6.886065052;6.106946084;-44.23549477;12.66324064;19.50313689;3.271766688;20.84420873;3.672104097
-1.292593737;13.1365809;12.41213375;-1.547495278;-11.12491445;2.343103081;11.509797;12.09054388;14.6995442;-0.460406966;-7.875396804;0.675253447;3.527465339;-24.98456116;9.958812678;19.69921432;2.399037825;-4.273750691;2.324896091
-1.623582485;20.95007813;12.73254294;-0.252152392;-10.78886427;2.59288066;10.89469409;13.36416064;15.64860308;2.095137835;-14.47308491;-2.714692258;-0.391070094;-9.275081653;4.94722396;16.79664779;1.380175243;-30.28402315;0.60371833
-0.696283091;30.72540043;13.61929237;5.321000222;-7.678267819;3.125509822;10.58952659;15.61359637;15.78250019;5.812822105;-15.0592649;-0.980749844;-4.515954196;-3.356239849;-0.528168154;11.94163788;0.077694929;-46.34695951;-0.661530662
0.557259235;33.16963736;14.29863694;11.60739908;-4.028574942;3.798993721;10.54446386;17.62027905;15.79116731;9.598352861;-11.22327976;3.749648176;-7.943533187;-6.89187377;-4.096187592;6.967747528;-1.642398048;-46.79868698;-0.977842307
0.984881076;21.65691088;14.18564567;14.31631536;-2.476238092;4.092379444;9.986875567;17.67386683;15.59399075;11.81170632;-7.167194122;7.119616864;-10.04355753;-14.40390621;-4.296829525;3.552627371;-3.448615571;-34.13787105;-0.351738258
0.232615812;-2.152137046;13.44849057;11.42161945;-4.21258754;3.539643191;8.235527904;14.73600039;14.29881756;11.01027985;-6.713482687;6.442964664;-10.29874782;-19.48725605;-1.199831672;2.623802855;-4.474230051;-16.9037679;0.829958482
-0.95582793;-28.26595226;12.9023017;4.642045535;-8.171997313;2.191071827;5.625803954;9.517067315;11.07561679;6.908516155;-10.5659731;2.884535235;-8.430019531;-18.84226941;4.023877336;4.154698965;-3.861123972;-4.077160457;2.072196865
-1.404573432;-44.34558497;13.3109155;-1.745832434;-11.83536394;0.678803872;3.643374311;4.507143748;6.222608271;0.884871427;-15.67548141;0.215262628;-4.867356416;-13.66;9.893666376;7.253003392;-1.535732274;0.133968144;3.012673039
-0.542264774;-43.58959256;14.7094418;-3.910986749;-13.00648883;-0.209681438;3.97888879;2.623840118;1.456450646;-4.492822847;-17.19747373;1.453068917;-1.054608462;-7.896624309;14.98292294;10.43647642;1.485118324;-2.204833982;3.514134989
1.088071345;-28.87690172;16.34906919;-1.063698962;-11.23687164;-0.122562708;7.145951144;5.214435069;-0.967495354;-6.814408691;-11.8123214;6.373164919;0.987191191;-5.048449918;17.78880582;12.1066914;3.648127826;-5.50205089;3.609803186
2.263377478;-10.29521108;17.31614594;4.229732071;-7.935459582;0.583049818;11.76459771;10.83045536;0.255802294;-5.243982578;-0.248041828;11.89277863;-0.190574769;-5.827154975;16.77753588;11.2209193;3.941570323;-5.21739785;3.389396919
2.057435248;1.910106045;17.28170227;8.110683202;-5.247983818;1.11635419;15.1834743;15.83196367;4.498746091;-1.027311856;12.67892378;14.75248384;-4.383710108;-8.214596156;11.17644422;7.938718505;2.653675568;-0.851578031;2.920369756
0.525599426;3.701987007;16.72767962;8.196787637;-4.653664947;0.860080566;15.10549317;16.61964563;9.517912406;3.325428314;20.61619556;14.05517317;-9.662467164;-9.519957136;2.155605778;3.794979275;1.15993345;4.533783312;2.243569289
-1.432013278;-1.458019642;16.46775331;4.993178248;-6.264990841;-0.1738409;11.08935579;12.04167607;12.8868217;5.659795837;19.28687282;11.59703492;-13.54977555;-8.635808301;-6.793680384;1.052160804;0.863646889;7.395776509;1.416622452
-2.829060301;-6.669750857;16.90838195;1.08876388;-9.119484734;-1.390167768;4.856216568;4.268901513;13.50097899;5.473248557;8.966024497;10.0004512;-14.67116108;-6.708173823;-11.23101948;1.397192557;2.12608839;6.68662413;0.547724649
-3.28626296;-7.288271111;17.71708546;-0.987657936;-11.9873967;-2.093706062;-0.80464468;-2.553235342;12.05697258;3.981594011;-5.643909633;10.49369637;-13.6307105;-5.818461725;-8.467734756;4.741269251;4.04861701;4.419996386;-0.22038432
-3.129770696;-3.761131736;18.18528428;-0.513111336;-14.00323435;-2.002824791;-3.738712036;-4.993538856;10.21024679;2.961398606;-17.99061186;12.23081784;-12.41681613;-6.913361313;0.224201405;9.023403204;5.266131022;3.664379286;-0.772050065
-2.95952774;0.084270716;17.93803889;1.247078675;-14.81421131;-1.392737031;-3.568435739;-2.517410374;9.138901184;3.28730329;-23.10309131;13.46706494;-12.80010437;-8.809693896;9.801623038;11.3514652;5.070900589;5.880976864;-1.083615856
-3.197042612;1.156943032;17.32610673;2.223216319;-14.44859833;-0.799962708;-1.593555356;2.314645551;8.669021793;4.289157645;-19.88808497;13.26390246;-14.99666724;-9.167600719;14.3673183;9.855007287;3.92745109;9.882392658;-1.242463015
-4.018341286;-0.209331081;17.12286532;0.94613472;-13.24245543;-0.580122261;0.306663842;5.686938956;7.617377075;4.389399539;-11.14556499;12.14204914;-17.6417681;-6.624953169;11.00831448;4.99450051;2.981172792;13.14171714;-1.399146961
-5.584093546;-1.152965547;17.78294016;-2.822347941;-11.87525429;-0.697820951;0.883207014;5.050280427;4.996329415;2.468370108;-1.602213861;11.28558171;-19.03479863;-2.235621056;1.801545662;-0.666207711;3.029862393;14.11922636;-1.676509205
-8.13128412;0.436700054;18.93185312;-8.331065171;-11.25361701;-0.88765884;0.026960998;0.589243436;1.028939699;-1.158002323;4.65414966;11.27504716;-18.58563462;1.124361253;-7.601882796;-4.163246463;3.865527738;13.46790264;-2.091580324
