Channel 1 - P4;Channel 2 - O2;Channel 3 - P8;Channel 4 - T8;Channel 5 - C4;Channel 6 - Cz;Channel 7 - Fz;Channel 8 - F4;Channel 9 - Fp2;Channel 10 - F8;Channel 11 - Fp1;Channel 12 - F7;Channel 13 - F3;Channel 14 - C3;Channel 15 - T7;Channel 16 - P7;Channel 17 - P3;Channel 18 - O1;Channel 19 - Pz
125.9787637;99.00348161;188.3582242;-22.65272581;-16.73465911;-24.12018754;25.8194772;-7.562703638;-9.259556615;14.98630459;-22.52131873;44.3789867;95.97581351;37.97800335;15.10057554;-8.120608557;33.88602459;107.72;4.145296734
80.00250615;53.18085963;137.7359714;-20.65767932;-24.15506513;-13.17854719;32.3537122;14.28392624;6.27168669;42.59630083;-54.91054706;-5.589810328;19.89897808;4.34204213;37.77728078;-9.792227201;-5.705071741;62.51421003;13.00138233
11.6879235;-0.110876682;44.4840298;-15.36314598;-24.95487471;-4.011484851;23.26433592;22.58869852;9.46553108;45.82177591;-62.44463285;-52.02946077;-60.15649249;-23.35579332;42.41886666;-12.19;-40.34133263;7.828316684;12.85185523
-43.38616514;-29.7125919;-38.76239744;-8.011595549;-17.26467393;0.282409423;6.466271745;13.49695529;5.205668419;25.89107922;-41.5794492;-67.17538082;-99.8189142;-27.99438521;28.27579121;-14.47450813;-51.24668761;-24.54533026;4.305778033
-59.44504519;-22.18981157;-71.66825305;0.280327033;-3.274858623;0.565249059;-5.720917429;-4.335133045;2.306850158;-0.796926128;-6.857761678;-44.5056723;-82.11226208;-8.563057846;6.608291347;-14.09690424;-35.04319778;-21.5367009;-5.416062593
-37.05394168;9.810821706;-51.21410264;7.81868551;11.05459231;-0.255059275;-6.028359253;-16.9962458;5.939706941;-15.07090382;19.15531793;-2.9612707;-28.27802035;19.32998614;-7.862269443;-9.397514942;-5.66331876;4.58253642;-8.27048549
-0.604462028;38.57541043;-8.722095478;12.1871336;19.05645018;-0.210411874;2.694715797;-16.02548867;13.67629148;-8.850429591;21.71602389;27.84372743;19.48037564;35.34314778;-7.523479152;-1.778421432;16.05262675;28.33555225;-1.901351064
20.85884316;42.68233291;16.97885523;11.49530772;17.53622258;0.348016381;10.73111664;-4.112497538;18.39146959;10.09626908;3.753051455;29.72334742;29.67445902;29.71635013;3.637667599;4.76117241;17.2445867;31.48710897;8.500834307
14.52353267;21.94775853;8.409242326;6.195216265;9.050373587;-0.124934138;10.09589722;8.295872865;15.25804605;25.6569748;-17.63264341;8.027670417;3.032833082;10.1421033;14.61923511;6.589123148;1.237923332;15.6136615;14.53815091
-9.230721279;-5.018422239;-21.41080915;-0.409311628;0.268046965;-2.211232896;1.179192992;12.08588481;6.545398762;26.56342741;-25.06220651;-15.14862523;-32.01800114;-5.171602464;16.75696817;3.437000872;-16.69063633;-2.152056456;11.53514558
-27.93237539;-17.36452658;-44.247275;-4.016726276;-2.695061121;-4.611164041;-8.025962219;6.513924881;-0.055495424;14.55992827;-14.14971152;-20.13604078;-44.6380899;-2.670957861;10.06195069;-1.219293468;-21.96298282;-5.288920985;2.309901057
-26.11432698;-8.487177744;-41.66431084;-2.466519019;1.435095199;-5.347662657;-9.171149943;-1.328683542;1.897402056;1.5103657;4.153338884;-5.068326412;-26.26386208;15.31451991;1.802279255;-2.852858307;-11.49134268;8.013172144;-5.280292904
-6.848708848;10.56594494;-18.84122628;2.402313477;8.496980646;-3.825627236;-0.883216431;-3.490120229;11.82930623;-1.302929464;13.50556285;14.72192885;4.868992997;32.29708876;-0.676356381;0.548538467;5.504476669;24.08403387;-4.8687035
12.65851586;22.21832342;2.654669667;6.007918904;12.47221967;-1.623176439;10.10834766;1.85066772;22.39197091;7.660241247;5.903981236;21.57329814;21.41958627;30.89380488;3.721057988;7.026950692;16.30386663;26.00579103;3.295161986
16.41;17.53442275;4.907828906;4.683871538;10.36462839;-1.117113896;14.87392092;9.345561303;25.55562158;19.9571925;-12.0902858;11.06036971;10.68467983;6.953557846;9.693030249;12.4885878;15.15513291;7.995346002;12.78281467
2.505939185;2.557385994;-11.47494444;-1.178038371;4.446003755;-3.162572077;10.00530532;11.85673992;19.28947535;25.26594982;-25.42588781;-5.165221396;-15.66544254;-26.72038541;11.14219719;14.18883015;6.826631562;-19.92016172;16.39868228
-16.69599006;-8.60195284;-29.6641359;-7.230503194;0.117328006;-6.037455608;0.504112856;7.131512995;9.10386346;20.31665763;-23.48300038;-11.05187495;-32.98651109;-49.86514642;7.046969128;12.85124095;1.085735512;-40.1238154;11.8956731
-26.12843375;-6.837489977;-32.57104571;-8.640138098;1.270470353;-6.765710493;-4.536552753;-0.206802698;3.238728781;10.99731295;-8.897853095;-1.39194986;-25.23408587;-49.75531459;2.190852947;11.65198949;3.642484198;-41.10603517;3.311322196
-20.65981327;4.44801262;-17.68145873;-4.159339313;7.070078125;-3.74051766;0.364927084;-2.937902741;5.764884091;6.36318752;4.965497417;13.13054329;2.082313159;-29.91131813;2.243369908;13.05846505;11.55541283;-25.41748592;-2.859473922
-8.19227195;13.4463763;1.876646045;2.613206474;12.79746895;1.69494905;12.5788957;2.212504452;13.5310569;10.34521507;5.550444279;15.53666491;27.91164781;-6.170941793;7.907011579;16.36124918;16.63024905;-6.18781401;-3.098697984
-1.451109784;11.21986201;9.883112927;5.948108758;13.92189085;6.193532161;23.73357371;11.63263092;19.38358144;18.57979586;-8.114237141;-1.81016929;34.30274946;6.007445195;13.67904658;18.09089271;13.21456226;3.895782908;0.737816457
-6.409547704;-0.235761944;1.32447967;2.534130718;9.871440074;7.125809245;26.69038542;17.99854577;18.59248212;22.85592106;-24.31965519;-29.44338045;21.03457459;2.568424099;12.53455784;14.96990642;3.264553217;1.733375609;3.79317372
-17.54790195;-10.09269946;-14.08483951;-5.846708911;4.336700268;4.724439812;21.09150541;16.62568419;12.77405986;18.82355676;-28.03100903;-47.8801276;4.093178044;-8.092065413;2.390224177;6.849238016;-5.579398679;-5.748433411;2.887447134
-23.53606816;-8.622352131;-21.45826581;-13.69697574;1.977407585;1.781878605;12.95749334;9.36416964;8.017769783;9.919704272;-12.9261827;-43.56120411;0.464983408;-13.77083153;-11.51684885;-2.891409857;-6.806597069;-8.95171643;-0.76456931
-17.69110591;4.117298698;-14.13198179;-16.07667414;4.4521078;1.179379157;9.082971585;2.724297577;9.12534379;4.119039765;13.5505974;-20.02611613;13.31497744;-8.851826029;-20.63619594;-9.814837803;-0.504804892;-3.797918752;-3.046398125
-3.798180924;18.38359779;1.072348828;-12.28215308;9.150672605;3.420890042;11.32540603;2.057438982;15.2096717;6.62420794;35.81310095;5.068737634;30.36690232;2.087999611;-20.11802918;-11.6867712;7.194313793;5.868211713;-1.031584775
7.509890836;23.17596307;10.78804166;-6.045636228;11.5756469;6.308130256;15.63248078;6.989563465;20.517103;15.12528933;41.52565929;14.29898453;36.00122888;9.602319304;-12.73;-9.852092157;9.827944653;12.65618939;4.165337272
8.138951494;15.35600999;7.346847195;-2.318868926;9.18296655;6.977837813;16.26750119;12.02900071;19.60556723;21.79050356;29.72;3.925559817;25.54704024;8.196600632;-6.244669874;-7.719013507;6.161934698;12.17055067;8.329867085
-0.767614735;1.680392519;-4.809192502;-3.452417272;3.369809969;4.451829555;11.17780292;11.62669309;12.20149642;20.09248346;9.920743513;-14.55215275;8.976911073;0.827669423;-6.583506216;-7.766000528;0.766271577;6.095081147;7.930019531
-10.43039108;-7.462178508;-13.85262628;-7.852388883;-1.942328782;0.456405632;3.723197625;5.125277826;3.48325613;10.38731105;-5.93926443;-25.23452537;1.278348582;-4.371076458;-12.71723659;-9.602445331;-0.536867805;-0.049951219;3.273543385
-12.42119022;-6.658775975;-11.56455822;-11.90849438;-3.693666297;-2.142245184;-0.537101522;-2.696178414;-0.327950838;-0.545124078;-11.76029405;-21.14916396;8.745372951;-1.673594634;-17.76215177;-10.57376068;4.02206002;-1.6948787;-1.765864851
-5.735999923;1.017312585;-0.4517883;-13.22851366;-2.029887565;-1.823757852;1.120900552;-5.792850072;2.889749293;-5.366414325;-9.565589039;-8.766254487;23.63801868;7.24228004;-15.26893659;-8.214294957;10.84784148;1.758045055;-3.129648424
3.04200887;7.976087371;9.13403115;-12.34515393;0.289786578;0.397787577;6.287196537;-1.969127105;9.700235065;-2.176631554;-5.372906523;-0.711245876;31.64862012;15.07255987;-5.171204175;-2.412164656;14.55164229;7.645136365;-0.011894507
6.062507519;9.259211304;8.742849062;-11.67274031;0.633615318;2.06853673;9.758242444;5.474803626;14.34985642;4.470259461;-3.321207854;-4.001838444;24.98829225;15.51598548;5.798261619;4.420810465;12.88880817;12.93452718;4.630190802
0.994514343;6.267010186;-0.664455286;-12.99528171;-1.204728414;1.597740571;8.222478116;10.78688098;13.62675158;8.0560783;-3.191903314;-14.42075995;9.163258451;8.763097932;9.556729159;9.115797492;8.545025862;16.33362443;6.788388893
-7.651491601;4.229070122;-10.07281555;-15.91012368;-3.141854062;-0.336403028;3.039334435;10.64742147;9.089797199;5.834058457;-2.545306643;-21.45581884;-2.391802427;1.166486651;3.243023547;9.879446948;6.355781141;18.15923106;4.815241178
-13.30114055;6.540933674;-10.97400158;-18.53163692;-3.037065532;-1.499627029;-1.236678141;6.651985601;5.032425725;0.76686581;-0.394161356;-18.57448349;-0.572626067;-0.356768602;-8.701255729;7.164749077;8.741585209;18.98922278;0.554976221
-13.36794097;11.65311695;-3.066857171;-19.54974995;-0.811635544;-0.211686823;-1.047594522;3.485191614;4.407090876;-1.705784025;1.50547169;-9.175630125;11.47372908;5.813755003;-18.54484291;2.897037265;13.60178825;18.98867041;-2.600456375
-11.0029523;15.24951805;5.824421718;-19.52352911;1.514199336;3.096825311;3.124532105;4.692031105;6.536117239;1.19194721;0.747247345;-3.013013881;21.70414974;14.83477422;-21.69415459;-1.0042035;16.460983;18.48420785;-2.772552737
-11.29346224;15.09753402;7.207987168;-20.1405116;1.809143306;6.269470929;7.496889696;9.853354155;8.482915224;7.234975796;-2.778179751;-6.783284682;20.38911597;19.67156777;-19.93011726;-3.570795757;14.71188037;18.5723766;-0.978288832
-15.84972046;13.40548644;-0.297594279;-22.21090692;-0.094580813;7.35;8.626010951;15.44257029;8.434687413;11.55070435;-6.339991768;-17.72924832;8.822234712;16.99128466;-18.86728276;-4.743361484;9.990249944;20.37565922;0.247045879
-21.0023684;14.15439781;-9.928491402;-24.43746613;-2.195600875;6.278511117;6.512431061;18.25479564;7.664494356;11.22054842;-6.90860761;-26.05313101;-2.224133492;9.766834704;-22.21867214;-4.84397205;6.584743387;23.2419236;-0.517103178
-21.23377196;18.05163099;-13.17363607;-24.30400232;-2.148351354;4.850526231;4.38348394;18.15028493;9.16595258;7.816573886;-4.26043474;-23.74958525;-2.56621034;4.687448041;-28.16587166;-4.297493979;7.468050313;23.86818666;-2.24998476
-14.50368227;20.41795722;-7.542051215;-20.4077052;0.611862048;5.037929805;5.495152815;17.7398654;14.3422233;5.688926801;-1.465694245;-11.72522302;8.151702552;6.763948303;-31.06901498;-3.768578208;11.62374684;18.00612175;-2.669176273
-4.425708894;14.77875869;1.382742431;-14.10767068;4.412593221;7.226712384;9.98122433;19.56241077;21.04440316;7.80750238;-2.085233568;1.144605611;20.3543087;15.49828054;-26.85938552;-4.24465883;15.02555945;4.050451483;-0.688421211
2.730145974;-0.564330725;5.260306169;-8.851705499;6.93155291;9.93480376;14.62670985;23.52628424;25.00567294;13.09748529;-6.63324478;5.936833737;23.38273941;25.32832902;-17.15024734;-6.608162897;14.2519562;-14.41271006;2.276177296
3.412166617;-19.01372095;0.614479969;-7.577187018;7.295494664;11.18152672;15.70465274;26.97012783;23.49984257;17.64179216;-11.69737305;1.299615927;15.04403534;29.53084924;-8.292375485;-10.87924736;9.423563464;-29.77650959;3.464543004
-0.393871246;-29.09304983;-8.211713389;-10.34187422;6.717809288;10.20101225;12.25683974;27.18039745;17.88922428;18.45568368;-12.7144519;-5.949283707;3.24327366;24.39532343;-6.154408369;-15.8568258;3.933957411;-35.09834358;1.35450258
-3.385510318;-22.7588765;-13.26535403;-14.23293408;7.113743968;7.961828794;6.895967175;23.96839524;12.6483827;16.21734742;-8.004129086;-7.415334811;-1.501260461;10.90376518;-11.22460555;-19.68929925;1.427349187;-28.94447817;-2.751800685
-2.015546369;-2.052420049;-10.28267958;-15.69201307;9.054577531;6.124391156;3.52369539;19.95061638;11.62537385;14.43858184;-0.435930992;-0.672252025;4.40878991;-6.511198014;-18.33181421;-21.0752187;2.85586131;-16.49733926;-5.674335426
2.327818644;21.48703889;-2.356667112;-13.34497608;11.05003906;5.506706156;4.101192207;18.33294564;14.81973842;15.94500702;4.802467801;9.000690709;14.74871368;-22.53497447;-21.19052834;-20.12397993;6.140260837;-5.82179954;-5.049236366
4.909378361;34.4673562;3.207428319;-9.015804201;10.89456473;5.507469554;7.305132811;20.22678183;18.51340589;20.01553042;4.382681217;13.8790229;19.57003906;-33.03309893;-17.75660429;-18.1043486;8.436277424;-2.09424505;-1.366119436
2.400603441;30.5060859;1.72647556;-6.163012902;7.84772476;4.95138047;10.04567268;23.83432746;18.59534421;22.85409412;-0.682686775;10.88771689;14.41704743;-35.94298522;-11.74980871;-16.26776697;8.711398505;-4.301779645;2.482699099
-3.726544161;13.6647323;-4.704331075;-7.123286331;3.58182234;3.446360038;10.23322419;26.07415902;14.09810663;20.9473635;-6.287241838;4.013768878;4.139126122;-31.4266978;-9.13931195;-14.78614797;8.314792161;-6.90665302;3.732637343
-8.38581845;-5.614883213;-9.438827828;-11.43952655;0.918720059;1.88266867;8.237891731;25.0788626;7.852251131;14.22818156;-8.874386062;0.154354707;-1.98925105;-21.75839962;-12.79410132;-12.76754118;9.294616473;-4.903131243;2.084592983
-7.584755674;-18.22054579;-7.637382207;-16.49886842;1.412928047;1.573417775;5.932556391;21.40083516;3.813349156;6.207652394;-8.12452336;2.623277869;0.967892664;-10.7802078;-19.99452607;-9.332376384;12.29812286;2.003696641;-0.224236152
-2.310063477;-21.55652446;-0.781115646;-19.71805724;3.947717915;2.88379447;4.554748153;17.10910238;3.583539115;1.045673197;-6.438876641;8.446780417;9.220726121;-2.528334973;-24.86087001;-4.73777778;16.06010869;9.456135368;-0.628330414
2.037855059;-18.90897844;4.779415066;-20.33687567;5.656932257;4.724138258;3.620231718;13.87946787;5.259074666;0.261147777;-6.058878369;11.72280487;14.22448602;0.692232284;-23.41537888;-0.46810578;18.76420291;12.43203025;1.313946248
0.24945102;-14.83562525;3.783601298;-19.44643337;4.415495063;5.474077237;1.902529609;11.90136233;5.507262446;1.964898206;-6.790844435;9.524033335;11.08905338;-0.399786683;-16.80499354;1.837990891;19.74768701;9.597872362;3.448120494
-8.125829549;-11.26796833;-3.041364828;-18.54468657;0.720535916;4.517847335;-0.671910299;10.41439014;2.813920336;3.075410234;-6.528529334;4.586627421;3.378188845;-2.587387842;-10.00974009;1.651754504;19.85643146;4.332268681;2.946211449
-18.29414018;-7.422562492;-9.634398004;-18.12766872;-2.698453028;2.926315848;-2.329076968;9.046150212;-1.139256267;2.272934725;-3.913124658;2.328738091;-0.294159541;-2.449917796;-7.417300071;-0.170352045;20.26022169;1.704896389;-1.113874223
-24.20565187;-2.562169045;-10.13147168;-17.56638293;-3.202129503;2.5616899;-0.885179775;8.447151163;-3.171813771;0.942123368;-0.323245457;5.295362889;5.312133514;1.131147934;-9.303346677;-2.365086969;21.0974814;4.142758311;-6.814981104
-23.46;1.906355193;-4.155381066;-16.1603232;-0.461065979;4.350607794;3.938744087;9.574678083;-1.689765902;1.401597862;0.978873226;10.57450979;16.61430926;6.186555954;-12.23143459;-4.556361957;21.37;9.506009913;-10.92317522
-18.86634988;3.355855429;2.939386182;-14.14055311;3.349642418;7.305872816;9.626493159;12.42935221;1.780292839;4.304461996;-2.093628011;12.75576074;24.04935679;9.265802715;-12.73402036;-7.580673911;20.09680897;13.1072581;-11.50278629
-15.48024827;0.827230369;4.990220368;-12.54457026;5.499801578;9.265930515;12.51882065;15.63165929;4.035180365;7.785146777;-8.108432541;9.502135155;20.79094407;8.197641779;-10.71430473;-12.44916447;17.40171756;11.82472608;-9.352229384
-15.96464123;-3.342630501;0.553488273;-12.08643072;5.043725029;8.777524019;10.75423553;17.38280573;3.219126553;9.15274021;-12.91179844;4.116673333;9.306059559;3.83459911;-9.411237504;-18.8883842;14.36121763;6.770732036;-7.103351535
-18.46163881;-5.16815443;-5.965789787;-12.20026724;3.509036632;6.464699566;5.908163772;16.94581439;0.54465025;7.449327398;-13.09762348;2.290579697;-0.494825595;-0.535372255;-12.03406109;-24.92439617;11.88136732;2.313926306;-6.900058594
-18.72623537;-2.608847979;-8.47510605;-11.31994041;3.405809755;4.616597786;1.765330669;15.21801579;-0.93635314;4.378463167;-9.069705416;5.943530476;-0.086701768;-1.541527951;-18.27325989;-28.11760383;10.00188186;2.367009765;-8.732599802
-14.36955479;2.353742764;-4.732528098;-8.281221784;5.952025948;5.278791885;1.194508904;13.81693559;0.63576166;2.702768168;-4.807222057;10.23320814;9.837872337;2.018355167;-24.01909185;-27.52553241;8.525943456;7.091639124;-10.77661179
-7.249048279;5.367485127;1.780368852;-3.614318343;10.03553891;8.476262735;3.842771105;13.54541909;3.974091919;3.651012808;-4.370812397;7.205406212;19.83104848;8.579547489;-24.68843343;-24.65969537;8.187915073;12.74710205;-11.22712835
-1.874745916;3.773246362;5.220857688;0.499960749;13.25098323;12.12057941;6.690105757;13.72251712;5.684641973;5.820337828;-8.212575439;-6.639393656;20.28826017;14.93807749;-19.25302439;-22.43018205;10.5681725;14.78630022;-9.850610094
-1.391465529;-0.675133377;2.76322458;1.689884046;13.98025387;13.70463045;6.958408676;13.03481567;3.426334598;6.613995035;-12.65657556;-25.66825737;10.49661576;17.94152522;-11.36549635;-22.79104393;16.02245195;11.68073429;-7.903541676
-4.847145641;-3.124782389;-2.94750034;-0.900489623;12.61937302;12.33635353;4.735213179;11.06265915;-1.715645042;4.81147063;-13.12335321;-38.11120198;-0.230520053;15.59003906;-6.511725515;-25.02027054;21.27417214;6.401063847;-6.684039899
-8.175554315;0.034766887;-6.387724868;-6.04549181;10.92539077;9.376097914;2.903820169;8.92689805;-5.918021263;1.770217795;-8.26707386;-34.9083332;-0.71156637;7.362946482;-7.606729697;-26.16016832;19.60213918;4.324476489;-6.234125511
-7.885582192;7.721442706;-4.258790469;-11.4074741;10.21076115;7.168456711;4.397491597;8.313280073;-5.879516611;0.069322108;-1.290499711;-17.21012717;11.7543248;-5.660373259;-12.79773372;-23.37456474;4.947622579;9.072694633;-5.45200718
-4.045953632;14.86285217;1.630139788;-15.14407722;10.1290676;7.011486086;9.247727482;9.730726173;-1.777251378;0.888932906;2.812680387;3.903920362;28.2447609;-20.56998605;-17.28025392;-16.33482281;-22.36364853;19.33961384;-3.424257017
0.072972523;16.77349735;6.242578982;-16.81735088;9.175932273;8.1343302;14.15299787;11.71363795;2.76605924;2.700221021;1.665503046;15.49834958;35.51733552;-32.82106377;-17.44186844;-7.659830011;-53.05317164;29.08091227;-0.576616691
1.202447858;13.30305518;6.059738326;-17.02367247;6.388658114;8.529409558;15.0895765;11.90571734;3.754903644;2.655079312;-2.393861826;12.11671267;27.68617454;-37.66359828;-13.7085231;-1.022688413;-72.80010808;31.09765618;1.566883609
-0.937546732;8.937831949;2.229641748;-16.35482814;2.598921623;6.850019531;10.76818619;9.208888438;0.263816645;-0.518978912;-4.45067029;-1.101829982;11.99360426;-32.67668514;-9.733658598;1.531358758;-71.07683436;21.72;1.833233944
-3.599990126;8.661582557;-0.727342601;-14.81271978;0.005047943;3.683534278;3.932123876;5.067315758;-4.772708098;-4.863962922;-1.510829354;-13.5868207;3.195951144;-19.85071135;-8.843636269;0.876510569;-48.83392012;3.52475123;0.636389271
-3.829345773;13.29231395;0.684229328;-12.20219184;0.385659382;1.107628258;-0.675097559;2.584366611;-7.105650818;-6.517034983;4.675730343;-17.88171095;10.88542474;-5.262651851;-11.01029949;-0.275717731;-18.8850006;-15.75297908;-0.288923684
-1.393675167;18.60539789;5.614565957;-8.952296892;3.53859985;0.962149425;0.016453144;4.060078125;-4.79725763;-3.041392391;9.034975829;-14.25119018;30.40607862;4.170400931;-13.02768293;0.176728107;2.083729375;-27.53901623;0.471486797
0.954256455;19.18606238;9.707412759;-6.337439448;7.349580207;3.359828602;5.156203849;9.01019927;0.239021644;4.160134877;7.610078125;-8.080078125;45.32268751;5.000015259;-11.63912855;2.011347923;4.454651229;-27.32686207;2.493699038
0.12696364;13.60242834;9.247445306;-5.664908553;9.450350457;6.684154101;10.94038179;14.4167656;4.04851165;10.60809456;1.082443299;-3.434878466;39.86348451;-0.514216752;-6.739970849;3.08026844;-8.465789074;-17.09629698;3.623440688
-4.224477968;6.114263722;4.694306024;-7.090165105;9.032384267;8.983094445;13.81227827;17.07479462;4.082537533;12.18924924;-5.767152496;0.676400039;11.44455676;-6.158360318;-1.764898691;1.356407839;-24.01348766;-3.712080606;1.776997489
-9.092020202;3.092767119;0.300519465;-9.232679518;7.282754936;9.482348195;13.10014778;16.07809317;1.192179229;8.383333414;-8.183358432;7.86342558;-26.72531573;-6.428473604;-0.900205288;-3.209685648;-30.22420991;5.627476173;-3.081886465
-10.55572737;7.088579594;0.188462492;-10.1380097;6.157729933;8.935823176;10.9680137;13.34977812;-1.508553595;2.509151579;-5.487517095;18.50249404;-54.8939163;-0.609203552;-5.55288945;-8.597577142;-24.4577915;7.837619955;-8.571774013
-7.097486769;13.81621039;4.548097122;-8.893080756;6.654651842;8.63990724;10.00964038;11.80821433;-1.718519322;-1.19626862;-1.485898447;26.76501805;-60.41421944;6.934604446;-13.11782161;-12.36972691;-14.04722474;5.281172423;-11.56375026
-0.825779681;15.04704076;9.475281364;-6.499444172;8.097417084;9.11851131;10.82045304;12.79114943;-0.067896127;-1.10891107;-0.935523139;24.24031197;-45.32890263;10.50027308;-19.04867731;-13.55682135;-9.046253014;3.170939919;-10.54007813
4.412065346;5.373356208;10.5739091;-5.150456623;8.953262031;9.689836993;11.70155955;14.95748906;0.643009579;0.673592974;-5.271738805;7.521238397;-22.87871219;7.800306591;-20.40737092;-13.158155;-13.49755496;5.101944493;-6.664310551
6.244784032;-12.6671171;6.971462708;-6.42506189;8.30773688;9.233764714;10.56902521;15.54531329;-1.703353577;0.491964107;-11.40574814;-17.09488638;-6.851871324;1.845986841;-17.90475235;-12.9436121;-22.4884998;10.20876755;-2.692070375
5.4268406;-29.50370256;2.054198566;-9.901930381;6.60811282;7.358662399;7.126493596;12.79889247;-6.324616849;-3.473489768;-14.59656192;-36.6543098;-2.63481725;-1.577371789;-14.87036866;-13.7443959;-27.05301662;14.20379023;-0.71053027
4.581639721;-35.05579893;0.293368939;-13.40209776;5.060241689;4.844040018;3.225833601;7.415744968;-10.08249316;-9.593581063;-12.74121959;-40.57058175;-6.216091346;1.256978401;-14.24998225;-14.7858196;-22.273392;13.4328815;-0.656784151
5.405924216;-25.91882393;3.138971539;-14.70169812;4.353631414;2.961075584;1.123328104;1.819361843;-10.34056349;-14.30449972;-8.200725126;-28.41907202;-10.21202597;8.88778411;-16.28645538;-14.57861359;-11.44849603;8.501906697;-0.798646975
7.048088845;-7.759420818;7.772676806;-13.29461587;3.981433826;2.331686456;1.327084988;-1.971168536;-7.515673786;-15.25949355;-5.555709904;-10.00347528;-10.65476127;15.83131235;-18.73713113;-12.43794112;-2.896458617;4.189089834;0.413194767
7.154322398;8.71718872;9.821095588;-10.73106572;2.797063502;2.392828753;2.085991626;-3.904161518;-4.927287065;-13.24149308;-7.375858134;2.419783568;-8.938793098;17.07283423;-19.16920826;-9.164923337;-2.468772436;5.366557208;2.88641768
4.491364356;14.95405689;7.459635963;-9.265628812;0.236805934;1.940941114;1.008832037;-5.529729983;-5.976513926;-11.19078201;-11.85603233;3.318606618;-8.529703335;12.18409438;-17.14621197;-6.259566764;-8.468612322;12.18114939;5.126128278
0.544119798;9.538677794;3.084555547;-9.972153504;-3.002723999;0.226396712;-2.687419401;-8.154835845;-11.11580924;-11.36116159;-14.45159563;-3.004288186;-10.65377401;5.709652685;-14.41702148;-4.437110301;-13.35076911;18.78030902;5.84702274
-1.546386515;-2.184526113;1.025077385;-11.90065686;-5.5161032;-2.409956586;-7.370619669;-11.30967616;-17.29871211;-13.26549916;-12.02250499;-7.487298894;-13.25603873;3.535945602;-13.12891721;-2.888996629;-10.52652138;17.2628839;5.353149158
0.185449976;-12.79181337;3.452380234;-12.92959682;-6.470445466;-4.898839972;-10.34802723;-12.98429969;-20.41609561;-14.25253331;-5.747798944;-4.695948473;-13.64032029;8.174514365;-13.82140189;-0.049658947;-0.187784808;4.182246399;5.321059065
4.536621773;-17.78;8.30042705;-11.53123947;-6.40225318;-6.40234036;-10.11348396;-11.42815772;-18.59308038;-12.09030548;-0.201202744;2.905824466;-11.50888138;16.65154963;-15.01424342;4.775348015;10.90075421;-15.58383105;7.147591847
7.893280589;-17.44648296;11.1301586;-7.95501462;-6.744920951;-6.946868647;-7.437158121;-6.848617523;-13.49259286;-7.108073711;0.569699339;8.232185236;-9.09941695;22.51752603;-14.65679936;10.4083445;15.28049413;-31.13480396;10.41277748
7.175049995;-15.15780839;9.209702684;-3.909398004;-8.47805286;-7.169468846;-4.373564887;-1.425859741;-8.575957097;-1.914393043;-3.534484573;6.981918955;-8.434251131;20.28759966;-12.03463352;14.41431367;11.06389773;-32.8029697;12.96548334
2.412938325;-14.17250972;4.038477263;-1.124360219;-11.11808609;-7.494769179;-2.219024757;2.406658492;-5.967472864;1.013873816;-8.733295539;2.155832218;-8.79625055;8.982180869;-8.416023394;14.90529295;3.159874749;-19.05122032;12.68132031
-3.28053286;-15.57353303;-0.011540041;-0.05679161;-12.98130464;-7.601691354;-0.402773668;3.889240508;-4.747584348;1.607765795;-10.76478643;1.425992259;-7.292523314;-7.536890393;-5.944308827;12.0327602;-1.359495431;2.290679681;9.387054037
-6.278433515;-18.25673769;0.318843708;0.246829667;-12.51106827;-6.734826797;2.633010564;4.352478169;-2.142802541;2.219688112;-8.520437828;9.652862755;-2.09162838;-23.1690885;-5.852415415;7.889874159;0.574738334;19.47471212;5.216445215
-5.270277974;-20.14717625;4.230068359;1.179409139;-9.516846363;-4.567941461;7.437293364;5.766545729;3.547822077;5.33392417;-4.720385895;23.32464013;5.006294637;-32.9230781;-7.584995075;4.881965125;5.790804182;24.82318303;2.995161088
-1.95880367;-19.37174733;7.651163344;3.435437979;-5.277400306;-1.756636591;12.42255882;8.744338024;10.98185438;11.0478475;-3.17906038;32.14704075;9.559706753;-34.86312764;-9.496824721;3.913138994;8.302770406;19.24818025;3.977440337
0.777335042;-14.90209309;7.014977066;6.628454067;-1.494771499;0.420054932;14.82463346;11.80505008;16.54797866;16.61984361;-5.271086812;26.84265215;8.441476067;-30.05246095;-10.3761613;3.87075868;5.031575026;10.22295542;6.845984651
1.410073242;-6.955539108;2.542435931;9.787940648;0.915328765;1.070007324;13.01461252;12.57301238;17.20068589;18.53519074;-8.824879695;6.835557031;3.043556498;-21.35347511;-10.40892139;2.77415063;-1.440807754;5.368337584;8.816130157
0.675758722;2.681361015;-1.969145623;12.09369594;2.152687069;0.44478314;8.090179635;9.860954795;12.8622201;15.31530519;-10.35639568;-18.48508699;-1.569991898;-12.19114222;-10.8344629;-0.432036373;-5.449447162;7.02345246;7.896499159
0.237274409;10.88277314;-2.63567197;13.16031701;2.831413772;-0.273971319;3.217218336;4.804374947;6.342921044;8.675647081;-8.475915064;-35.9497481;-1.111964583;-5.644503878;-12.75796386;-4.938618354;-3.601726429;11.82392149;4.409469326
0.612342666;14.51408753;0.963220184;12.80124073;3.074314069;-0.005847794;1.166898511;0.05113154;0.96272424;2.123639733;-5.268733035;-37.32979598;3.904796203;-3.604214398;-16.24126606;-8.698903973;2.090818164;14.81592504;0.563412493
0.505986095;12.46841587;5.421920006;10.7897232;2.363717586;1.286454745;2.12906862;-2.295940133;-1.962323499;-1.703298715;-4.36574752;-24.02107949;8.485892089;-5.940620717;-20.37527968;-10.01090263;6.13434013;13.98549377;-1.448285018
-1.771140955;6.913270224;6.644643232;7.081101543;0.297484104;2.589030369;3.693379777;-2.231643488;-3.618293241;-2.691870887;-7.489199547;-4.792250041;7.815468011;-10.27573418;-24.05652304;-8.723273604;4.662303599;11.31505682;-1.149083375
-6.223360085;2.33399023;3.590058594;2.33956116;-2.559557489;2.77104634;3.021006499;-1.624701057;-5.937399216;-2.677267675;-12.66811879;10.74023768;2.089431111;-13.04515131;-26.62362122;-6.168750272;-1.021977386;10.06022853;0.10284048
-10.58104861;2.574649852;-0.799149186;-1.900213529;-4.700434395;1.618726408;-0.667055223;-2.491342008;-9.370526232;-3.426979065;-15.79986677;17.51416483;-3.090834194;-11.63639872;-27.8385964;-4.052668062;-5.706916711;11.39921863;0.524141298
-11.98285423;7.967517847;-2.312665002;-3.913848879;-4.730581296;0.036557831;-5.411282615;-5.278903215;-12.28742303;-5.112005055;-14.19391181;15.85506059;-1.46766112;-6.224988476;-27.49234417;-3.325364292;-5.114181515;13.79209939;-0.498978532
-9.514326585;14.9757975;0.662031899;-2.991952067;-2.569968078;-0.761282825;-8.175083125;-8.563613492;-12.50330436;-6.521879345;-8.939389542;8.634174811;8.076898689;0.24981608;-25.31416456;-3.90448792;0.182067396;15.34221658;-2.007139
-5.247169556;18.92835134;5.64682186;-0.196077481;0.331556513;-0.332592618;-7.361972611;-10.28608721;-9.439193354;-6.550078125;-3.997244356;-1.667399329;19.99900362;4.238080953;-21.45883696;-5.242127663;5.366240772;16.2874548;-2.477176708
-2.676202958;17.7958771;8.290587595;2.125306485;2.077855167;0.617136208;-4.034308754;-9.367527148;-4.866026575;-5.348285786;-2.844921274;-13.42289656;26.49762819;4.313465089;-17.07141925;-7.002914122;5.926209592;18.63314788;-1.220921086
-3.801122735;13.87297608;6.263327407;1.88405531;1.842626272;0.899215208;-0.88900532;-6.359646888;-1.521472624;-4.020507553;-5.646705045;-24.46612777;24.12634598;2.241352423;-14.13245923;-9.170795533;1.905536864;23.03091381;1.088147497
-7.40088866;11.83586788;1.305275751;-1.260630261;0.502459729;-0.060563966;-0.003903561;-2.747883951;-0.847594979;-3.256397157;-9.384927567;-31.44176668;16.71853873;1.372837685;-14.35499275;-11.59923165;-2.088719787;26.24207313;3.124566193
-10.07237288;14.7159222;-2.375840431;-5.658651563;-0.197202818;-1.682371689;-1.336797822;0.292271944;-1.87561539;-2.375816699;-10.70716954;-31.43608656;11.89010704;3.634156424;-17.85693552;-13.63409042;-1.160514689;22.5156588;4.082130047
-9.184364622;21.20980255;-1.853393742;-8.900245008;0.763802324;-2.729565372;-3.151321447;2.541019992;-2.207409617;0.146169041;-8.866207259;-24.60424727;14.1662908;7.726691949;-22.74564907;-14.36502484;5.234952857;8.603319845;4.196489058
-5.19035387;26.69351761;2.020136958;-9.561101109;2.730459949;-2.386845252;-3.779629233;4.347092449;-0.144274127;5.075222057;-6.162233142;-14.96031627;20.96250265;10.25414674;-26.14652834;-13.3854479;12.56928579;-11.82234338;4.218898462
-1.284685724;27.12973704;5.555360942;-8.084093083;3.929677466;-0.954497452;-3.030338094;5.794312807;3.961002313;11.25270346;-5.632192063;-7.926129894;25.20916416;8.96675212;-26.0410022;-11.34136992;15.16054109;-28.92770914;4.464579349
-0.704411739;22.5067106;5.653944745;-6.148455731;3.074893894;0.442250101;-2.043252349;6.37481807;8.253837622;16.07483526;-8.201027233;-6.34609582;22.37460017;5.300078125;-22.56314075;-9.638708435;11.21903571;-33.12653117;4.420247099
-4.019202094;16.80669431;2.569396761;-5.135356375;0.620821582;0.841099299;-1.922360609;5.536515879;11.17753837;17.35055644;-11.89480624;-8.414791468;15.40928309;3.737530108;-17.7906855;-9.415691546;4.456355062;-22.41156847;3.290756117
-8.722031185;14.51591934;-0.449228011;-5.016845388;-1.447642847;0.2369247;-2.580363282;3.541848966;12.77736231;14.99671594;-13.74427239;-9.49698137;12.67737099;8.12134742;-14.24563406;-10.60188861;0.797703744;-4.384937563;0.915653328
-11.39510948;16.72592009;-0.194303839;-4.576061293;-1.148870491;-0.497463754;-2.911735742;1.704141773;14.32977561;11.11859811;-12.54127564;-6.358807329;20.13396168;17.76856256;-13.28824458;-11.8972112;3.169404383;9.242977833;-1.882673188
-10.50775694;20.24368231;3.616174127;-2.696539021;1.918108419;-0.43992976;-2.051913538;1.609753828;16.75871673;8.397414358;-9.898665061;-0.06695535;34.46307665;26.75285298;-14.54714352;-11.75687814;9.063581927;11.55241865;-3.90217913
-7.446154722;20.48017991;8.19733079;0.444425979;6.256963303;0.578098658;-0.413084692;3.88153912;19.45097906;8.130584961;-8.695018278;5.067053729;43.65194028;27.40656085;-16.58263527;-9.600114327;13.04173214;5.397110051;-4.566483524
-5.014381233;15.55927761;10.31262913;3.321372797;9.638587833;1.891701382;0.574742985;7.514693338;20.67245186;9.500116883;-10.40237228;5.544435543;35.44788252;15.74714058;-18.00954231;-6.240228334;11.84462308;0.228608745;-4.376806864
-4.865832833;8.028041903;9.164408731;4.185912091;10.73498127;2.646643218;-0.199356947;10.38406774;19.2274109;10.53387427;-13.77242422;2.006982874;7.333511007;-5.158482181;-18.13827356;-3.173283236;7.418936326;3.46416059;-4.368238457
-6.159528615;2.684634754;6.929804143;2.417503526;9.889938872;2.522054923;-2.410063477;10.56930335;15.78062555;9.806688136;-16.04445853;-1.281377155;-30.07894178;-26.50027707;-16.86296526;-1.32178403;5.093449643;13.92026637;-5.074461075
-6.524944044;2.460891974;6.563681708;-1.004029926;8.51241926;1.876967051;-4.51898974;7.505875739;12.53630829;7.435941774;-15.49923232;-0.399090388;-59.35087646;-38.91078434;-14.29675282;-0.287758136;8.584019096;23.13580124;-5.983038785
-4.331499232;5.973095713;9.003505118;-4.237737505;7.766433351;1.263255716;-5.18067086;2.170760518;11.48857766;4.694332003;-12.98411631;4.450872363;-67.67436382;-37.95331942;-10.76175636;1.26135607;16.42113922;23.44898888;-6.01155989
-0.177649881;8.841376336;12.37567075;-5.88042579;7.741581683;0.854009062;-4.512756452;-3.678724489;12.80353566;2.802315147;-11.04332271;8.914732598;-54.90451474;-26.25378793;-7.13545962;4.396978978;23.11129978;15.51986151;-4.570704352
3.66630082;7.571208846;13.85964817;-5.802334329;7.730218784;0.371888315;-3.992681959;-8.506809027;14.79970132;2.053840171;-11.52160955;8.418834205;-32.42207803;-11.15953372;-4.931823816;8.908851172;24.02077084;8.211979676;-2.210128045
5.245647305;2.625744324;12.38153681;-4.980760285;7.185787802;-0.444922424;-5.02315488;-11.52390319;15.53563301;1.941220089;-13.8889948;2.586457926;-14.30673407;0.079923285;-5.587481625;13.28545586;19.54513565;10.45386231;-0.21167439
4.509804717;-1.869413815;9.594641012;-4.631898602;6.367426445;-1.374644208;-7.497059147;-12.58480267;14.53816016;1.950892257;-15.81147743;-3.939082953;-7.950378801;4.232156031;-9.238169648;15.70497596;14.74007813;22.12743313;0.529623877
3.159919433;-1.403377335;8.273977522;-5.400058594;6.067329918;-1.797409618;-9.75652006;-11.8668168;13.08341664;2.155904946;-15.38314798;-5.239442249;-10.9258481;2.835964727;-14.02629549;15.26529863;14.71265013;32.47855755;0.317314555
3.050577704;5.46211206;9.692503582;-7.131438676;6.745907163;-1.322980905;-10.07332304;-9.7726964;12.79742827;3.064691074;-12.91385241;0.700955804;-15.37506466;-0.02156048;-16.83537668;12.55112879;19.96611856;28.35842563;0.394377566
4.682887663;16.12094278;12.46788216;-9.166770145;7.970654269;-0.348493682;-8.327772127;-7.070375545;13.92399014;4.973925912;-10.62461496;9.953576796;-15.29920079;-0.862830744;-15.25029848;9.199177013;25.98442642;5.894778896;1.816243631
7.087917332;25.78968745;13.94075949;-10.72466607;8.744871502;0.087011155;-6.291915055;-4.8835667;14.9427555;7.525337101;-10.57581875;15.70894761;-10.65228129;1.235994537;-9.383398804;6.869084633;27.49078144;-24.4143684;4.454095266
9.009693959;30.32253304;12.74552683;-11.08751309;8.43992092;-0.845709155;-6.136905647;-4.228445463;13.97674675;9.902838401;-12.78484935;13.98563146;-5.715836258;4.759265039;-2.066334911;6.369370192;23.48895596;-44.21643793;7.020449611
10.11411328;27.84513314;10.12498928;-9.685990847;7.446968211;-2.917969705;-8.417161561;-5.291986512;10.73317238;11.46372597;-15.27421426;7.133667043;-4.288052426;7.299786481;2.941044942;7.438378767;18.36401197;-40.82208928;8.096863699
11.05436984;18.70710627;8.746312568;-6.329935726;6.905366253;-4.81146915;-11.3446279;-7.060374444;7.141057119;12.22176183;-15.96058104;2.044649477;-6.372983668;7.279834247;3.498137404;9.142841396;17.84377563;-16.9681638;7.256086477
12.43332396;4.858070357;10.14335702;-1.575300933;7.716819355;-5.052702779;-12.09905246;-7.772333857;5.954759591;12.79471933;-14.57931329;4.423425529;-8.911605913;4.878498187;0.479438055;10.49162689;23.39739836;11.18336126;5.310177857
13.80844448;-10.30140328;13.20877923;3.145807782;9.722012259;-3.194468986;-9.136679205;-6.037242553;8.421133521;13.91858376;-12.83745739;13.81249848;-9.116459522;1.864008631;-3.045130615;10.88236641;30.32224493;26.28596984;3.522534234
13.82785559;-21.9675699;15.17397587;6.007222301;11.78228664;-0.242256623;-3.543410521;-1.856184093;13.0180459;15.92079872;-12.6826705;23.4737646;-6.898190097;0.552858948;-4.183328386;10.25212398;31.66254966;22.41196818;2.546118862
11.45237027;-25.1881008;14.17649409;5.780820558;12.70034789;2.078184561;1.735098134;3.235582866;16.42073853;18.44779212;-14.36207546;25.26554956;-4.291004744;2.410342838;-2.28442034;9.000385019;24.80953438;8.019827967;2.049994659
7.120019531;-17.6706907;11.01653788;2.682225495;12.17285432;2.63026852;4.138441677;7.061734304;15.96328836;20.50031111;-16.14190187;15.66378907;-2.939325074;6.992673811;0.85980373;7.768334087;14.84595903;-2.536106165;1.309935297
2.70480368;-2.351829818;8.449419939;-1.649302547;10.96024802;1.663684664;3.312589403;8.116078516;11.58649734;20.75031595;-15.98040978;-1.681371599;-2.44496897;11.94479285;2.68887575;7.108911616;11.08989265;-1.28879284;0.124080601
0.214174907;13.04783837;8.654693516;-5.157180136;10.17103413;0.443342977;1.017754567;6.378099656;5.713246137;18.16774252;-13.57619548;-18.54830482;-1.188011582;14.34495293;1.958147077;7.131033333;19.06401115;7.688317573;-0.871154591
0.327920841;20.44882546;11.2262202;-6.671424886;10.32712481;0.061935416;-0.672413997;3.127639088;1.260004883;12.87256653;-10.81759024;-27.59421442;1.459014514;12.7937138;-0.436919613;7.332029309;34.4082257;13.53082745;-0.80742279
2.023024404;17.23583049;13.55230714;-6.51477027;11.01685451;0.486708976;-1.205391586;0.012432869;-0.473431576;6.739212198;-10.1316253;-26.50382517;4.031375991;8.8226133;-2.406822384;6.84674984;44.25753148;9.439863073;0.477939143
3.543664062;8.781121586;13.24073136;-5.937801213;11.36431828;0.664853986;-1.788565894;-1.884721021;-0.309495058;3.008194555;-12.21574113;-18.22520848;4.281416394;6.275963874;-2.416803885;5.095865235;35.87144599;-0.810314904;2.11761695
3.796393236;4.779253261;10.34578739;-5.866735786;10.81128024;-0.436609918;-3.894752156;-2.361404729;0.139761907;4.573748984;-15.27386188;-7.953366984;1.635657524;8.610398384;-0.530256841;2.438840238;6.380630926;-6.498515767;2.892840138
2.962117687;11.40421556;7.33457605;-6.029941464;9.491222223;-2.807791514;-7.481810462;-1.752052127;0.265144847;11.7375594;-16.54098992;0.297786803;-1.750306086;15.8020375;1.987722346;0.275554424;-33.75848539;-0.320986876;2.346375414
1.934498364;25.34312373;6.820947218;-5.21638328;7.931296229;-5.314287504;-10.63210889;-0.391994485;1.021268216;21.18205431;-14.77022269;5.133336608;-2.589955666;23.31312317;3.929590645;0.339457693;-66.50891982;13.96133677;1.29949234
1.296749473;35.10868784;9.160931128;-2.453143528;6.473000318;-6.63160298;-11.02809511;1.6036822;3.775882854;27.57825733;-11.41810031;7.011932499;0.657148588;24.42501974;5.027650398;3.540529224;-77.31534495;23.69162447;1.232794051
0.886637169;29.54502415;12.13230819;1.912920984;5.025626673;-6.360590985;-8.003360278;4.132744135;8.575830349;27.35842302;-9.394341882;6.824508072;6.355093069;14.76884891;5.735130654;9.165351403;-63.77223595;17.75586606;3.013403573
0.299278755;7.302443123;12.99570354;6.191367683;3.372474133;-5.330039063;-3.341606001;6.792301387;13.51678666;22.02342606;-10.44388491;5.296098826;11.13104872;-4.064106327;6.312775302;15.09606143;-36.1390596;-3.582220355;6.078090635
-0.323581689;-20.46769796;11.03551816;8.472325269;1.656492451;-4.820039063;-0.043900308;8.875137113;15.93284695;17.91983216;-13.50426071;3.28850181;12.86649941;-24.66626739;6.281618457;19.00134481;-9.954375592;-27.94587699;8.822628906
-0.162910238;-37.07236506;8.235467395;8.032209313;0.477981481;-5.398454294;-0.027396706;9.785829366;14.50074802;21.67076147;-15.54929781;1.99742488;12.40430185;-37.98317447;4.879260337;19.70715571;3.616169401;-39.99653592;9.89707997
1.506863789;-32.0799042;7.461253865;5.912813027;0.434263535;-6.401323289;-2.63930207;9.569819332;10.51073436;34.06649881;-14.21650342;2.344307695;12.36236904;-38.78591313;2.090068359;17.78393562;3.167789653;-32.93282734;9.294590101
4.390748887;-8.936794232;9.815863883;4.223540986;1.521156837;-6.511463963;-5.188220647;9.08684419;7.207222228;47.29;-9.90785835;4.062175374;14.27630091;-28.65330043;-0.84503819;14.96416479;-4.582559647;-12.98602617;8.281050662
7.097254531;17.65341442;13.59150771;4.707866788;3.002218369;-4.922475029;-5.025250434;9.591939456;7.659114359;48.66451594;-5.505120586;5.632787358;16.97346925;-14.45042683;-2.125229422;12.88700652;-11.07133304;6.357950709;8.218899634
8.147971924;32.62057219;15.77597961;7.629339537;3.928643157;-2.072726736;-1.484655768;11.92995125;12.75383796;29.33412188;-3.951743018;5.523368166;17.89795465;-3.583237019;-0.839779384;12.14516481;-11.74;15.11378062;9.309737063
7.218999287;31.14191891;14.73563824;11.70343771;3.858353497;0.672861;3.786758907;15.86384401;20.72275121;-8.069820265;-5.831871378;3.759723006;16.12101774;0.451443478;2.093728925;12.297516;-7.720058594;13.51985489;10.36112733
5.433076829;20.76261371;11.63597907;14.97574038;3.102316456;2.094295431;8.193723014;20.01088338;28.3569547;-48.93267502;-9.046596909;2.257046678;13.89864529;-0.780855065;4.451287266;12.68110179;-3.263944286;9.747953055;9.7992626
4.33739242;13.82563109;9.33348204;15.9280545;2.261519057;2.012384388;10.00801077;22.48608502;32.86272552;-74.74402786;-10.79664121;3.305313923;14.85631555;-3.066523357;4.397420497;13.21120631;-1.771697642;11.52388301;7.072076126
4.442219797;16.89787145;9.785020986;14.11816124;1.512655733;1.277212018;9.215772834;21.90238479;33.07369351;-74.73508785;-10.04379712;7.377941773;20.21798514;-3.146583916;1.985333962;14.43634771;-3.531370282;19.39140025;3.250078125
4.683433207;26.05210159;12.34820725;10.16562075;0.378835748;0.932379825;6.967161578;18.14375738;29.49292537;-52.88494025;-8.262394917;12.2947355;26.77522054;-0.643133269;-0.841442196;16.82952432;-6.296309516;27.16387004;0.314545689
3.388731288;31.57615208;14.48900329;5.359602575;-1.722275144;1.330853709;4.389514972;12.45605269;23.5808644;-25.05984268;-7.894515394;14.74652545;29.09117524;2.721420307;-1.830881688;20.01427338;-7.534373923;28.33105897;-0.278617457
-0.057843143;27.51318096;14.18737413;1.219227908;-4.641007533;1.953085652;1.885285374;6.808508518;17.0298668;-8.171449586;-10.00513057;13.06436903;24.52771775;5.273306037;-0.316766459;22.71185746;-6.320578249;22.08359307;1.403444438
-4.370326182;17.39515435;11.79512386;-0.913696345;-7.228821404;2.003448076;-0.628365617;2.913328757;11.37235027;-9.16157546;-13.30714719;8.8192466;16.58753494;6.724563465;2.16184552;23.57048535;-3.646384692;13.57039181;3.962754645
-7.187247258;11.04130805;9.649199223;-0.331750007;-8.057460903;1.175106295;-3.038582992;1.479974107;7.736636225;-21.69082005;-15.41220033;5.676667429;12.90477873;7.736798825;3.072107017;22.23713876;-1.345197132;8.728199605;5.80426099
-6.93587426;15.26003906;9.841830346;2.602763077;-6.626179928;-0.114435811;-4.754337067;2.104169606;6.492345188;-32.48975765;-15.09627506;6.304034001;18.71564963;8.660078125;0.956269648;19.75524818;-0.697433314;9.00536108;6.242047957
-4.128017375;26.77787505;12.24406933;6.388981616;-4.003650713;-1.169076275;-5.139211515;3.766071173;6.926646289;-32.03167678;-13.45088685;9.961084203;31.03428299;9.101327781;-3.351195011;17.87562839;-1.674941651;10.99887361;5.74259689
-0.931631516;33.9336052;14.6170401;9.011082958;-2.215933232;-1.653438794;-4.179792991;5.528892215;7.417604477;-21.21395644;-12.84698552;12.9789731;38.97735872;8.857406208;-7.376498609;17.74973249;-3.127189457;10.97301614;5.26695924
0.635403021;26.12765257;14.69293536;9.110786202;-2.731726721;-1.799306878;-2.64748927;6.957634632;6.330019531;-9.310902807;-14.67903399;11.89398427;31.04216712;9.021049353;-9.001265457;19.00620681;-3.616696529;9.385185109;5.400398683
0.325685152;3.201575382;12.2860511;6.986016224;-5.229669603;-2.015858321;-1.524454216;8.059206175;3.175845693;-5.549709549;-17.99502377;6.628417831;4.253565536;11.58815933;-8.161027474;19.95125447;-2.361847057;10.56188993;6.011728595
-0.301868333;-23.26221374;9.481570227;4.583505436;-7.702602877;-2.339450645;-1.220534239;8.946143936;-0.875703419;-11.50337861;-20.30660782;0.925852815;-32.04170014;17.31843356;-6.858096155;18.78412462;0.226162567;17.53439199;6.603668194
0.575342051;-38.08710945;8.738512084;4.272072666;-7.911066878;-2.314511691;-1.343164399;9.612571919;-3.72;-20.33;-19.85879904;-0.489393215;-61.23727258;23.65277143;-7.489494906;14.95283497;2.733762561;27.10680011;6.886005842
3.314971688;-33.6267798;10.66530927;7.13922806;-5.090771226;-1.464281235;-1.250243722;10.03057922;-3.880693819;-22.95554521;-17.27388207;4.253017342;-70.08704467;25.08456108;-10.863192;9.67890062;3.634821444;30.55096379;6.989200373
6.420039063;-14.99430341;13.50937217;12.0613845;-0.578291726;0.092405934;-0.830585805;10.40449129;-1.725131334;-15.65419312;-15.03052849;12.54431446;-57.16648134;16.61606124;-15.50883516;5.296469632;2.395864707;20.33375804;7.176595797
7.79474094;4.509169996;14.80332753;16.34548136;3.138357071;1.511172764;-0.69489626;11.22283145;0.717013355;-2.71402723;-15.21036361;19.27366309;-33.05604063;-1.893524515;-18.820482;3.881304977;0.025724111;-2.567488716;7.434787539
6.49818788;13.64801359;13.62447724;17.58610222;4.201261426;1.790761174;-1.509573144;12.93770295;1.308378403;7.660319115;-17.5464294;20.77592415;-12.46635179;-24.05307201;-19.09894117;6.074387274;-1.468464826;-27.45089031;7.416443586
3.462266818;10.76907678;11.38451692;15.41202878;2.630855445;0.598700594;-3.069661534;15.5159965;-0.445916927;10.34060118;-19.57192096;17.47158613;-4.491522376;-39.91826469;-16.88050284;10.7816438;-0.488720662;-40.65403813;6.814937596
0.624884604;3.003254863;10.45285669;11.81190499;0.146530142;-1.36809425;-4.05781583;18.3259077;-2.875448521;7.145115745;-18.78832487;13.06662823;-8.081538259;-42.05870172;-14.55180926;15.80719253;2.888232293;-35.32667775;5.780613883
-0.649565151;-1.186974481;11.92620805;9.766339859;-1.19826935;-2.844022815;-2.892728454;20.56782722;-3.345965942;4.569665702;-14.93904138;11.1291195;-15.23721553;-30.47526474;-14.60741805;18.94165634;6.85269293;-16.37672247;4.918498627
-0.435925377;0.847128804;14.6264103;11.17997442;-0.461978024;-2.93378264;0.92003418;21.91185288;-0.309875369;7.711179468;-10.34666679;12.06817487;-18.3605068;-12.66100263;-17.9057877;18.90017489;9.196389441;3.476941118;4.810213976
0.259169903;5.054587753;16.2409016;15.61194441;1.700814466;-1.771486119;6.068645724;22.69854613;5.368209813;15.78346675;-7.978778313;13.1151153;-15.56963439;1.386613782;-23.17979962;15.74094165;9.036917435;13.33349455;5.486340428
0.722318216;5.974911746;15.51740174;20.66597214;3.719604554;-0.375588222;10.05374354;23.38560125;10.83621616;22.95657067;-8.928116016;11.23491586;-10.35514228;5.610921949;-28.03286583;10.71699443;7.483826326;11.63162957;6.362586107
1.209225357;2.640183853;13.45079525;23.65120963;4.28508256;0.153203763;10.77592672;23.68355784;13.10949812;23.52506815;-11.5226696;6.304936398;-7.056206677;1.171352895;-30.56849207;5.702760777;6.613284174;5.76223858;6.741645809
2.441639225;-0.583149072;12.35147116;23.25036726;3.127796441;-0.576671584;7.908128192;22.31021225;10.97750403;16.79742196;-12.84532037;1.637118032;-6.787985234;-5.55035683;-30.47291462;2.392576788;7.591707535;4.70492484;6.447611119
4.521829131;1.210649954;13.66539976;20.06904894;0.978673708;-2.069284899;3.01708625;17.91108901;5.624076215;7.59019264;-11.31880922;1.224260484;-7.256979873;-8.281075166;-28.93234535;1.517077173;9.616189504;11.2605333;6.005183364
6.46446693;7.909616108;16.58217245;15.88732754;-1.04026593;-3.422536739;-1.613012833;10.60588425;-0.343003734;2.146238025;-8.08287259;5.984925342;-5.913892056;-5.277663207;-27.66289457;2.406781668;10.67983783;20.28520519;6.163118356
6.93088749;13.69576391;18.73765681;12.37608057;-2.048597176;-3.98439013;-4.503698008;2.763014518;-4.60514637;3.134149697;-5.968392122;12.27575716;-2.92069665;0.288476819;-27.84994814;3.222809474;9.509750235;23.80987787;7.15334355
5.515723726;12.23758701;18.37349811;10.25761378;-1.717807528;-3.645717975;-5.710214549;-2.08334184;-6.350166925;7.893633387;-6.99010582;14.15505747;-0.993719642;3.686090363;-29.6436311;1.917271257;6.860250716;18.07714865;8.341649182
3.302150886;3.063997148;15.96058415;9.330877334;-0.283796243;-2.647297393;-6.336711257;-1.771984231;-6.312050734;11.0773505;-10.56298507;7.788246617;-2.458824853;2.598132719;-32.31554229;-2.475776715;4.846113695;6.376676615;8.616641937
2.032942143;-7.046087872;13.78214821;9.026617189;1.563886226;-1.233378884;-7.403471457;2.403857238;-5.88516904;9.116433814;-13.98540228;-5.44261251;-6.577182668;-1.433428251;-34.75648775;-8.979392939;4.846472147;-4.240139948;7.242280793
2.579919926;-9.521834662;13.85150147;8.859534851;2.872206159;0.449428639;-9.049253039;6.075010517;-6.109308531;2.706511779;-14.73725662;-19.60835081;-9.857249997;-4.763163272;-35.95872383;-14.91090863;6.026601776;-8.809159883;4.500388565
4.151474616;-1.848979449;16.0734965;8.465068516;2.788129481;2.156038128;-10.6236665;4.888388076;-7.162809022;-4.409187727;-12.57938151;-28.20839826;-9.13032584;-4.616079222;-35.34626443;-17.26489841;6.159907212;-7.491251256;1.609171147
5.070281761;9.253153447;18.3348288;7.440474732;1.077044453;3.37579093;-11.40392963;-1.802905452;-8.447583317;-8.783141636;-9.659251857;-28.42521442;-4.498911763;-0.701382346;-32.97644848;-14.49568189;4.285011877;-3.605479241;-0.024614656
4.479731801;12.70115892;18.4369733;5.40751793;-1.507478827;3.527551848;-11.19574608;-9.718929629;-8.95269095;-9.595636099;-8.589665146;-22.50686384;0.62621016;5.425857168;-29.58717933;-7.561522251;2.673792518;0.633059727;0.33764007
3.368232423;2.360980631;16.09982264;2.408725835;-3.412073203;2.461889712;-10.31153082;-12.37686754;-7.610553327;-8.193612858;-10.2018078;-15.45973437;2.46652693;11.97994538;-26.35624468;0.534684448;5.688319074;6.024029893;2.392988969
3.809996213;-16.99790571;13.20981139;-0.719400572;-3.12368016;0.816897318;-9.068163538;-6.069197642;-3.617950587;-5.827428044;-12.88810923;-11.0879688;0.120460279;17.66572857;-24.31697348;6.512474729;15.67345778;14.02606124;5.086993554
6.935589039;-32.49144997;12.10267693;-2.485450972;-0.198097581;-0.210158746;-7.38283118;6.792036912;3.19172223;-2.128900705;-14.01965614;-9.525717874;-3.786326629;21.01260534;-23.67226673;8.78464474;29.0520488;22.83362148;7.264658715
11.42044389;-32.83100969;13.46517932;-1.505742217;4.285192926;0.359561894;-4.894041085;19.00333968;12.00594763;4.121601276;-12.1465789;-7.995222436;-5.517277272;19.6422419;-23.50220734;8.331758606;36.47772158;26.51347728;8.207383771
13.99539502;-17.19562763;15.7687953;2.568002879;8.289246385;2.518937864;-1.486925824;24.01114518;21.02200988;12.82997147;-8.103450756;-3.846407371;-3.41909884;11.10078683;-22.24447271;7.879061555;28.17463661;19.06738547;7.789765915
11.79253191;4.039138125;16.72588048;8.655872431;10.09674801;5.158899221;2.303968871;21.30970905;28.01271728;21.40704068;-4.179910359;2.816818744;0.947354915;-4.745909614;-18.80419855;9.912861803;1.300340341;0.341296107;6.329083775
4.692000289;17.42298613;15.40564871;14.75721861;9.397305639;6.7644543;5.434791601;17.15325768;31.32296261;26.08149204;-2.195643943;9.104802555;4.521160157;-23.78519784;-13.58377819;14.86658504;-36.18194061;-21.71511617;4.365956695
-4.291142221;16.8377181;13.0636965;19.06352698;7.388163921;6.424883962;6.959504021;19.37823514;30.7366367;24.81978664;-2.165922935;11.83827625;5.450314989;-38.54562208;-8.612561074;20.69909833;-68.75153137;-35.29638631;2.5234195
-10.975738;7.763783881;11.94272067;20.92743395;5.844269039;4.389857225;6.612075602;30.02686665;27.61591514;19.30076321;-2.598133919;10.40257324;4.227054214;-42.20378955;-6.498339681;24.15099955;-82.2543272;-32.7740688;1.410943238
-12.80181716;2.085342866;13.16901279;21.04810214;5.901476788;1.76462606;4.904062953;41.8219091;24.15475874;14.03451966;-1.989112965;7.509011711;2.444979864;-33.19316444;-8.783390251;22.84391445;-72.60044332;-16.21494196;1.481782293
-10.26265088;7.897439927;15.68271595;20.80338767;7.462061148;-0.36953466;2.700479707;42.0884899;22.18735729;13.12516306;-0.124085001;7.12173777;0.787321628;-16.82523664;-14.81599366;16.84407046;-48.10451643;4.165503808;2.855682137
-6.000193016;22.76299186;17.17086378;21.23743388;9.554572903;-1.68463211;0.651404867;21.99219874;22.28187949;17.22066628;1.902101115;11.10758672;-1.490784599;-2.228664671;-21.98447263;8.692468833;-23.76;17.44787665;5.235690296
-2.537359554;35.8229345;16.13319507;22.38284855;11.18554595;-2.635913191;-1.090133874;-15.62488972;23.61757377;23.07920693;2.806096932;17.24446949;-5.05111021;3.530297979;-27.23534846;1.922673894;-11.54557213;19.40366825;8.021861335
-0.632250803;36.75913768;13.19533997;23.29565667;11.90414142;-3.860782458;-2.739474271;-56.12733705;24.60191339;26.0379961;2.271935605;20.26643517;-8.721551914;-0.06977068;-28.87277802;-0.954855982;-13.60803006;14.15198568;10.56829252
0.516898974;24.06888342;10.50418546;22.69104807;11.70098295;-5.530199465;-4.56388237;-81.54874321;23.76363734;23.36925435;1.127761161;15.38510291;-9.772416619;-7.244878861;-27.41396368;0.255528569;-22.77402277;9.372554767;12.40838154
1.745260731;5.94420177;9.804378653;19.74313641;10.55598529;-7.21756139;-6.681146186;-81.99625152;20.42621642;15.96637592;0.501864415;1.889484605;-6.467717716;-10.63134575;-24.94479994;3.590206637;-29.25132108;9.658299505;13.32103062
2.735703082;-6.641483137;10.97;14.60689686;8.260795673;-8.347551031;-9.068474409;-61.88303965;14.93857783;7.336231704;0.822238838;-15.68860845;-0.532844512;-6.833764783;-23.49533093;6.309108332;-27.98895768;13.64679947;13.2788421
2.349692581;-8.651571204;12.29216075;8.439021006;4.782236316;-8.76687838;-11.63482344;-36.49505327;8.518846658;1.036552129;1.565409653;-29.72197159;3.302591754;1.418001133;-23.63451439;6.565121912;-21.2646551;16.73643395;12.42150361
0.070912396;-4.324019882;12.17591102;2.947670779;0.777725655;-8.896357348;-14.18372139;-21.45351314;2.852968279;-1.336363685;1.886907207;-33.64353541;1.053508563;7.958999844;-24.26586896;4.349753474;-15.28533315;16.14502811;11.11198648
-2.987205306;-2.702729151;10.62312055;-0.321533058;-2.401699305;-9.327454943;-16.28605046;-22.74185665;-0.458560287;-0.351083321;1.454771142;-25.5673242;-6.464677405;8.363513625;-23.67239647;1.2564943;-14.32661001;13.36800797;9.949999629
-4.673663229;-9.467190659;9.134878672;-0.661329232;-3.459983941;-10.23540417;-17.26402409;-34.25176871;-0.508824082;2.450468492;0.69797329;-9.276284865;-13.23968011;3.417781828;-20.93353742;-0.640344011;-17.42791906;12.04394236;9.561247675
-3.59966319;-22.00182523;9.185023739;1.476075327;-2.138359806;-11.14175533;-16.44470866;-43.94904681;2.468010309;5.770234655;0.305733192;7.83122606;-12.55045003;-1.744266153;-16.61880356;-0.022612218;-19.99584106;13.82129004;10.17190357
-0.506185989;-31.62969701;10.75300093;4.716339315;0.441763093;-11.24692737;-13.59544829;-43.40166486;7.102524811;8.864231232;0.527573426;18.48750988;-3.163721746;-1.924256825;-12.28935945;3.031817475;-18.3673597;16.63078609;11.26847553
2.164724799;-30.84432104;12.31790701;7.493498322;2.498102027;-10.0615755;-9.239426297;-33.40484161;11.48025563;11.16352859;0.957592429;18.87915247;8.088772132;4.001003061;-9.290125563;7.259557607;-13.10915694;17.1549256;11.72587403
2.258364491;-19.38402088;12.30989314;8.887931577;2.879773325;-7.824949314;-4.581703095;-22.04100853;14.06822851;12.06219437;0.966823321;9.944907213;10.29266168;12.33652746;-7.834675801;11.01077811;-8.294223191;14.87796862;10.49224658
-0.250563594;-4.272248286;10.62750526;9.047244862;1.885953942;-5.394253381;-1.039610863;-17.56338694;14.42527926;11.30647551;0.319173636;-3.682023267;-3.391801016;17.6279642;-7.081340479;13.11641001;-7.678004198;13.27534649;7.430722187
-3.223961502;5.859756365;8.766743419;8.887663674;0.909001392;-3.721817242;0.358185992;-22.13357803;13.22695527;9.52471241;-0.628007493;-16.21789425;-29.64468333;16.94223455;-6.04732947;13.38558875;-11.31597409;16.38698771;3.660818991
-4.220058594;7.24489577;8.42300989;9.272237617;1.193395035;-3.328645423;-0.621411745;-31.06872375;11.6149845;8.104269868;-1.291564406;-23.35487774;-56.12580215;12.01076958;-4.519134181;12.5767838;-15.5650061;23.76271905;1.012847548
-2.623277596;3.042700138;9.878212507;10.28026087;2.77828007;-4.118645521;-3.366687414;-37.41929755;10.39023489;8.242408279;-1.398868272;-23.78715081;-69.4960619;7.735526731;-3.156937081;11.95073395;-16.31162833;28.95301134;0.868411472
-0.139274877;-0.234037824;11.70344971;11.1522067;4.540525846;-5.568282075;-6.681896422;-37.56734234;9.663901291;9.928694416;-1.175396444;-19.14170837;-64.45032742;8.397172187;-2.716499687;12.63849338;-12.48359812;23.93046798;3.194627769
0.809039192;1.508613145;12.08190697;10.97498236;5.281303209;-7.066593995;-9.217039778;-33.31728851;9.156981779;11.85014806;-1.060933997;-12.59079637;-46.92899351;14.47219426;-3.108589908;15.06297502;-6.808115373;6.309711219;6.514953334
-0.643794463;6.877458391;10.53177515;9.546490069;4.858636853;-8.164773922;-9.950953275;-29.38558597;8.754885246;12.42314878;-1.307193154;-6.983076498;-29.19111524;22.23532928;-3.199690825;18.61825654;-3.311784292;-16.96194584;8.887993032
-2.927112901;10.84655289;8.415701262;7.655719952;4.31488574;-8.663481335;-8.629123418;-29.07109452;8.711053433;11.0727368;-1.87999677;-3.495150454;-20.78939116;26.14;-1.64739894;21.76762037;-3.887206037;-33.38149049;9.195838949
-3.399019287;9.481136126;7.739119155;6.457976315;4.853924664;-8.610439581;-5.994100231;-31.96463168;9.260794908;8.579945633;-2.707421976;-1.489479157;-22.5028267;22.13596619;1.851311972;22.61972586;-6.918681733;-33.80420525;7.798723555
-0.790080566;3.298541452;9.33226396;6.396246071;6.58865289;-8.271664002;-3.598837667;-35.26381598;10.02684556;6.158223828;-3.908123801;0.446121797;-27.56930206;9.82735259;5.967658631;19.83668478;-9.004059311;-19.42294811;6.106171243
3.450068359;-3.416059078;12.09564206;6.581489271;8.23635726;-8.045222188;-3.127886722;-36.93054323;9.883164309;4.139440666;-5.651821305;3.068233308;-28.5031081;-7.483569926;8.432877791;13.48110193;-8.06747689;-0.901158675;5.454465657
6.167585636;-6.365589191;14.0134292;5.26566494;8.125204592;-8.268743309;-5.481483696;-37.54492175;7.585811537;1.569568086;-7.744582126;5.761201351;-23.46624599;-24.42891236;7.621761552;5.29973721;-5.054161569;9.876488112;6.186573539
5.092958104;-4.602345785;14.00199239;1.188229344;5.692365888;-8.986637088;-10.16658532;-39.27763704;2.764548282;-2.819570629;-9.426266819;7.160664252;-17.04777347;-35.79243731;3.848718542;-1.866771001;-2.80978942;8.74533549;7.60430635
0.822611255;-0.714436747;12.88118823;-5.183083901;2.160365855;-9.863533507;-15.47530745;-43.24505874;-3.554321873;-9.133147538;-9.755907132;6.675110317;-15.37536006;-38.40131766;-0.682130641;-5.387139161;-3.309706395;1.564264613;8.716558717
-3.499559083;1.938324855;12.56429114;-11.52712525;-0.259940162;-10.38278043;-19.44521416;-47.95621807;-9.425749737;-15.7657524;-8.385879064;5.568896021;-20.26027297;-32.21700263;-3.338651948;-4.203448307;-5.809498408;-1.813916795;9.077905798
-4.553141181;2.18170799;14.21607418;-14.8983978;-0.030495202;-10.23830185;-21.00549874;-50.3890397;-13.18575424;-20.42268975;-6.038688127;6.377746294;-27.5506799;-20.36003906;-2.888533597;0.554405978;-7.550255292;3.507067996;9.011596531
-1.312378216;1.532718425;17.09558183;-13.54641089;2.55660302;-9.613144942;-20.5090439;-48.67575052;-14.46401303;-21.89103583;-4.136849318;10.69354751;-30.88538704;-7.893798805;-0.307764037;6.156323254;-6.298396731;13.41923097;9.101164695
4.352728367;2.073235302;19.17716614;-8.094486798;5.67759982;-9.072779258;-19.26676022;-43.86140954;-14.22003906;-20.98351007;-3.759783747;16.92836269;-27.26652736;0.428528173;2.075307993;9.804875966;-2.374230781;19.0752805;9.479410866
9.289769279;3.969861044;18.99739237;-1.269749873;7.451155934;-9.108962489;-18.45692127;-39.08610404;-13.80957563;-19.77151058;-4.772938073;20.19392163;-19.46914893;2.530211181;2.471869886;10.23975261;1.653909742;15.48063104;9.587735572
11.42;5.140478032;17.02616674;3.63900388;7.333407743;-9.699616841;-18.26979421;-36.93552099;-13.880792;-19.76904813;-5.925665199;15.15844552;-13.3222584;0.086809924;1.116771104;8.444775905;3.294321168;6.549020785;8.626226845
10.90727637;3.430674969;15.27799032;4.599509098;6.303040691;-10.28580185;-17.94114318;-37.36189254;-14.00370211;-20.70235458;-5.906514086;0.346643177;-12.48556861;-2.629605009;0.195675991;7.015062937;2.355472737;1.856586214;6.289351028
9.401362099;-0.808927391;15.49128062;1.833483417;5.791744241;-10.23220136;-16.57888391;-38.00078881;-13.26276869;-20.97393544;-4.468452679;-19.32664067;-15.42167572;-1.661423352;2.253368182;8.566661244;1.077490719;7.741437444;3.136564823
8.309428746;-4.356699305;17.53128568;-2.499624097;6.386305675;-9.401739546;-14.02680067;-36.49070132;-11.20108611;-19.3646449;-2.614484837;-34.32544172;-17.11865116;3.859027152;8.277589352;14.15678148;2.083079795;20.62030877;0.27752605
7.732428259;-3.609616875;19.48836815;-5.612718475;7.444936443;-8.334247616;-11.0113287;-32.61590943;-8.242042821;-16.36087193;-1.643493686;-36.14477624;-13.8240885;11.12633747;16.87944709;22.64966998;6.004771469;28.76753829;-1.356608914
6.876388914;2.116315702;19.40518274;-5.5943077;7.868605067;-7.833370315;-8.48245873;-28.35524365;-5.254449316;-13.8404016;-1.907489472;-23.22666831;-6.480607749;15.84635647;25.13032232;31.35;10.90405948;21.60899631;-1.55619514
5.286171543;9.481473049;17.07579222;-2.352474247;7.199625275;-8.28570344;-6.795060541;-25.92326462;-2.75615397;-13.4;-2.453578041;-2.696710253;0.106851885;15.62296034;30.3662869;37.45295924;13.97296505;-1.012042583;-0.792831205
3.54317701;13.48919039;14.28162694;2.362878536;5.964794199;-9.301102502;-5.514463264;-25.73936085;-0.590327215;-14.91655114;-1.959094689;13.90787605;1.448564947;11.90156537;31.61775619;39.42318385;13.9763063;-27.42464245;0.280659666
2.719879944;11.5838972;13.23970642;5.797263749;4.953852675;-10.01304706;-4.033882495;-26.2499986;1.56903329;-16.74964429;-0.154351338;18.32778996;-2.918902981;8.828472437;29.73699751;37.5599298;12.26179119;-42.05716466;1.302225053
3.192797814;6.049110357;14.65508201;5.527293575;4.186091769;-9.806922184;-2.399601836;-25.71371909;3.381434557;-17.44977478;1.626289379;11.21339641;-9.372979931;9.828112102;26.37837885;33.56219684;11.46922434;-36.55023561;2.255225654
4.087497801;2.465429332;17.12300949;0.751453036;2.660087891;-8.850495416;-1.493146174;-24.16702172;3.591622543;-17.35839221;1.438278558;1.359705882;-13.57145628;14.64810671;22.82213113;29.4916553;13.12188617;-15.38256373;3.152242892
4.016181789;5.195414836;18.40139357;-7.07806004;-0.738836687;-7.949034035;-2.282299565;-23.60120266;0.826908876;-18.49429304;-1.457293411;-1.160031738;-14.01060272;19.39957783;19.56729559;26.777422;16.2544706;8.077851655;3.74788926
2.471108343;13.45302122;17.39038985;-14.74138792;-5.931305375;-7.829256793;-4.744853626;-26.07327424;-5.075469176;-22.6742045;-5.552446847;7.060123005;-12.6148591;19.76034757;16.7905246;25.74302729;18.28130367;21.48904057;3.629587217
0.521018913;21.27512584;15.0407479;-18.82255327;-11.18044366;-8.467905981;-7.473216799;-31.46826236;-12.3428744;-29.51643679;-7.916423868;19.82270271;-12.13379238;14.8470788;14.95380028;25.74937684;17.30763318;21.44306331;2.642833479
0.043221911;21.71323131;13.40838571;-17.64404499;-14.0602389;-9.062413358;-8.46674626;-37.05610425;-17.92927329;-36.22402412;-6.419699426;25.83230767;-13.10019271;8.505284076;14.77438687;25.71932876;13.82217239;13.72320733;1.248215956
2.092312765;12.16075762;13.7556374;-12.40060788;-13.18814785;-8.692764964;-6.599163206;-39.41591808;-19.26656145;-39.52924844;-1.589127999;17.36778836;-13.36566968;6.66345175;16.48532468;24.70779756;10.28851101;6.898944234;0.418466445
5.873671234;-3.322480676;15.4358915;-6.60022608;-9.314187952;-7.118250686;-2.593137031;-37.14756619;-15.87942566;-38.22507019;3.545135978;-3.467668243;-10.61468876;12.54297807;19.13652613;22.28375376;9.035191022;5.363933999;1.061726161
9.308706525;-16.61898152;16.54660565;-3.931881548;-4.824637368;-5.024357971;1.35093481;-32.01973643;-9.665823917;-34.09392324;5.684493133;-25.73835426;-5.293705839;23.40894984;20.82037637;18.65670061;10.34039869;7.425401743;3.370386951
10.74859315;-21.24237454;15.70896171;-5.830359374;-2.023050688;-3.50299623;3.06283469;-27.53455778;-3.63586066;-30.38533311;3.895705714;-37.18441379;-0.909000675;31.59801998;19.95638703;14.58584954;12.39252042;8.942446028;6.585663162
10.31593839;-16.85163187;13.32585403;-10.41910642;-1.573715468;-3.206410197;1.911455529;-26.13729149;-0.052997736;-29.13606986;0.497680436;-32.54927998;-1.129760348;29.4068485;16.74642297;11.12970002;13.09492792;8.159574802;9.363959944
9.642477055;-9.20117221;11.18584812;-13.71880023;-2.341546292;-3.886104605;-0.82716657;-27.45413924;0.697122564;-29.65457196;-0.651266823;-16.54841247;-6.263104372;14.47234689;13.53131474;9.283903689;12.02155911;7.010421178;10.49236763
10.20362533;-5.601181359;10.81650707;-12.4394112;-2.665234835;-4.680109257;-2.966384455;-28.98360763;-0.154539218;-29.45858831;2.744594196;0.377951738;-12.47187258;-8.194641395;13.47250771;9.578420916;10.71584202;8.161546025;9.479666295
11.74715758;-9.346311388;12.122424;-6.441775823;-1.896196627;-4.860617235;-2.930100271;-28.48286154;-0.97171552;-26.76437842;9.313810801;9.808472866;-14.73214478;-28.98407596;18.28389884;11.76518078;11.06316232;11.36515158;6.691383403
12.2855279;-17.29249147;13.54493021;0.951876588;-0.863521576;-4.3780723;-0.631540643;-25.8507001;-0.804028365;-22.24092083;14.61612187;10.49763628;-11.0837902;-39.3280589;26.62259692;14.76698736;13.26814874;13.2026901;3.044847802
9.75812298;-22.32428483;13.55500811;5.151457642;-0.914993319;-3.759335657;2.823676917;-22.87894162;0.401732675;-18.42081922;14.12094858;7.435255557;-4.388551928;-36.38188558;34.44861506;17.00705725;15.3876092;10.68814201;-0.459466417
3.965800365;-18.77603399;12.06977345;3.524368103;-2.452774782;-3.517894567;6.15111962;-21.25491844;2.348859441;-17.30274662;6.4438704;6.439913797;0.098930182;-23.84569282;37.32181307;17.07557589;14.98655701;5.069647579;-3.089073267
-2.923175643;-6.743667303;10.48519047;-2.642589003;-4.317291588;-3.660068359;8.675519461;-20.79031242;4.944416273;-18.35571836;-5.47640921;9.269777424;-0.682351307;-8.890165436;33.19007813;14.47698131;11.50788197;1.613321749;-4.512610367
-7.809658164;7.826696181;10.32476649;-8.899350932;-4.608511672;-3.742570611;10.33676556;-19.58250421;8.255734793;-18.81400991;-16.0673411;13.16368625;-4.893466723;2.291395811;23.7979286;10.06596276;7.168364847;4.867657266;-4.781593985
-8.903723277;17.20210224;11.78822442;-10.63449069;-2.25807979;-3.38985891;11.17418822;-15.96264277;11.98151114;-16.09734059;-20.46044146;14.47733748;-7.422422545;7.318873622;13.74321438;5.844650386;5.390363959;13.48238816;-4.252918098
-6.944411615;17.03858143;13.55780611;-6.242472709;1.999764333;-2.736120302;11.00199555;-10.37555703;15.11269706;-10.24108204;-17.22124904;12.54256848;-4.460522218;7.526008464;7.78841818;4.087859012;7.968111424;19.70274982;-3.46938511
-4.439877137;9.023067119;14.03140586;1.7384513;6.096849791;-2.333851364;9.675863022;-5.354034269;16.32280802;-4.14111584;-8.814195102;10.10038411;3.028639693;5.839416685;8.162247731;6.165588308;13.41799849;14.89975707;-2.971238432
-3.618481662;-0.641248175;12.81916753;8.270172591;8.150748721;-2.596934332;7.626319457;-3.488043281;14.9167321;-1.30890903;0.212555938;10.19959018;10.07495412;4.62067572;13.50883249;11.70110683;18.08058078;-2.931256796;-3.06466262
-4.797023921;-5.536130512;11.10277956;9.067505429;7.777075484;-3.319679902;5.951628236;-5.161901278;11.55149815;-3.027727624;5.912663407;12.89273103;12.06267558;4.818926902;19.98322589;18.61630983;19.18232091;-26.02256448;-3.660332955
-6.425126786;-2.994108859;10.52566914;3.256170411;6.154533863;-3.775413818;5.739604137;-8.119713389;8.017502155;-7.349626826;6.800108749;15.17377006;8.787429004;6.336833073;23.62128692;24.14469445;17.24763589;-41.20774971;-4.302326663
-6.607508917;4.80921847;11.65415756;-6.241282906;4.882502553;-3.363615044;7.090466062;-9.333365357;6.110019531;-10.781506;4.008892223;14.31815899;4.518917205;8.637768193;22.4508952;26.28183092;15.64504292;-38.91546;-4.400123976
-4.724434922;12.94520497;13.44650437;-14.66659174;4.658795819;-2.232487015;8.755000379;-7.595400511;6.400524894;-11.18063444;0.052708497;11.25508098;3.949614592;10.9253492;17.19190858;24.79972312;17.46780979;-19.98140565;-3.539490659
-1.83481378;17.19775156;14.2239582;-18.3125595;4.872729296;-1.271753767;8.891545284;-4.577849015;7.857638228;-9.363598039;-2.814648107;10.27799828;7.692460408;12.12413925;10.40842495;21.16663264;22.38898471;4.926242058;-1.700731378
0.304639883;16.51425992;13.23733463;-16.49990209;4.35607795;-1.40957128;6.479955353;-3.405641482;8.63371233;-8.102020804;-3.692222274;14.78756408;11.55013334;11.30133349;4.878528283;17.41392253;26.41715833;22.69507177;0.71193817
0.612106483;13.1195248;11.36833218;-11.59591619;2.54526896;-2.787488216;2.26735123;-5.942042624;7.440401821;-9.474769879;-3.169529416;22.8184109;10.47934002;8.616783511;2.206975935;14.72465691;25.16096815;26.23295056;3.007970463
-0.72606453;10.65401795;10.31092958;-7.326663151;0.029588256;-4.542292408;-1.597442365;-11.09079174;4.505375538;-12.93966051;-2.662199986;26.93564751;3.840596196;5.968916846;2.325341382;12.74532586;18.08799551;17.86785855;4.433951356
-2.76616651;11.77258062;10.99397728;-6.55673284;-1.928028589;-5.427249473;-3.036575482;-15.53639917;1.449710446;-15.78308103;-3.416007789;19.57111919;-2.966187217;6.293993542;3.901446654;10.12463535;10.00582217;5.939295004;4.420087891
-4.734659267;16.59728716;12.71501503;-9.792892007;-2.404702728;-4.778344844;-1.488153324;-16.27058169;0.235488761;-15.47798712;-5.708451345;-0.121965672;-2.515134128;11.44251222;5.241825927;5.879372248;7.902633486;-1.866091519;2.811294973
-6.434048521;22.6359149;13.79737438;-15.06803186;-1.471552648;-3.01678915;1.80931523;-12.79719909;1.957171896;-11.83403928;-8.65157669;-23.80044872;7.884256329;19.99643898;5.183450227;0.539211583;15.06763988;-3.022841033;0.013225753
-7.849687187;25.97168628;13.16616141;-19.08003906;0.007361039;-1.26717182;4.872975967;-7.282485421;6.254410334;-7.083355144;-10.71982033;-38.63665132;22.36284359;26.9668754;3.626588664;-3.853894115;27.05495915;0.217745302;-3.064106409
-8.546098211;23.11114049;11.37716164;-18.9204664;1.150485262;-0.429492049;6.460078125;-2.71046696;11.60003906;-3.916692271;-10.73459445;-36.12058103;29.36068346;26.25386151;1.568238853;-4.973212558;33.21431789;4.432700322;-5.341887089
-7.657253646;12.77524699;10.12854169;-13.5695835;1.685541269;-0.506572789;6.77097323;-0.711360954;16.13207091;-3.267875625;-8.708038077;-18.21270699;19.66888595;14.66098762;0.657555975;-1.802488492;23.512514;7.984339423;-6.08985144
-4.646615282;-3.083603938;10.68636171;-4.493824959;1.942056418;-0.747226308;6.892018684;-0.808837804;18.4676068;-3.779102395;-5.947323131;4.08342415;-6.246824251;-5.244271036;2.427484667;4.569621489;-3.859549152;11.02834353;-5.334746738
-0.165933256;-19.6458337;12.66994759;4.941883145;2.351235772;-0.435869426;7.596187206;-1.444557947;18.11654339;-3.316148921;-4.263790769;18.68389346;-37.3611418;-25.70744496;7.486422938;11.54461781;-39.71535776;13.62113526;-3.85242277
3.88854265;-31.12988526;14.33158812;11.02244397;3.003636328;0.408214432;8.616304406;-1.608698867;15.44752771;-1.086426099;-4.778841077;20.67564153;-58.65354413;-37.83526514;15.0306573;16.55676872;-68.45279334;14.70925621;-2.683946568
5.385419918;-33.57109989;14.10485187;11.47373602;3.660522102;1.059208646;8.99777359;-1.568468013;11.37155597;1.548775684;-7.177286937;14.53887521;-60.55161657;-36.66304384;22.96706175;18.44306465;-77.29757309;13.37097682;-2.477455087
3.351954916;-27.0354753;12.03023311;6.561820117;4.107562779;0.804443269;8.12077807;-2.213223732;6.930569375;2.239967581;-9.978850017;9.107753914;-44.58176287;-23.94350668;28.68335645;17.72029987;-64.05368766;10.79710374;-3.130924064
-1.325077896;-15.80821055;9.764067171;-1.150604993;4.403655791;-0.319815484;6.388907604;-3.868522085;2.925543823;-0.302643592;-11.63112478;9.931522298;-21.48287598;-6.848205216;30.16990417;15.74530624;-38.11124825;10.26594242;-4.007410607
-6.453366759;-6.144348046;9.151489948;-8.304684923;4.730754048;-1.477703939;4.930332321;-5.831230851;-0.302453157;-5.196290491;-11.57338681;15.44446535;-3.595468461;6.464048651;26.97028506;13.58369418;-14.14230408;14.23030116;-4.539688411
-9.923283683;-2.75985791;10.63746975;-12.63409394;5.010811399;-1.753791979;4.596835986;-7.058062648;-2.842055748;-10.12381747;-10.44550726;19.64850527;2.778175693;11.42727641;20.46768699;11.52606404;-2.950445334;20.87175087;-4.709202823
-10.89718779;-6.241541923;12.92903578;-14.08498661;4.741226056;-1.021264902;5.194843852;-7.265820288;-4.940248409;-13.19555184;-9.334669715;18.26701495;-0.099177884;8.93320987;13.30910207;9.509844564;-5.678756408;23.79355404;-4.981730627
-10.00704152;-13.08581823;14.18815073;-14.48238682;3.310550089;-0.172583205;5.65;-7.314300066;-6.676588536;-14.30154964;-8.766647454;12.59466965;-4.939223145;3.67076487;8.189887781;7.84785006;-14.87935733;16.24329764;-5.756410131
-8.594561384;-18.32205334;13.66356231;-16.01978787;0.568744877;-0.464314599;4.929237876;-8.474799331;-7.862685344;-14.88904115;-8.344402184;7.781002974;-5.619759559;0.514050824;6.560449279;7.394671226;-20.96090024;-2.891357037;-6.834656149
-7.712527546;-18.87074922;12.30012207;-19.6380874;-2.87781829;-2.498343171;2.852086404;-11.28731355;-8.301026895;-16.53288869;-7.32656146;7.566779948;-1.28511905;1.551861729;7.903627103;8.844031818;-18.98316012;-26.33597082;-7.428727722
-7.622081357;-15.30355167;11.81239635;-24.40478705;-5.98;-5.688557278;0.063389999;-15.1;-8.209418698;-19.64107569;-5.558874461;10.67290077;4.121817531;5.480364247;10.00284519;11.74653329;-11.10682164;-41.95833198;-6.763266963
-7.971774969;-10.90651031;13.09715615;-28.26706371;-7.964527914;-8.657940512;-2.733767962;-18.70211763;-8.385805311;-23.34309134;-3.826786357;12.28407131;5.707032345;9.221044623;10.15073836;14.24815493;-3.650411698;-40.65780839;-4.772823685
-8.288738528;-8.952318713;15.42738447;-29.57317493;-8.86960994;-10.22918904;-5.465063154;-21.38906869;-9.817578789;-26.43543922;-3.226570736;9.10653453;1.499191704;10.24656653;6.7357346;14.05075304;-1.684881394;-22.88425603;-2.266581026
-8.310555448;-10.30946109;17.12634154;-28.24681998;-9.443897387;-10.19113211;-8.558535429;-23.39041225;-12.89869292;-28.34871198;-4.093662096;2.985569187;-6.363849737;8.048268704;0.356389258;10.05345265;-5.459478741;1.276919442;-0.36974096
-8.006940927;-13.05883135;17.06874039;-25.80342357;-10.49595604;-9.24880504;-12.09904548;-25.24748245;-16.84304262;-29.25394376;-5.507812534;-0.647066722;-13.4237264;4.159388598;-6.239020059;3.426733566;-10.98991775;18.70538339;0.305649813
-7.474490962;-14.12530503;15.63417269;-24.25209135;-12.24544746;-8.280421766;-15.14180628;-26.80893018;-19.86575962;-29.38938644;-5.930097656;1.709283837;-15.87473139;1.168297785;-9.500912032;-2.848226345;-13.71296194;21.68204498;0.038932654
-6.905241062;-11.46808421;14.28007813;-24.69033841;-14.19920687;-7.595018928;-16.02359004;-26.95043602;-20.17476442;-28.46927138;-4.495677052;7.35135115;-12.59941362;1.478251657;-7.070361849;-5.821919971;-11.9818784;12.05422293;-0.415227799
-6.59740255;-5.233720047;14.17833212;-26.54887998;-15.59613113;-6.823850261;-13.61745796;-24.45794576;-17.15687051;-25.88495845;-1.825642087;8.779330533;-5.321565851;6.261130653;0.705891412;-4.551104541;-7.792539164;-1.458437156;-0.66365531
-6.834942129;2.619678926;15.18812635;-27.94283186;-15.98109931;-5.470322571;-8.518694042;-19.34752344;-11.90379517;-21.52388567;0.420573466;0.14805532;2.668255253;14.7203216;10.69464986;-0.771758634;-4.648194977;-10.113989;-1.14529015
-7.61839974;9.485135992;16.07993746;-26.8463304;-15.41402317;-3.549016845;-3.035016735;-13.34928545;-6.645915883;-16.32618019;0.921675936;-16.7317832;8.174697519;23.84028421;18.49617422;2.252632031;-4.678870808;-10.69298067;-2.743559002
-8.508833815;13.02937086;15.7445009;-22.33838149;-14.21555674;-1.69228767;0.22722412;-8.931471691;-3.447228784;-11.89207586;-0.202661235;-32.45119443;9.376729036;29.04076625;20.75654944;1.907466723;-7.349149423;-6.025170921;-5.828553683
-8.879065122;11.57054903;14.22851072;-15.21013052;-12.59691483;-0.620289908;0.182961237;-7.542852205;-3.050716562;-9.370662925;-1.57044781;-36.71412188;6.433521792;25.99696536;16.93094112;-2.099550251;-10.43924952;-1.179210727;-9.594877573
-8.510344897;4.401814186;12.64482086;-7.65121288;-10.58837874;-0.47332601;-1.943783919;-8.52350154;-4.628952797;-8.607583972;-1.860073242;-26.42197544;1.334124809;13.10658164;9.448364285;-7.69271636;-12.06988602;0.821575886;-12.38494791
-8.031479163;-7.516791286;12.08683078;-2.228623477;-8.320510706;-0.644406062;-3.545184472;-9.636525074;-6.513505367;-8.360843479;-1.057286239;-8.342654821;-3.040975536;-6.79378111;2.194418518;-11.94196164;-11.95032619;0.359401007;-12.85677959
-8.660960165;-20.95086292;12.60464998;-0.680632455;-6.29743247;-0.302270986;-2.589178136;-8.811397604;-7.302299105;-7.437979448;-0.41053929;6.049983343;-4.409779749;-26.92812048;-1.746359632;-12.9991053;-11.03291764;-0.558827685;-11.07272147
-11.24816084;-30.95846344;13.21230993;-3.093448826;-5.263068631;0.832937114;0.897840916;-5.664667857;-6.586273124;-5.753521542;-1.046193525;9.384680534;-2.403988198;-39.59567831;-1.726272067;-11.1350076;-10.25668013;-0.704341841;-8.559976488
-15.31277433;-33.14234451;12.89443884;-7.854724839;-5.661771281;2.143790458;4.943814626;-1.587907347;-4.945549232;-4.362929601;-2.515722931;3.564976192;1.217146987;-40.22952508;0.374675653;-8.298399561;-9.697031137;-0.212466301;-7.202202834
-18.98335372;-26.51562551;11.62496266;-12.45455539;-7.154549069;2.525117321;7.173869674;1.542943407;-3.433112103;-4.459536707;-2.781105658;-2.843352519;3.817681794;-29.99197323;1.545893554;-6.657900194;-8.792852669;0.68109454;-7.805500399
-20.12830776;-14.74955961;10.4037227;-14.80897915;-8.70341902;1.231106923;6.514981771;2.818849948;-3.018921549;-6.266653195;0.044803039;-2.474282584;3.855887174;-15.08070265;-0.396822147;-7.172851529;-7.173780908;2.704644456;-9.494687929
-17.97091024;-4.230748078;10.26209401;-14.45420333;-9.278042398;-1.527786371;3.763472091;2.660884607;-4.285325931;-8.841169942;5.544101839;4.677874309;2.087413849;-3.033216844;-5.463031979;-9.054656535;-5.096848333;6.734850988;-10.43966732
-13.93261524;0.263569388;11.18864503;-12.90707166;-8.65905595;-4.711157446;0.722262385;1.93611752;-7.327481584;-10.95070137;10.41045726;12.05561503;0.942287407;1.610183838;-11.45860959;-10.30399569;-3.041246357;11.77546944;-9.319288194
-10.90602648;-0.814450209;12.02871682;-12.84802142;-7.650178284;-7.17187931;-1.235280723;0.841925482;-11.68711192;-12.18733818;10.33914501;13.27088389;2.459902453;-0.538025844;-15.19396522;-8.879507096;-0.975668246;14.20097972;-6.323407555
-11.33960071;-1.985929774;11.50689359;-16.45483682;-7.457144375;-8.385120121;-1.977714459;-1.260061035;-16.31637157;-13.26273834;3.252185233;8.453233386;6.458549509;-5.009950079;-14.21159655;-3.824317778;1.800004883;9.907053513;-2.892551197
-15.48667785;2.817595166;9.448930675;-23.82154406;-8.690904219;-8.639589159;-2.281271887;-4.865272607;-19.77039397;-15.19132167;-8.595099067;4.276512078;10.55253706;-7.072263142;-8.131355647;4.169676979;5.921502112;-1.889862259;-0.461225818
-21.11663109;14.70651077;7.050545765;-32.49389894;-10.80097485;-8.628906287;-2.848712489;-9.203369376;-20.7586819;-18.10570848;-19.47015149;7.467489253;12.11065952;-4.948639851;1.02962104;12.97227013;10.98951122;-16.64305281;0.703986195
-24.91518531;27.70361837;5.890482494;-38.56945648;-12.42207452;-8.858237992;-3.647641551;-12.22440398;-18.84518064;-20.80805457;-23.64361517;17.61597625;10.51570375;-0.517741328;9.706867204;19.91948901;15.38941519;-26.76368421;1.594807246
-24.56025628;32.3149592;6.545032881;-38.84118682;-12.37920739;-9.358100243;-4.102794703;-11.96959574;-14.80801199;-21.51697108;-19.09289565;26.02530203;7.706041366;2.656063931;14.43561988;23.07084168;17.2818907;-27.09658821;3.443283025
-20.02597771;22.63213732;8.058809058;-32.72849372;-10.56069266;-9.856187207;-3.820787834;-8.261541474;-10.293587;-19.21091839;-8.756452911;22.24120662;6.424463095;2.192400485;13.55019712;22.2530969;16.04003906;-19.28801136;6.504551651
-13.33618423;1.64483741;8.777582583;-22.7662929;-7.980902611;-10.14285913;-3.056330851;-3.190418203;-6.905637399;-14.44585991;1.54679889;3.144685619;7.687835464;-1.492501794;8.095907948;19.26996442;12.88524108;-11.07548581;9.69331415
-7.157488762;-19.6515919;7.820195707;-13.25622691;-6.008959839;-10.24791066;-2.444447893;0.216828768;-5.342784254;-8.984406273;6.958799411;-23.0433677;9.839243397;-5.744080919;1.396920542;16.96514183;10.07133283;-10.49627948;11.36874116
-3.342833301;-29.20433692;5.874066288;-7.820521207;-5.38349307;-10.29345925;-2.277420717;0.219654814;-5.195781974;-4.577466468;6.396552463;-41.5545599;10.24369385;-7.601190312;-2.638284699;17.48836482;9.202684287;-19.41385124;10.58026585
-2.323959047;-22.00662353;4.589990367;-7.311480802;-5.750820665;-10.23095177;-2.065533517;-2.276183644;-5.497495704;-1.895054025;2.484473613;-41.2345691;8.240078125;-5.513360749;-1.656485874;20.76202873;10.04998385;-31.72393409;7.728886528
-3.436855128;-3.355468913;5.102305678;-9.353593347;-6.004605858;-9.776140077;-0.860176363;-4.351228396;-5.520797364;-0.380059814;-0.989211227;-22.3;6.535134299;0.162505213;3.764362759;24.24081076;10.84065086;-38.01642837;4.144543961
-5.614882352;15.15553848;6.986266147;-9.83163983;-5.090685653;-8.639663489;1.904502118;-3.243487477;-5.171249976;1.027922246;-1.921447301;4.086883544;9.277378099;7.690624213;10.40315666;24.34672384;9.765751026;-33.15377014;1.018051414
-7.882510985;23.80920563;8.579589815;-5.476143816;-2.669247659;-6.839626054;5.797428849;1.614807806;-4.750280629;3.01302991;-0.932684852;23.68828591;17.92577606;14.65721334;14.29589588;18.81282035;6.439757308;-20.64706094;-1.370934764
-9.543101443;20.92410137;8.386990607;3.967733062;0.750700035;-4.784672428;9.568133408;8.222670848;-4.461401199;5.524443285;-0.144163114;28.20946956;28.33682539;18.36110225;13.14933664;8.402080839;2.140711355;-10.16311532;-3.527853912
-10.3002756;12.61760791;6.336997464;15.28654307;4.14605845;-3.025313193;11.98763;13.47953316;-4.226463385;8.031171638;-1.051070245;18.97045284;32.07849209;16.22296227;7.752475988;-3.252089979;-1.262760656;-10.05244475;-5.949829454
-10.43809004;6.945117914;3.80851342;23.39268951;6.458983079;-1.883980661;12.65446664;15.27866511;-3.986815772;9.968566732;-3.348686963;3.585709657;21.8426712;6.783190637;1.452308362;-11.69416208;-2.696354359;-20.8572574;-8.459834127
-10.83217337;7.47832118;2.439650043;24.12514104;6.961987168;-1.289864441;12.1239689;13.67034375;-4.082989364;10.95866245;-5.509773304;-10.49924238;-2.662875401;-8.857844026;-1.986230432;-14.25176622;-2.414283705;-34.95281859;-10.27864537
-12.48759599;11.38985588;2.785432472;16.68599946;5.466493987;-0.952675093;11.32447711;10.43360053;-5.146569687;10.78408753;-6.340732786;-20.14919172;-32.90554718;-26.29149262;-0.741086062;-11.44443264;-1.375126417;-42.4833994;-10.72548287
-15.71484048;13.02932738;3.977568472;4.277834659;2.425096489;-0.692580581;10.81766119;7.66418646;-7.417808753;9.38642843;-6.023358493;-25.94899031;-55.73270627;-38.99287729;4.010650677;-6.299417623;-0.198814973;-38.73886118;-9.865781075
-19.58628054;9.380097656;4.616308177;-7.524024921;-1.117918257;-0.601891383;10.5229492;6.571285779;-10.08985197;7.028070146;-5.787325453;-28.95496594;-61.14;-41.47750663;8.954434435;-2.184100739;1.268852302;-27.17897249;-8.509569058
-22.33478881;2.537712655;4.043833107;-13.8230852;-3.859533687;-0.881695534;10.04821365;7.222329164;-11.46366363;4.400853367;-6.661128853;-28.689792;-48.36270571;-32.70148427;10.74003906;-0.770665641;3.442225984;-16.06223838;-7.590531291
-22.65277818;-2.676637695;2.868691697;-13.12930264;-4.850777664;-1.515785806;9.224106792;9.049065999;-10.07799719;2.362919684;-8.519696409;-24.21037026;-26.07295225;-17.24554977;7.899543239;-1.50189926;6.152626151;-11.80214382;-7.516771386
-20.95257482;-3.430843876;2.338661557;-8.096615918;-4.0796838;-2.113616356;8.322724077;11.40411455;-6.02955581;1.341795654;-10.26352144;-16.53800075;-6.611122436;-2.999689326;1.440636968;-2.674834129;8.412767979;-14.4826869;-8.062519111
-19.42096464;-1.439198492;3.197748826;-3.730636343;-2.552957424;-2.110644428;7.813342316;13.7059815;-1.304802265;0.915410127;-10.87137381;-9.297154309;1.654408625;3.485339106;-6.015609795;-3.038028707;9.111468568;-18.74736395;-8.816166536
-20.52494672;-1.037621341;5.072955426;-4.094530511;-1.655100054;-1.185782774;7.969959647;15.33027924;1.404883989;0.107357807;-10.30037695;-6.352558682;-1.354649386;0.931113983;-11.75270231;-2.571721154;8.022376319;-18.70311698;-9.665726206
-24.93958343;-4.68021059;6.889662073;-9.574678087;-2.125442814;0.457241063;8.745436467;15.69755631;0.672334627;-1.663274349;-9.426662845;-8.488296301;-8.960480251;-6.221586601;-14.1277189;-1.989893156;6.155512776;-12.49527153;-10.80444215
-30.55144618;-10.19653142;7.858733438;-16.52363388;-3.408159366;2.197268218;9.996129111;14.69245283;-2.448261611;-3.758511766;-9.155335924;-12.42893178;-13.37349457;-11.21088361;-12.91026041;-1.658977715;5.057034984;-3.08631585;-12.26451582
-33.53326263;-12.57117257;8.0999303;-19.61875133;-3.968027789;3.416581464;11.7416588;13.01366532;-5.052910744;-4.502329475;-9.58099892;-13.45172581;-11.05794337;-9.758699872;-8.998682151;-1.065770157;5.631666526;4.662344221;-13.5102434
-30.89125157;-8.818038995;8.369488311;-15.46632186;-2.453242775;3.895576666;14.09857253;11.93076482;-4.526123201;-2.463824134;-9.974334652;-9.41959278;-4.195873306;-2.814295743;-3.987116538;0.64632824;7.511862554;7.56733149;-13.6126809
-22.63;-1.507742227;9.223264685;-5.068217764;1.134936176;3.872366301;16.89093438;12.42083332;-0.562970076;2.115688658;-9.554657566;-2.586373486;2.102001255;4.6594618;0.202229822;3.61732703;9.505727905;5.414946287;-11.96838436
-11.85518972;2.54066092;10.44914046;6.555359153;5.209886358;3.751058744;19.34624588;14.32252974;4.554308302;7.05402103;-8.275291455;2.516006831;4.10314368;7.765415701;1.779099146;6.76386007;10.68410532;-0.364577354;-8.94231801
-2.684237487;-2.302806204;11.29682387;13.41461788;7.576215629;3.734137306;20.29878338;16.29233676;7.696106598;9.592961817;-6.875487458;3.184624925;1.897329262;5.42142825;-0.198401866;8.417605179;11.12040833;-8.54346553;-5.789752528
2.455750101;-15.3984024;11.2450167;12.28235662;6.936588724;3.693006878;18.88306456;16.74329718;7.271606884;8.469114441;-6.181185845;0.85169487;-1.458532158;0.963989247;-5.096583277;7.636299428;11.666331;-18.3599344;-3.816404535
4.104137785;-29.57641948;10.53801685;4.641647849;3.797126058;3.35742396;15.20075139;15.0797377;4.342278108;5.005813863;-6.354495243;-0.529423758;-2.832896518;-0.697362142;-10.59235929;5.037986411;13.05674864;-28.24836578;-3.43974112
4.741280441;-36.22895455;9.967403564;-4.408205401;0.081848471;2.619905412;10.37251022;12.20400899;1.579885885;2.199051147;-6.816350767;1.555090598;-1.392109408;2.971035951;-13.63166454;2.354123479;15.21831364;-35.04352351;-3.958779694
6.423743111;-31.76803254;10.11580717;-9.486889411;-2.233883021;1.668565403;5.855996772;9.822115658;0.965113201;2.400316375;-6.887751422;5.6854347;1.231577111;10.16737179;-12.16891246;0.993362405;17.38262265;-35.3525619;-4.254105736
9.04124209;-20.247892;10.79970199;-8.24571078;-2.41364994;0.840254001;2.531344568;9.078634521;2.156153453;5.438854519;-6.47524805;7.927049241;2.655219816;16.22547556;-6.623198425;0.806221307;18.78819448;-28.44753248;-3.823816149
10.53411968;-10.09826733;11.25277134;-2.519678046;-1.225895891;0.348109131;0.272778263;9.640614029;2.872365159;8.75586549;-6.071986329;5.863674375;1.643139663;17.27801245;0.086162231;0.140296325;19.22060743;-18.0068782;-3.248779687
8.745887788;-7.741987577;10.87579095;3.262404399;-0.092468029;0.141788394;-1.670881911;9.997325142;0.932524283;9.49129;-6.032229827;1.344139297;-1.291388011;13.25289539;4.204165773;-2.773101192;18.90157316;-10.50576122;-3.672141765
3.29564527;-13.27303073;9.831981003;5.156031383;0.097552025;0.019378712;-3.838207113;8.737250426;-3.793323909;6.824566919;-5.861696929;-0.882055681;-4.712806479;7.950286882;3.542795565;-8.186303605;17.98908865;-10.87078382;-5.750583081
-4.027616086;-21.39184664;8.911357901;2.166865576;-0.454667421;-0.132410421;-5.9781547;5.762236839;-9.154381659;2.638945082;-4.372670772;2.40184258;-7.486605811;6.197086973;-1.010273244;-14.2954905;16.37916421;-18.69728201;-9.009661187
-10.52352413;-26.2724441;8.78548144;-3.379642854;-0.876196454;-0.210896914;-7.200926767;2.472490217;-12.37085965;-0.017782553;-0.804363481;9.498295311;-9.312468722;10.20421596;-6.008529237;-18.29031507;14.1251195;-28.30199346;-12.17917075
-14.33132229;-25.93112554;9.360106257;-7.548324288;-0.524064542;-0.012682879;-6.689737571;0.813132243;-12.15247735;0.644440223;3.969315388;14.88707237;-10.35962907;17.72772876;-7.73128271;-18.23963107;11.99138399;-32.90490702;-14.20904107
-15.27631818;-22.56444994;9.848150412;-7.287800261;0.461052149;0.510635907;-4.353078316;1.964702397;-9.529952459;3.878024028;7.328426686;14.17701036;-10.6603843;23.26132879;-4.698785129;-14.41504801;11.3232001;-29.75219544;-15.05748405
-14.35900778;-19.21334532;9.505587427;-2.141740375;1.373071783;1.096187846;-0.902127382;5.655178371;-6.78916285;7.25310872;6.335024512;8.546649185;-9.989596058;21.39559302;1.326053717;-9.108639577;13.01983972;-22.05526736;-15.55287451
-12.62085173;-16.38331596;8.33946963;5.666757142;1.623339953;1.273041392;2.632638566;10.47964755;-5.50571019;8.793337784;-0.117505478;4.370493889;-8.303502696;10.15214045;6.547191619;-5.148729087;16.43801316;-16.1563477;-16.47374602
-10.49097645;-11.98449843;7.111739899;12.56851286;1.203109609;0.662223545;5.476980627;14.81166987;-5.37265023;8.494968905;-10.0048744;7.815663454;-6.164914116;-7.703598158;7.708475897;-4.227487884;19.43493837;-16.25498276;-17.70544595
-8.0413967;-4.523140283;6.6187269;15.50637426;0.529309434;-0.757335351;7.324460425;17.56149617;-4.748425432;7.979989516;-18.85856292;18.80679105;-4.586542297;-26.00055009;4.254164418;-6.155017126;19.90013364;-21.01892598;-18.2659327
-5.598558122;3.845078173;6.912995558;13.37470328;-0.085435597;-2.620181681;8.142521572;18.36773287;-2.344513563;8.746904137;-22.20553175;29.73972201;-4.333199634;-38.24737761;-1.364914285;-9.350357671;17.65481064;-24.77881291;-17.1993432
-3.844999309;7.84060158;7.205610061;7.475431985;-0.739144443;-4.396387959;7.916501731;17.38560637;1.45995771;10.70699034;-18.23448926;30.59;-5.301684512;-40.74090314;-5.368615536;-11.98797148;14.92984835;-22.18665194;-14.53028723
-3.170368012;3.257565787;6.567152316;0.890411684;-1.684707147;-5.69169353;6.66171335;15.08882562;4.786855003;12.34927229;-8.926240608;16.67186519;-6.568361657;-34.14239972;-5.107993251;-12.92336967;14.6384214;-12.45959915;-11.39018428
-2.938695377;-8.759392631;4.803651432;-2.954605631;-2.788880455;-6.417893281;4.66803857;12.25911741;5.704408106;12.31920861;1.104547091;-7.132564423;-7.091912432;-22.84778529;-0.674122384;-11.92853597;17.67567858;0.108040218;-9.156787322
-1.590548892;-21.48856551;2.706008311;-1.967044956;-3.33708159;-6.748350054;2.622353666;9.942113268;3.686265832;10.86999775;7.287669376;-29.17522015;-6.466928204;-12.57287048;5.298655812;-9.402866697;21.69600291;9.442886641;-8.34125828
2.213866584;-27.26581156;1.427596789;3.450305863;-2.530554544;-6.935039482;1.328314134;9.075247545;-0.100186678;9.763383969;7.574819627;-38.79841699;-5.10059953;-7.424474603;9.350472088;-6.023601791;22.87260235;11.83921268;-8.208015223
8.24661709;-23.43883348;1.528888438;10.42961931;-0.333678554;-7.135826127;1.154507398;9.851522811;-3.802928331;10.63986889;3.232460861;-33.12877543;-3.732462965;-7.990980205;9.22699862;-2.602128998;19.53227551;7.681555352;-7.483216862
14.36840393;-14.61795399;2.526268173;15.0374951;2.115302135;-7.352397731;1.680009766;11.30225918;-6.258590797;13.31900249;-2.354337537;-18.00789582;-2.801893356;-11.48660513;4.968552482;-0.036244671;14.48391952;-0.094432843;-5.548118946
17.67881347;-9.083210248;3.327804765;14.42672578;3.051759464;-7.479681013;1.90915123;11.58812722;-7.624380434;15.61139073;-5.915034546;-2.979119762;-2.244281276;-13.85562238;-1.454199054;0.882492173;13.41273038;-8.813755976;-3.074917399
16.40798606;-12.11119817;3.151217178;8.521214868;1.308277936;-7.403747248;0.948656262;8.990195793;-8.919257028;14.91269935;-6.098577212;5.271157193;-1.824856826;-12.5360114;-7.514285365;-0.175751205;19.8731546;-17.44507251;-1.539096408
11.11338828;-21.69356314;2.112791001;0.128630617;-2.720572756;-7.084765851;-1.382072854;3.001044218;-11.04901951;10.2867256;-3.846275069;6.07433226;-1.5831169;-8.077258321;-11.52978753;-2.837883161;30.72945791;-25.67521879;-2.018314971
4.244514153;-30.21890569;1.004256519;-6.706343761;-7.202206717;-6.59074397;-4.49515973;-5.233598556;-14.17196214;3.319671849;-1.338574408;3.022474972;-1.885502412;-3.491875063;-13.25871889;-6.189804252;36.35676016;-32.23451016;-4.306978578
-1.576278157;-30.72571318;0.517590515;-9.120736937;-10.07573914;-6.069278;-7.535119658;-13.42346229;-17.76811236;-2.91154452;-0.377059281;-0.123886687;-3.024714043;-1.788026208;-13.49478176;-9.304705679;26.61512862;-34.71832079;-7.098415894
-5.214365487;-22.52133001;0.650432259;-7.056127438;-10.45653917;-5.660301737;-9.956502923;-19.22194945;-21.08892578;-5.845719445;-1.27169524;-2.009264601;-4.802242325;-3.513628002;-13.13684164;-11.74730171;-1.162376476;-31.48318215;-9.062869027
-7.397712658;-11.55254283;0.812006576;-3.023512795;-9.153748111;-5.385133606;-11.67391652;-21.18895903;-23.45862601;-4.813917959;-2.844051811;-3.112796585;-6.572687128;-6.231836143;-12.47462719;-13.6459037;-38.27345284;-23.85641515;-9.889515258
-9.664963504;-5.379399942;0.475766502;-0.229722517;-7.9072797;-5.088197294;-12.73540946;-19.15718229;-24.28108403;-0.896356029;-3.401414212;-3.642708525;-7.759381984;-6.423136034;-11.17821293;-15.29252417;-68.56165401;-16.22310703;-10.41701572
-12.86011834;-7.103400027;-0.27219616;-0.413467809;-7.963913279;-4.507952502;-12.96087313;-14.04754168;-23.06810797;4.258339896;-1.963367024;-2.633809778;-8.339404761;-2.373410504;-8.910019531;-16.65568174;-78.1720474;-13.30964871;-11.77912872
-16.38375775;-13.31334122;-0.810087891;-2.876137779;-9.121182601;-3.474715604;-12.02166033;-7.483920106;-19.79017178;9.421437055;1.061561816;0.795509279;-8.777737438;4.288966088;-5.997973213;-17.27023888;-64.49544134;-16.61741235;-14.32737988
-18.6648343;-17.52625723;-0.592401206;-5.256259632;-9.965540724;-2.112849467;-9.961092128;-1.433027186;-15.35624921;13.83019261;4.146559738;5.686232978;-9.425489966;9.759229488;-3.555409211;-16.6182401;-37.81139613;-23.01850371;-17.24669948
-18.30923584;-15.90003906;0.299336729;-5.328294808;-9.064662116;-0.870151444;-7.62634446;2.208610247;-11.62342697;16.65760195;5.640115239;9.318454908;-9.978170744;11.08562923;-2.858860125;-14.65579829;-14.30537969;-26.91889168;-19.1538718
-14.96735876;-10.23528251;1.194257921;-2.470278314;-6.138615261;-0.290724751;-6.447433289;2.221493037;-10.56405573;16.86253619;4.803671379;9.504315611;-9.613780859;8.592377947;-4.402653132;-12.00258208;-5.460862236;-24.43551107;-19.13760139
-9.386511294;-5.87;1.422632766;2.140561769;-2.306604318;-0.648620099;-7.555742656;-1.294605642;-12.9883763;13.86635023;2.208712349;6.917402634;-7.802338637;5.601076632;-7.381464584;-9.621046621;-11.42320357;-16.29065821;-17.37932767
-2.868888918;-6.61154272;0.906911875;6.505101632;0.719377919;-1.70846684;-10.89692106;-6.72853629;-17.81705602;8.451638378;-0.742491123;4.867502366;-5.059091721;5.565578893;-10.10784826;-8.274846046;-22.77277838;-7.134677203;-14.9157689
3.270815796;-11.32530519;0.212279584;9.05499891;1.806283716;-2.825964946;-15.12003906;-11.60287839;-22.64779552;2.816622702;-2.800436688;6.295666257;-2.827094978;9.001075883;-11.17518663;-8.22872497;-28.73063219;-1.91169369;-12.84477301
7.910251654;-15.13235193;0.028655654;9.29808954;1.036583482;-3.353022395;-18.4315063;-13.85442774;-25.34057059;-0.600930682;-3.64113578;10.69559431;-2.404107216;12.93212815;-10.5368912;-9.375963225;-25.18566936;-2.212406538;-11.67528943
10.14782176;-13.95793743;0.576587662;7.645420244;-0.589541351;-3.058218072;-19.77474355;-12.94364644;-25.41534637;-0.702006582;-3.89199465;14.15900715;-3.768851655;13.54494758;-9.62798215;-11.53539998;-16.6003407;-5.404186266;-11.27876163
9.488048731;-8.221067373;1.472198925;4.868956008;-2.035376407;-2.236608056;-19.38498747;-9.974676947;-24.10778352;1.657177229;-4.454953437;12.98799948;-5.414885007;9.898800571;-10.32556736;-14.50188295;-11.04657017;-6.960989396;-11.30544239
6.203027844;-2.340517445;2.131034634;1.740793844;-2.953165652;-1.420318261;-18.29042046;-6.721577291;-23.02806748;4.608922192;-5.711818799;7.715824898;-5.513317333;5.361568967;-13.4667117;-17.73967779;-13.01580241;-3.931532216;-11.5580109
1.482224994;-0.57477844;2.286958439;-1.013946831;-3.741996066;-0.930133363;-17.25443203;-4.342824553;-22.60079286;6.948428957;-7.265637341;3.449861024;-3.502399367;5.100993018;-18.07608153;-20.0847585;-19.9610522;3.102572319;-11.97620288
-3.003116081;-3.022669577;2.129304042;-2.741841881;-5.006814956;-0.646843369;-16.1456591;-2.830338153;-21.70504415;8.976294641;-8.40215084;5.476264974;-0.652703954;11.31311822;-21.97872622;-19.96726132;-24.9916462;10.68963621;-12.36287177
-5.988194093;-5.438163713;1.970024414;-3.130576604;-6.923630403;-0.195128816;-14.31291258;-1.58405838;-18.88629354;11.69162813;-8.828934155;13.60423622;1.08898206;20.145042;-23.38492905;-16.26017428;-22.94193494;14.80560071;-12.27297912
-7.306064621;-3.057373249;1.827145771;-2.574234092;-9.002903173;0.630916159;-11.57722415;-0.466944155;-14.05163339;15.12950899;-9.001300523;20.58625973;1.125907645;23.37121102;-22.19127119;-9.220659397;-14.51682369;12.93364613;-11.30403584
-7.773734748;4.980115538;1.381456944;-2.169633258;-10.37488051;1.596665052;-8.817979385;-0.222244516;-9.012636997;17.59514248;-9.705594236;16.99864295;1.246776015;14.23530834;-19.88872425;-0.718412974;-5.248384612;4.855822804;-9.565126259
-8.321143673;14.58119453;0.365171203;-3.078211709;-10.33983821;2.181936238;-7.448764926;-1.716175192;-6.184985114;16.83762193;-11.2473557;-0.653246823;4.374953917;-6.722162968;-18.07930855;6.623600861;-0.571756167;-7.59513405;-7.838468758
-9.113119238;19.99981617;-1.024065658;-5.592199529;-8.803871102;2.052485324;-8.115090018;-4.63659212;-6.4339201;12.34994713;-12.99;-25.28631696;11.62915527;-30.5555988;-16.81802494;10.90137965;-1.457271387;-21.0847674;-7.168761979
-9.473787268;18.62132678;-2.149230555;-8.678534445;-6.365940409;1.43166238;-9.771696702;-6.962015653;-7.977310203;6.670651341;-13.72898342;-42.64223926;20.02360056;-44.97563559;-14.27560086;11.97965458;-4.203107295;-31.45201893;-8.133851271
-8.711520599;13.06482806;-2.441953655;-10.53945329;-4.052785302;1.008218064;-10.1114754;-5.99987709;-7.511224718;4.140087891;-12.65731688;-40.99754567;23.12598664;-42.33544063;-8.219777421;11.33438697;-4.182036403;-34.94900255;-10.37879748
-7.072832376;8.80655144;-1.935290444;-9.916903554;-2.850978902;1.405027275;-7.200355361;-0.422498229;-2.844549956;7.715026842;-10.11267136;-19.9812963;14.95014542;-24.82534496;1.734759781;10.817053;0.011454255;-30.12651541;-12.81169478
-5.849445003;9.441127964;-1.289845176;-7.151162655;-3.234531099;2.631220561;-1.067028113;8.315195542;5.083122576;16.33830404;-7.417281644;8.541167876;-5.300790827;-2.988991453;12.98030626;11.3123042;5.625446904;-19.32242016;-14.31504601
-6.382115276;13.70928594;-1.234389142;-4.063239516;-4.888196024;3.991692108;6.095297357;16.50992157;12.58306526;25.22285052;-5.874827248;28.58262759;-31.18034437;11.44973753;21.06208637;12.32226954;8.577785346;-8.157136088;-14.40861227
-8.747082897;16.80666272;-1.906761225;-2.618527757;-6.793161358;4.566475837;11.38003906;20.53027087;15.86670007;29.15874405;-5.736855313;31.12400926;-51.67772145;13.24124644;22.53696193;12.72542871;7.268161637;-2.518129919;-13.37748511
-11.32076994;14.7266879;-2.710710466;-3.356872794;-7.716219252;3.893090293;13.1651464;19.24892444;13.91486408;26.3994333;-6.027190638;19.75528376;-57.39954597;6.245849998;17.49033348;11.97984747;3.913177135;-4.678777482;-11.86301622
-11.75783056;7.799128984;-2.848385296;-4.862722845;-6.909411208;2.299263389;12.06530028;14.70350134;9.244933307;20.03229833;-5.408416726;6.751491848;-46.33607744;-0.581717288;9.719542591;10.69543361;2.348827445;-11.50918243;-10.34922654
-8.708746825;0.384381799;-2.055747233;-4.790621926;-4.612218656;0.612254186;10.09596123;10.44942238;5.913448494;15.65647252;-3.374658854;3.004876614;-25.28359085;-0.473112217;4.260769832;10.0768238;4.455100614;-16.62155158;-8.977439498
-2.903067176;-2.912076656;-0.857789395;-1.723963722;-1.965877989;-0.512423417;8.797538289;8.901562906;6.337496208;17.15298122;-0.746899774;9.885169011;-5.826144616;6.275763596;3.968858773;10.73790375;8.492229806;-15.24070312;-7.729608405
3.313298743;-1.15011142;-0.091360389;3.56886307;-0.291138583;-1.082375839;7.934290959;9.76;9.481949497;23.87463389;0.974290269;19.19593173;2.524228582;13.35197502;7.652683827;11.95080218;10.78649501;-8.070288305;-6.650124772
7.633480595;2.276877704;-0.129843106;8.500750261;-0.160628448;-1.672840172;5.877779704;10.70119418;11.83753731;31.4056257;0.860365543;20.68883168;-2.458914416;14.15087469;11.14902714;12.03581977;9.140210049;-0.832884911;-5.797808725
9.300942216;2.711378883;-0.540733559;10.43509357;-0.938219686;-2.833712228;1.333828678;9.649030419;10.34756632;35.13420194;-0.658947651;10.68026939;-15.36747751;7.356701204;10.51741293;9.632501121;4.844114452;0.461501502;-4.993922801
9.293303987;-1.652861657;-0.516544485;8.554688033;-1.199362184;-4.507242019;-5.087743634;6.681490469;4.909504072;33.68178678;-2.146500369;-5.107455796;-27.45101748;-2.064791529;4.959338271;4.840776166;1.51861504;-5.218000505;-3.746140568
9.147722921;-8.080739772;0.311381759;4.451267139;0.189118191;-5.953788208;-10.8444391;4.009665834;-1.491082923;29.5316658;-2.329533225;-16.28067688;-32.26240947;-7.026113965;-2.671235681;-0.685458977;1.900542216;-12.6103257;-1.614156962
9.533458512;-11.34278038;1.452023148;1.029642627;3.095141264;-6.258189559;-13.07329979;4.124304377;-4.995901591;26.63993596;-1.070206102;-15.76558395;-28.84515137;-4.038417596;-8.02663966;-4.767370716;5.492178035;-14.19053104;1.194658673
9.810432392;-7.705098351;1.959178841;0.561611364;6.014508134;-5.013260057;-10.58985458;7.713558088;-3.600048828;27.24964961;0.681654549;-4.577176846;-20.83872151;4.200048828;-8.35925331;-6.054379151;9.128367767;-6.399354489;3.581382966
8.860994208;2.3321246;1.317346511;3.284242073;6.989318724;-2.643929657;-4.725453982;13.06476369;1.67288656;30.53626532;1.838753514;9.913579645;-12.93788427;11.31497232;-4.235759709;-4.710522403;9.85192974;7.142245165;4.078233655
6.330324939;14.43820936;-0.021954001;7.447068875;4.945107975;-0.138555419;1.57693346;17.35209061;7.793574267;33.9014893;2.106079182;20.02466097;-7.73674433;12.61758584;1.239189402;-2.039933312;7.458102588;18.31133851;1.905995527
3.097401012;23.25213835;-1.001264829;10.62657678;0.505962068;1.57889912;5.618354991;18.65684458;11.84988988;35.42301458;2.026477709;22.85908007;-5.104475001;8.824743269;4.855075438;0.505553575;4.468658701;20.98555471;-2.239184558
0.573337023;25.20998725;-0.93802631;11.29341498;-4.288708585;2.158228035;6.333923685;17.08212001;12.55209525;35.18699532;2.156227805;20.75304915;-3.863618248;5.136312322;5.414266998;2.115671628;3.685757852;15.94230264;-6.40664893
-0.463413082;19.60437176;-0.232763908;9.594622255;-7.160112202;1.886904278;4.35828131;14.23067738;10.25502934;34.52206397;2.258474747;17.72668879;-3.726979549;6.574306634;4.048297525;2.715716701;5.642862772;9.951055053;-8.607424575
-0.37901081;7.965165705;-0.101965363;6.987821862;-6.854715777;1.357519727;1.061321581;11.72870223;6.014716002;34.18768342;1.422601492;15.74204885;-5.596789766;13.55731126;2.802245959;2.535893204;8.269758521;9.76360066;-8.171023948
-0.092652734;-6.882759793;-1.496995379;5.148838277;-3.709940016;1.056332137;-2.435998781;10.14935506;0.825065982;33.440917;-0.885734787;14.00851799;-10.10719401;21.42432608;2.859099121;1.71157969;8.986692165;16.14047818;-6.188235552
-0.019222809;-21.15373366;-4.142574477;4.926494796;0.708435501;1.156621222;-5.523752923;9.119396662;-4.38509942;30.8905574;-3.842783636;11.25908142;-16.02822734;24.30663734;3.824476965;0.285295721;7.205312204;23.12650114;-4.65741342
0.354790246;-30.28510387;-6.589336411;5.923306184;4.505616797;1.556551312;-7.766627867;8.21526332;-8.445144945;26.2078133;-5.464347987;8.134956851;-20.31619736;20.13184047;4.411737482;-1.517999129;4.885018227;23.31670827;-4.977874412
1.7873093;-30.09917344;-7.317694932;6.816582551;6.279612352;2.005425382;-8.668145658;7.59383195;-10.15788097;20.88943478;-4.093686118;7.047389768;-20.08998425;12.58583631;3.686813773;-3.166714165;4.637804521;14.62028469;-6.962479832
4.142832193;-19.14240933;-5.994030794;6.149758622;5.499146054;2.179707959;-7.989351122;7.718110988;-9.210683953;17.18602192;-0.010713384;9.658695757;-14.99556563;8.313927802;1.736542134;-4.091806736;7.169125789;2.583987645;-9.116088343
5.997882434;-0.727519345;-3.803343672;3.169197426;2.473596893;1.728567144;-6.318663104;8.548518607;-6.96462155;16.11859817;4.362594846;14.64329844;-7.908614865;11.50047037;-0.667934416;-4.143442341;10.47146533;-3.965636336;-9.89375114
5.570138672;17.41732664;-2.546764538;-1.691068279;-1.860883467;0.397510329;-5.138581295;9.157468482;-6.075215608;16.46343498;6.142751175;18.23372223;-3.195318903;20.11769135;-2.885457495;-3.78473238;11.57663196;-0.452464843;-8.87733222
2.290531164;26.60096993;-3.244152543;-6.938279866;-6.22143823;-1.758216918;-6.003233307;8.315945075;-8.812698659;15.75020819;4.368629202;17.39858594;-3.744627489;26.87826087;-4.84524387;-3.789416474;9.301399447;9.122480794;-6.935602814
-2.399563121;21.97519499;-5.402857791;-10.77818166;-9.372782646;-4.235863833;-9.319989915;5.604048222;-15.23429384;12.45164145;1.069609026;12.86116176;-9.018817033;24.29329091;-6.778916202;-4.68301636;5.46425401;14.89446277;-5.330845814
-5.905595219;5.525496779;-7.534948434;-12.16833231;-10.64420394;-6.225979831;-13.76446565;1.997831684;-22.77179534;7.393637143;-0.137672292;9.044085171;-15.57350898;10.10260196;-8.681276984;-6.426711632;3.397688062;8.87564247;-4.6196405
-6.451385003;-14.91897992;-8.436755907;-11.55091083;-10.34215962;-7.036453232;-16.96671989;-0.706597597;-27.8027248;3.082263797;2.928627179;10.60694273;-19.54460515;-10.88817243;-10.18548768;-8.619898377;5.024476017;-8.507707771;-4.312906278
-4.561624473;-30.05136582;-8.121111552;-10.69692021;-9.688206846;-6.524015149;-17.05983478;-1.209462341;-28.13019343;1.535996175;8.749651715;18.26768384;-19.11577981;-29.78415994;-11.04275442;-10.99227833;9.097526629;-28.34516794;-3.53846002
-2.736198422;-33.89161041;-7.64393281;-11.59755231;-10.12469123;-5.17354788;-13.90151191;0.374043338;-24.44111649;2.582449811;12.63372307;27.4048887;-15.16381529;-39.10071616;-11.6822279;-13.65991012;12.2054932;-39.61633868;-2.045324499
-3.460846993;-26.05337426;-8.056592006;-15.04417978;-12.32251911;-3.709821734;-9.000899246;2.802480221;-19.57234251;4.149106972;9.977909569;30.8084324;-9.89825163;-36.88736907;-13.13946523;-16.84085733;11.69913209;-36.86693588;-0.599792575
-7.118455939;-10.64948692;-9.456663733;-19.90699515;-15.5852331;-2.524967981;-4.259593888;4.914758121;-16.21209893;4.233285133;-0.050639509;23.67422313;-4.938565008;-26.92076582;-16.21518193;-20.27952795;7.982627302;-23.31387804;-0.386860982
-11.51230864;6.562830894;-10.96316715;-23.75344024;-18.18333388;-1.404781274;-0.633444274;6.60994742;-14.96697948;2.685591839;-13.28229735;7.209394811;-0.532602336;-15.43863441;-20.53728842;-22.98796028;4.170847584;-7.544862552;-1.9319422
-13.43093633;20.48810576;-11.57675024;-24.49454945;-18.49944521;0.177760982;2.153753313;8.661742097;-14.38087634;1.132980546;-22.91924506;-11.68105121;3.625011613;-7.178260461;-24.4487105;-23.70007813;3.440789532;2.851603785;-4.49776557
-11.03967884;27.45923461;-11.10036694;-21.90534335;-16.20573714;2.418406127;4.697982363;11.53927922;-12.77353656;1.137729233;-23.9542191;-24.27330154;7.080237874;-3.433495464;-26.01720874;-21.79777685;6.425049989;5.45693717;-6.51273005
-5.247595052;25.27989363;-10.28738308;-17.85257612;-12.5925036;4.748596;6.771109637;14.40371707;-10.16538543;2.391108569;-16.46439305;-24.78606089;8.361601031;-2.830058594;-24.46549934;-17.97071272;10.91013653;2.34766037;-6.710931635
0.93050674;13.8110745;-10.12326701;-14.98990054;-9.762160837;6.05366374;7.137867381;15.38014397;-8.4869195;2.763436361;-5.404900229;-13.15914094;6.243430907;-3.391670904;-20.84906899;-13.99669657;14.00492192;-3.589179379;-5.073269188
4.395164877;-3.890982522;-10.93415906;-14.8718867;-9.254958188;5.456141556;4.632603814;13.06758467;-9.815565482;0.30630794;2.875568468;5.323778878;1.394770553;-3.916361302;-17.34540529;-11.71373592;14.72986319;-11.2766434;-2.843023824
3.760357129;-21.39654675;-12.1369304;-16.93104977;-11.10117542;3.073399873;-0.430470549;8.041376115;-14.1920563;-4.599762231;4.786886881;22.76252286;-3.320434516;-3.87314711;-15.65763845;-11.92863259;14.64222881;-20.71738183;-1.65545836
-0.294806233;-31.14010369;-12.82129428;-19.10702606;-13.95;0.115527396;-5.876667037;2.937975189;-19.03657543;-9.049447749;1.352292881;32.01536177;-4.564977898;-2.640535786;-15.80851616;-14.07564472;15.95862016;-30.41246598;-2.496330619
-6.044717767;-28.57061717;-12.58818277;-19.60295341;-16.09133968;-1.823798301;-8.884784086;0.816333292;-20.86400971;-9.795116585;-3.325983055;29.33703631;-1.084255771;0.588778478;-16.3148844;-16.82799687;18.989813;-36.43073723;-5.242354406
-11.99487518;-15.51181348;-11.86802903;-18.33708144;-16.54422671;-1.794090534;-7.978835963;2.957760199;-18.00638066;-6.058225628;-5.518393042;15.61587793;5.073490381;5.884965438;-15.59650037;-19.09559416;21.40767113;-34.89691545;-8.976427838
-17.37118458;0.185803175;-11.46592422;-16.91975758;-15.43636638;-0.077790234;-4.216420184;7.832552897;-12.11101642;-0.511246283;-4.50373233;-4.021569241;9.935221139;11.66960529;-13.43831751;-20.57971144;20.22475928;-25.91852202;-12.65260028
-21.72589479;9.194220465;-11.80968152;-17.21408767;-13.55010848;2.082192876;-0.546443881;12.10412093;-7.124650809;2.565631492;-2.559038895;-22.24133981;10.67718016;15.17539645;-11.27557797;-21.5173642;14.81273024;-14.95141911;-15.53593057
-24.42584817;6.62665002;-12.62216364;-19.71064666;-11.57600425;3.383227411;0.245778072;12.94625095;-6.51270973;0.545878655;-2.668089885;-32.66069658;7.904040084;14.44854645;-11.05547162;-22.00687181;8.134382547;-9.504074089;-17.21
-24.76293897;-4.927692598;-13.2906491;-23.07822882;-9.741485635;3.301831778;-2.54770894;9.930058594;-10.88257332;-5.5188962;-5.993630184;-32.81138821;5.112199416;10.38417307;-13.6158122;-21.66982377;4.762146795;-13.36645589;-17.40822899
-22.62740647;-17.59285137;-13.51719611;-25.23967541;-8.02128635;2.280899389;-7.217817786;5.116926132;-17.80650348;-11.75657656;-11.08333998;-25.19392928;5.618944698;6.754671371;-17.91045497;-20.0411662;7.096829879;-23.25433963;-16.02649813
-18.97127713;-24.03696502;-13.57625905;-25.03509848;-6.557152132;1.220862145;-11.04175699;1.422559315;-23.83107817;-14.46119193;-15.19740199;-15.52051544;9.497665585;7.567720383;-21.69022307;-17.32294755;13.01377391;-31.13657093;-13.35761453
-15.40628168;-22.54739469;-13.92226297;-23.07187871;-5.756209367;0.755485632;-12.25263274;0.604645955;-26.95751613;-12.73714212;-16.45969065;-9.067635038;13.27047562;13.42920865;-23.04727427;-14.69612377;17.23945067;-30.70181219;-10.22427486
-13.12992717;-17.57469655;-14.56473977;-21.09835625;-5.918122856;0.882939328;-11.06244628;2.362384706;-27.66521079;-8.734676903;-15.07357279;-7.567494122;12.89947625;19.89966896;-21.56820936;-13.70056529;15.69605987;-22.6140004;-7.690468446
-12.11149126;-15.57079543;-14.89068509;-20.51222209;-6.768060782;1.153545723;-9.104887923;5.017452427;-27.89884367;-5.513879206;-12.81208246;-8.843989573;7.707834048;19.7541976;-18.24724907;-15.0275104;9.351909926;-13.94074782;-6.433031561
-11.32965875;-19.61296994;-14.18812847;-21.31089492;-7.423787802;1.143580358;-7.952728091;6.997701211;-29.11812801;-4.509176028;-11.43802452;-9.336609184;1.743288801;8.126627365;-14.39244391;-17.6908727;4.143247615;-12.02517155;-6.264588923
-9.905680059;-27.08392111;-12.40987817;-22.32585398;-6.943474994;0.772854547;-7.981990378;7.882142464;-31.10926864;-4.701390162;-11.42702498;-7.318516121;0.932031844;-13.05003906;-10.56606475;-19.36873511;6.488660274;-17.95329359;-6.27897245
-8.094398684;-32.02929592;-10.41344925;-22.40741507;-5.040158968;0.253393503;-8.374553498;8.343923959;-32.39381734;-3.952742569;-11.90050344;-4.032565429;7.874569856;-34.91349437;-6.462412918;-17.82177303;17.55955834;-25.30894256;-5.595368185
-7.146234859;-30.01357183;-9.352525388;-21.40957861;-2.342895594;-0.172828312;-8.005410183;9.318099039;-31.62913214;-1.080417425;-11.5853315;-1.80800718;18.46655845;-46.59073295;-1.712861999;-12.41212882;30.85599483;-25.4669486;-4.129289059
-8.058884305;-21.47069503;-9.697855576;-20.08783343;0.054211933;-0.39301406;-6.301691324;11.24552618;-28.66379886;3.217319743;-9.872887177;-1.008956389;23.57680066;-42.12764861;3.246351676;-4.604341431;35.48929633;-15.00747917;-2.731052095
-10.31186465;-11.05502251;-10.77559249;-19.09469558;1.399314582;-0.342738612;-3.394491777;13.95447689;-24.43150405;7.235433436;-7.175995192;1.077094741;15.2416037;-24.58861807;7.150953235;2.930787093;23.3692979;1.116009718;-2.529936734
-11.81499528;-3.886558373;-11.304465;-18.1289056;1.778497142;0.151843598;0.328147349;17.0448138;-20.02429884;9.910159489;-4.498308123;7.882835793;-6.914605765;-4.218766897;8.849595991;7.951501424;-4.616067961;13.46380398;-3.998667929
-10.31153096;-1.948684322;-10.51936697;-16.14452903;1.909390117;1.343583557;4.618142982;20.23387195;-15.96311;11.63685257;-2.731239713;19.4457302;-33.99447564;8.265836191;8.419457619;9.848103901;-37.9467526;15.80108384;-6.517138454
-5.191310365;-3.395123974;-8.897282399;-12.48484599;2.460594406;3.287540357;9.256733861;23.32705225;-12.31188929;13.60498059;-2.224734082;30.30913526;-52.6563095;8.618697517;7.44095893;9.634413923;-62.14534392;10.03173306;-8.81704459
1.774735642;-4.844773248;-7.803417829;-7.846869489;3.524100082;5.568416914;13.64068179;25.98360975;-9.323239663;16.46454209;-2.777669294;32.05410056;-53.44915087;1.331255102;8.075164111;8.894516737;-67.20198121;4.166880537;-9.955984515
7.44630698;-4.334761482;-8.318277193;-4.036419943;4.689944395;7.366829629;16.68669146;27.69374258;-7.746137403;19.69863592;-3.840560458;19.3294297;-36.89641878;-4.330725957;11.57216107;8.584058318;-53.26308216;5.136002279;-10.02474332
9.333483789;-2.44622902;-10.25652079;-2.555069596;5.589838834;7.934876026;17.3958345;28.12184543;-8.315700461;22.2581573;-4.718288768;-5.063409688;-13.03562875;-1.561920407;17.32349588;8.562294677;-29.98649405;12.71198365;-10.01435528
7.089043692;-1.071501875;-12.25634952;-3.2114836;6.334334257;7.156656864;15.70303647;27.50304117;-10.87042308;23.69607978;-4.770618421;-30.40241141;5.218976763;8.787088615;23.16662303;8.052713078;-10.24599847;19.84029758;-10.96634263
2.409760996;-1.40049492;-12.89415052;-4.083394298;7.380554308;5.716377663;12.80731088;26.62428267;-14.05371883;24.55195041;-3.690882616;-44.20719389;10.1548008;18.80200593;26.70586263;6.50080539;-2.50643571;19.07208566;-13.10771695
-2.413010269;-3.085382621;-11.8724127;-3.056392967;8.93265239;4.666416818;10.52027034;26.27760617;-16.09703938;25.55587689;-1.769844088;-40.29372059;3.221343057;19.34581899;26.69854289;4.09068074;-6.742331673;9.455494093;-15.65644134
-6.041890684;-5.06778339;-10.25056325;0.260668109;10.46548683;4.681830631;10.03354362;26.61154067;-16.14462651;26.50730225;0.138521396;-22.88080267;-7.445994616;6.803354334;23.59888492;1.582190435;-16.0609997;-2.206901709;-17.41396921
-8.583887778;-6.824893292;-9.519586247;3.922975417;10.9026849;5.582155864;11.10398077;26.98525017;-14.9561966;26.11804819;1.11429372;-3.576117536;-13.52799569;-14.14950633;19.04542669;-0.274825224;-22.28581394;-6.96925417;-17.63692101
-10.88203877;-8.525354526;-10.33113364;5.039033807;9.400992103;6.517592085;12.38915498;26.53046521;-14.26455455;23.19900095;0.870213373;6.700398867;-12.01867045;-33.59881175;14.81885722;-1.209498442;-21.38286391;-1.490258439;-16.50873488
-13.45241645;-9.963209761;-11.98621367;2.175307618;6.108099871;6.681794339;12.70371048;24.98562829;-15.23795279;18.16464868;0.060599626;5.011747926;-5.989504006;-42.87441314;12.02863371;-1.443693639;-15.22803488;8.736969205;-14.90811919
-16.03076468;-9.676324634;-13.10946596;-3.178647765;2.212651896;5.969896922;12.13761654;23.07585618;-17.3529861;13.32730558;-0.196316535;-2.331247377;-0.831595033;-39.77461277;10.93296544;-1.343817255;-9.099771703;13.54954415;-13.73274319
-17.96288703;-5.689519826;-12.89047018;-7.406936239;-0.832707186;5.032088638;12.04048048;22.06345;-18.70807121;11.44027389;0.69563102;-5.264102637;0.462699562;-29.06642995;11.25087265;-1.066804601;-7.247629496;6.314776931;-13.31640833
-18.86559364;2.324141762;-11.79078143;-7.360848929;-2.334265703;4.670039063;13.82666995;22.79723566;-17.58650027;13.58150049;2.169611014;2.025539406;-0.82228545;-18.40835171;12.55147166;-0.469375208;-9.893009116;-10.57432286;-13.30530644
-18.85662102;11.43386085;-11.11174037;-2.786011208;-2.815524519;5.078377436;17.59397063;25.02834627;-13.96801288;18.21378624;2.905887518;16.52003906;-1.130923556;-13.03804822;14.44355434;0.732717654;-13.58467823;-27.35755695;-12.95984039
-18.23477448;16.38714404;-11.83530694;3.33754355;-3.548032644;5.579582063;21.76351863;27.54809463;-9.683764412;22.33612255;2.107016988;28.43323011;1.707052742;-13.04530603;16.5967653;2.75439911;-14.21970947;-34.24070633;-11.58825808
-17.11760632;13.04472061;-13.77637619;6.874412172;-5.539610174;5.108168296;24.12343327;29.02831759;-7.046123533;23.81385259;0.542502569;28.19058148;6.502612151;-14.71263869;18.77037226;5.629602563;-10.21314075;-28.39742396;-8.85993664
-15.54598297;1.840725491;-15.77616267;5.489434131;-8.781354015;3.084626579;23.47705973;28.89184528;-7.085108758;22.89602619;0.236604527;13.19735131;9.973201464;-14.26288155;20.90662373;9.181073269;-3.475583753;-15.20887896;-4.945474814
-13.9540951;-11.74888761;-16.72355264;0.271382009;-12.30497787;-0.013049957;20.56473051;27.56736671;-8.853775438;21.62496304;2.738123286;-10.27805142;9.869829425;-10.8319714;23.15645504;12.9831204;2.288187732;-3.272020123;-0.538109834
-13.35590307;-20.62800587;-16.47220986;-5.131016662;-14.92507295;-2.851514273;17.50597746;26.02555674;-10.33755901;21.73263346;7.2742586;-31.08448294;7.05655667;-6.549726133;25.69847995;16.32414606;4.420808367;2.285074787;3.252744971
-14.76190334;-21.08750126;-15.85768966;-7.11350822;-16.02260307;-4.092149679;16.2142398;25.05637531;-10.13145196;22.99373587;10.52257766;-39.98358277;4.720556792;-4.154936544;28.42373424;18.29947059;3.059127606;2.72635413;5.223926133
-18.14130378;-15.51692761;-15.85726954;-4.470991041;-15.77999503;-3.267348569;17.05719252;24.86506816;-8.430345416;23.58560028;8.65471083;-34.66885647;5.511130719;-4.459004037;30.76667778;18.13104605;0.585778848;3.048087975;4.610873115
-21.9039816;-10.50397868;-16.6974676;1.14891719;-14.80280361;-1.050575002;18.79751709;25.19969225;-6.536204315;22.13552787;0.418452215;-20.10836165;9.215239685;-5.797021561;31.91690168;15.60240048;-0.566063305;6.706078391;1.581468058
-23.64686313;-11.61418606;-17.71753436;6.792169542;-13.56605478;1.246705749;19.77596725;25.75380852;-5.419312791;19.51245814;-11.12560764;-4.660241855;13.03144237;-5.723136855;31.33468126;11.30847724;0.097723937;12.53034267;-2.69522674
-21.85210607;-18.88957388;-18.06831504;10.36408711;-12.18058703;2.552907568;19.30368828;26.42780027;-4.695061758;18.55671374;-19.89336162;5.042531216;14.1553073;-3.299719254;29.18378676;6.469661335;0.891354205;16.21041562;-6.598253219
-17.24825104;-26.66799272;-17.55511424;11.7538212;-10.5949603;2.655035024;18.127468;27.26205201;-2.974943647;21.77273462;-20.55880779;7.210854459;12.33903397;0.049296835;26.29262828;2.358839796;-0.477499116;14.51815999;-8.959910441
-12.60911031;-27.95616713;-16.82662916;12.26515563;-8.926921607;2.166581866;17.658946;28.19869119;0.705893057;28.91082825;-12.24241209;4.600577924;10.12690884;1.810372529;23.60853803;-0.297488714;-4.879145542;8.227214836;-9.71606589
-10.95372277;-19.97;-16.7465138;13.07817937;-7.545145354;1.951373849;18.68517862;28.95545511;5.671662206;36.60337051;0.662150115;1.688486821;10.53320685;0.627696664;21.53991657;-1.539625859;-10.90637805;1.246114814;-9.800185289
