Channel 1 - P4;Channel 2 - O2;Channel 3 - P8;Channel 4 - T8;Channel 5 - C4;Channel 6 - Cz;Channel 7 - Fz;Channel 8 - F4;Channel 9 - Fp2;Channel 10 - F8;Channel 11 - Fp1;Channel 12 - F7;Channel 13 - F3;Channel 14 - C3;Channel 15 - T7;Channel 16 - P7;Channel 17 - P3;Channel 18 - O1;Channel 19 - Pz
-152.8181736;-119.3864796;-138.2847207;-69.58776243;-90.37678589;-80.50737579;-80.56619036;-2.828725213;-94.67521605;13.83952823;-97.78010787;-135.4799193;-117.5034828;-124.1274485;-15.21037811;-52.27716902;-164.6504007;-115.1977599;-35.31544731
-160.0495309;-89.76506854;-110.079539;-55.79268862;-83.3694732;-73.87907255;-67.97952177;-14.03537741;-88.52545054;-2.877793252;-84.30355897;-107.6449463;-86.67505373;-104.8503575;-5.98656063;-33.59438307;-154.2174681;-86.59268406;-25.41837299
-122.0532191;-38.92815759;-50.20892267;-19.29621447;-54.84938844;-47.11511232;-34.68410075;-20.5192831;-57.38846321;-9.045963452;-44.2562227;-54.0229884;-37.37820167;-53.99410546;9.065064389;0.156342201;-99.87965169;-39.06201422;-7.754967863
-63.99474794;2.275218169;8.63656694;20.07044975;-18.71063805;-15.280431;2.3244288;-17.76660883;-19.20019555;-2.65817853;0.905703082;-5.151762499;-0.821195616;3.609828453;23.45521463;33.85245477;-31.86323442;-1.51627142;9.230219284
-18.61123329;14.10766316;39.14376653;43.45380985;11.42522135;5.87376674;26.01922419;-6.360351528;6.382199511;10.08341938;29.15757309;15.55155329;3.542611311;42.81141541;31.29322198;53.72436994;15.58555758;8.200204363;18.17131553
-5.201433965;-0.181990358;35.43366816;44.7597803;28.10221726;9.632657871;29.67250426;7.462393271;10.16829927;19.44634783;30.96781837;5.900214253;-19.74654868;51.36945287;30.64225996;55.34780883;25.44422725;-6.244520413;17.08692955
-19.71945694;-19.91753971;12.92515507;32.48328774;30.11539792;1.0156141;19.38911986;15.55546076;-2.542142062;19.49169466;12.91664419;-16.56897246;-47.81791827;33.90945505;24.07927049;44.78766178;5.978551078;-25.32615537;9.891096342
-41.77010111;-24.45950727;-6.065071967;21.16828695;19.01972706;-8.754170117;7.783407554;13.73686943;-18.05778413;12.25865378;-9.442628871;-29.37977462;-57.71425938;5.812881902;16.36637499;32.76366179;-18.88597492;-29.88173129;3.070920007
-51.60291674;-8.503411492;-8.832872655;19.86136856;-3.335122248;-11.14779607;4.221074087;5.391377241;-25.03721801;5.445276156;-23.06084769;-21.464975;-42.8311733;-17.37962096;11.18206696;26.73937797;-28.39086968;-15.0128542;1.166539183
-43.67815213;16.04984552;1.379707139;26.53593039;-33.86218051;-5.757509896;9.040542276;-0.52408862;-21.64424197;5.533027121;-24.61481752;0.73948482;-15.58067061;-27.83436863;9.269823148;26.80759693;-18.59788985;8.29671869;4.263527151
-27.51370782;31.61190517;12.24657766;31.98820077;-65.82014627;1.243110865;15.43386972;3.650638754;-14.52918631;12.15073251;-19.33789273;20.65345099;4.305718894;-26.69910462;8.982805214;27.72075328;-1.748874427;23.62911873;8.918456179
-17.21429316;29.41169038;14.83574582;28.92538574;-88.97314099;3.415634877;16.4802248;17.36318201;-11.73248613;18.53484586;-14.23099046;25.34871278;5.474330601;-19.99660936;8.287904505;24.49637979;6.20099809;22.3392514;11.31876449
-19.45794527;15.28520282;10.7203314;18.26083154;-94.17129155;-0.455895432;11.16167949;30.47017854;-15.90509447;17.81597812;-12.11602199;14.77921744;-7.726588343;-13.32976321;6.390273018;16.66628848;-1.155801029;9.136792937;10.0565221
-29.50608954;3.15040035;8.588971101;7.707806305;-79.64439656;-5.978197736;4.698714665;29.31926338;-23.07520289;9.746767891;-11.00204419;0.1251561;-20.8957832;-8.996397449;3.826410381;8.023325475;-16.89419911;-3.306552193;6.595435954
-37.12233469;2.80957138;14.67661563;4.615361302;-53.70737621;-7.540414443;3.583556913;6.575161249;-27.07454163;1.777380716;-7.974312573;-6.1206121;-22.20538736;-6.346999248;1.374425225;2.784847898;-28.10977301;-5.188235777;3.537512964
-36.08406505;12.6281449;26.22266409;9.673676319;-30.65507834;-3.296488678;9.938191749;-32.23776776;-25.16974399;2.934434816;-3.092984755;0.248474398;-11.24234053;-3.842264848;-0.913762672;1.909558635;-27.12512206;3.283062799;2.427419967
-28.90510323;22.54553126;33.74246744;16.85560731;-21.95316712;3.513179142;19.93360351;-70.6619597;-20.03377233;15.17818264;0.456337763;13.14252135;2.407944453;-0.786113069;-3.590779193;2.704101961;-17.06964088;13.57457368;2.865889616
-23.43893983;23.74161936;29.70458567;19.20564556;-28.95643508;7.694786281;27.2443327;-90.95052937;-16.82171696;29.59367752;-0.294215397;22.29747499;8.333271828;2.250999202;-6.82439792;1.694874843;-7.967658565;16.88140368;3.347669374
-25.2469364;16.06089938;15.6021034;15.02687149;-42.64695167;6.663455978;28.27597513;-84.99230301;-18.37780069;31.40274617;-4.850058594;21.75007813;3.815845782;4.093820964;-9.651041638;-2.071232027;-7.594116965;11.30762481;2.782562736
-32.76231392;7.06332172;1.095761405;8.978250332;-50.64245736;2.443120345;24.710971;-58.99672699;-22.89447532;10.7871046;-9.39771108;13.83653518;-5.065163056;3.998351956;-10.36812088;-6.246384567;-15.1732715;2.514197399;1.295762963
-39.14917966;4.349800915;-3.937557768;7.366095916;-46.15867806;-0.409930926;21.50710075;-28.85075357;-25.86528693;-28.54432332;-10.23048557;6.274987409;-9.552029721;2.466773541;-7.876387658;-7.4316239;-22.83201056;-1.880278464;-0.228733358
-38.62737426;8.552539769;2.551703817;12.11059081;-32.23349374;1.104019762;22.40711965;-9.702675175;-24.337294;-69.98275733;-7.183861342;5.580477977;-5.468217277;1.41691085;-2.84088758;-4.288181245;-22.84734487;1.166706521;-1.209748608
-31.40519336;13.25148711;13.53100706;18.90043269;-18.40755576;5.960751958;26.91088944;-7.188234716;-19.62513669;-94.06921968;-3.807605673;12.3999865;4.46027595;3.376638818;2.400579407;1.249221819;-14.14348026;8.101550744;-1.940585092
-23.08936608;11.49361018;19.24512989;21.1370654;-12.97073012;10.26695508;31.10608883;-16.00787504;-16.20003906;-91.01422043;-4.073038539;21.96761366;14.16348858;9.751931585;5.236745788;5.577751817;-2.744823073;12.41187275;-3.172170558
-19.55160595;2.647964364;15.48566306;16.02071258;-17.04007813;10.80513854;31.32073584;-25.83749378;-17.852407;-66.7066499;-8.643611511;28.35957554;19.4294785;19.03063541;4.460176611;6.287482583;3.619010994;10.33618316;-5.196481321
-22.03682319;-6.743947883;6.695140235;7.247998912;-24.77350665;7.766758607;27.27349156;-29.35299585;-24.46765416;-38.00128754;-14.14429233;28.53190045;19.86821958;26.42920963;0.965808234;3.787248008;1.773837871;3.79688735;-7.366524869
-26.65363648;-8.84066492;1.566781095;1.895684717;-28.8425351;4.368964688;22.08779503;-26.34631188;-32.06277282;-20.9829404;-16.11647578;23.1520454;16.6749841;26.02531498;-2.988262527;0.502882097;-4.95513746;-1.499597344;-8.532242698
-28.25337606;-1.695916028;5.303582;4.309899033;-26.27537782;3.868652493;19.39186321;-21.71281146;-35.90166461;-20.87524722;-12.98992536;14.52980709;9.558160127;14.66706513;-5.297486417;-1.348451492;-10.20825466;-0.782109667;-7.990694573
-24.95622328;8.774602971;15.31416918;12.48321282;-20.05729801;6.695313963;20.17452208;-20.09381324;-34.04196682;-30.58844111;-7.496159472;4.350359405;-3.277592876;-4.903810893;-5.136179643;-1.316077102;-10.00328707;6.174844577;-6.076702838
-19.41091423;13.87968465;23.80566574;20.11353344;-15.8206908;10.16679225;22.07433687;-22.10400261;-28.54269872;-38.09697289;-4.274362981;-6.546937246;-21.79340012;-24.45351181;-2.984693413;-0.391159656;-5.439075222;15.05462217;-3.869631719
-16.08026112;9.816663605;24.64154263;22.38397606;-16.98821081;10.89901454;21.53133255;-24.96107993;-23.65200971;-36.31324143;-5.836891965;-16.6159474;-41.10982694;-34.71586462;0.189932189;0.543426383;-0.83564738;20.05154579;-2.308156325
-17.32352878;1.147436401;18.34438166;20.14188483;-22.52558712;7.713798958;16.80090688;-26.16357745;-22.68076855;-27.83065071;-10.48425936;-22.54966759;-52.7996513;-31.24070751;3.73644197;1.76130204;0.519468876;17.39382443;-1.525823851
-21.75544775;-3.018259174;11.09308566;18.64378563;-28.70968829;2.556924875;9.277455486;-26.34629062;-26.01638397;-21.50617821;-13.95709298;-20.58394554;-50.51705618;-17.39400346;7.442693754;4.176582385;-0.897367705;7.09555318;-0.984146662
-25.97324135;3.082842041;8.985402686;22.06144452;-32.73538081;-1.219071431;2.202454957;-28.58870104;-31.47759701;-24.39862727;-13.26512497;-9.627361397;-35.49730446;-2.001100928;11.05830205;7.86706179;-1.799849584;-7.505376406;-0.228049227
-27.6795835;16.58279094;12.83186265;28.96594578;-34.72678037;-1.590534636;-1.925661855;-34.97109013;-36.25581982;-35.8634881;-9.259060985;6.423181407;-16.78837;6.861626161;13.8658597;11.26333487;0.504235134;-21.44981575;0.481406555
-27.26611701;27.72868647;17.94226175;33.28812335;-36.62288494;0.726779152;-3.004938891;-43.78685988;-38.69579822;-48.31121704;-5.734247443;19.64735706;-5.226946527;7.2807283;14.85934105;12.02829739;5.488113872;-30.03346949;0.279608975
-26.68917669;27.18849403;18.73826373;30.27013156;-39.46068237;3.224374489;-2.852849287;-50.21205937;-38.73682317;-53.48512751;-5.992706601;22.37402583;-5.642743089;3.958075066;13.47156714;9.003980635;9.830786803;-30.4348074;-1.509489964
-27.08597231;13.01201857;13.82370359;22.06102816;-41.9216963;3.866965913;-3.314616585;-50.0397931;-37.17480349;-48.82289265;-9.990383254;12.06995288;-13.63899466;3.48681554;10.23964804;3.482987941;10.35250501;-22.93392535;-4.59475612
-27.5757088;-8.046361309;7.011752349;17.35873743;-41.55201572;2.640891302;-4.737313889;-43.23407624;-34.74312606;-38.83360989;-14.53734422;-6.607818565;-19.67878919;8.49381703;6.798139768;-1.447806681;6.810110842;-11.16791325;-7.658131824
-26.30283186;-25.34641669;3.634552257;24.42739226;-37.35693284;1.180152447;-6.007783976;-34.1147223;-31.77303711;-30.80476168;-16.19849662;-24.20437164;-17.09479386;15.62491714;5.116445938;-3.060401326;2.190461029;-0.672270692;-9.119548815
-22.51224628;-31.12842487;5.672233624;42.87267184;-31.12623219;1.043676782;-5.831822527;-27.90076518;-28.38108886;-28.74375359;-14.16943613;-31.86263062;-7.330822239;19.02917091;6.475585853;-0.857877353;0.360941172;4.173699145;-8.152294563
-17.50727954;-24.2258121;10.1071338;61.42467607;-26.09386542;2.313280341;-3.915483029;-26.52917848;-24.65725449;-30.56073534;-10.58847572;-26.27918709;1.859859052;16.16878128;10.84013456;3.390308866;3.082476698;3.112752306;-5.187949628
-13.53859994;-8.950368728;11.83643906;64.67237255;-24.13279504;3.704674771;-1.025779767;-27.3183822;-20.58182619;-30.4905929;-8.218408786;-11.18122311;3.46926349;10.63046676;16.95387052;7.40684036;8.747898968;0.477897609;-1.579522986
-11.74367146;8.623949078;8.365253183;44.44283947;-24.14365342;3.904592946;1.900125217;-25.59605497;-15.94113953;-24.36693122;-7.849979955;5.348725984;-2.684941886;9.143201634;23.0011594;10.37313564;13.70089741;2.098445523;1.260903754
-11.17042054;23.46429751;2.033123801;7.241478909;-23.22487128;2.775719499;4.561834629;-19.00308319;-10.63093693;-13.24169611;-7.920968869;15.77858683;-10.05657993;15.1616628;27.41284644;13.40095951;15.0045319;10.40200316;2.60519568
-9.833248398;31.99345662;-2.120822533;-28.411698;-19.60387391;1.334067805;7.217527132;-9.772906673;-5.247187798;-2.52784168;-6.63424253;17.18823554;-11.33925838;24.68340508;29.46044631;18.18669803;12.59651291;21.4791856;2.590718303
-6.762316825;31.51740882;-0.821518149;-43.44856719;-14.60058777;0.647583112;9.921611709;-3.056318408;-1.316362676;2.32855398;-4.398435863;12.22456847;-4.894039536;28.39619622;29.48682448;25.14032658;9.380479353;26.98544303;1.882266339
-3.048303306;20.81605967;4.65253362;-30.50138622;-11.70390401;0.80814565;12.00583822;-2.745296784;-0.60990312;-0.067726014;-4.028212139;6.719807012;4.017943365;18.9417124;28.74614205;32.69122369;9.268645488;20.15643323;1.186104111
-0.859499108;2.092196008;9.722812371;1.772435262;-13.46800405;0.974164916;12.46722229;-8.32699628;-3.796163739;-6.425910745;-8.225094104;5.668995792;8.12442425;-2.489794961;28.85853272;38.36007813;14.42854942;1.623854583;0.943418604
-1.360690901;-17.93562876;10.53923085;35.11443019;-18.99046645;0.381081775;10.95777548;-15.34229336;-9.491293167;-11.74748747;-16.515614;10.04355705;4.652513734;-25.84303794;30.98171169;40.60255373;23.35878776;-19.72626736;1.259330257
-3.521044193;-30.12762635;7.161055405;53.82658587;-24.31927372;-0.738957573;8.379215367;-18.93966541;-14.71940581;-13.19516178;-24.58156778;16.27375889;-2.357178438;-38.81396321;35.03171581;39.80820642;30.95115731;-32.12072455;1.9377055
-4.960616774;-27.8974484;3.195099297;53.87329387;-25.57690419;-1.288175671;6.380019531;-17.48623329;-16.74461727;-11.71933541;-26.98918509;18.6243567;-5.880922218;-35.39735052;39.46432916;37.6876604;30.7421691;-28.86464159;2.540266651
-4.057351999;-11.74125744;2.422660184;43.04051934;-22.15668396;-0.405159222;6.080856078;-13.32655569;-15.01302164;-10.46708844;-21.34381994;12.99930284;-2.318882175;-19.75471802;41.96421819;35.75818841;18.46477433;-12.95167426;2.533656816
-1.347050413;10.40321153;5.525902601;33.25107929;-17.21826465;1.51724753;7.140345743;-10.32273274;-11.64623101;-11.70766938;-10.48680186;-0.152074245;5.312020709;-2.582639779;40.82113011;34.36901462;-4.86289574;5.283116705;1.592147817
1.083652379;27.74559853;9.738171286;31.61410362;-15.02072032;2.927708094;8.042740055;-10.49091116;-9.94419338;-14.9931395;-0.801836022;-15.67645881;10.20010619;6.847615567;36.1605153;33.05906341;-32.24573263;15.72333737;-0.067641761
1.623049657;33.04521383;11.51177671;36.77848045;-17.35604655;2.340004883;7.413572832;-12.60196921;-11.93046144;-17.90603901;2.175096745;-26.52128026;7.934784376;6.615512299;30.09020738;31.68645651;-53.39688008;15.42012848;-1.620560262
0.660144146;26.22244306;9.662238803;42.25071141;-22.09973986;-0.365398674;5.223724039;-13.7133062;-16.80580017;-18.41580978;-2.524802649;-27.84515836;0.449147923;1.799706882;25.47120637;31.02666952;-59.86461715;9.653609388;-2.040721572
0.165181988;12.8884028;6.212397497;42.843375;-25.04477773;-3.732580732;2.807049853;-12.02972114;-21.52581855;-16.62539212;-11.04059404;-19.85918725;-5.810163476;-0.997610298;24.04155063;32.11432081;-49.82877122;6.616486006;-0.813740652
1.710359703;-0.396641484;4.37299084;38.65916406;-23.37819943;-5.837459426;1.660355366;-8.493535678;-23.06932563;-14.46846697;-17.86975912;-7.565322812;-5.763338793;0.86933194;25.22674352;34.93610342;-29.45844403;10.34820131;1.562881209
4.792570593;-9.999960791;5.6483464;33.89381054;-17.83876584;-5.773762848;2.088348572;-5.816672722;-20.64502827;-13.84179281;-19.85292125;2.42717073;-0.273764577;5.043324786;26.58770209;37.86294282;-9.556694277;17.78798991;3.763879626
7.066226497;-15.46677633;8.67523439;32.37500922;-11.84609062;-4.253096057;2.912933356;-5.987668787;-16.16113282;-14.96028352;-17.91961726;5.879013123;4.709332545;7.628178824;25.67324752;38.63007813;0.703920276;22.17935414;4.489040823
6.343247078;-17.02431064;10.67713131;34.17603223;-8.537898054;-2.847959979;2.534316397;-8.53201089;-12.67322587;-16.34297198;-15.58282892;3.075134792;3.637487542;7.304030527;21.93835685;36.21264663;-1.029324366;19.62186087;3.398379887
2.584016859;-13.68472529;10.03786421;36.13193294;-8.353080417;-2.595982473;0.434009533;-10.9752202;-12.08687661;-16.2703054;-15.77098339;-2.111642758;-3.501418859;6.172036891;17.26220231;31.95644749;-9.643473283;12.91180152;1.390716157
-1.915356033;-4.317903448;7.624414014;35.35185146;-9.13711394;-3.203411431;-2.19397008;-10.9373052;-13.88393164;-14.28167601;-18.63684534;-5.316069651;-11.04500485;6.960283323;14.6189283;28.79929094;-16.82321188;9.18272957;-0.05625363
-4.329862458;9.337514151;5.787465398;32.25115974;-8.427998433;-3.494530824;-3.255890434;-7.935334492;-15.7404405;-11.3979221;-21.83487952;-4.592150893;-12.64522233;9.832724102;15.86444572;29.02896374;-17.08273529;13.25470501;-0.025149218
-3.537093301;21.23835397;6.123064931;30.30866268;-5.720533718;-2.615795608;-1.357792878;-3.418640381;-15.4091525;-9.02607768;-22.62366584;-1.184164551;-6.896505765;12.25774581;20.30062809;32.37638489;-11.19429681;22.45729893;1.103295655
-0.869541005;23.69736685;8.098909438;32.83767126;-2.706521631;-0.8559742;3.114126297;0.741586587;-12.35681601;-7.690250805;-19.87994448;2.027755091;1.451005779;12.10220118;25.10010764;36.09317228;-4.70582276;27.69348826;1.91979192
1.166555395;12.88722183;9.702987403;39.72061146;-1.448273503;0.650960186;8.27034154;3.761698466;-7.99447634;-6.767260914;-14.57665376;2.900883012;5.769113205;10.61380696;27.26503863;37.06197508;-3.031680782;20.39465178;1.087853596
0.986502792;-7.197833731;9.358635058;47.03302801;-2.316355198;1.019969616;12.05169978;6.115614087;-4.513722992;-5.349646728;-8.777188967;1.394677688;3.461120011;11.78068101;25.65440289;34.27140922;-7.139815579;-0.019330312;-1.565881689
-0.989470558;-26.133744;7.270058594;49.94137276;-3.633353845;0.462435539;13.50773965;8.445242189;-3.347645173;-3.272109598;-4.292440906;-0.784120744;-1.812045873;18.07280509;21.61944264;29.63387731;-13.15495041;-24.31762381;-4.823249543
-3.0578803;-33.49968431;5.033068507;46.48060097;-3.299613765;0.098487515;13.07861545;10.5010595;-4.380708695;-1.247522777;-2.018919994;-1.533652414;-3.58077946;26.49224037;17.88687357;26.4627949;-15.89415309;-39.16289108;-6.89388613
-3.903189817;-25.77677313;4.024517556;39.13711016;-0.825541079;0.918973915;11.86192422;11.26724323;-6.305783078;-0.005941035;-2.044590296;0.524524803;1.431232511;29.27023114;16.62458812;26.83894289;-13.19564919;-36.31846416;-6.66186647
-3.619996668;-8.461443375;4.160048828;33.02290355;2.144329076;2.864414839;10.66106158;10.1412912;-7.658770894;0.634469241;-3.933590266;5.720281143;10.18384545;19.65574934;18.11755612;29.98097481;-7.457305601;-18.4754848;-4.43065076
-3.257359773;8.205044569;4.137276308;32.15733513;3.295229698;4.867044814;9.633636808;7.900078125;-7.71506812;1.730648835;-6.773626426;13.39214085;15.93384466;-1.651931166;20.87352949;32.87580158;-3.318618702;2.703431953;-1.651445678
-3.521582502;16.48793905;2.811829118;36.72865015;1.728352872;5.806020491;8.664499834;6.325222419;-6.732827989;4.122546056;-9.201566632;21.72497347;14.28153177;-25.20515786;22.85057953;32.58020316;-3.679376819;14.85410026;0.099256364
-4.019687766;15.8;0.323631564;43.24190303;-1.250187124;5.490448122;7.888541419;6.665443466;-5.584920752;7.293441115;-9.867413049;27.52217969;7.221837957;-38.57688148;22.77107155;28.3266778;-7.491188604;13.32810441;0.104426068
-3.788352607;11.52569589;-2.069283744;47.15635891;-3.339288143;4.774679961;7.732908691;8.33;-5.163823265;9.368338272;-8.307274791;26.82684832;1.50153488;-35.14194974;20.64755171;21.86206579;-11.03765838;3.639531785;-1.221512743
-2.512274917;9.649232475;-3.196472566;45.89;-3.313590944;4.721409671;8.430594429;9.135428016;-5.91763972;8.462515269;-5.511590827;16.97610408;2.660904459;-18.89530865;17.41182547;15.96466606;-11.34491939;-3.555419976;-2.848619865
-1.123313573;11.96457996;-3.007372223;40.13755761;-2.050269904;5.604404828;9.562064395;7.067506058;-7.6671276;4.321404549;-3.446292756;-0.777394313;10.04938624;-1.261981995;14.19024598;12.4903965;-8.634611157;-0.889399531;-3.936435216
-1.079451645;15.61074656;-2.482151635;32.96387925;-1.596646616;6.678981492;10.19780192;2.098853362;-9.704883778;-1.196985194;-3.631473203;-20.22140648;17.3359465;7.628915524;11.81356678;11.46341378;-5.768056337;10.2285363;-4.312338656
-2.949883492;16.63073585;-2.624647256;27.71806145;-3.175727103;6.927252099;9.623143543;-3.552864877;-11.1361992;-5.336095047;-5.866656175;-32.45273941;18.20062325;6.142392132;10.7084141;11.66165678;-5.393167941;20.92606441;-4.365813505
-5.677798958;13.87737852;-3.601518859;26.28875883;-5.991278421;6.076431948;8.009476745;-7.034567829;-11.36738438;-6.435984149;-8.289236035;-30.89417983;12.22644788;1.077129359;10.91870953;11.88983153;-7.490489254;21.66330663;-4.579182438
-7.311286617;9.747705088;-4.831514946;28.54712554;-7.937942635;4.928616907;6.371004829;-7.018459384;-10.5189889;-5.076809794;-8.895350165;-15.93612169;5.654834096;0.795963234;12.03569466;11.75979075;-9.505513492;9.299997274;-5.123796402
-6.616849334;7.488358789;-5.772259776;32.82774306;-7.554860253;4.667832365;5.770695295;-4.605192078;-9.462812838;-3.421247715;-7.305668892;4.447252169;6.031481988;7.718263645;13.15697071;11.49486513;-8.812425662;-10.64105304;-5.785999324
-4.124953185;8.011226635;-6.423168712;36.83132482;-5.409204865;5.752254806;6.443023203;-2.2488222;-9.335474714;-3.325475859;-5.190560128;19.30955886;15.13539961;16.66548838;13.18720107;11.26249653;-5.146276713;-27.82143014;-6.166986281
-1.640009766;9.368756936;-6.93352355;38.51820595;-3.610677015;7.398392222;7.617656577;-1.684255613;-10.75645736;-4.826888204;-4.847623748;21.86597356;26.30703348;20.23096971;11.53628813;10.87457685;-0.760043945;-33.94962878;-5.92241165
-0.645644465;9.232583437;-6.794186658;36.89199318;-3.866322617;8.155050165;8.221620804;-2.647832346;-13.29198924;-6.265718733;-7.083220905;14.107687;28.81155873;16.08472685;8.769050966;10.14637686;1.764299136;-27.72202258;-4.878824644
-1.048037616;7.683972281;-4.728209026;32.57352735;-5.831430097;7.102078373;7.843836962;-3.410311176;-15.63024797;-5.864285327;-10.29277428;5.235720874;16.06057358;9.446608094;6.55212955;9.409721363;1.935482577;-14.70037712;-3.045352486
-1.379431741;7.297250042;0.195331427;27.81428934;-7.274945561;4.650259152;7.090259902;-2.517341053;-16.43465678;-3.330596156;-11.6963096;4.672265305;-8.774556425;8.343473082;6.665929986;9.46971185;1.70551923;-2.794566913;-0.62149501
-0.230715789;10.20324504;7.048534933;25.58891008;-5.968226115;2.256004635;6.989203233;-0.120119096;-15.28493425;-0.07316158;-9.798312421;14.62993737;-34.2585704;15.82251471;9.647024312;10.88647053;3.42792588;3.043247994;1.977471422
2.437768507;14.96879266;12.71657217;27.93636332;-1.666104397;1.292536496;7.961417983;2.251551825;-12.98347311;2.120376419;-5.957354886;27.87944195;-48.22206103;26.19257803;14.10910641;13.24461451;7.37565419;3.216018638;4.170243405
5.305784581;16.64211946;13.57937747;34.46308013;3.550796919;2.02152898;9.282976148;3.157321742;-10.96236717;2.710721609;-3.584313171;32.6912552;-45.63049709;28.98414395;17.43666532;15.2227015;11.23013368;1.783116724;5.414202856
6.958305862;10.53747933;8.239065412;42.1544676;6.884526621;3.488692928;9.56132153;2.541070429;-10.23199159;2.848900952;-5.473467531;21.55697499;-31.08216364;17.57309506;17.52129294;15.5772093;12.13112761;2.525245123;5.490926451
7.169285434;-3.273057987;-0.899007613;46.93836524;7.013785227;4.360470269;7.864649469;1.68038037;-10.68218686;4.22402114;-11.41610693;-2.695367701;-14.59991736;-4.790225803;14.31020212;14.23963113;9.440596906;5.988790612;4.660644356
6.989336135;-18.85387739;-8.778533965;46.18166254;5.034913808;3.949102331;4.560869961;1.916547801;-11.26240996;7.361130251;-18.10071794;-28.01722979;-4.443497547;-26.76035572;9.945184323;12.48759679;5.597488552;9.593678065;3.520087891
7.600181913;-28.12527834;-11.02925283;40.45180383;3.418216202;2.59117923;1.144379767;3.405337315;-10.86325256;10.92901706;-21.44982797;-40.84595093;-2.42513878;-37.1497209;7.276037226;11.8970138;4.11329118;10.33723723;2.624620716
9.09402054;-26.6811941;-7.027148881;33.2127644;3.930343845;1.168204799;-0.836050641;5.03835464;-9.190307525;12.724528;-19.548365;-34.94179584;-4.61510293;-32.92206233;7.792286312;12.89485371;6.411913654;7.659980692;2.149773242
10.3987809;-16.98508231;-0.243794332;28.52586658;6.272223309;0.294295597;-0.902248307;5.525120606;-6.991461734;11.49031229;-13.87254859;-15.13710659;-5.873914647;-20.55255249;10.52587578;14.19812072;10.41448214;4.079736098;1.861861066
10.43837681;-6.272731679;4.460423086;28.28667427;8.469058758;-0.097938007;0.043138086;4.529227969;-5.565947665;7.951440314;-7.9754479;6.419945782;-4.049126348;-10.07214211;12.78916886;13.75663873;12.32081226;3.094549982;1.421914205
9.381385739;-0.898431692;4.477400942;30.93182738;8.528138759;-0.492492078;0.412467034;2.760058594;-6.025309721;4.129802044;-4.846747427;18.52689437;-0.722462434;-7.137604157;12.22756997;10.53255794;10.14815153;6.074088379;0.763804604
8.697403852;-1.816978984;1.145814948;32.54906157;5.899644576;-1.20634572;-0.954573876;1.000451944;-8.841049669;1.530983271;-5.088992972;17.71235182;1.274677383;-9.693989089;8.652376597;5.651025769;5.846758213;10.69065263;0.216782465
9.866602585;-4.816357717;-1.758897127;29.63433211;1.617355387;-2.084533507;-4.099875249;-0.865759502;-13.82405285;-0.170144045;-7.149407503;9.071747478;0.7844082;-11.41278345;4.26737614;1.87340576;3.893518503;12.26691032;0.256338244
12.91442634;-4.954945608;-1.350297734;21.59057229;-2.762455058;-2.727721215;-8.087515663;-3.74555314;-20.27769155;-2.73;-9.0313797;1.278852788;-0.922179322;-8.166646165;2.100433982;1.677123548;7.354807076;7.155139942;1.086765765
16.18629621;-1.075227734;2.047319726;11.26539698;-6.328118118;-2.95555796;-11.71094653;-8.159467103;-27.05447196;-7.526425979;-9.814302141;-0.008896507;-1.796930696;-1.555290057;3.782137976;5.381204436;14.82219533;-4.347536841;2.40881122
17.66140402;3.599795842;5.430687555;3.193787649;-9.095708724;-2.993817258;-14.15553237;-13.15878022;-32.58839047;-13.9362009;-9.798330569;4.50579631;-1.123425076;3.334959837;8.281165961;10.77178979;21.12718813;-17.7634011;3.576648558
16.65549551;5.102860689;5.86716742;0.749652226;-11.38413133;-3.184932647;-15.20912574;-16.56096779;-35.23686194;-19.40827782;-9.541155758;9.574107388;-0.013296739;3.307382861;12.49492742;14.53903925;21.57821115;-27.12934141;4.028931713
14.35736924;3.010689714;2.991969503;4.070355159;-13.10759723;-3.533464678;-15.08640284;-16.55380498;-34.07199577;-21.30789411;-9.029676189;10.28233433;-0.009564506;0.231264158;13.27098346;14.46458945;16.26781405;-28.71982554;3.660445257
12.70137352;1.205718522;-0.857000105;10.03017618;-13.7669325;-3.594101179;-14.20716452;-13.36265507;-29.71896647;-19.05598541;-7.860507362;5.932882909;-1.361542744;-0.948006205;9.471905842;10.78286553;10.59377677;-23.18053467;2.86068143
12.63025607;4.192198583;-2.823868888;14.18616286;-13.10917662;-2.885809139;-13.13800018;-9.432584829;-24.49178634;-14.76848799;-6.07575706;0.139349375;-2.724431887;2.726383478;2.732558424;5.832923949;11.07828068;-14.69317305;2.218686033
13.38153587;12.24556566;-1.994449538;13.42216567;-11.69453243;-1.477362427;-12.58518161;-7.767310449;-21.38896813;-11.80839979;-4.526506493;-2.445482697;-2.531409069;9.123097772;-3.520009766;2.400705091;19.54820893;-7.986758986;2.142256959
13.45968317;19.99642892;0.027772896;7.687340726;-10.68587491;-0.162175337;-13.19740502;-9.685365328;-22.36753554;-12.3802025;-4.136806339;0.148414486;-0.62469371;13.01667382;-6.103415378;2.003851244;30.43650655;-5.463496496;2.667088336
12.32956533;20.1960074;0.801998731;-0.132976058;-10.96695361;0.032038629;-15.15353448;-13.84453765;-27.02791934;-16.06644308;-4.718515762;5.949258554;1.497101203;11.35353601;-3.914497739;4.218328628;33.81641899;-6.364459927;3.543596253
11.1359956;9.798715409;-0.661894173;-6.03402331;-12.40484466;-1.350772593;-17.84424414;-17.36712569;-32.73175681;-20.39398802;-4.69879386;10.94971088;2.089685945;6.664997319;1.472003705;7.258447119;22.35268955;-8.164747408;4.468209572
11.65981933;-6.809482997;-3.106367884;-7.261952401;-13.98585156;-3.750753199;-20.02989827;-18.12562017;-36.20274485;-22.84121844;-2.413151497;12.38814611;0.884929987;5.040473477;6.702836244;9.180393135;-2.865196774;-8.733419217;5.254712921
14.44707099;-20.47263682;-4.362313493;-3.84548892;-14.7361127;-5.920193284;-20.52897395;-16.27426726;-35.54844217;-22.58916045;1.964459145;10.75134339;-0.54979122;10.15700596;8.492641492;8.873911268;-32.05034727;-7.514548321;5.847175007
17.94598757;-23.97559105;-3.484911914;1.569708968;-14.57276247;-6.789178693;-19.01839782;-13.79932428;-31.29683154;-20.68037811;5.715363634;9.078048566;-0.215301809;18.82016373;5.419371132;6.405027039;-52.43547796;-5.139008895;6.231290219
19.63115016;-17.4711686;-1.670164317;5.438319274;-14.26958997;-6.174061512;-16.34179134;-12.59812753;-25.78018673;-18.69333208;5.172093909;10.32032294;2.428018637;22.52123055;-1.267060973;2.786530373;-56.04561681;-2.311538882;6.361278438
18.21254622;-8.194769243;-1.120431073;5.526279373;-14.55339856;-4.766375452;-14.03185765;-12.84066644;-21.44059278;-17.27198101;-1.307214921;14.92238821;5.863750759;14.28171667;-8.268886775;-0.537723784;-44.18549552;0.753695453;6.157639524
14.88717218;-4.641850079;-2.950887949;2.260691982;-15.19726534;-3.450749849;-13.33698416;-13.02802948;-19.37331273;-15.82339642;-11.38679048;20.45118954;7.84449693;-4.864497881;-12.0352745;-2.302765114;-25.81238338;3.924903973;5.541164523
12.35212073;-9.868573376;-6.106278424;-1.61809601;-15.02739472;-2.557433888;-14.42853301;-11.58128008;-19.08999003;-13.51371751;-19.71615121;23.46741439;7.483966911;-25.51463871;-10.8252955;-2.030526182;-11.36099181;6.527553508;4.451722895
12.35875912;-19.23539879;-8.300394528;-2.883621176;-12.93118416;-1.680708998;-16.33863022;-8.422557223;-19.41086682;-10.47341069;-21.42813221;22.16646349;6.184833105;-36.41949232;-5.884757173;-0.441866915;-6.539954013;7.533670397;2.857454647
14.05099598;-24.26196228;-8.106990496;0.041061842;-8.997058279;-0.182695459;-17.64386498;-5.081585237;-19.52552103;-7.97130689;-15.60367041;17.81864967;6.447200141;-32.76056438;-0.945282711;0.661022163;-10.11410093;6.653144596;0.801740137
14.74210718;-19.37481261;-6.266265599;6.028639789;-4.727429094;2.089574333;-17.39297037;-3.273832985;-19.30906779;-7.336548134;-5.956818194;13.94794948;9.510497742;-19.44301921;-0.161122344;-0.761367739;-16.43674599;5.202508945;-1.507942974
12.55562501;-6.197416064;-4.999081184;11.96295699;-2.049712109;4.509324784;-15.65736871;-3.323142375;-18.81750254;-8.631970868;1.887217378;13.78875935;13.9353057;-6.787495752;-5.592516041;-5.709361954;-20.1591773;5.478500566;-3.654919088
8.501241343;7.762561652;-5.959399771;14.73348241;-1.915684857;6.050356774;-13.40221668;-3.920175926;-17.69083748;-10.37050259;4.425447358;17.74889472;16.55429634;-2.341482762;-15.77384056;-13.22263593;-19.52904445;8.660447856;-5.120105558
5.887659062;14.64285117;-8.707782334;13.16108737;-3.662805325;6.020805953;-11.84334171;-3.424342483;-15.21889315;-10.64214807;2.477181091;22.63956055;15.20658403;-5.632354527;-26.36887388;-20.58865258;-16.37985581;12.9236043;-5.541244781
7.358120673;11.49496966;-11.10798169;8.582641184;-5.657544399;4.556070966;-11.7297985;-1.44610833;-11.08192482;-8.720078125;-0.066895168;23.33157626;10.99958129;-9.934606315;-32.63652271;-24.77467981;-13.64237831;13.80308737;-4.963188886
12.17048153;1.488312776;-11.28315953;3.780777304;-6.633046286;2.508707564;-12.94562547;0.8212022;-6.008930993;-5.728306343;0.262978768;15.96276243;7.986552542;-9.008341155;-32.21348379;-24.26056098;-12.79627922;7.237458539;-3.862531995
16.39742231;-9.212524327;-9.340549204;1.09410582;-6.562952302;0.87181358;-14.58328355;1.853253001;-1.569883428;-3.740159414;3.742824285;0.783575045;10.11737082;-2.645116824;-26.43412865;-20.03196598;-13.16181631;-6.713550371;-2.870738648
16.22422366;-15.87940447;-7.288329716;1.05044918;-6.378358561;0.202318734;-15.4061302;1.422878825;0.901461084;-4.050347664;7.598532441;-17.18367707;17.6087125;3.755607188;-19.32956165;-14.98918513;-13.09989084;-22.59573655;-2.366047929
11.58612942;-17.50385364;-7.222476826;2.388354576;-6.893057976;0.429379652;-14.48265825;0.983835819;1.387617232;-6.097746373;8.705919935;-30.29684053;25.64239736;4.836799025;-14.99039268;-12.126247;-11.69738084;-32.36440682;-2.24298078
6.737239935;-15.8334768;-9.437571942;3.270598577;-7.983924172;1.07442125;-11.71646459;2.33639963;1.284408873;-7.955546608;6.365962605;-32.23260803;26.81645369;0.737454949;-15.06630322;-12.71248425;-9.449331653;-30.71219171;-2.053886993
6.822905367;-12.87100263;-12.17662338;2.667494158;-8.772954685;1.616591736;-7.992228399;5.767775725;2.329992506;-7.941276864;2.773680002;-21.54975377;16.04509814;-2.786314126;-18.02988819;-15.68365717;-7.578940175;-19.0303936;-1.420665932
13.15433422;-9.382359312;-13.23393802;0.892682235;-8.580885142;1.733217465;-4.769161019;9.469681928;5.2131745;-5.941308292;0.933632971;-2.803202977;-5.370078125;0.210150026;-20.56314015;-18.55196033;-6.828180857;-4.752157011;-0.382685577
21.42148648;-5.418740316;-11.93943752;-0.96664956;-7.691091838;1.353629479;-3.234715332;10.94598433;9.032951388;-3.333355941;2.006476151;15.53527104;-29.48416726;9.77419445;-19.96322729;-19.08511746;-6.836521161;3.774997396;0.610743026
24.89183656;-1.676400889;-9.719412772;-2.116734982;-7.155226693;0.633945352;-3.479424056;9.271745117;12.07040682;-1.653130796;4.453116365;25.2714814;-45.80025768;18.94066267;-15.86088154;-16.58310921;-6.543275114;3.17356777;1.059533396
20.32433287;0.188013713;-8.74189476;-2.712552813;-7.797898941;-0.066015776;-4.293348019;6.155104933;13.19563809;-1.251346705;5.624252226;22.49653089;-47.28793377;18.91987771;-10.18145584;-12.03778721;-5.133555363;-2.826008204;0.820070801
11.55622188;-1.134051832;-9.906118338;-3.628727002;-9.360498327;-0.258968895;-3.885039829;4.697112972;12.68189655;-1.147255125;4.232215926;9.23655575;-34.50896634;6.381674899;-5.606277543;-7.331558004;-2.683515114;-6.696040467;0.2159701
7.144120916;-4.979173206;-12.02462448;-5.625140137;-10.62199457;0.447653804;-1.175801436;6.77833133;11.74328326;-0.159695222;1.425789195;-8.023350454;-15.18487069;-13.30074652;-3.790549533;-4.196564785;-0.03817403;-3.306923756;-0.234090364
13.2437162;-8.623581342;-12.94234726;-8.632788683;-10.43328248;2.038729437;3.220654093;11.3162937;11.27389101;1.783522698;-0.446037926;-21.91336906;0.506838562;-29.63907946;-4.573528549;-3.560813167;1.86907726;5.864568547;-0.226157152
27.24366794;-9.20030743;-11.55611969;-11.71692884;-8.738768179;3.928787476;7.159945024;14.997188;10.99638186;3.419643922;-0.146419081;-27.74075077;5.859448655;-34.5501401;-6.514823862;-5.405148464;2.664075276;13.82181466;0.137656528
37.74878314;-6.095351045;-8.870276418;-13.70115407;-6.645701503;5.178898414;8.337571875;14.97377332;9.849844882;3.267762696;1.257966875;-25.16455154;1.027826339;-27.75587096;-8.094189652;-8.887104737;2.699051881;13.52599369;0.524819992
31.87646222;-1.628664287;-7.104381979;-13.952377;-5.464948156;5.048574503;5.980594861;11.27041909;7.282095504;1.090789576;1.445834815;-17.40358566;-8.082045037;-15.9843278;-8.584496802;-12.54466913;2.728745503;3.401275772;0.727903596
4.960989134;0.778551011;-7.652807164;-12.78012178;-5.594492963;3.515584979;1.588279339;6.815247023;4.2124925;-1.659442294;-0.852269529;-8.855424055;-14.35062001;-7.12644316;-8.092996602;-14.66877589;3.415412269;-11.42116099;0.856639998
-34.62294964;-0.510317204;-9.755833009;-11.24594271;-6.266476945;1.339367386;-1.958348802;5.023981549;2.641701511;-2.900195137;-4.461854143;-2.727618668;-14.14788916;-4.448266097;-7.044030574;-13.99262069;4.99986169;-22.92501157;1.189228009
-69.5731833;-3.925077657;-11.11103484;-10.58062357;-6.378464535;-0.438521558;-2.389828414;6.967066042;4.066848828;-1.620336268;-6.643202487;0.052020273;-9.077652227;-5.395349039;-5.759600554;-10.51887305;7.269679376;-25.90852756;1.837849967
-84.22408984;-6.059647635;-9.901878512;-11.57852259;-5.612376606;-1.205226984;0.289877404;10.5208945;7.988862084;1.24121502;-5.51782701;0.392275131;-3.916831681;-5.25565031;-4.51750327;-5.906532335;9.745644984;-21.1064922;2.568215563
-74.23427935;-4.711497428;-6.434089284;-14.24792792;-4.759951031;-1.145446164;3.750048828;12.20367167;11.85475312;3.525488474;-1.868550545;-0.235521922;-2.62695712;-1.877877406;-3.86987758;-2.8728548;11.92453681;-13.62937159;2.970562526
-48.67550142;-0.913952139;-2.912622787;-17.81320088;-4.908062785;-0.973905196;4.992618442;10.103516;12.65713752;3.588978654;1.354632049;-0.874169778;-5.513602941;2.768679548;-4.684778482;-3.694388989;13.44647329;-8.474264095;2.837357264
-23.37012761;1.923980947;-1.553086762;-21.04013832;-6.230644261;-1.261178573;2.518822064;5.40969675;9.040884548;1.5715162;1.464221202;-1.317578404;-9.487024023;5.124244466;-7.636018538;-8.682591338;14.12969224;-6.99016784;2.384663044
-10.56018595;1.132665845;-2.704691561;-22.7874943;-7.56793197;-1.927356821;-2.613634567;1.311340475;2.305656604;-0.86297822;-1.695142803;-1.594738592;-10.88720558;3.813895309;-12.46329885;-15.75542669;13.90166404;-6.953755349;2.079314715
-12.20846367;-2.562793405;-4.638828214;-22.59290076;-7.306804651;-2.33628651;-7.622187851;0.303838696;-4.458464736;-2.041051807;-5.622131273;-1.339836674;-8.433847443;0.96154204;-17.68701812;-21.58087283;12.73632216;-5.606687131;2.203585562
-21.00691647;-5.324362898;-5.160815012;-20.99049807;-4.872704465;-1.905729448;-10.05569169;2.249044399;-8.413424055;-1.701307587;-7.29542138;0.277904095;-3.980078125;-0.044436544;-21.21506239;-23.63;10.72570721;-2.566048281;2.562368369
-27.28419141;-3.442478523;-3.584082306;-19.27825355;-1.492399322;-0.699669745;-9.496216879;4.775941685;-8.646800308;-1.091965569;-5.713464403;3.865779458;-0.68687135;2.051911874;-21.58076968;-21.73114123;8.299523078;0.034703589;2.642447174
-26.06503979;3.074307067;-1.310955143;-18.72974787;0.576693414;0.520733804;-7.652264083;5.522175164;-6.330873883;-1.703728802;-2.641306676;8.819590507;-0.347183891;5.241707531;-18.97083477;-18.00880528;6.391699211;0.073688949;2.127642756
-19.28411961;9.707007386;-0.535163107;-19.67303378;-0.156432035;0.848593653;-6.870846199;4.172358807;-3.478564458;-3.798774258;-0.953783611;12.88235758;-2.145385163;6.514130645;-15.24299388;-15.26232044;6.234582434;-1.950358673;1.314959299
-12.50596494;10.44219811;-2.259152029;-21.10079837;-3.05666091;-0.067485386;-8.297835945;2.563174866;-1.441054179;-6.054023802;-2.063619904;12.89042603;-3.749627686;5.252868696;-12.81150451;-14.99252424;8.65484747;-2.845105482;1.008724745
-9.711058766;2.476794065;-5.401920951;-21.23235886;-5.642044055;-1.747940255;-11.10160618;2.921967685;-0.293263273;-6.631490994;-4.691445549;6.58204905;-3.565391897;4.268755453;-13.09871342;-16.52188642;13.22451124;0.562669525;1.90142241
-10.55707543;-11.06660505;-7.763837282;-18.78101862;-5.39449615;-3.243846623;-13.25620565;5.91958629;0.655273439;-4.727330184;-6.02087578;-5.537729387;-2.041207235;7.125356142;-15.59596067;-17.78241373;18.00913837;8.263929769;3.923794908
-11.79956567;-22.73100082;-7.947555999;-14.06219452;-1.720393789;-3.821376712;-13.1497377;10.23524386;1.935385782;-1.247946876;-4.180796602;-19.63504278;-0.905559262;14.01727468;-18.18410111;-17.06674711;20.47818902;16.28811106;6.137737527
-10.90162948;-25.66209375;-6.50967642;-9.051047046;3.485211832;-3.419667358;-10.72859513;13.84349448;3.475499013;1.949725328;0.139508752;-30.05791751;-1.196612462;20.15804424;-18.51539419;-14.35566453;19.30235955;19.15285859;7.338675563
-8.35328304;-18.30436093;-5.350362297;-6.196441498;7.124311957;-2.566915456;-7.38331072;15.68489718;4.911595818;3.558962703;4.335937791;-32.36382988;-2.089632746;18.71970796;-15.55476344;-11.25253108;15.8057879;13.68886547;6.945883595
-6.825198157;-5.376401507;-5.944418573;-6.752596268;7.035032243;-1.90759589;-4.83250983;16.18754233;6.158460407;3.759986092;6.189480073;-26.08265333;-1.745547735;6.379804622;-10.29207317;-9.685921198;13.65092179;1.298231105;5.482800149
-8.285423752;5.577234165;-8.029284252;-9.847731149;3.361026142;-1.775933384;-3.978141964;16.35025323;7.572750505;3.838043136;5.782486911;-15.27365314;0.612128546;-13.04649482;-5.193317458;-10.46072255;16.3789558;-12.94139119;4.236020809
-11.91049469;9.460209749;-9.904751809;-13.04295738;-1.800942019;-2.126356336;-4.564010582;16.51041448;9.544784268;4.911539534;5.363033277;-6.189681537;3.534797576;-30.21391139;-2.75741155;-12.75021856;24.17408812;-23.40787572;4.317393721
-14.68935747;6.831985068;-10.01922222;-14.03954289;-6.05752692;-2.761248793;-5.7038454;16.12558147;11.98441542;6.945843929;7.30018826;-3.341227541;4.538659855;-36.29749739;-4.06848406;-14.79941138;32.32339378;-26.87619085;5.828804843
-14.08259904;2.811021966;-8.372816635;-12.3019564;-8.322047321;-3.547142277;-6.667501745;14.74057667;14.2749524;8.895971819;11.92634786;-6.56875301;2.81046641;-29.02968357;-8.188516266;-15.1750113;33.1578182;-23.43892865;7.759571559
-10.28421742;2.711740214;-6.476628972;-9.395733616;-9.202973396;-4.401098186;-7.263204943;12.98762366;15.76555541;9.754383116;17.13669757;-11.27774845;0.815272754;-14.12495285;-12.70304492;-13.58744055;20.90371102;-15.46137435;8.689185524
-6.071851008;7.83090552;-5.945146899;-7.799009447;-10.08509272;-5.132118399;-7.659428915;12.35033597;16.2886627;9.471501144;20.08502062;-11.87493168;2.751028096;-1.021090201;-15.06464292;-10.78629054;-3.575180119;-6.005918659;7.768750176
-4.414178135;14.52613104;-7.031497051;-9.096530974;-11.8155279;-5.406635831;-8.01149217;13.69624462;16.14042111;8.89233613;19.52697427;-6.084022158;10.52320756;3.783511634;-13.9565267;-7.810799314;-31.72233932;2.048230144;5.275568064
-5.951669324;17.12033324;-8.434930936;-12.90562587;-14.06207964;-4.973457548;-8.323898062;16.00722678;15.52562487;8.819316928;16.83882692;3.006917179;20.54673472;0.801888782;-9.926353321;-5.299854066;-51.36172567;6.216788339;2.387434286
-8.513510622;12.28038242;-8.529296299;-17.28011745;-15.70927307;-3.967237865;-8.608265587;16.8188535;14.08644111;9.151948927;14.8803269;8.834792688;24.70719362;-3.781860854;-4.970048828;-3.352429991;-53.76349843;4.803782795;0.399985304
-9.028030001;1.530548277;-6.873880852;-20.18874949;-15.78533859;-2.94918529;-9.025964411;14.35871736;11.14935905;8.980603171;15.66324803;6.015342809;15.75314138;-3.486441912;-1.332419019;-1.862700138;-39.12658279;-2.141721101;-0.036577536
-6.147475161;-9.880814524;-4.637065415;-20.88696554;-14.10104703;-2.540492117;-9.730577057;9.593472513;6.642323753;7.591825518;18.72606731;-5.537657818;-6.493959282;3.333401447;-0.223028406;-0.869738833;-16.60608815;-12.08124171;0.816897464
-1.371417035;-16.73523026;-3.571347278;-20.18262409;-11.18820053;-2.902919423;-10.51056358;6.118175826;1.864072819;5.434484952;21.47785952;-20.08048843;-33.12686555;12.3575651;-1.191404366;-0.560190982;1.37605076;-20.66355298;2.091981179
2.207655752;-17.30673042;-4.487294404;-19.53409217;-7.785004587;-3.536762056;-10.65435314;7.539149501;-0.795520333;4.05906489;21.1679805;-29.60684644;-50.70761307;16.68556993;-2.526904426;-0.979999796;6.784277857;-24.01993746;2.887586161
2.412356344;-14.02641272;-6.598271854;-19.81931612;-4.422092974;-3.649794891;-9.342483799;14.32010474;0.713861839;4.942722412;16.90796659;-29.03987601;-49.80453402;11.92374208;-2.443530627;-1.820048828;0.396902859;-21.23872373;2.735134128
-0.349534198;-11.10847021;-8.289175627;-20.76749559;-1.417192446;-2.851130449;-6.37536976;22.85072918;6.471857053;8.151376977;10.25302016;-19.38840185;-31.5166447;-0.780933923;-0.322236696;-2.557778013;-9.875602408;-14.9709634;1.751626119
-3.543021461;-11.20241467;-8.571693984;-21.39740883;0.887752378;-1.58471545;-2.634862576;27.83896612;14.07304317;12.01963122;4.054688579;-6.728446401;-7.042279054;-15.66912253;2.778856484;-2.866778977;-15.26274061;-9.394548158;0.508776876
-4.581817491;-13.71424448;-7.900756101;-20.9591286;2.033247062;-0.87863454;0.215714224;26.29233346;19.81619527;14.21217301;0.580050049;2.062984681;9.673017841;-26.20710156;4.703565376;-2.915877322;-12.25949183;-6.998388221;-0.247899363
-2.752134482;-15.93170733;-7.649984535;-19.54029003;1.668211348;-1.553137097;0.694521872;19.81256293;20.88534062;13.36259447;0.278589914;3.625425234;11.01237442;-28.94988267;3.540405768;-3.246040968;-4.240718389;-6.83481185;0.08208805
0.518351142;-15.77173493;-8.778644689;-17.89625947;-0.11252132;-3.523084581;-1.554214895;13.18058447;17;9.984146284;1.908659294;-0.498209092;-0.011771795;-24.94571543;-1.101427142;-4.280531006;2.185424061;-5.779422512;1.674799554
3.08846321;-13.71024236;-10.93377191;-16.78087356;-2.680532121;-5.798641528;-5.557582726;10.33556313;10.37892891;5.949545413;3.674198368;-5.968793899;-13.0960442;-18.19749607;-7.700399235;-5.861873698;2.82420049;-1.729725781;4.140251715
3.899739514;-12.23620174;-12.79051171;-16.44261156;-5.175354372;-7.222918051;-9.706603944;11.1764345;4.125492296;3.019360441;4.410087891;-9.1777632;-18.73369299;-12.67690613;-13.59033951;-7.219024711;-1.019695008;4.148361765;6.634299454
3.640815336;-13.32280645;-13.27609715;-16.7038272;-6.969577629;-7.355224077;-12.78727689;12.0097224;0.290289277;1.644091956;4.040009766;-9.330194445;-14.77965709;-10.04388553;-16.43236023;-7.436318852;-4.248803835;8.298824151;8.248845222
3.850245304;-16.15413027;-12.52411388;-17.43607592;-7.924584485;-6.763913911;-14.55218017;9.309697532;-1.016026128;0.958988744;3.20784761;-7.772384116;-6.775718809;-9.373931563;-15.49282739;-6.095315815;-2.719821326;8.156531174;8.509575437
5.363684355;-17.23170659;-11.68739135;-18.86291501;-8.266422857;-6.479091061;-15.4662964;3.440980289;-1.021780916;-0.158942003;2.563774475;-5.714745827;-2.418178241;-8.658074075;-11.96042731;-3.612118753;3.113582266;4.968721975;7.665428328
7.493627819;-13.05647145;-11.81669913;-21.31188998;-8.252737203;-7.069163418;-15.97764118;-1.152715478;-0.94100638;-1.965661258;2.294878515;-2.762694573;-5.040974693;-6.708531093;-8.146429191;-1.006366404;8.715411037;3.210866693;6.532775494
8.622563434;-3.37218883;-12.87900018;-24.61226267;-7.952634209;-8.132258088;-16.03225113;0.242643487;-1.053139054;-3.609647373;2.176067541;2.288437489;-11.35582672;-4.029349576;-6.097853369;0.755494978;9.599597843;6.65999354;5.959623482
7.656234483;7.717534477;-13.84466646;-27.75240577;-7.29917218;-8.643191753;-15.2609416;8.017329116;-0.845329932;-3.889184407;1.992694826;9.203458096;-14.8715908;-2.113907785;-6.477303183;1.398968099;5.462543568;14.35425018;6.279580122
5.072842468;13.95324938;-13.75968165;-29.26668944;-6.28761176;-7.862775655;-13.59698167;17.10337526;0.139218156;-2.267523574;1.940492933;14.94793307;-11.71151749;-1.847698977;-8.345805737;1.524322135;0.697711056;20.21245836;7.161403453
2.672932631;11.07909668;-12.77933432;-28.2118058;-5.074828987;-6.029064457;-11.6602504;20.78967127;1.644392208;0.724669798;2.647867486;14.96350868;-3.816409906;-2.398791102;-9.900202293;2.189162655;0.743947209;17.26611243;7.960281086
2.227824901;-0.034386083;-12.14799289;-25.03112001;-3.884960596;-4.231370216;-10.45582031;16.59741681;2.825661603;3.939774562;4.733432644;6.525868189;2.990727561;-1.657456097;-9.650912003;4.131305454;7.295583709;3.478720143;8.270314046
4.11971031;-13.66611409;-13.06965257;-21.5832861;-2.859157935;-3.563169739;-10.58901196;9.103939089;2.961382872;6.403110759;8.16083144;-8.406600413;4.166097046;1.908967645;-7.31540958;7.115495122;16.48144318;-15.60206061;8.211855079
7.051621188;-22.82129955;-15.4573493;-20.17865497;-2.041144635;-4.262307461;-11.69128358;6.712511528;2.043101993;7.738403728;11.88572196;-23.40920415;0.298397612;7.375768448;-3.934134553;9.849350032;21.74741758;-29.91607762;8.221390771
9.034152173;-23.59205553;-17.72307906;-22.19453513;-1.507200384;-5.553555372;-12.61828243;14.35942982;0.722385163;8.001287579;14.21109362;-31.19174666;-3.592471973;11.15593518;-1.206653228;10.60681267;19.25899326;-31.72367219;8.554926286
8.858298197;-17.25641246;-17.89728607;-27.17238547;-1.440699041;-6.311190836;-12.32368213;27.95749907;-0.268901124;7.305048961;13.82042371;-28.20398618;-2.593179006;9.097792645;-0.488860977;8.273165868;11.40049382;-21.06896212;8.977745541
6.928188348;-8.810597139;-15.20745491;-32.99362084;-1.973885108;-5.975120964;-10.70961053;35.62616472;-0.647522757;5.752970278;10.87052204;-16.90829075;3.685650821;-0.320673291;-2.044746252;3.214801802;5.29273948;-5.616679682;8.948317061
4.876627178;-3.257406315;-10.81542967;-37.02403657;-2.888085882;-4.963159396;-8.74610872;25.69097004;-0.604952391;3.743732248;7.258980004;-4.018023092;10.6066809;-14.09348616;-4.955030828;-2.61424818;7.187711803;5.067034674;8.145221214
4.339569529;-2.465972931;-7.088189255;-37.51700432;-3.50542245;-4.269189443;-7.75355619;-4.089764773;-0.411681122;2.19303316;5.598625231;4.004206923;12.37713365;-25.87676149;-7.687231715;-6.531661579;17.00592145;6.390945719;6.844692899
5.860704035;-4.713076545;-5.972055123;-34.45836499;-3.023992022;-4.621203181;-8.43088244;-43.12335869;-0.073400364;2.200734063;7.39720698;4.88858757;7.080019531;-29.85138542;-8.96166015;-6.566990471;27.40607808;1.528389886;5.759040882
8.704248735;-6.807840476;-7.738678626;-29.43350306;-1.148179127;-5.909696062;-10.39528257;-73.50895522;0.604535594;4.252555596;11.75555342;1.195294322;-1.33824211;-24.62735527;-8.407167235;-2.661229493;28.4406897;-1.8340625;5.427430202
11.58790266;-6.806689765;-11.01149676;-24.68814916;1.500887275;-7.323554159;-12.5368679;-81.04476403;1.658592293;7.630464644;15.77868552;-2.461803492;-5.882644525;-14.20883814;-6.655001463;3.153955054;14.60485772;1.98847499;5.688804682
13.65415396;-5.177248299;-13.91847433;-21.96547895;3.6503607;-8.016420503;-13.81130296;-64.11162464;2.751683196;10.68269657;16.69626154;-3.127294379;-2.037710325;-5.097903406;-4.867434154;7.807014671;-10.80561271;12.06875242;5.749751682
14.91256394;-3.800773114;-15.37158071;-21.74016729;4.250526111;-7.712842009;-13.793285;-34.27130636;3.380540021;11.89970487;14.21902144;-1.186663437;8.257288397;-1.626110607;-4.027590149;8.900947061;-37.21232934;21.59474142;4.864183924
15.91556376;-4.010068359;-15.51551396;-23.18737066;3.324819694;-6.782847348;-12.62504392;-8.373851508;3.316114448;10.97144307;11.16599923;1.030075684;17.31152769;-3.121579491;-4.42890607;6.060691229;-53.11508887;23.08092836;3.07994403
17.08564242;-5.45397609;-15.18792078;-24.81866382;2.071195257;-5.816052787;-10.58835082;2.072100967;2.803437273;8.91755761;11.52254053;2.111069393;16.7047034;-5.135854752;-5.635895768;1.080455572;-52.8940052;13.87163474;1.384107505
18.33865716;-6.616857939;-15.03957193;-25.39220351;2.034397617;-5.142234724;-7.837894514;-3.054417155;2.266774545;7.144138487;17.14815738;3.109681022;3.127887566;-3.641508272;-6.864418663;-3.202440408;-39.55086454;-2.128528148;1.040821586
19.29306742;-6.292017209;-15.10304443;-24.59278;3.935210825;-4.71921541;-4.583044514;-14.58423107;1.79027664;6.242863649;25.70537465;6.277009001;-18.98752919;1.406641767;-7.475023753;-4.570115512;-21.94226032;-17.37441101;2.598964475
19.77467879;-4.577967539;-15.04987828;-23.1187002;7.079136791;-4.407458981;-1.462573873;-21.85962891;0.936918337;5.615546226;31.73512669;12.10444137;-39.78735889;6.247406932;-7.256476011;-2.584653425;-8.866275338;-25.64059198;5.369716166
20.05832443;-2.57869022;-14.71722286;-22.14720341;9.846218854;-4.275415218;0.424975964;-20.11016274;-0.812206541;4.274933431;30.42720121;17.50175339;-49.66043524;7.075947755;-6.385533467;1.392388026;-4.175659958;-25.32579366;7.835917617
20.57074639;-1.257339999;-14.31906998;-22.51745505;10.90072579;-4.581611257;0.087373898;-12.37559034;-3.347051366;2.065524791;21.33987195;17.18833744;-44.60758902;3.979732044;-5.200484161;5.178196004;-5.845592811;-19.21710032;8.711313199
21.34054745;-0.613940029;-14.16823461;-24.15567324;10.16903398;-5.437898419;-2.555800313;-5.545158608;-5.663562694;0.094743852;9.080717585;7.692138984;-28.11120901;1.285171069;-4.016600703;7.009123411;-8.861937344;-11.70392491;7.830287235
21.78223399;0.074543084;-14.26365924;-26.1253545;8.821556153;-6.512836691;-6.336005391;-4.393699376;-6.448537311;-0.151696265;0.189368816;-9.079994828;-8.678545199;3.629755308;-3.088254176;6.288738862;-9.294076823;-5.978580509;6.172444436
21.12940441;1.300287114;-14.21803142;-27.27127223;8.30946198;-7.132304552;-9.38733548;-8.355717231;-5.139179369;1.719650775;-1.501681596;-25.82055079;5.148076209;11.03663624;-2.625865896;3.563617987;-6.627440904;-3.0479544;5.019070282
19.20633107;2.676410158;-13.62421255;-27.00550033;9.262654335;-6.765485882;-10.27990559;-12.98016113;-2.542080267;4.353663871;2.587837924;-33.94659086;9.245015726;17.58028181;-2.712276384;-0.014157222;-3.188975788;-2.468807246;4.931524291
16.82676407;3.256343827;-12.48922841;-25.6701512;11.12058569;-5.492252435;-8.889505867;-14.14535722;-0.354004089;5.588843568;7.353202499;-29.21775497;5.387427068;15.47094013;-3.107729889;-3.273741874;-1.715589827;-3.445363183;5.365978522
15.35190741;2.494509921;-11.28038612;-24.2180356;12.711054;-4.011544076;-6.312813739;-11.281489;0.159185073;4.339729925;8.359258973;-14.78378999;-0.739389317;1.679679858;-3.144769268;-5.380132693;-3.159751675;-5.208404799;5.201685245
15.67083469;0.889045904;-10.51209382;-23.46954585;13.20088443;-3.128014154;-3.897165435;-7.194651538;-0.725741009;1.777893231;5.332645334;0.737260789;-3.470373652;-18.38788239;-1.955015793;-5.972240302;-6.20723334;-6.781843571;3.71617457
17.4470487;-0.326115844;-10.26865934;-23.53366027;12.59659033;-3.119892277;-2.185522441;-5.142631901;-1.27290441;0.620063477;1.869803658;8.958116562;-0.533856941;-33.69216508;0.967015574;-5.21053111;-8.484310147;-6.973849181;1.203881281
19.33569331;-0.138397301;-10.13930468;-23.84930064;11.44975842;-3.523378868;-0.644575286;-5.945688828;0.392989982;2.939736623;1.707294085;7.183576055;6.085625673;-35.17199701;5.210125424;-3.742298743;-8.289031524;-5.022375487;-1.237498609
20.06351606;1.538664397;-9.647053852;-23.80013563;10.15698728;-3.533094457;1.628686684;-7.539157397;4.742916726;8.305790364;4.954131819;-0.260988716;12.07369562;-22.36733131;9.392512546;-2.467610661;-5.592341713;-1.358862881;-2.53555906
19.46380219;3.993404859;-8.762558015;-23.38306545;8.568254602;-2.694855395;4.870646325;-7.086912732;10.3325245;13.92136159;7.819030288;-5.708880134;14.0096775;-3.757868017;11.82677965;-2.077327599;-1.814737227;2.431718389;-2.395879496
18.52205994;6.371305516;-7.98999165;-23.3595053;6.262914327;-1.310245136;8.220019531;-3.637685642;14.76731221;16.77663587;6.312514952;-4.047008232;11.63802435;9.54646554;11.57621995;-2.595794111;1.234844822;4.693807029;-1.405285779
18.33237336;8.046303148;-7.910860562;-24.73927734;3.180965666;-0.209922646;10.30125308;0.963786569;16.38197095;16.02998078;0.716156864;3.531125193;7.699321131;11.78295115;9.173839776;-3.309702826;2.462326851;4.982640535;-0.480379442
18.89044618;8.33260497;-8.601264533;-27.99543879;-0.050516393;-0.084132392;10.34203768;3.571216957;15.29783794;13.52246357;-3.431860022;10.59027229;5.614105158;5.914590276;6.398296813;-3.262489963;2.000290542;4.355158978;-0.173389061
18.90684569;6.095279514;-9.487724144;-32.63007813;-2.458613181;-0.929713609;8.863733598;2.275922316;13.0710992;11.90744079;0.661440045;10.39541457;6.861933717;0.021937875;5.139560039;-2.030941996;0.948725094;4.322191632;-0.393697236
16.97622287;0.192166402;-9.815077089;-37.42492256;-3.444904574;-2.068582476;7.33150766;-2.113402867;11.33792857;12.04097566;14.94241371;0.977027067;10.06098123;0.100607243;6.095093619;-0.173595916;0.591075956;5.395998188;-0.687511049
13.15386913;-9.093522509;-9.321168787;-41.16240137;-3.214656293;-2.708254394;7.037490294;-6.740476275;10.66650712;12.08642913;33.46708558;-13.38059424;12.37449804;5.451020781;8.248828151;1.096154265;1.567084686;6.640353617;-0.737149196
9.43721132;-18.78638862;-8.493098908;-43.25340234;-2.501259729;-2.566876877;8.15025084;-8.82026245;10.5548239;9.372102385;45.53180844;-25.15642064;12.00267294;10.33449005;9.574656348;0.855688938;3.489580015;6.751582985;-0.610605432
8.456143223;-23.76766054;-8.142794857;-43.83491142;-1.832933657;-2.048830737;9.727301782;-7.446706538;10.4326348;3.50280446;43.15253855;-28.72569951;9.660103136;9.998887648;8.510983426;-0.685622937;5.260409362;5.712224462;-0.58561966
11.272513;-19.63655385;-8.665776574;-43.36934656;-1.031985562;-1.848934346;10.66607481;-3.773763078;10.61218006;-2.195815756;27.23935189;-23.8339561;7.820591206;5.415886706;5.147599133;-2.183370451;5.919443693;5.355933864;-0.786484545
16.18391961;-6.274687401;-9.657491975;-42.16867638;0.564059871;-2.339816284;10.7645669;0.307868891;12.20313402;-2.677950571;7.427151023;-15.09295237;8.428800559;2.37308259;1.241193787;-2.096965672;5.452532832;8.013270922;-1.021664048
19.79936243;10.72515865;-10.25480169;-40.25539828;3.342879937;-3.258047716;10.96388317;3.703888356;15.99478898;4.57172308;-4.661078539;-8.218165606;11.11384553;5.733150527;-0.968831748;0.11631209;4.908963675;14.13803637;-0.980333305
19.7544263;22.555777;-9.911276586;-37.60625264;6.826233814;-3.932623096;12.53750497;6.580467969;21.31972839;16.55063201;-3.705095275;-5.998620674;13.51483072;14.11859029;-0.276901703;3.516779325;5.618020323;20.93225928;-0.576989653
16.84003906;22.52840084;-8.904640452;-34.46178976;9.832141969;-3.843157067;15.88986446;9.551270858;26.02575672;26.00027618;5.851891293;-6.888520492;13.46299013;20.05043338;2.7522985;6.352321052;8.025170685;23.4358934;-0.083146702
14.54300649;10.64195926;-8.10049158;-31.35638091;11.30200776;-3.040910657;19.97286414;12.51851959;27.76762909;26.61505651;13.83028573;-6.922451727;11.07228861;15.82281642;6.338944192;7.396581768;11.11375173;17.67493883;0.10700118
16.0835313;-6.128044462;-8.16868981;-28.83071545;11.08911906;-2.106858786;22.83628941;14.33997479;25.67222529;18.37511296;12.59154482;-3.187970299;8.800242463;0.276978097;8.862823029;6.893348354;13.05192195;3.759718606;-0.133201086
21.33342003;-18.38454514;-8.960855839;-27.11705511;10.01618773;-1.711650815;22.91258822;13.6856271;21.04213507;8.460489531;3.010150362;3.825400165;9.318476456;-19.3532451;9.982810968;6.330392404;12.71810685;-13.32780956;-0.496286597
26.43933151;-20.5863997;-9.632958512;-26.11261722;9.148951018;-2.145278901;20.05541292;10.33371579;16.49593342;6.258267048;-6.483647152;10.55768036;13.04179052;-32.30609514;10.66449191;7.207014274;10.87591489;-25.9905076;-0.484524652
26.9048016;-14.46245413;-9.429741415;-25.6572026;8.925967686;-3.166038085;15.56617838;5.711145842;14.18685457;15.68365827;-6.830610335;12.85997623;17.57870077;-32.0355145;12.15669391;9.787137263;9.83842897;-28.01205162;0.133026303
21.82456325;-7.056474956;-8.430423182;-25.80849633;8.902826148;-4.231044457;11.24985571;2.093664707;14.45397427;30.67805861;4.409956844;8.684649335;19.72077255;-20.63658568;14.77618755;12.85010951;11.62262426;-17.91599478;1.067903457
15.53360094;-4.999248559;-7.552996844;-26.79307915;8.305439445;-4.877824587;8.26709118;1.029825137;15.86752031;37.94486815;21.19193563;-0.791015281;18.28186213;-6.605637478;17.48394341;14.63780178;15.99578208;0.169205826;1.72407981
14.64341545;-9.488367411;-7.753404316;-28.63654629;6.857386353;-4.960887054;6.625924948;2.261534437;16.49877942;25.76231416;33.7094483;-12.03963212;15.21788484;1.882618169;18.5909003;14.22261221;20.20784035;18.44545477;1.724731097
22.22215892;-15.79540856;-9.085885523;-30.83251821;5.11573542;-4.621969803;5.575266563;4.061036575;15.33494552;-7.086261589;35.68843924;-21.14957534;13.89876688;2.545159122;17.04323868;12.19521287;21.02313527;29.02601385;1.303197695
33.71022148;-17.44806949;-10.46398061;-32.43448381;4.022068125;-4.101783068;4.444025705;4.749960134;12.78601769;-48.83354128;28.45048398;-25.56233903;15.97675972;-0.797040925;13.30189726;10.15356212;17.68200814;27.40731057;1.190968593
38.4669659;-11.54129531;-10.40396536;-32.58732735;4.105738441;-3.586118969;3.197667648;4.155912884;10.08093468;-80.97548956;18.91261353;-24.79794774;19.69199367;-2.754771247;9.162150175;9.461986692;13.27887563;14.36043171;2.048763179
26.74738455;-0.899825071;-8.204334877;-31.08335108;5.084882143;-3.18126523;2.323433338;3.7572489;8.23826459;-89.34480467;13.6932786;-20.1896131;21.30815994;-1.18064174;6.663763685;10.30960381;12.92154404;-4.476576245;3.884562377
-2.574415883;8.44449805;-4.618440919;-28.45145928;6.214976097;-2.961558101;2.258168987;5.321451889;7.488101887;-72.59732365;14.36055833;-14.07081078;18.56865896;1.874245245;6.883989782;11.78235758;19.53118644;-21.14791262;5.9436477
-39.43705389;12.1357668;-1.454131237;-25.478788;7.014537017;-2.979549531;2.914858344;9.123819858;7.456088595;-42.46559237;17.40721331;-8.805243157;13.08352774;3.26138296;9.419301939;12.77741563;30.36778152;-29.04751313;7.194780204
-67.73304362;10.63621115;-0.376289081;-22.58739698;7.640543242;-3.209051647;3.69912772;13.27310219;7.698958492;-15.88334776;18.29780465;-5.886611767;9.292467092;2.374690334;12.79863736;12.90849012;37.37511207;-26.024243;7.063065377
-75.08973548;8.205766811;-1.805407262;-19.65013926;8.539974964;-3.498959968;3.941666039;14.84792498;7.971032898;-4.596749471;15.64856089;-5.357610025;10.63059483;1.667020543;15.41243315;12.64232141;31.88226737;-15.23654932;5.856498821
-60.58513699;8.879431456;-4.708387809;-16.43751822;9.73863149;-3.627581931;3.340220103;12.07580503;8.027971279;-9.213648806;11.94790119;-5.887459992;16.18638942;3.738402825;16.28397859;12.64626865;10.81694274;-3.081923244;4.561240318
-34.9594117;13.01362356;-7.373441302;-13.26534876;10.53458113;-3.447013017;2.069186906;5.859354269;7.349832902;-21.05950155;10.61306905;-5.65736667;21.01727975;8.19644222;15.27691778;13.03248612;-19.99663534;4.724710003;4.155954265
-13.23346992;17.25866541;-8.535816823;-11.14187393;10.01992435;-2.999346412;0.560201361;-0.621643226;5.28919475;-29.58024019;12.44817012;-3.653299998;20.2544934;11.7295035;12.82714164;13.23107016;-48.22062539;6.465551997;4.94651625
-5.074817532;17.74433824;-8.036782197;-11.1021138;8.045649269;-2.488417524;-0.766622961;-4.009704915;1.690682874;-29.5319861;14.8679439;-0.476776056;13.68418104;11.56471697;9.581835773;12.5959863;-61.92839169;4.859903041;6.389729298
-9.658963782;13.55980815;-6.642121582;-13.1824565;5.724865614;-2.112881207;-1.57823154;-2.978113046;-2.555753913;-23.13287212;14.49847899;2.066433683;6.696163348;8.877541439;6.231179785;11.13497458;-56.60897155;4.324706857;7.504131744
-18.17898327;7.539179422;-5.305150619;-15.95349202;4.871469077;-1.89821006;-1.54185022;1.14370895;-5.670785674;-16.59317338;10.58790288;2.452746079;6.275784572;8.379877981;3.499439992;9.617685389;-37.57251461;7.184395848;7.550764262
-21.43007813;3.83735254;-4.502039061;-17.21064853;6.685752667;-1.679393077;-0.315479683;5.726113993;-5.95561252;-14.5373902;5.952351987;0.87354605;14.92022501;13.81261754;2.061450365;8.888080602;-16.2189392;11.89232786;6.507052255
-16.45555395;4.540241323;-4.083142776;-15.49589038;10.7262766;-1.260918709;2.223946579;8.945291778;-2.947839678;-16.7984505;4.51937134;-0.674118806;27.44606019;23.25990928;2.256400214;8.973410662;-2.855871389;14.77217149;5.039264174
-7.552856806;8.224696977;-3.607000838;-11.33634331;15.06529731;-0.623761732;5.648821007;10.82990569;2.127134243;-19.57322735;7.716904125;0.066909512;33.69097435;29.03360833;3.760883026;8.839740291;-0.973773475;13.80539013;4.039624831
-1.672175888;11.52339914;-2.777995797;-7.147498188;17.58067006;-0.000745644;8.889878453;12.43702719;7.017150828;-19.2946525;13.06144037;3.58160956;25.5158715;23.19343898;5.552325785;7.130606189;-6.557559573;11.04627776;4.068436474
-2.49102667;12.11908748;-1.635212548;-5.705418996;17.3839301;0.253064595;10.61744806;14.07777826;9.773953916;-15.71513161;16.31401934;7.846109678;2.972174853;4.600573683;6.344230658;3.362637967;-12.26203604;11.18428481;5.061211525
-7.958316352;10.50465205;-0.432036261;-8.228022914;15.25664841;-0.100133921;9.948776;14.43565553;9.798928473;-11.8193809;15.30322497;9.772326187;-25.0623674;-18.58164594;5.302977164;-1.412433982;-12.96570008;17.07492406;6.450240468
-12.80050438;9.129467347;0.596750674;-13.49469896;12.79541295;-1.014014226;7.012771732;11.63408215;7.899884663;-11.0403471;11.93834461;7.874736712;-46.34338589;-33.71810881;2.57628111;-5.109788954;-8.706156322;26.01852529;7.575015779
-13.33647041;9.925477351;1.363463825;-18.7073829;11.04307218;-2.182885125;2.937297056;5.424136664;5.445830902;-14.37;10.51383198;3.943341153;-52.83139462;-32.57868769;-0.764925368;-5.992714543;-3.404154669;30.46642027;8.092890039
-10.3633113;12.53040849;1.902109927;-21.4799707;9.778986815;-3.224103565;-0.778235649;-1.631039301;3.374406876;-19.73201428;13.75397844;2.055198625;-44.99872541;-17.32012257;-3.370996472;-3.922361186;-1.038752489;23.39188094;8.131047762
-7.908826838;14.73003906;2.290956777;-21.46350901;8.019752357;-3.873976085;-3.087885925;-5.48680154;1.820630209;-23.86400474;20.15836785;5.363929582;-30.21506439;1.303316785;-4.417795132;-0.525764935;-2.539366437;4.44290429;8.103428993
-9.311040245;14.58409309;2.622538033;-20.38071109;5.2035781;-4.069635005;-3.860966844;-3.776366034;0.535591477;-24.8762943;25.14179675;13.10771726;-17.04895915;12.13023772;-4.022949928;1.865243393;-5.610832235;-18.25043624;8.334295313
-14.20633813;12.26967632;3.011068236;-20.46581932;1.951147729;-3.900676302;-3.70310139;1.817116571;-0.408892942;-23.31324667;25.09694036;20.41110876;-10.00182909;11.59760314;-3.009985503;1.743012489;-7.130185668;-32.71566122;8.756531961
-18.94044011;10.05516046;3.560883803;-22.53643749;-0.286618763;-3.512131832;-3.338390836;6.386221946;-0.322005611;-21.04681141;20.80747282;21.40847868;-8.178048199;5.231813899;-2.229777654;-0.654639947;-5.817642355;-31.21395085;8.911120637
-19.80830764;10.50718897;4.27535639;-25.20499918;-0.363468292;-3.044508974;-3.047813902;5.727788299;1.711292979;-19.24353981;17.04748684;13.52567971;-7.905490869;1.82939699;-1.954777749;-3.620382418;-3.007865395;-15.70439107;8.278760573
-16.16207269;14.45656712;4.990720911;-25.85665929;1.670852512;-2.623891775;-2.551800917;0.397737563;6.068040987;-17.3170271;18.46365067;-0.363563085;-6.405240892;5.622195864;-1.777008598;-5.170713572;-1.170751388;3.618842132;6.735538071
-10.75484433;20.24946818;5.437599772;-22.66709778;4.702333153;-2.35209478;-1.337307062;-3.784554183;12.08568383;-13.73872336;25.16242956;-13.69746074;-3.481072115;13.17602626;-1.0433597;-4.290590911;-1.694189423;15.70272304;4.8
-7.237379163;24.62296395;5.422525937;-16.14585881;7.542115523;-2.259503418;0.903338822;0.009262929;18.23143594;-7.849784822;31.89337602;-20.67978366;-0.506333575;17.40962004;0.540880167;-1.442300487;-3.847807954;16.24448208;3.438469049
-7.154951867;24.38364721;4.988411865;-9.047510833;9.840143319;-2.252225486;4.074582303;13.35936728;22.84150037;-0.937747428;31.82254353;-20.07982709;1.59404693;14.79564783;2.618568003;1.858879871;-5.641637576;9.715744152;3.486875517
-9.025988312;17.86909618;4.403579184;-4.692844037;12.09885672;-2.128631262;7.80687964;29.33950642;24.94439973;4.46179955;22.0187104;-15.54650698;3.21354276;9.048433168;4.423165391;3.994324473;-5.641981877;4.563105443;5.046767463
-10.07777605;5.759709454;3.973064615;-4.873844025;14.83385129;-1.699135817;11.70935907;35.61534336;24.67845659;6.47494405;6.206010755;-12.36777335;5.206696705;7.806960409;5.369253823;4.094297779;-4.10986447;5.881807298;7.293824247
-8.86696869;-8.71636317;3.832362527;-8.769798729;17.74053497;-0.944571465;15.4837202;22.57713236;23.11662671;5.361110064;-7.558851449;-13.36960703;7.564847864;15.16122394;5.538218643;2.381649175;-2.559757195;11.73854731;8.900920417
-6.395910938;-20.2974645;3.905136848;-13.55412812;19.71543411;-0.085860049;18.83374402;-9.044027773;21.65688996;3.261721119;-12.55911365;-17.16897484;9.208181744;26.76479643;5.679877975;-0.034774064;-2.253485521;15.98192859;8.856737069
-4.873646375;-23.34766864;4.050400827;-16.21480159;19.75477038;0.517643744;21.34570494;-46.92364531;21.31572158;2.417886688;-8.038817215;-19.91072515;9.137174475;32.25596388;6.702923904;-1.713163216;-3.010316158;14.68960103;7.150239542
-5.458924826;-14.67819568;4.237830276;-15.36369357;17.88925583;0.594400084;22.56022947;-73.85734468;22.25049415;3.356157675;0.731836419;-18.73679568;7.668966704;23.44435478;9.000478601;-1.524936794;-3.356955582;10.25505778;4.837899681
-7.163449125;3.695108241;4.560727018;-11.92292081;15.24027929;0.155188526;22.25942818;-78.23466138;23.71770836;4.566277465;6.773859144;-13.9787774;6.356611334;1.592302184;12.08606454;0.823171189;-1.848244237;9.255112362;3.412538659
-7.897384154;24.04561892;5.065225422;-8.375694466;13.09376283;-0.492773699;20.74216326;-61.09916334;24.50651741;3.931662399;6.525640482;-8.403015808;6.556768029;-22.41725954;14.8105691;4.58701912;1.598769968;15.8480314;3.876825124
-6.584794243;36.14095726;5.581216995;-7.165578655;11.83567962;-0.932471455;18.80232059;-34.88841282;23.67793851;0.700959177;1.811247852;-4.496982377;8.058790627;-35.49423641;16.03620492;8.253827228;5.49930415;26.65859179;6.137944189
-4.279716366;33.08093918;5.771014904;-9.263209584;10.76893231;-0.89449611;17.33734173;-14.86950818;21.23406176;-3.658713683;-2.530743755;-2.402692034;9.216338182;-31.59437621;15.33197536;10.2602856;7.911181523;32.14848464;9.118605828
-3.171232676;16.11415072;5.411974337;-13.70712402;9.025210158;-0.402755511;16.82720025;-9.442051094;18.27928761;-6.453434349;-3.009490394;-0.309685372;8.554615657;-15.585601;13.23977728;9.851333969;7.96579729;23.99506774;11.4808209
-4.368841132;-5.410607173;4.676067308;-18.2856957;6.719149898;0.286535271;17.06469304;-16.01784972;16.45801791;-5.807401278;-0.124015618;3.272862407;6.304799085;1.073853663;10.94896769;7.569119229;6.582111647;2.616201223;12.44699396
-6.55117728;-19.75859321;4.116098846;-20.87481327;5.179551997;0.890503988;17.35;-24.81063366;16.91560231;-2.123052838;2.659453729;7.708928433;4.292192651;9.075218625;9.608812995;4.981283114;5.77217641;-21.62684788;12.17181851
-6.836417368;-20.64100298;4.299116307;-20.62774465;5.891481107;1.285004853;17.01046177;-27.02888658;19.43637704;2.185281044;2.325054951;10.7464593;4.18161452;7.378852043;9.732394896;3.720453041;7.056915324;-35.11025043;11.47086095
-3.233555871;-11.45781012;5.355742332;-18.3550444;9.014902584;1.53351886;15.85568084;-21.10218122;22.40678413;4.43237045;-1.036337932;10.91134827;5.758915686;2.252235831;11.05212154;4.421883087;10.22350128;-30.61232527;11.16797799
3.439032961;-2.45900232;6.835043776;-15.92257486;12.86846797;1.755049394;14.23572959;-12.65314161;23.73638452;3.491832944;-4.560216717;9.404644584;7.016280396;0.791474479;12.85291136;6.300902704;13.42549061;-12.43169482;11.54804443
9.892600233;-2.64089839;8.02762743;-15.06354826;15.02107518;1.954380448;12.69011261;-9.029568673;22.16984301;0.349166672;-5.399161838;9.402072347;6.115020584;4.822594165;14.48330272;7.718214024;14.61536498;7.085033835;12.25848953
12.76443463;-12.51314097;8.518654098;-16.33648198;14.20667918;1.96390698;11.49729307;-13.21490984;18.0818998;-2.895704487;-3.326367228;13.02781909;3.396279223;10.22731814;15.66480188;7.378037436;13.24894734;16.83200101;12.64183904
11.10049015;-23.52027537;8.510246158;-18.86413312;11.43868872;1.554716183;10.49896303;-21.86595494;13.18315776;-4.631671729;-0.826281089;18.63450541;1.388260836;11.71959807;16.43215884;5.311755807;10.90656061;14.70183079;12.19296237
6.885628254;-24.8072947;8.62696419;-20.993848;9.271410903;0.639275023;9.333809544;-28.50792623;9.362295393;-4.643664042;-0.694375117;21.13191112;2.576193391;8.376927769;16.85945612;2.916954921;10.21329113;7.868846276;10.8150501
3.262701832;-12.08949698;9.359220297;-21.41927544;9.724725221;-0.588971378;7.871979195;-28.7917952;7.531603044;-3.745700689;-3.400858685;15.65226436;6.922259085;4.803144451;16.88980265;1.992430346;12.73822758;5.825684299;8.76269953
2.027013106;8.513279766;10.62594671;-19.9950654;12.60342329;-1.697589733;6.472163873;-23.46465211;7.304251301;-2.681040612;-6.632670016;1.830423858;11.58010887;6.847885145;16.45350295;3.443709813;17.46838109;12.21838094;6.405085482
2.509399924;24.92728055;11.84853314;-17.69553455;15.68703;-2.234944665;5.820101494;-17.02142192;7.638830302;-1.379212413;-7.432023709;-14.92171169;13.32896084;15.70022993;15.74769848;6.580363216;21.2203089;22.23102664;4.029416974
2.659649568;28.42248804;12.48173316;-15.78692455;16.68325203;-2.000238274;6.436895126;-13.67589418;7.814012299;0.783856674;-5.003880079;-26.58069581;11.62096052;25.68414622;15.34312858;9.503120744;20.98294399;27.40476577;1.80600939
1.204591555;20.28449598;12.52909393;-14.8596147;15.27459726;-1.193292926;8.208878065;-14.2196486;7.88851549;4.059357577;-1.642203697;-27.95452166;9.304254455;27.98028047;15.89233751;10.30816217;16.58475631;23.48738564;-0.127227884
-1.10876541;10.42075038;12.5604475;-14.46007813;13.44217607;-0.339214895;10.2904546;-16.15512383;8.318775033;7.69386758;-0.86010898;-20.23184533;10.04644518;17.47985065;17.57966197;8.28662292;11.49546526;14.44833759;-1.587808011
-2.252121895;9.010442727;13.17818855;-13.58427224;13.71889608;-0.016982813;11.47703062;-16.50187697;9.181674544;10.27089975;-4.264461246;-9.826015165;14.61777924;-2.721980742;19.76806257;4.345775329;10.66993938;9.143059796;-2.366649342
-0.875776965;18.02216247;14.38403338;-11.60875704;16.86399056;-0.541810199;10.82984269;-14.54388311;9.79566626;10.78624643;-9.857508879;-3.41682692;19.58508511;-22.86319331;21.2494846;0.442530024;16.55169068;13.40052218;-2.330201803
2.351980936;29.55750509;15.4276862;-8.890530244;21.03;-1.785143465;8.177358147;-12.18837394;9.149856638;9.502599002;-13.29285994;-3.129676711;20.07579846;-32.9845225;21.06193276;-1.539253862;26.09739659;24.26815087;-1.531242076
5.258795249;32.37394482;15.33393839;-6.54787598;23.23808759;-3.240272616;4.207153951;-11.92864268;6.788908001;7.77546364;-11.15003906;-5.623999221;14.53011744;-29.43439769;19.31925415;-0.756535736;31.46296463;31.49191512;-0.256364149
6.058835849;21.21285997;13.7163529;-5.616826551;21.93576001;-4.298071756;0.11397237;-14.47122653;3.352074196;6.941557377;-3.608148997;-5.612021564;7.11146927;-16.65841734;17.35465451;2.286258351;24.62069371;25.40548536;1.022132675
4.893544963;1.276406471;11.20077886;-6.294016444;18.38611665;-4.571758409;-2.986843223;-18.1592498;0.237934843;7.221262247;5.607656441;-0.693654668;4.995105989;-3.312308386;16.90471211;6.134247752;3.170078125;5.08583335;1.787493057
3.625954256;-15.76753605;9.065948056;-7.889924007;15.59739762;-4.080240742;-4.569002429;-20.53605932;-1.375578956;7.624401624;11.91239409;6.601249614;12.12311587;3.984028386;18.79769007;9.149286637;-26.76699344;-19.78051187;1.68303888
4.086266159;-20.90089172;8.344054755;-9.498313619;15.67251391;-3.187805682;-4.882133414;-20.47737635;-1.35738842;6.987409293;13.0113498;11.21497711;24.52574895;4.498497213;22.09447537;10.22200241;-53.09916218;-35.05997724;0.709680673
6.374418921;-14.51972047;9.083042307;-10.76934877;17.93187861;-2.349740167;-4.742313408;-18.96194051;-0.623143234;5.238024517;10.10192659;10.23723265;31.68698814;2.380486555;24.42633318;9.14816244;-64.60921079;-31.89737813;-0.697468651
8.773639052;-5.460039063;10.36029335;-12.09511454;19.56653805;-1.831525071;-5.042382581;-17.92644392;-0.342524626;3.702837994;6.414031163;5.723115902;23.78111467;2.269699809;23.45075212;6.59527356;-57.71908396;-12.80570258;-1.817138152
9.363886123;-3.345346745;11.03513175;-14.05275154;18.34084417;-1.576747829;-6.230714746;-18.39768941;-1.046896143;4.050078125;4.522880695;3.086885938;-0.407492428;5.401568763;18.48311371;3.729995701;-38.55924441;10.29841435;-2.007395183
7.866955339;-10.71254775;10.63028063;-16.63477831;14.92953996;-1.293454395;-8.032275409;-19.6345264;-2.368021129;6.678664524;4.683862982;6.288996779;-31.17744552;9.24428823;11.13;1.658470387;-18.84736324;24.50282476;-1.109922457
6.016088545;-21.30864971;9.636332995;-19.01682452;12.6332523;-0.684721917;-9.580491887;-19.96232249;-3.545610508;9.970587345;5.35034949;13.86454173;-53.50373478;10.54534026;4.387424855;0.895900337;-8.410837184;24.50820199;0.384205937
6.055404411;-25.65667071;9.017461004;-20.15304634;14.47384509;0.335282309;-9.917774364;-18.40685777;-4.168680887;11.22340197;5.089693929;19.31926871;-56.73689187;8.859521326;0.752239217;1.115283626;-9.523729864;15.33757753;1.585969253
8.676793211;-19.01344861;9.355934296;-19.73357624;20.12282948;1.572364239;-8.599900499;-15.58585844;-4.464721982;8.690617543;4.010741979;15.91603171;-41.34859554;7.368371517;0.637461968;1.349062593;-16.78824433;7.612709685;1.777087935
12.26456302;-5.126476984;10.3589404;-18.65268881;25.53602131;2.655544045;-6.041206602;-13.10826225;-4.929063166;3.122958702;3.439517633;2.228602415;-17.90003906;10.15645829;2.20452403;0.592766165;-22.15544764;9.256741371;0.926681817
14.20639911;7.037560223;11.13126697;-18.48836866;25.99276043;3.230421069;-3.357781022;-12.14102234;-5.724706502;-2.547585717;4.280453997;-15.96882849;0.644204846;18.12326053;2.736253078;-1.513266488;-21.01018029;19.75615627;-0.240675839
13.19513561;10.5380161;10.9665779;-20.31607527;20.20272459;3.123716653;-1.765734256;-12.50602969;-6.479705765;-5.304076434;5.725946139;-29.17955354;7.265268765;26.99018546;0.583148768;-4.364901537;-14.81294356;30.87021339;-0.733815954
10.50673175;5.57778558;9.975576183;-23.78043227;11.90662745;2.402502021;-1.889589275;-13.07428658;-6.692339195;-4.344937717;5.6472782;-30.59895366;3.92214309;29.40650576;-3.676621856;-6.697570205;-8.79155254;32.86137241;-0.029014463
9.057347538;-1.47311446;9.011420755;-27.20119679;7.242362039;1.326163675;-3.417721017;-12.96643229;-6.332889666;-1.713428284;2.435001012;-20.73624283;-2.104192727;20.04460882;-7.640157407;-7.36680491;-7.102636609;21.53606576;1.488554932
10.94766579;-3.870078125;8.947174545;-28.69065847;9.728048947;0.239176904;-5.325010347;-12.3547142;-6.005930156;-0.631001259;-3.331132497;-6.830078125;-4.715335028;0.123827133;-8.710216836;-6.108778492;-9.596773429;1.178935651;2.737121459
15.55482208;0.003942815;9.908167066;-27.45809102;17.02135258;-0.54274632;-6.502756219;-12.12485674;-6.43490859;-2.774724788;-8.95891311;2.462598211;-2.919434797;-22.12339287;-5.795666844;-3.761695074;-12.59859806;-18.3467915;2.687023866
19.83664099;5.884398204;11.10905398;-24.33007813;22.4909861;-0.821477874;-6.364625824;-12.79942833;-7.687478533;-6.701820449;-11.571097;3.143608341;0.295031222;-35.86128409;0.03880349;-1.783581074;-12.58165057;-27.97518748;1.106991181
20.66990152;7.810401188;11.45437408;-21.13547947;20.73146101;-0.565045916;-5.039936863;-13.83430713;-8.857700868;-8.814210364;-10.35077137;-1.7161142;2.037359236;-34.29659812;6.291045769;-1.387983331;-9.305245676;-24.80974422;-1.253879822
17.31377972;3.362128493;10.4373662;-19.47044156;12.59719003;0.094959988;-3.090371538;-14.01459456;-8.564523001;-6.225944713;-7.206235096;-4.860789868;2.316064728;-19.12191869;10.494561;-2.876163855;-5.738934624;-13.09135281;-3.194849456
11.95934146;-4.464472745;8.622604773;-19.77294743;5.241228449;0.920690959;-1.03851785;-12.59081048;-5.9214417;0.740012207;-5.224843729;-0.746263305;3.223345322;0.430464206;11.44237302;-5.580296523;-5.093662772;-0.607040032;-3.907853104
7.92683874;-9.995367477;7.320530113;-21.3;6.439111875;1.661663533;0.902028729;-10.06064355;-1.211328994;8.544153199;-6.144133171;9.958409622;5.958632867;13.51655162;9.502439477;-8.379138845;-7.804146587;6.586130507;-3.500824858
7.049634347;-9.570019531;7.691025565;-22.85414792;17.30944178;2.142842655;2.727413114;-7.816667609;4.259138195;13.0868587;-8.939964631;20.54159983;9.162733727;14.67416009;6.077439417;-10.3589546;-11.18985103;7.445189859;-2.818083907
8.446736344;-4.188021809;9.946978057;-23.58546752;29.43617434;2.306587587;4.354711443;-6.943878515;8.96919096;12.97396531;-10.74115531;22.92529742;10.44710941;7.065665021;2.76355491;-11.15897405;-11.98629898;5.323133239;-2.727215498
9.662089913;1.801517422;13.23540315;-23.2972081;29.49654336;2.20125134;5.490174535;-7.256688908;11.98948089;10.67447654;-9.335524678;13.46546712;9.490110558;-0.339550013;0.743911325;-10.85919099;-9.33280459;4.453562464;-3.450663754
9.088129006;4.456846714;16.24656481;-22.2150111;8.756342679;1.947095739;5.838391326;-7.456780836;13.21138321;10.43997143;-5.155927469;-4.230978578;9.16677735;0.323820364;0.571398827;-9.652885389;-5.463874878;6.49638061;-4.462051328
7.479099672;3.162416472;18.0662612;-20.62782678;-29.37429302;1.713452409;5.486030424;-6.269041473;13.0032282;14.53390668;-1.013086128;-21.4076961;12.89809534;9.784212857;2.169509096;-7.672656629;-3.523924704;9.764047332;-4.99629135
7.179703905;0.562786088;18.65099787;-18.77797973;-69.68571518;1.702754862;5.074801174;-3.528667119;11.78947356;20.91624208;0.287041821;-29.66566757;20.26932987;20.91025836;4.879656004;-5.117333816;-4.583250561;11.46624944;-4.726077282
9.756365267;0.069013919;18.64356813;-16.98328916;-93.86379536;2.098877661;5.50788209;-0.262289908;10.00322956;24.58769008;-1.529851852;-26.07125857;25.27602853;23.90039709;7.607768691;-2.475484897;-6.643832212;10.8472195;-4.037546201
14.21939055;3.280751243;18.76136687;-15.66570746;-91.83576581;2.953092297;7.326681297;2.252796446;8.356840951;21.86194346;-3.749218605;-14.46798163;19.81852989;13.61847423;9.238958413;-0.494036515;-6.555071554;10.3481909;-3.684207369
17.59557566;9.202404511;19.27259639;-15.07564719;-67.94676127;4.056330216;10.21912774;3.54224784;7.940512382;14.17877841;-2.866110712;-2.326338123;0.455554891;-6.328667942;9.292069647;0.245009287;-3.04529576;13.537371;-4.118832772
17.53870916;15.2491792;19.93247458;-14.91841116;-37.73635818;4.915592291;13.07953014;4.137672699;9.762312149;7.973747386;2.203825806;4.442349847;-27.04223084;-25.78324489;8.430237664;-0.129858982;1.978059109;21.32317268;-5.069044047
14.71853422;18.68527312;20.338874;-14.34626152;-17.74135888;4.92887814;14.63627568;4.808665569;13.9242384;9.971596729;8.550206348;5.001026258;-49.77703603;-34.85023022;8.317925069;-0.613252552;5.115340659;29.70401488;-5.719707644
12.68086014;17.42026507;20.33915311;-12.53828167;-15.5266771;3.717996287;14.21619707;5.632476476;19.13541967;21.06055994;10.86317014;3.115519617;-55.79616143;-30.30046916;10.66483108;0.159618854;4.621867065;31.46436489;-5.364937942
14.93683223;10.33159674;20.13161809;-9.507341948;-26.58243754;1.422612927;12.09719613;5.846439311;23.16116081;33.62595407;5.281213776;3.396122463;-42.4232867;-17.00353442;15.94075393;2.934991473;2.085844768;21.21621411;-4.004475529
21.56859282;-2.103753267;20.01290924;-6.402416365;-39.45315341;-1.276812862;9.221127383;4.651750168;24.0993287;35.21346812;-7.307604069;7.362515556;-18.4166144;-3.728999436;22.66542645;7.080586647;1.01340918;0.247614781;-2.396324845
28.41518016;-16.84679327;20.04275347;-4.854427646;-44.59900716;-3.486967362;6.536131772;2.191399289;21.64117615;16.81257471;-21.10452652;12.4478723;1.949970311;3.133902326;27.94378499;10.70043399;3.551889452;-22.78937722;-1.506268011
30.02972696;-28.21210732;19.95543524;-5.71052133;-40.36801958;-4.60644524;4.497816325;-0.286036799;17.36689374;-19.78077302;-28.75330532;14.63732769;8.5553283;3.154697722;29.09232557;11.72019231;8.365612239;-36.57767486;-1.770472041
24.40256892;-29.93862059;19.40688775;-8.150148962;-32.34215192;-4.673312257;3.069868596;-1.328270714;13.79088487;-61.08885641;-25.99440608;12.43929965;1.640752101;0.511357146;25.36082554;9.308673236;11.70461241;-34.37992984;-2.735575501
15.54776695;-19.02257133;18.33;-10.03844401;-27.61910098;-4.303290992;2.102771957;-0.493027535;12.79454126;-88.96918449;-14.40634551;8.69671747;-9.82487016;-0.442181178;18.5624574;4.654906644;10.80423532;-18.70779969;-3.352484502
11.26065735;1.179780502;17.06186952;-9.439452259;-29.10034675;-4.253649154;1.647047103;1.215220483;14.52613385;-91.3688668;-0.364958383;8.420607468;-15.81572347;1.34368841;12.10208971;0.470633352;6.55828266;0.214227094;-2.707362561
17.04796931;21.46222808;16.10309502;-6.197211735;-34.10646034;-4.927243732;1.861121231;2.114766406;17.47069821;-69.73965576;8.974311581;14.16543396;-12.63967673;3.763785472;8.990895356;-0.559582885;2.970749521;11.40577777;-0.655620571
30.62778904;31.5478914;15.70220521;-2.277924765;-37.67318554;-6.176288574;2.605091981;1.189768242;19.53052612;-38.04164146;9.854096064;22.79616368;-4.467722805;4.538292063;10.15419401;2.600139395;3.768942156;10.6186233;2.087161417
41.64401059;26.40736553;15.63036971;-0.438034744;-37.14257062;-7.528460874;3.168436929;-1.128514889;19.30168157;-13.93064177;3.5228637;26.76482376;1.459239668;3.799033273;14.13346664;8.721698633;9.164366826;2.878464768;4.434289194
37.75436436;9.653328869;15.36497691;-2.120186404;-34.08365611;-8.623019667;2.51507047;-3.374582842;16.74211989;-8.055174931;-5.454580385;19.53828491;1.320019531;3.772904057;18.29443126;15.11260709;15.67599333;-1.837539051;5.621756237
13.40290979;-8.761112526;14.54706895;-6.203480099;-32.2831823;-9.484778675;-0.027505835;-4.247509665;12.98134491;-18.55760673;-12.58451045;1.249084655;-2.618083709;6.087273042;20.61224789;19.26677884;19.18993592;3.417067382;5.616290957
-24.93813193;-19.19751249;13.32219125;-9.688844511;-33.99578211;-10.41339719;-4.158712816;-3.549999785;9.600535301;-34.06593924;-15.99861682;-20.03985805;-4.919183408;9.639830546;20.77514821;20.23148466;18.48742777;16.91133801;4.990624086
-61.29554497;-18.61988852;12.24976365;-9.932094458;-37.91122577;-11.60082077;-8.620835281;-2.131692654;7.893099542;-42.48867598;-16.64409068;-33.0088528;-2.338843847;11.44700646;19.9413632;18.8053767;16.03776766;29.19352922;4.417630495
-79.39989106;-11.94230874;11.82830412;-6.775126979;-40.51061292;-12.82735051;-11.91802506;-1.025255992;8.406817534;-39.12350837;-16.54283831;-30.63721286;3.349734803;9.868640398;19.51350785;16.56340577;15.37383881;29.95132465;4.188908893
-72.59734006;-7.57229501;12.0322586;-2.896539488;-39.39442056;-13.52278385;-13.23525253;-0.632587083;10.79915722;-28.59737385;-16.87989424;-15.078081;7.404875903;6.982033298;19.96680027;14.55027062;17.55851511;15.65780062;4.101353385
-47.73946328;-10.69182802;12.28094485;-1.992821028;-35.50284568;-13.16574333;-12.86374724;-0.64693381;13.96595302;-19.99499534;-17.4351446;3.926551279;6.8514038;7.300563081;20.6041155;12.65881181;20.13898138;-7.627268075;3.748571239
-20.40212608;-19.44057547;11.91265235;-6.05177844;-32.26074925;-11.69907286;-11.82509921;-0.615328322;16.46694334;-19.45941992;-17.46508436;15.99274827;3.37619318;13.3776179;20.300992;10.09949902;19.66864129;-28.22308774;2.946087173
-4.817013431;-26.74972971;10.79187167;-13.72150363;-32.46727048;-9.615909278;-11.03571093;-0.445380501;17.21860897;-25.94808328;-16.87671763;17.14151742;1.705479593;22.13159135;18.52299365;6.46946012;15.43703192;-36.47812479;1.937420254
-5.488579168;-26.10603935;9.51796907;-21.02301888;-35.72816608;-7.640563672;-10.71279615;-0.314485458;16.16974159;-32.92280398;-16.46361024;11.62709304;5.019948003;25.75434308;15.75470675;2.461121047;10.72155282;-30.53731905;1.219737805
-16.00981685;-16.58478505;8.995876737;-23.95811836;-38.7096472;-6.259872997;-10.47875446;-0.153530467;14.46484404;-34.03900258;-17.03157092;7.421297851;11.70927912;17.38296951;13.04003906;-0.423077342;10.05086312;-16.41845923;1.135777389
-25.24210325;-3.3278638;9.661526766;-21.192802;-37.99804929;-5.472176963;-9.984781307;0.605548689;13.77963544;-28.07278726;-18.38314525;9.311363658;16.55679249;-2.682258051;11.09754688;-0.940803591;14.78526848;-2.993317816;1.565165087
-25.82189965;6.587093424;10.98895867;-14.9553196;-33.08451723;-4.923954594;-9.411716863;2.569188157;15.10733165;-19.38085993;-19.29163169;15.36499265;15.39526272;-25.57931644;9.804486372;0.907205764;21.22667531;3.987979014;1.972131362
-18.72223348;9.372471057;11.737306;-9.570244486;-26.90267635;-4.277262999;-9.337612921;5.547957291;17.84088851;-13.99535576;-18.63620487;19.51728744;9.052528578;-39.18075442;8.48767425;3.792087667;23.47610491;4.577127687;1.787270129
-11.0449161;6.766612106;10.82347754;-8.68535151;-23.46120671;-3.479391307;-10.07951951;8.225788104;19.96451061;-14.83492432;-16.68360461;17.74188772;2.933855833;-36.47900659;6.736895109;5.949987875;18.90610644;2.788246823;0.833622213
-9.501003949;3.860459829;8.179115608;-13.06576863;-24.5809009;-2.728272954;-11.16171319;8.886572852;19.40232892;-19.86087626;-15.21125355;12.17293607;2.439973335;-20.59797509;4.988034034;6.34344306;11.3087381;2.511898486;-0.538015974
-15.04308908;4.648919561;4.910972574;-20.32265334;-28.46470029;-2.217498257;-11.51291064;6.780499227;15.61139055;-24.30610488;-16.11083523;9.337363261;8.189008262;-2.368157309;4.303454898;5.187107508;8.318899099;4.685569914;-1.719902543
-22.6951857;9.007746172;2.595774508;-26.57562062;-31.23840112;-1.933437661;-10.34955226;2.985834845;10.17526586;-24.75908869;-19.51328079;13.87551366;15.32222397;7.712071365;5.463038868;3.488671625;14.61970534;7.55649944;-2.318964569
-26.18376999;13.31153394;2.214046492;-28.82854273;-30.10598124;-1.697997941;-8.014734676;-0.109213041;5.837512546;-21.62922821;-23.09061644;23.30234826;17.67422852;6.779221301;8.10261451;2.07928898;26.54842088;9.058325003;-2.455273875
-23.19597848;13.81942516;3.521839098;-26.55131371;-25.48638286;-1.391004972;-5.954426259;-0.451461215;4.637188026;-18.18931532;-23.38770363;28.7920146;13.2889485;0.494740634;10.67083257;0.996189046;33.22558482;8.807028815;-2.641716127
-16.93060993;9.852696227;5.326272395;-21.65459344;-20.45690417;-1.101140938;-5.67536424;2.180200254;6.569599408;-17.37765841;-18.39143619;21.95520382;6.430957604;-2.785796402;11.36454905;-0.290021362;24.22330836;8.05848635;-3.3361286
-12.95858994;4.238583933;6.428331291;-17.11736328;-18.12469823;-1.025574084;-7.426424007;6.068711448;9.812062846;-19.27928794;-9.401918782;2.291603703;4.11853596;0.673087653;9.413504477;-2.100662805;-1.847841159;8.101406901;-4.535733714
-14.33732132;0.894016349;6.487277481;-15.24622914;-19.20412225;-1.200784648;-9.70162704;8.959121455;12.29555391;-21.35190163;-0.634284232;-20.99660129;9.897042967;7.440181136;5.744341308;-4.024223539;-34.78418105;8.943642961;-5.764955463
-19.17849244;1.693479662;6.152757045;-16.55876585;-21.74852595;-1.345544557;-10.10926092;9.808605842;13.31047778;-20.93826229;3.350717493;-34.80918713;20.08083066;11.03463498;2.455643003;-5.193066278;-58.82;9.624770935;-6.484664325
-22.56195244;5.145907075;6.417834375;-19.75486755;-23.06124967;-1.025633569;-7.078315915;9.434607587;13.84216622;-17.67699411;0.603630252;-31.36010802;25.83098009;8.679590693;1.403353793;-5.133264999;-63.05940641;9.713647667;-6.577105245
-20.92269914;7.793385095;7.762869266;-22.60389563;-22.00192653;-0.05321629;-1.144393427;9.570889418;15.43950721;-13.69742746;-7.006304911;-13.68439741;19.698083;4.35244314;2.884394101;-4.356231869;-48.53396032;10.28348258;-6.459489222
-15.04109884;7.081207347;9.784661718;-23.18333495;-19.72404655;1.220611236;5.200114175;11.22100093;18.67136347;-11.58010204;-15.18321492;6.816868501;1.561667633;5.141484455;5.386635251;-4.018959;-26.67972063;13.10538025;-6.670780338
-9.146020656;3.426181671;11.55905455;-20.85289002;-18.37156481;2.023250935;9.04249944;13.77648627;22.53429497;-12.04642464;-20.11491848;18.75049974;-20.71;14.02518991;6.634343084;-4.814884089;-10.70437167;18.54893996;-7.248862837
-7.088014412;-0.037492002;12.36903592;-16.54342671;-19.04387956;1.663997654;8.869437566;15.63704109;25.28713259;-13.47290583;-20.75017912;18.41816131;-36.41920594;25.66994146;5.222849522;-6.048416881;-6.678232038;24.10472127;-7.469450442
-9.032471007;0.229836807;12.17098833;-12.25573296;-20.86418393;0.0556213;5.363699329;15.70193497;25.90991734;-13.57851571;-18.89018729;11.07424843;-39.06814154;29.51890661;1.68350197;-5.845230053;-10.94973917;25.1953952;-6.292682763
-11.54876848;5.511851094;11.46567727;-10.00839218;-21.88539095;-2.166613881;0.679211198;14.33864872;24.86287855;-11.64373484;-17.28510346;5.427944373;-30.05650697;18.17969568;-1.809519309;-2.560731143;-15.06454404;18.13653866;-3.283229274
-10.91303497;13.69200487;10.79367325;-10.75076056;-20.90124334;-4.0456151;-3.143224254;12.95987251;23.50800644;-9.183195201;-17.40664288;6.410460254;-16.66805493;-5.718292985;-2.932840664;3.630996178;-13.40067504;3.227863663;0.710417706
-6.613691997;20.40793571;10.37636365;-13.82853382;-18.49166869;-4.925577002;-5.372184595;12.65388287;22.80164647;-8.464861765;-18.64087607;12.12143686;-6.414393321;-30.16479158;-0.892097861;10.31586145;-7.104522038;-14.41838117;3.77660142
-1.911947648;21.77141578;10.21055425;-17.34744797;-16.41906845;-4.825477623;-6.574478973;13.19128444;22.51592143;-10.27613603;-19.33881981;16.84177771;-2.272065733;-41.87330599;2.891645732;14.14100358;-1.660886197;-27.21368912;4.090706409
-0.945285054;16.92635469;10.4197867;-19.28238523;-16.02437331;-4.304239826;-7.617133757;13.35516578;21.70330062;-13.04428938;-18.60792281;16.75635703;-2.081714932;-35.65304037;5.601609403;13.04093901;-1.045666627;-29.26677547;1.262846379
-4.933727779;8.785145809;11.37096231;-18.69501671;-17.13915875;-3.974963495;-8.672511996;12.26429392;19.90091055;-14.18234791;-17.20321164;13.10414695;-1.748589079;-17.72115786;4.832267732;7.765034243;-4.020881305;-19.76933519;-3.131479914
-10.86038604;2.349223318;13.29116337;-16.29347927;-18.47649779;-4.087154539;-9.100158483;10.38522187;17.83686952;-12.47576282;-16.76071257;10.2888929;0.965092748;-0.505700652;0.175294234;1.5035635;-5.723235373;-3.503864881;-6.363476191
-13.84602113;1.506288674;15.67812099;-13.94296054;-19.04195588;-4.488314505;-8.230933469;9.19677555;16.86505681;-9.322546983;-18.10856118;11.24817068;5.143664544;6.696625214;-6.487527057;-2.193124899;-2.696807801;11.73159321;-6.272241242
-11.21025765;6.271786773;17.14958201;-13.41433986;-19.14716018;-4.914560548;-6.262688333;9.758091015;17.60249916;-7.621043659;-20.21299163;14.71629225;8.397121711;3.746725041;-12.18206612;-1.713871406;3.522210915;19.12673353;-2.737448546
-4.728563298;12.39231786;16.12344832;-15.18499702;-19.99817532;-5.279217079;-4.394300668;11.53648051;19.09275622;-9.207895925;-20.77973231;16.92413206;9.404579762;-2.012118475;-14.71541663;1.747866292;7.643280157;15.98736618;2.163263821
0.857180637;13.8946574;12.00216134;-18.09527241;-22.21014509;-5.677410388;-4.020780099;12.69792878;19.42027028;-13.09669324;-18.10050765;15.861294;8.849427169;-3.020805397;-13.95863639;5.313620273;5.528962363;4.469585794;5.487622379
1.791383705;7.207945401;5.959070199;-20.09741064;-24.69259651;-6.140840055;-5.657015526;11.7283746;17.36323831;-16.12602732;-12.62234916;13.68953165;8.183002263;2.139239467;-11.69371512;6.583357101;-1.746976542;-10.09722136;5.366578686
-1.659998962;-5.831506432;0.55513995;-19.59587416;-25.12143264;-6.447478707;-8.510467075;8.947075012;13.62263406;-15.53331571;-6.870864496;14.65439691;7.848968677;8.522030177;-10.18109198;5.189735698;-8.418866931;-22.08253653;2.212809711
-5.638262338;-18.38359305;-1.75003418;-16.48450503;-21.81459081;-6.2473424;-11.07329888;6.445567451;10.42722605;-11.2691737;-3.6739499;20.2775112;6.992407065;10.34242108;-10.48593681;2.680315847;-8.71569279;-28.03897858;-1.626711612
-6.121565296;-22.57781348;-0.216219406;-12.20736551;-15.48226889;-5.439471076;-12.24057687;6.351798546;9.730724273;-6.066795271;-4.041463745;26.53990117;4.983894672;6.896358077;-11.74787281;1.025563538;-1.601830893;-27.69607865;-3.50565189
-2.339358561;-14.67434574;3.631292363;-8.837607839;-9.25245323;-4.43819885;-12.03201541;8.887350375;11.53291368;-3.214553638;-6.400019531;26.29;3.030767376;3.417862641;-11.89135574;1.064502844;8.514231952;-23.26791837;-2.248385525
2.74224903;2.071905048;7.008111795;-7.80875184;-6.712721265;-4.002973782;-11.35772941;12.00106824;13.83990969;-3.947216621;-7.854032624;15.36474731;3.803902971;6.097149036;-9.243696317;2.093700336;15.55679862;-17.72246061;1.143306408
5.164884673;18.98461403;7.757752141;-9.116316618;-9.362998711;-4.679257434;-11.09202705;13.04634983;14.3710836;-6.64840875;-6.542335537;-2.837518076;8.847998004;15.75524234;-3.887835898;2.75799013;16.59858498;-13.08406546;4.258116656
3.453151197;27.10385013;5.759012837;-11.44722789;-15.44302564;-6.286136488;-11.28688981;11.1306261;12.54721597;-8.428030165;-3.252041794;-18.76166426;15.93018841;25.93542365;2.22142292;2.33986998;13.57232156;-9.688099642;4.911295735
-0.224191228;22.48486772;2.833859535;-13.07516287;-21.07941643;-7.920326259;-11.19342483;8.058556211;9.989237274;-7.575584628;-0.969857453;-23.53694508;19.11541508;27.3928983;6.460446819;1.331986712;10.73183424;-6.662250628;2.518965598
-2.125703018;8.138346678;1.261329503;-12.90837758;-22.91121344;-8.55232755;-10.03190339;6.926559657;9.047792198;-4.725960812;-2.61645028;-15.83148883;12.3827947;15.458106;7.211666302;0.903553498;10.55616743;-3.121251597;-1.637378147
-0.294512112;-8.461459675;2.043311117;-11.05772128;-20.24740712;-7.781791048;-7.803102482;9.477464869;10.65003906;-1.856181925;-8.625861808;-2.897953163;-5.499222274;-5.758916705;4.855434121;1.838140693;11.96439734;0.876578399;-5.300587002
3.809865176;-20.21705432;4.218135995;-8.658154527;-15.24692882;-6.140160773;-5.417921796;14.48805738;13.39909568;-0.24535156;-16.21334632;5.332841255;-28.68273971;-25.79230203;1.438702357;3.891485103;12.25913392;4.321353928;-6.606556356
6.785486489;-24.06953033;5.679645092;-7.145636942;-11.17636275;-4.664554422;-4.029011162;18.65395335;14.77146512;0.582738001;-20.97294162;4.361562876;-46.85173277;-34.96092948;-0.682916295;6.043937683;10.55523413;6.121269676;-5.075040393
6.436777991;-21.26657604;4.808935434;-7.466884012;-10.19660179;-4.06202494;-4.135503137;19.29477469;13.3779815;1.953231081;-19.75197657;-1.343476886;-51.41562352;-30.6501192;-0.263293771;7.304653087;9.066427903;6.053779852;-1.733140663
3.71053775;-14.88783062;1.659439476;-9.657369084;-12.28429619;-4.141251831;-5.211061376;16.58383517;10.27228218;4.157726208;-12.81223018;-2.452951912;-41.05587149;-18.13062423;2.26675613;7.315530822;10.81807189;4.949911097;1.55177856
1.705835073;-7.27116605;-2.144660925;-12.94795835;-15.81511188;-3.992372649;-6.145752039;13.36395952;8.120129338;5.60678217;-3.780568926;6.809084361;-22.6124163;-5.865571807;5.313748448;6.317101419;16.02199508;3.968546885;3.072488148
2.741425254;0.490955609;-4.616158255;-16.25041281;-19.01756357;-2.788802326;-6.111363422;12.68445959;8.955958119;4.092352992;2.564505565;22.97093554;-6.604715286;0.539091682;7.196946618;4.703958482;20.93161965;3.678026424;2.110614907
6.217298008;7.15896688;-4.740889067;-18.70014909;-21.0243134;-0.564356407;-5.140136292;15.19128285;12.52518279;-0.838619675;3.154299435;35.19436611;-0.574392761;1.091121512;6.996079594;2.745966138;20.82939321;3.865071792;-0.733328907
9.233343051;10.20604048;-2.978296097;-19.96452659;-21.8641066;1.678363258;-3.991568987;18.65346537;16.67375843;-6.664413651;-1.742932138;33.35650165;-4.918001647;-0.523068327;4.72791473;0.765411248;14.75905477;4.269161021;-3.808589334
9.358865176;6.817302081;-0.696039528;-20.20466784;-21.76936422;2.639693811;-3.489828949;20.04368442;19.37429033;-9.26490011;-9.073004451;15.89209963;-13.85674541;-1.032269592;1.005548986;-0.535299417;7.490835546;5.41556701;-5.183271413
6.951861472;-3.372052326;0.879751635;-19.79103276;-20.6787364;1.657163341;-3.91444752;18.32692361;20.47991024;-6.044553765;-15.1545992;-8.767325809;-20.31972545;-0.02159147;-3.337221466;-0.166130457;6.225403628;8.421097276;-3.629302948
4.847580328;-16.36077621;1.3593289;-18.99976186;-18.42872924;-0.826246225;-4.908377826;15.45538359;21.56410286;1.768899511;-17.87361604;-28.07036713;-20.82796149;0.964158419;-7.348469174;2.451656072;14.19389928;13.54223747;0.619444949
5.691681753;-25.10711196;1.111847533;-17.89456523;-15.32795752;-3.613023283;-5.885337431;14.63543215;24.01496592;9.733071708;-17.50405198;-33.71271838;-16.92584931;1.055988378;-9.922982514;6.691288712;26.52377777;18.65679048;5.787266169
9.415958696;-23.9090695;0.672839196;-16.44864873;-12.39356878;-5.625414357;-6.519358043;17.36873497;27.24056436;13.38898683;-15.85673274;-26.13467845;-12.71548422;1.438183998;-10.00679674;10.65240282;32.44585377;19.45674104;9.338653682
13.26209902;-12.73750032;0.248288511;-14.78052088;-10.87197026;-6.612158764;-6.909256006;21.91405138;28.81222914;11.47678989;-14.64334136;-12.41659146;-11.05390779;4.051402405;-7.191933;12.1670274;22.88153936;12.04372473;9.313249773
14.39067512;2.128427982;-0.278561816;-13.2879935;-11.39365072;-7.161818689;-7.363097361;24.61304948;26.5898954;6.515356141;-14.35368797;-0.244588965;-11.62034267;9.064524716;-2.349413321;10.29821252;-2.209730271;-3.521623045;5.478052929
12.63959761;12.19646245;-0.948100805;-12.53357432;-13.50413042;-8.066088778;-8.083974057;22.99271722;20.94822168;2.334265001;-14.36269626;6.797462211;-12.07419929;13.90208989;2.332916554;6.177797299;-32.60962849;-21.57305929;-0.447346199
10.75462529;12.79294628;-1.396409185;-12.92123402;-15.99516389;-9.578215697;-9.05935926;17.93370945;14.96546574;0.781540271;-13.94055068;9.417505672;-10.78684583;15.15942928;4.251028184;2.397047351;-54.07360575;-33.12556056;-5.718327093
11.72570424;6.395040872;-0.969524898;-14.37860498;-17.74374121;-11.15507487;-10.18956415;12.95972974;12.17891953;0.516722177;-13.16630338;9.497524174;-8.482974815;11.86019683;1.849938015;1.261741006;-57.5687624;-31.29600809;-8.120058594
15.65372554;0.502109269;0.765777109;-16.28820071;-18.33364517;-11.85502394;-11.43431741;11.23620371;13.73289107;-1.11288062;-12.93040987;7.506611509;-7.393294642;6.946955227;-4.295376548;3.172625149;-44.74952835;-16.29288798;-7.170078125
19.2111169;1.551596147;3.523504849;-17.76289652;-17.98449324;-11.04872628;-12.77123793;12.9364585;17.41472515;-4.943557091;-14.04899472;2.982590722;-8.907579757;5.219406416;-11.63241892;6.373527243;-25.88115106;3.909387476;-4.198751012
18.49716967;9.626736221;6.235230033;-18.13154292;-16.99068252;-8.8938794;-14.01500519;15.35322391;19.50271381;-8.635228817;-16.29533785;-2.994046252;-12.04921111;9.093944079;-17.06808825;8.281463493;-12.21382585;18.30604299;-1.299931168
12.86827035;18.20394395;7.525535633;-17.34986881;-15.32058614;-6.253062591;-14.75794028;15.67168146;17.87919122;-8.520058594;-18.24643954;-6.662252603;-14.23722574;15.764916;-18.80545971;7.384264284;-8.752168625;20.06151575;0.083709498
6.12823091;19.23463421;6.448243497;-16.08461924;-12.81654572;-4.171074164;-14.61538563;13.83481951;13.70603861;-3.114543759;-18.17846314;-3.7859214;-13.61909726;18.53351001;-17.34885275;4.259985984;-12.48646838;11.05761361;-0.037728569
3.60096814;9.588916837;3.042130803;-15.40966503;-9.777691407;-3.316142631;-13.64;12.70883419;10.20416322;4.934702108;-15.36809267;6.371534714;-10.77273247;11.740392;-14.99502891;0.98972009;-16.50744903;0.296907404;-0.496943733
7.36660198;-6.239191193;-1.60358762;-16.27124401;-7.248986996;-3.737443904;-12.51908606;15.14622475;9.654255706;10.46811441;-10.77992898;19.16204083;-8.147498808;-4.387187187;-14.19145148;-0.49235008;-15.98797933;-2.88802762;-0.030047073
13.9520666;-19.32061082;-5.793880534;-18.99175346;-6.551463997;-5.001822128;-12.26797249;20.52722635;11.33581934;9.835823721;-6.55504427;27.19393835;-7.718444905;-22.92229901;-15.92671469;0.221200119;-11.23924569;4.099458983;1.745239891
16.97793152;-22.8754889;-7.953303422;-23.04195489;-8.305223215;-6.511986675;-13.54518711;24.21523889;12.27527092;3.895945505;-4.627241907;25.89378983;-9.035744185;-34.44577652;-19.2395657;1.926581894;-6.109199773;15.07190625;4.130501033
12.93641066;-17.12042188;-7.304658211;-27.1737558;-11.75469088;-7.764407409;-16.09129247;21.07283883;10.11353876;-2.703586686;-5.466806516;17.39877667;-9.565340492;-33.36544741;-22.07423021;2.948214532;-3.946759032;19.66183645;5.970674302
5.116705066;-8.696815036;-4.218374231;-29.85872217;-15.0545473;-8.449200446;-18.77493199;10.49498684;5.443606301;-5.432730214;-7.860317984;9.175530938;-7.131381549;-21.69860955;-22.7459137;2.481368501;-4.888251912;11.22178086;6.529092881
1.707607853;-5.297565726;-0.083304694;-29.87480045;-16.40104089;-8.450843231;-20.28254116;-1.486942314;1.420202207;-3.570767602;-9.8551242;8.112580849;-2.24519256;-7.489800464;-20.93455769;1.073531685;-6.430743598;-7.85664856;5.928280872
8.840842908;-9.789795721;3.26849822;-26.8307662;-15.16477211;-7.838479286;-19.96415384;-5.649607355;0.939155341;-0.381568055;-10.13842584;14.82763659;1.971344313;0.969997201;-17.60298356;-0.002414584;-6.132049651;-27.38283984;4.894033011
23.98889236;-18.33304931;4.35577973;-21.41257423;-12.15214135;-6.853538936;-18.19384873;3.2467404;3.960821393;0.395988139;-8.83970017;22.98859391;2.486127358;0.849726798;-14.09565312;0.191334322;-3.672614655;-36.26526065;4.108687872
35.61116693;-23.71103632;2.700936067;-15.20169817;-8.83850588;-5.835624952;-15.97291778;20.91199875;7.492568583;-1.512540077;-7.230224184;24.35624855;-0.572033187;-3.743533124;-11.22056924;1.683000381;-0.587519623;-30.01520346;3.730873163
30.41209832;-21.05512081;-0.988954112;-10.07701314;-6.259256062;-5.065272315;-14.10794627;34.50229954;8.33738532;-2.367167686;-6.637178131;15.4528577;-3.357492956;-5.471150113;-8.9715428;3.857945399;1.617335304;-13.48101673;3.417454511
3.402905499;-11.50115703;-5.216591019;-7.430752589;-4.481628513;-4.605954632;-12.6365645;30.45764575;6.126411472;1.926602381;-7.433644211;0.369074142;-1.209670272;0.219536669;-6.923995059;6.130360456;2.873859142;2.925485139;2.732896163
-36.85046791;-1.181995416;-8.448352299;-7.581783827;-3.014897627;-4.27625705;-10.96292456;4.176770609;3.78960516;11.14731063;-8.82607364;-12.54449766;7.05510117;11.26958648;-4.80533051;8.298132336;4.181418566;10.49994835;1.549604274
-72.31255639;3.367202723;-9.805833492;-9.717205143;-1.665904421;-3.803348673;-8.572413025;-35.46410426;4.902995074;19.64025245;-9.50653568;-17.26060289;17.04117558;20.18416119;-2.720124275;10.2955621;6.102810747;7.69499155;0.133064722
-86.55403838;-0.238697796;-9.335533555;-12.40933638;-0.972733405;-3.057938752;-5.708664157;-70.50763077;10.25768023;20.49940068;-8.612049486;-14.47328401;21.00792055;19.33648044;-0.933472875;11.74569264;7.880521456;0.108820423;-1.071065646
-75.11692423;-8.972084792;-7.788213736;-14.39364005;-1.775706935;-2.187026481;-3.415767933;-84.70645194;16.84041889;11.97806047;-6.296436873;-10.35803242;13.20222351;6.566048242;0.458929229;11.95763288;8.170507703;-4.458760162;-1.69272503
-47.83697192;-16.94501055;-6.140475009;-15.11047018;-4.311967269;-1.530760119;-2.857616251;-73.4790386;20.32099447;0.4581259;-3.598002564;-11.04099877;-5.583202885;-12.91630873;1.604311348;10.55818907;6.634428216;-1.917156274;-1.52434989
-21.66701391;-19.52981716;-5.180867471;-14.67551219;-7.691227492;-1.381985322;-4.411116419;-46.23806617;18.92552247;-3.452674288;-1.810469036;-17.56973454;-27.76776143;-29.63621149;2.669593535;8.220256321;4.685627897;5.492895496;-0.463148641
-9.416013042;-16.01922097;-5.32673972;-13.36716988;-10.29689617;-1.774428295;-7.225100594;-19.65063;15.17739884;6.505194434;-1.823299614;-25.44191363;-43.45131629;-35.77769945;3.614327267;6.674194825;4.494621753;11.3599391;1.50173677
-12.46211221;-9.288081792;-6.612349883;-11.09795378;-10.84067743;-2.458264692;-9.598650798;-6.735068906;13.79198878;25.63975246;-3.773019133;-28.68792103;-46.46455877;-29.84259824;4.245613634;7.700841924;7.104187868;10.02144553;4.145310512
-22.08198302;-3.245333792;-8.709518758;-7.362869992;-9.212958819;-3.066665972;-9.937717827;-9.390300993;17.4914919;39.59403565;-7.052551902;-24.7528079;-37.74411305;-16.98663037;4.509521108;11.71811098;11.43708017;0.529372559;6.830564456
-27.44719265;-0.213792479;-10.95605433;-1.775461577;-6.437766216;-3.330356166;-7.653422959;-19.12211856;24.50903476;33.65723765;-10.54896872;-16.12592647;-23.88340868;-5.072312939;4.67433248;17.08543005;15.16321687;-12.9449601;8.564195992
-23.73200539;0.02624697;-12.50885182;5.214657269;-3.806066954;-3.181177477;-3.441900553;-24.64592212;30.14300887;3.764273604;-13.00530086;-7.793942994;-12.31680274;0.581038888;5.130898103;20.84748494;16.6194222;-24.11159229;8.415052541
-14.46770743;-0.696852713;-12.70439489;12.06600848;-1.942836843;-2.700868006;1.165556092;-20.30403131;31.04653165;-39.06957225;-13.47393844;-3.172460461;-6.844742928;0.058989762;5.940851978;20.57017592;15.98480561;-28.54302839;6.103394739
-7.271599316;-0.679094902;-11.48436393;16.72259234;-0.568871287;-2.004464897;4.627799923;-9.233276328;28.30885862;-74.68070952;-11.77227433;-2.080043945;-6.473200707;-2.416539059;6.60475995;16.02490319;14.68575661;-25.91776507;2.339357699
-7.154536049;0.481405618;-9.549286946;17.77629481;0.930858449;-1.180717181;6.075562936;0.356052738;26.33085348;-86.26849122;-8.698413771;-2.039514412;-7.668798087;-2.515814046;6.410781405;9.491852613;13.77484281;-19.38024529;-1.415358486
-12.8743002;1.915616203;-7.993072178;15.45686195;2.725741045;-0.327640377;5.52194421;2.183702716;28.35147519;-70.78312432;-5.741940382;-1.082674834;-7.602234619;0.7274279;5.186089169;4.404701739;13.02840672;-12.94122356;-3.701152506
-18.70700702;2.434829066;-7.558732646;11.7058685;4.275882699;0.388669765;3.622475901;-3.488577628;32.80873408;-40.04086827;-4.294009719;0.804608523;-5.729933792;4.664248813;3.781682541;3.233009654;11.70802021;-8.945412363;-3.87716457
-19.4757116;1.592275443;-8.039869931;9.167642238;4.796190794;0.751903667;1.250026855;-10.88596731;34.31617875;-12.20907105;-4.785205878;2.679260269;-3.006973196;5.950317781;3.689968665;6.014551259;10.1019563;-7.211441249;-2.464823898
-14.43539917;0.127092029;-8.356450521;9.679347879;3.981613153;0.612816041;-0.83712562;-13.9430362;28.93873754;-0.099932784;-6.37934912;4.522012062;-0.187956468;3.971172455;5.877095703;10.45467431;9.977060253;-6.049708491;-0.784599122
-7.149247378;-0.478462645;-7.362366259;13.22170837;2.314408124;0.023403932;-2.114476473;-11.12848983;19.15750304;-4.448191572;-7.549118482;7.620058594;2.862180377;1.690747921;9.678811967;13.41999826;13.05899485;-4.069876883;-0.123370622
-2.088725163;0.926584413;-4.829581519;18.01042155;0.694325471;-0.727601938;-2.255504295;-6.036917679;13.44686126;-16.04915271;-7.198169595;12.83696755;6.358067483;3.016050531;12.75996781;12.7838897;18.79154371;-1.329626903;-0.97003418
-1.181910206;4.091346162;-1.821088887;21.65148797;-0.233788126;-1.224567604;-1.077917146;-3.676289172;19.6517341;-23.95965193;-5.496920722;18.66334324;9.546445777;8.815375789;12.42765227;8.498499103;23.78056636;0.946327378;-2.785411467
-3.048439343;7.030642412;-0.071586649;22.58220381;-0.432185694;-1.118437513;1.429628997;-5.915390525;37.01811328;-23.09108118;-3.740493219;21.53905407;10.96182508;15.11266561;7.506690266;2.408055467;24.1133166;1.700848025;-4.404578346
-5.009296415;6.867479624;-0.769029908;20.8622248;-0.232516643;-0.286306163;5.004505197;-10.00320371;53.84434869;-16.02827833;-3.288284004;18.81236608;10.0480613;15.42075508;-0.5880852;-2.871325022;18.99678166;1.252873631;-4.776022205
-5.651536096;1.610951136;-3.650828049;17.86003906;0.167346414;1.126243705;9.029323607;-11.2441857;53.97158992;-8.998680575;-4.421134188;11.80557055;8.47630569;5.783611965;-8.476179756;-5.250584139;12.39788364;1.289385493;-3.574829726
-5.656057141;-8.11203657;-7.136321573;15.14259009;0.897196755;2.780220518;12.60088294;-7.322374867;28.30795598;-6.249081749;-6.075452599;5.726649142;9.356543343;-11.38822843;-12.80023765;-4.0001807;10.53365649;3.485275225;-1.354640641
-6.505969717;-18.61807468;-9.426557587;13.38147866;2.065591063;4.275095292;14.81117374;-0.450135004;-17.07626829;-7.443543767;-6.716189348;5.684005357;14.38796371;-28.01043527;-12.20785067;0.124684684;16.55003906;7.737578348;0.800345091
-8.649112079;-24.67522248;-9.739435878;12.01170933;3.236465333;5.272519983;15.16027881;4.498391523;-62.93976984;-9.401312193;-5.639856653;11.79829233;21.23331117;-35.45621749;-7.939847326;5.351189189;26.63710518;11.49694547;1.891724239
-10.9510785;-22.36769022;-8.741329983;9.808352202;3.361426911;5.576971011;13.87946786;4.200494969;-88.33421738;-9.738053357;-3.591086075;17.88439101;23.83744627;-30.4520522;-2.684755268;9.679691083;31.36926841;11.04711996;1.548461082
-11.81575162;-11.64725484;-7.881818789;5.912578408;1.424402362;5.163120416;11.91784478;-0.235179088;-83.71754452;-8.878474622;-2.128642306;15.65228714;16.29142961;-17.25688561;1.351051009;11.70655413;22.14941624;4.140504372;0.217172523
-10.70426426;3.144873592;-8.207197011;0.56896848;-2.642595439;4.148600921;10.50761092;-4.220920007;-56.4428001;-8.971980695;-2.256772696;1.657931745;-2.260865971;-4.415499992;3.690665691;11.18588869;-1.739972256;-7.832881485;-1.089908827
-8.511766158;15.31902403;-9.60718834;-4.919193133;-7.584063581;2.724061575;10.50685188;-3.646837423;-24.90814498;-11.24867915;-3.512828062;-18.63933419;-25.58338302;1.404150792;5.324613313;9.073276711;-31.08391713;-19.94510366;-1.3613623
-6.511503502;19.31192283;-11.04248097;-8.960903538;-11.44675473;1.080700085;11.92718572;1.585285474;-5.951555833;-14.56743545;-4.345999061;-33.60101254;-43.32107456;-0.279514441;7.354916524;6.970104903;-51.86676374;-26.42510583;-0.173561115
-5.04084632;13.51539599;-11.47617334;-10.65174366;-12.8469266;-0.608514028;13.98996814;7.514453909;-4.717922024;-16.48213348;-3.498960512;-33.48974656;-47.3530388;-4.497146631;9.782061301;6.207808848;-54.29392082;-24.30404466;2.029087804
-3.336239636;0.842688626;-10.69400324;-10.33231392;-11.93076794;-2.133478204;15.70499618;9.604109;-13.79544096;-15.65429411;-1.185126943;-17.88188459;-37.08775658;-5.660768469;11.4339702;7.087754549;-39.21415698;-15.42527563;4.146334776
-0.719030259;-13.0671217;-9.375630801;-9.405886655;-10.25946687;-3.178380321;16.56300445;6.728114487;-21.09630385;-13.23305042;1.019212228;3.532203459;-19.80094095;-2.270358956;11.00009155;8.767754458;-17.22213557;-5.222568926;5.039324868
2.104676116;-22.67956714;-8.468577858;-9.55182934;-9.682452335;-3.355382771;16.80843808;2.166708308;-19.61755444;-11.89951195;1.534536471;17.72821628;-5.718476846;2.409993813;8.206742391;9.891064472;-1.179405865;0.983738498;4.205771146
3.101088052;-24.7619088;-8.485872013;-11.80861579;-11.06;-2.403368991;17.06394754;0.700128563;-11.63317125;-13.48712246;0.212849891;17.68773875;-1.422889796;4.002523835;4.118245715;9.533465237;2.23054237;1.484228329;2.09619436
0.535850496;-19.08835394;-9.313480977;-16.03753619;-13.79233608;-0.45991308;17.61427153;4.308375467;-5.005727593;-17.35647994;-1.461698655;7.143150735;-6.267479195;1.501721632;0.358586351;7.799101428;-4.182823999;-1.13939096;-0.14586517
-5.206230935;-7.922582454;-10.56174454;-21.03390597;-16.43499152;1.820319354;17.99007813;10.27342409;-5.659316136;-20.93661221;-1.65812787;-2.890186992;-14.01155207;-1.580596725;-2.0259523;5.647096759;-11.84281023;-2.591448416;-1.372268878
-11.37563828;4.945158631;-11.98014065;-25.19126067;-17.81546804;3.492583166;17.29997651;13.45833584;-12.7363454;-21.86217725;0.128913553;-2.992876117;-17.9069151;-0.559778848;-3.102049255;4.106880467;-13.67544074;-0.539012172;-1.112927948
-14.67784735;15.16195799;-13.4669019;-27.342986;-17.73290908;3.85020793;15.13597585;10.8913634;-20.00130518;-19.78867721;2.541875272;7.336755211;-15.15347931;5.547578602;-3.628455524;3.493600313;-9.084922506;3.654435673;0.181604404
-13.79159647;18.90039319;-14.70915807;-27.33470535;-16.76822611;2.929472835;12.31475434;4.665564387;-21.57855031;-16.40488526;3.528810457;19.51160688;-7.672940284;12.13853335;-4.189927983;3.208831424;-3.162209865;6.532380652;1.474121961
-10.46072648;14.23818237;-14.96265243;-26.03707754;-15.52239086;1.588526439;10.71950228;0.48804709;-16.793033;-13.84989859;2.244696898;22.71549628;0.600958698;12.19126598;-4.733846119;2.238784143;-1.521080485;5.999084241;1.802597453
-8.131205275;2.403906038;-13.41638916;-24.80698083;-14.04015945;1.005396633;12.15789862;2.93978075;-10.19773402;-13.07278718;-0.042623902;12.25400592;7.076713833;2.12236185;-4.89276167;-0.065501047;-5.451676707;3.46525585;0.824620755
-9.167082004;-12.08945293;-9.998362846;-24.69861595;-11.91575467;1.873212653;16.97920474;11.45500628;-7.26851801;-13.49854762;-0.98251655;-7.025303363;11.70469845;-14.58412916;-4.678867233;-3.508168954;-11.28999566;2.593264743;-1.078309647
-12.92498602;-23.11738416;-5.913820681;-25.86619771;-8.902139767;3.856914801;23.51761057;20.57712667;-9.789573765;-14.00409992;0.676803483;-24.53566682;15.57947258;-29.26162455;-4.769321149;-7.162297772;-14.02232121;5.569286642;-3.130487231
-16.28868811;-25.93506135;-3.255999765;-27.50294404;-5.388538052;5.750830239;28.91684013;24.44909699;-14.79117819;-14.03560535;3.691299655;-31.63083713;18.87853199;-34.20272373;-6.011553185;-9.908281699;-11.63299657;10.23465615;-4.640995343
-16.21814959;-19.79674125;-3.747243391;-28.36109615;-2.269014725;6.28495449;30.87446937;21.77426225;-17.54226437;-13.78341776;5.117676141;-27.15223707;20.37310039;-28.18777275;-8.574094465;-10.97787249;-6.442584954;10.98791467;-5.311130128
-12.19743283;-8.403437302;-7.47374323;-27.55;-0.317382814;5.025995344;29.10073153;16.90385542;-15.67061647;-13.45791116;2.840602853;-16.99341471;18.90958726;-16.96530766;-11.58352519;-10.20098098;-2.610249276;3.251905935;-5.239865719
-6.591617375;2.3152612;-12.63646626;-25.12124237;0.355951777;2.7098665;25.42918361;15.93040579;-10.86374425;-12.67079825;-2.266410362;-8.740385055;15.1744132;-8.411699473;-13.6951064;-7.953088916;-2.342514229;-11.97837873;-4.728563957
-2.709033488;7.727761997;-16.63326832;-22.0556395;0.280323136;0.741984875;22.48219497;21.04724787;-7.023538966;-10.75147799;-6.543491444;-6.043434197;11.7346599;-6.464987544;-14.17322707;-4.981278446;-4.240947113;-27.53794154;-4.076590871
-2.259499774;7.007294066;-17.74561065;-19.63506495;0.085918486;0.222327;21.86070815;28.17405817;-6.845455081;-7.731196867;-6.211915984;-6.988452486;11.06269735;-8.79474623;-13.51496846;-2.220619594;-5.04871569;-34.54718489;-3.479184801
-4.298182795;3.010232267;-16.19064088;-18.58670884;-0.029468109;1.213323841;23.17172921;30.25532167;-9.87147545;-4.870800075;-0.452074313;-7.077297032;13.32276873;-9.842445013;-12.98350645;-0.553869145;-2.929743754;-28.84377926;-3.008664959
-6.374910277;-0.187837666;-13.76985584;-18.56902331;-0.3388289;2.78150318;24.5596641;23.72050794;-13.43025495;-3.925832889;7.699465975;-3.723269298;16.0962501;-6.258348796;-13.38640328;-0.458396367;0.847142158;-14.35861382;-2.615100841
-6.720719814;-0.190287581;-12.43549617;-18.37160216;-1.128366928;3.751519347;24.2734875;12.51936182;-15.2345391;-5.591986605;13.55341582;1.642246929;16.49914372;0.145253618;-14.18196364;-1.674792651;3.316041663;-0.502357875;-2.140830714
-5.536396036;2.431604883;-12.91543343;-16.73306243;-2.218773525;3.579617622;22.05728574;5.74814378;-15.15289178;-8.535493028;14.41361715;5.333282519;13.87219966;4.417105972;-13.80756568;-3.202852653;2.876399893;4.700772556;-1.403305766
-4.393875738;5.137532284;-14.42219132;-13.24476755;-2.956661778;2.695240364;19.34918266;10.13235877;-14.74450721;-10.07169617;11.6928675;5.144065275;10.55225816;3.44291137;-11.08698198;-3.816225623;1.035424873;0.48424829;-0.363248939
-4.494171837;5.661328943;-15.54498262;-8.715807298;-2.714611971;2.101567938;18.21675753;23.28237685;-15.33657539;-8.121064557;9.673382256;2.637655291;9.881280928;-0.791339939;-6.559599135;-2.881377385;1.09590852;-6.432073919;0.720289738
-5.47674459;3.699886224;-15.48010987;-4.717547909;-1.445772207;2.597520901;19.88555629;33.66152973;-16.65568856;-2.84530052;11.83511708;1.979839423;13.1415617;-2.76067517;-2.500876659;-0.899299074;4.926756949;-7.518477496;1.311031229
-5.84560375;0.912488107;-14.57196906;-2.588465002;0.230157117;4.230343161;23.9321494;28.21877161;-17.28010001;3.465556512;17.75403244;6.28382956;18.19834582;1.46152587;-1.417249319;0.74763891;10.83750333;0.434911195;0.864415083
-4.515233433;-0.508489452;-13.81515275;-2.570847124;1.512995068;6.342903179;28.61956856;2.428508423;-16.3225975;8.193148055;23.19213058;14.48786044;21.20121335;10.04254671;-4.097443716;0.802873025;14.72238725;12.41319666;-0.788703791
-1.94671439;0.546629871;-13.8749874;-3.67913392;2.063485007;8.083627104;31.9867422;-34.93079512;-14.59458848;10.32516626;23.40423036;21.36692732;19.94837928;16.06745467;-8.782276338;-0.795555323;13.72655453;18.86286992;-3.219885837
0.228020693;3.459177775;-14.53082309;-4.396725646;2.240489029;8.921698331;32.85174374;-66.37087566;-14.07425463;10.85712819;17.00482665;20.85331875;15.92197527;12.79686456;-12.21385369;-2.651142543;9.261162472;13.11012976;-5.547660623
0.739596347;6.479449186;-14.97935385;-3.714707006;2.734994946;8.796690683;31.12964819;-76.80978915;-16.16744694;11.39685584;7.227544592;10.35039417;13.07061733;-0.733761235;-11.84829576;-2.776948225;6.458337709;-3.298719934;-6.893125063
-0.094342625;7.962940438;-14.62721085;-1.78597916;3.931399276;7.903488101;27.49425603;-63.35366574;-20.39279247;12.35883633;-0.467346682;-7.006347596;14.28790815;-18.41191203;-7.563360878;-0.033141397;10.04043965;-21.47334265;-6.843732104
-0.647377893;7.374949981;-13.59664602;0.247198373;5.546845258;6.416236828;22.86136979;-36.76635139;-24.69704377;12.50765868;-2.480479103;-23.75163449;18.67583906;-31.16472526;-1.563347607;4.950048828;19.73578344;-31.50247961;-5.603267825
0.451716415;5.528779008;-12.50245689;1.093287237;6.82944829;4.434377924;18.11450658;-13.76614497;-27.07659095;10.33082003;0.467401009;-32.29455981;22.11994184;-33.20819562;3.400903361;10.12362812;29.12104726;-29.26894459;-3.745907739
2.9259204;4.039965705;-11.77926211;0.191644454;7.105161991;2.150024414;14.09211715;-5.935604748;-27.01451281;5.954324957;4.415829739;-29.26399316;20.83498257;-25.56127549;6.061104033;13.43333053;29.33544659;-18.62975886;-1.798062449
4.984624581;4.326901973;-11.25452502;-1.982574048;6.20287373;-0.014485758;11.55040789;-13.16803368;-25.50345855;1.709372259;5.712499655;-17.31498412;14.85259267;-14.40938629;7.319167324;14.22714071;15.31886866;-7.667277279;0.013621152
4.957775709;6.630255358;-10.39389286;-4.336219471;4.467023712;-1.523334273;10.89810943;-25.77071268;-23.80251217;0.623740401;3.939991289;-3.363881752;8.329275798;-6.137482564;9.1232312;13.5613815;-9.937796606;-2.350628024;1.681960482
