Channel 1 - P4;Channel 2 - O2;Channel 3 - P8;Channel 4 - T8;Channel 5 - C4;Channel 6 - Cz;Channel 7 - Fz;Channel 8 - F4;Channel 9 - Fp2;Channel 10 - F8;Channel 11 - Fp1;Channel 12 - F7;Channel 13 - F3;Channel 14 - C3;Channel 15 - T7;Channel 16 - P7;Channel 17 - P3;Channel 18 - O1;Channel 19 - Pz
72.6025321;79.98376133;85.10523248;66.90819752;52.27976218;43.16474493;42.44324824;44.61802776;-50.96716915;28.93532545;54.16436792;156.994227;80.86999998;82.29887594;45.50916685;56.36704745;115.2822607;99.27441703;43.99926089
55.37236971;40.15801659;51.34935516;39.90158346;36.94720246;32.22575863;10.07892678;33.11371458;-164.1479225;7.621749807;20.0710884;102.4266424;51.24935282;45.76813266;48.78738065;67.52010935;72.47882871;54.27768731;47.00466354
20.07228487;-3.62573899;1.568409552;3.175120419;13.5179083;8.339854717;-36.94751406;6.104044983;-272.6395528;-29.72431404;-17.68031712;28.22167957;9.567435824;5.69578019;41.59403606;62.74343086;8.981077477;1.952121762;35.00745849
-13.98078401;-28.77686646;-37.88450952;-24.81077767;-6.241662941;-16.07749556;-78.03535001;-23.8611918;-340.5450259;-67.17416555;-41.16371851;-29.92989303;-22.6521178;-20.47651144;29.0408025;49.37742072;-41.59047435;-29.46495363;16.52179531
-30.34048541;-27.57380059;-50.41606133;-32.53793988;-14.04956204;-29.16630371;-97.47046589;-43.3082616;-356.5442707;-89.43091053;-43.1178025;-50.33718786;-32.10658897;-25.36478474;18.8346246;37.81241137;-57.61200237;-28.06276587;2.785191781
-25.60933524;-10.04245528;-38.27872685;-22.02786116;-10.02273869;-27.14498883;-93.73846822;-46.40146444;-337.3925575;-91.21614745;-30.26616937;-36.88262045;-21.16865977;-14.21885658;16.15064113;34.52815569;-41.64282623;-4.636791698;0.207456675
-9.776007413;5.82121579;-17.8909319;-5.898529193;-1.472056984;-15.81766543;-78.64282433;-37.63800555;-313.0701654;-79.02344429;-16.97710004;-12.25971994;-3.984112489;0.206093446;20.12582604;38.7657166;-14.93245014;17.60853225;6.881865174
2.689629517;8.064134926;-6.177118613;2.589964796;3.147358004;-5.416127236;-67.62155896;-27.22644039;-305.5954705;-64.76071521;-14.59854088;0.626010708;4.980197468;6.535069746;24.82664405;44.67288869;0.082965933;21.31740005;15.33873735
3.602117862;-1.779283723;-8.819567134;-1.104586573;0.342132623;-3.05316431;-68.95207771;-23.2564655;-316.9606657;-56.94728462;-24.3399665;-5.529049944;0.932988731;1.431762966;24.08498772;46.60342814;-4.621203965;6.879715399;18.89116506
-4.401786845;-12.55814465;-18.6980125;-10.88924994;-6.737301403;-8.461693936;-79.64754766;-26.77595557;-333.3252961;-56.30575784;-38.20011995;-20.57339402;-9.758893718;-9.876799821;16.45271526;43.23540528;-20.00731668;-10.56873622;16.43378171
-12.11223318;-14.25987232;-24.16182718;-16.43361656;-11.80798152;-15.7014097;-90.08798957;-32.99116196;-339.7432072;-58.223364;-46.18856006;-28.53192591;-16.55958535;-18.67282;6.354803778;37.63916335;-30.37765068;-15.38716127;12.22417049
-12.33808679;-6.33638619;-19.34036371;-12.28362497;-10.89668165;-18.75003906;-92.67191425;-36.65960181;-332.5925967;-58.69622569;-43.82713967;-21.98376207;-13.7977309;-19.28573678;0.546216271;33.90355884;-27.0484188;-4.622136283;11.42630278
-5.534648007;2.796474541;-8.138536662;-2.233388026;-5.275304538;-16.19584844;-87.33881165;-36.66369495;-320.5017122;-58.01968147;-34.52797795;-7.482094466;-4.531382873;-12.54033324;2.740792523;33.51810348;-14.25221382;10.45190923;15.47754922
1.646108887;3.742061377;0.363362905;4.36186481;0.143964061;-11.53816509;-80.19439439;-36.07056235;-314.9626759;-59.31022516;-25.88645738;1.333633234;3.063943201;-4.23151168;10.69678873;34.47696118;-3.73034779;14.88566157;21.09587246
2.832203483;-5.713774364;0.202914802;0.959485815;1.182339022;-9.49393589;-77.41501521;-38.24316254;-319.9753214;-64.02818364;-23.46486102;-3.982132635;2.918095216;-0.348347839;17.98947727;33.50478008;-3.922033095;3.175854125;23.42328194
-2.507933633;-19.06469375;-6.779653723;-10.24539293;-2.284060736;-11.84584991;-80.09705297;-42.96105306;-329.5950608;-69.32535934;-26.95130823;-19.68977515;-4.368801025;-2.7720259;18.92598856;29.20257852;-13.29077169;-16.18387114;20.33185521
-9.01263858;-26.94633924;-13.33178584;-19.80252503;-6.658211147;-16.3050416;-84.18641909;-46.20923396;-334.4745615;-70.02442932;-31.15834031;-33.57416088;-12.97481178;-8.410540349;12.66684999;23.37426235;-22.81139751;-28.16790972;14.16268752
-10.44380719;-24.97877624;-13.44954829;-18.6405555;-7.985876928;-18.96702893;-84.85830232;-43.79202128;-330.6485266;-63.43126591;-30.47518704;-35.47701034;-17.35604044;-12.03266965;3.465863143;19.54753125;-24.48987572;-23.93386383;9.572742258
-5.107507683;-16.91823673;-7.244750826;-5.530124414;-5.29017945;-17.87561748;-81.013481;-35.43880895;-322.5689348;-52.35407132;-23.10574969;-25.41165282;-16.71980607;-10.44743666;-2.841944876;20.09478354;-18.08099317;-7.902835127;9.529084821
2.952655426;-10.81747184;-0.125677542;11.71321989;-1.120231135;-14.53746391;-75.92911889;-25.63883976;-318.2222331;-43.27173271;-12.10606964;-12.72644074;-14.83627716;-4.898131179;-3.114586335;24.38260054;-10.48516603;6.510140451;12.94341503
7.690313471;-11.87375787;2.366058216;22.15618772;0.88005127;-12.28947678;-73.851252;-20.34463459;-321.3993757;-41.07765019;-2.919473564;-7.718109287;-15.90157146;0.018980633;1.313248117;29.3392914;-9.0476581;8.465789742;15.87035721
6.2023783;-18.16727842;-0.834710067;19.89582812;-0.926505472;-13.22377827;-75.92122292;-22.29589932;-328.3815828;-45.06107934;0.426434288;-13.26477838;-20.47581173;0.049307157;6.300114653;31.78263217;-15.0687215;-1.460905503;15.0815293
0.844312248;-22.69622832;-6.149833344;7.946575163;-5.059017438;-16.46768146;-79.16987771;-28.89271578;-331.8439292;-49.76650297;-2.279987068;-23.41534085;-25.07313835;-5.165300819;8.236876624;30.55252207;-23.09641858;-12.50558016;10.87039058
-3.226312301;-19.66103606;-9.246376051;-4.856360944;-8.5354933;-19.20259626;-79.33107498;-34.34528747;-328.0285633;-49.98965165;-7.812858953;-29.45615326;-25.48542126;-11.38124914;6.301409962;26.89585952;-26.13510503;-13.54048248;6.729384219
-2.637288491;-9.521828716;-9.062566563;-10.90918182;-9.571988461;-19.30374784;-74.76130399;-34.22956075;-320.3664944;-45.40915656;-12.00793116;-27.60259711;-20.63876739;-12.64467559;2.209678833;23.11234089;-21.79851498;-2.790686231;6.278067475
1.52260412;1.347202108;-8.307682747;-8.927830763;-8.940230503;-17.14601506;-67.88876928;-28.67848992;-316.1637936;-40.65543601;-12.47475552;-21.54054162;-13.53646512;-5.939634813;-1.740713469;20.78258863;-14.02051674;10.88898335;10.12075158
5.027139666;5.921675476;-10.28688924;-3.341572646;-8.930530528;-15.03429717;-62.97184462;-21.75847132;-319.4162528;-40.74551976;-9.787118093;-18.00364654;-8.62222444;5.695604891;-4.386242417;19.95736821;-9.200430051;16.05396979;15.27249486
4.353515572;2.225489292;-15.29865628;0.646991088;-11.04068039;-14.92924725;-62.27662377;-17.84650991;-326.3913306;-46.04772754;-6.62821697;-19.80219654;-8.0683232;14.09136994;-5.898681597;19.65724359;-10.56189825;8.903849443;17.56003906
-0.446832123;-5.157459084;-20.07757406;1.501188331;-14.54468032;-16.62168962;-64.10117296;-18.19199377;-328.157475;-51.44033638;-5.698735225;-22.77850896;-10.26248917;10.77392769;-6.794000661;18.94769425;-15.74955354;-3.170584398;14.94148252
-6.183748174;-8.815928801;-20.7795763;1.475761262;-17.16666332;-17.99306409;-64.31550272;-20.40226174;-318.0336125;-50.59935749;-7.855956797;-19.47735461;-11.62532661;-7.234117854;-7.033882923;17.61172462;-19.46529448;-7.794985199;9.038100668
-9.547032045;-4.388989578;-16.68536595;2.934636472;-17.13965123;-17.04801555;-59.94366787;-20.91710222;-297.5344438;-41.7099646;-11.6634085;-6.315693151;-9.905313472;-34.55214923;-6.093309827;16.05976639;-18.39384963;1.658118423;3.760506331
-9.8215975;5.959523685;-11.16693164;4.927606511;-14.74157236;-13.82137936;-51.61114279;-18.06094523;-275.6473616;-29.50608202;-14.55618448;12.03566515;-5.944949741;-59.73910639;-3.70816625;14.86578612;-13.86983036;19.81755258;2.298010561
-8.957798245;14.90101735;-9.00101359;3.672643096;-11.97358332;-10.43645444;-42.83407949;-13.05918998;-262.0019645;-21.68010363;-14.76640344;24.97240236;-2.487166367;-71.5993634;-0.344011998;14.49424074;-10.08959945;32.76409916;4.932388032
-9.218681352;14.87214773;-12.42172747;-3.330681193;-10.76904003;-9.296000522;-36.97517636;-8.447522173;-259.6384509;-22.61579505;-12.64277842;23.28379644;-1.333905387;-65.57608277;3.155616465;15.34879973;-9.819077664;28.43024042;9.265973092
-10.78874667;2.966464234;-19.37544748;-13.56274303;-11.40241477;-11.04845935;-34.64667683;-5.629074749;-263.2542093;-29.75334561;-10.38581118;5.755644424;-1.575963609;-46.13992502;6.320317531;17.80152538;-11.69421718;5.695496398;12.40079026
-11.59096958;-17.32502039;-25.38941967;-20.13511019;-12.49089534;-14.11938149;-33.74335097;-3.888762913;-264.0420704;-35.63930165;-10.31796362;-19.91781872;-0.503349746;-23.72273727;9.329440667;21.89131488;-11.55093388;-24.75456169;13.13305754
-9.388706597;-38.15255565;-27.24546261;-16.97821418;-12.47506831;-16.15907891;-31.81709101;-1.611576167;-256.7787697;-33.85954048;-12.91446178;-42.25;3.70617522;-8.377493186;12.46797675;26.86955224;-6.438947781;-48.02155904;12.46003906
-4.119097256;-51.3912373;-25.19108512;-4.384727988;-11.1377889;-16.0633096;-28.456356;1.670407104;-243.3046377;-23.85607929;-16.11935561;-52.9552547;10.02814716;-4.390414782;15.35189205;31.15536898;2.435459928;-54.83618944;12.26
1.755824588;-52.31612806;-21.95087242;10.09265087;-9.755617257;-14.77803831;-25.50187743;4.495701529;-229.9808358;-10.80077095;-16.63317558;-50.839415;15.17121233;-9.113683283;16.85038977;33.05284499;10.5211924;-46.36052553;13.48491235
5.218696349;-41.29075285;-19.79890481;16.74932287;-9.785630604;-14.24529362;-25.03802828;4.771747864;-221.8744232;-1.062392402;-12.39113555;-40.63591175;16.20922551;-16.14514606;15.96863907;31.88772868;13.71505816;-31.26675524;15.41183461
5.187266518;-23.23848216;-18.62041015;11.09563458;-11.342489;-15.51197508;-27.15014899;1.944711959;-218.8309402;2.562832187;-4.432963371;-28.78642825;12.97601155;-20.05819735;12.92395654;28.68539673;11.7052459;-18.48797398;16.42296837
3.271338278;-5.515091257;-16.74514512;-2.437004522;-12.89332094;-17.72043142;-29.58288727;-2.050954236;-216.4544518;1.899545701;3.347779126;-19.80157251;8.187703608;-19.28696114;9.308861444;25.70698171;7.928834793;-11.65751411;15.46849418
2.138732008;4.960856129;-13.53415423;-13.61968574;-12.4712628;-18.85398974;-29.6229863;-4.089516494;-210.5506918;0.402326261;6.594007595;-15.31145549;5.259800967;-15.69363997;7.005295456;25.01690809;6.302692294;-8.835623035;12.91874598
2.995712725;4.401276109;-10.92506111;-14.06864348;-9.333561194;-17.52812087;-26.47793059;-2.387656708;-200.8208498;-0.570559094;3.411987494;-15.16221773;5.718144957;-12.02613788;6.715807363;27.07401236;7.738369084;-6.343027147;10.18330351
4.465214988;-6.346403098;-12.09007813;-3.431103057;-4.606715446;-14.21916035;-21.99576405;1.900296947;-190.7246931;-2.575374292;-4.256060914;-18.54428528;8.310405754;-9.737099568;7.446341955;30.39824327;9.530549208;-2.596458275;8.558412049
3.874268417;-22.30426494;-18.18023102;10.67090172;-0.38113342;-10.86857289;-19.1021561;5.451658927;-184.0912247;-7.430460387;-11.82493369;-24.0435835;10.34908005;-8.689773502;7.488763937;32.57224457;8.043042917;1.164023997;8.313302107
-0.189230037;-36.87049634;-26.18620817;18.69514184;1.92034751;-9.253139915;-19.37446527;5.335490888;-181.8027648;-14.01534804;-14.98277301;-29.30235663;9.942949928;-8.263557406;6.077996386;31.82935991;2.170717698;2.983481546;8.674421597
-6.30790703;-45.11109939;-30.24819307;16.2946052;2.493717484;-9.561779215;-21.87680473;1.286739115;-181.405873;-18.02066542;-12.27940686;-31.61266835;7.225391636;-8.227389342;4.216425912;28.07951172;-5.545853283;2.425424851;8.55054857
-11.04604242;-45.93319736;-25.7904839;6.984347582;2.693391918;-10.37192874;-24.16718745;-4.113092642;-179.5728143;-15.28572288;-5.679364325;-29.61392586;3.797941554;-8.421725492;3.856137515;22.73268644;-11.08408475;0.720339446;7.309778409
-11.48878979;-41.82721584;-13.23235691;-1.321450369;3.698067214;-9.954361841;-24.42684129;-7.399654238;-174.83;-5.776895533;1.059599154;-24.65815915;1.229887195;-7.927219206;6.121016733;17.63297561;-12.36973725;-0.876555107;5.049084094
-7.426617807;-36.50886253;1.883187466;-2.677571689;5.54582243;-7.709237671;-22.74794613;-6.677595526;-168.1040661;5.624835546;4.800935836;-20.20220608;0.103282579;-5.218105569;10.17289475;14.01250903;-10.90286786;-2.38647826;2.337007325
-1.465063685;-32.27691405;12.66071382;2.814901119;7.33046375;-4.517903359;-20.52426159;-2.658931544;-161.0044225;12.61817512;4.530655209;-19.23057196;0.301873156;0.160413566;13.79377444;12.17336212;-10.20296855;-4.507877018;-0.189526574
2.908454276;-29.00285752;15.63444235;10.09173577;8.226476113;-1.828565347;-18.70867942;2.305016309;-153.932607;12.44161864;1.214022393;-21.71255253;1.906612615;5.732971963;15.21186076;11.87612783;-12.54888415;-6.791742094;-2.039641998
3.676260747;-25.25525126;12.83350583;13.85340168;8.280250591;-0.404027169;-16.72346219;6.145954244;-146.0179378;8.011511904;-3.395955069;-24.42900692;5.508503515;6.260366288;14.54329116;12.84603843;-16.93924519;-6.800682702;-2.885990881
1.294698472;-20.30441918;9.644237173;12.71445846;8.221151702;0.135944807;-13.11240201;8.314339188;-136.7978595;5.336171189;-7.832475915;-23.61560311;11.4717361;-3.183960692;13.53663901;14.87231122;-20.02279038;-1.679392502;-2.587709837
-2.141693768;-15.14130023;10.3899516;9.554505866;8.555819636;0.664615257;-7.30152563;9.52117519;-127.6576835;8.447860057;-11.21479378;-18.33441395;18.9032848;-22.98812967;13.84138292;17.52607276;-19.08227087;8.845342835;-1.317505465
-4.593890671;-11.67220585;15.25679739;8.350327134;8.920166155;1.517848415;-0.719424714;10.55365767;-121.2499281;16.2589606;-13.04138065;-11.63417759;25.55565975;-47.02612649;15.38643184;19.9746201;-14.40099386;20.73467386;0.353731365
-5.206799499;-10.96306019;20.8533109;10.60539361;8.392368142;2.114762906;3.927796297;11.40307027;-119.2126908;23.96758215;-13.13808491;-8.312690519;29.0930849;-65.20296961;16.38460058;21.27828263;-8.994364846;27.1629245;1.626520235
-4.240902004;-12.24907653;23.56422062;14.38982333;6.487138692;1.588361742;4.723133067;11.42311131;-120.3873469;27.52744282;-11.97321964;-11.02323689;28.81290467;-69.43038457;15.0045761;21.02514746;-6.066503873;22.63059361;1.88540919
-2.31361097;-13.65542894;22.6503502;16.39953943;3.819923148;-0.2033058;2.147394207;10.15294036;-121.4639926;26.99957619;-10.83639145;-17.99503743;26.31767152;-58.97234663;11.20178998;19.72727947;-6.49137587;6.71021335;1.059104
0.115860805;-13.93480965;20.542422;14.84486155;1.686778376;-2.291059901;-1.242560679;7.858948495;-119.7146616;25.7728705;-11.25444512;-24.34842046;24.40898106;-41.11404321;7.001799012;18.51957306;-8.449237128;-15.42138535;-0.391156232
2.625029169;-13.56099289;20.37263101;10.60299049;0.847924953;-3.262829176;-2.856863504;5.262516946;-115.3577388;26.58387163;-13.73301806;-25.93925357;24.98569336;-26.39062173;4.898524191;18.29636866;-9.340157921;-36.06456747;-1.868039244
4.501409156;-14.13279911;23.13418799;5.958253984;0.650919774;-2.428668211;-2.095713706;2.830815308;-111.238329;28.32483553;-16.80569286;-22.50953666;27.63466853;-21.70979;5.744584141;18.95631073;-8.116512193;-49.37566766;-3.074372697
4.870748746;-16.66330751;26.97155557;2.467027873;-0.564720453;-0.439534762;-0.61003418;0.468236048;-109.9236172;26.92787238;-17.48184307;-17.54643867;30.07020159;-26.33838918;8.010523754;19.39825664;-5.963494113;-53.96703698;-4.095149022
3.370712275;-20.42059506;29.04790557;0.013547911;-3.975943443;1.221056894;-0.600182628;-2.002331438;-110.8180743;19.73209951;-13.19791415;-15.11132431;30.04780427;-33.51587977;9.095908072;18.31492029;-4.887398829;-52.32191151;-5.067920148
0.728392356;-23.49249789;28.14561944;-2.305454677;-8.965485881;1.459729709;-2.6752494;-4.074335749;-110.109645;9.243926274;-4.029708652;-16.47772146;27.17090898;-36.1334682;7.546933983;15.17291448;-5.681832265;-48.14049662;-5.799208034
-1.4855194;-24.60086882;25.64282981;-4.673843423;-13.25129876;0.463890378;-5.174873079;-4.433889119;-103.9202579;2.406513005;6.587475354;-19.46166061;23.15466076;-31.93353178;4.222593712;10.61551127;-7.206475031;-43.98347642;-5.767584768
-1.934126;-24.43686616;24.10638806;-6.112352609;-14.53869873;-0.497803468;-5.563738441;-1.869047837;-92.06727099;5.401363911;13.47088025;-20.84721719;20.44517742;-24.37931264;1.398774185;6.003524604;-7.593248056;-40.73766093;-4.594204791
-0.57800946;-25.15110672;24.90957604;-5.549861342;-12.41429958;-0.175690643;-2.689481535;3.431847461;-79.05648989;18.18809535;12.75262087;-19.54743675;20.43224247;-19.01997233;0.658467552;2.501135447;-6.174705276;-38.54682435;-2.578280926
1.249967855;-28.33737343;27.06975233;-3.231692379;-8.865152876;1.617367259;2.060663571;9.390626092;-71.15268399;33.62365848;4.340969646;-17.55975897;22.70367716;-18.72810446;1.503786235;0.432578062;-4.286178623;-37.72171411;-0.755089857
1.935258307;-33.32993914;28.28682648;-0.896521055;-6.86659483;3.900797386;5.718963694;13.03229086;-71.74178042;42.33135025;-7.918961105;-17.86171235;25.77166095;-21.74719448;1.950302409;-0.656774523;-4.169270786;-38.62955618;-0.308141226
0.969512888;-37.46725326;27.13615095;-0.374948576;-8.091319329;5.40938913;6.018428809;12.40734257;-78.75926239;39.59654981;-18.46522449;-21.23796536;28.4253797;-23.79839987;0.534509585;-1.412025575;-6.965136977;-40.93164308;-1.745494609
-0.561849968;-38.22837662;24.37867792;-1.882088988;-11.58496648;5.668310913;3.102531539;8.011502849;-86.30161438;28.71502737;-23.07906738;-25.05514859;30.45795189;-22.01657939;-2.152934947;-2.120250262;-11.61339667;-43.31627385;-4.507456828
-0.858275858;-35.38696777;22.23235087;-3.690563663;-14.51948726;5.332199784;-0.70847423;2.544178357;-89.06650848;18.09197487;-20.83815139;-25.2725248;32.25734347;-17.18498859;-3.887674004;-2.636832619;-15.64412473;-44.32092487;-7.350019531
1.064111865;-31.20461904;22.32886667;-3.635373352;-14.45117297;5.529857944;-2.821623637;-0.896902774;-85.97475205;14.56328809;-14.0057988;-20.03787472;33.87451704;-12.55015731;-2.880259485;-2.743550156;-17.15710935;-43.59830995;-9.207238802
4.486729325;-28.39893209;24.2352506;-1.162513355;-11.27093446;6.820660783;-2.331968147;-0.867146423;-80.15772165;18.45490634;-6.367313412;-11.70372274;34.62788711;-10.62971287;0.363439645;-2.528159678;-16.26349493;-42.37306235;-9.837485682
7.510019531;-27.66525871;25.84930573;1.960326392;-7.27798007;8.680936444;-0.488173552;1.627375246;-75.65528469;24.24185196;-1.315641678;-5.381225804;33.69820092;-11.05636638;3.139458384;-2.426000668;-14.80052207;-42.51389148;-9.762192496
8.542990103;-27.02258203;25.26280715;3.00298419;-5.335941353;9.955584556;0.566053373;4.093237956;-73.87441391;25.83102812;-0.68515157;-5.117177224;31.13452123;-11.30390654;2.644099823;-2.930631812;-14.68105881;-44.96452479;-9.62927813
7.505721855;-23.6683247;22.40084355;0.56936936;-6.616974136;9.876142899;-0.395287563;4.438740795;-72.81047002;21.69680864;-4.483672813;-10.83296483;28.2316761;-9.374630687;-1.681848346;-4.284743044;-16.38791151;-48.93949417;-9.621530908
5.763057842;-16.73851815;19.01250837;-4.17422212;-9.7379921;8.779103377;-2.802794026;2.337388363;-69.41466179;15.55542912;-11.14451487;-18.5172545;26.79011467;-5.786560201;-7.59723035;-6.426383828;-18.87631522;-52.62730124;-9.443440271
4.909132503;-8.459819751;17.10033444;-8.41852352;-11.92857674;7.928391527;-4.919768342;-0.84570594;-62.71605876;12.39629117;-18.04212596;-23.40777364;27.81063895;-3.016116705;-11.81268351;-9.164065331;-20.80661368;-54.76375798;-8.847483104
5.480234589;-2.54365292;17.23656854;-9.96812015;-11.23087369;8.589974495;-5.276718201;-3.302405461;-54.81064041;13.74302135;-22.35483807;-23.44602631;30.73297521;-3.048864014;-12.58197419;-12.31713345;-21.85448324;-55.64445889;-8.135249205
6.666296745;-1.148087603;18.22965764;-8.877811573;-7.959668531;11.0908268;-3.675503209;-4.112497233;-48.92338161;16.45260512;-22.29311495;-20.23124531;33.87838501;-5.468125366;-10.94540054;-15.6304639;-22.88189031;-56.68178215;-8.082645076
7.170756181;-3.0897454;18.33325673;-7.119421216;-4.327504592;14.56558114;-1.068995846;-3.677213166;-46.43499825;15.95585742;-18.17919437;-16.98368929;35.7115512;-7.915229924;-9.615389481;-18.57321025;-24.89473235;-58.9611985;-9.287730139
6.377477204;-4.937509149;16.82806971;-6.706050454;-2.646352843;17.53070194;1.3576306;-3.113109233;-45.61579598;10.7828377;-12.49162098;-15.57028022;35.84450241;-8.407712054;-10.52731193;-20.33618363;-27.85992949;-62.14249946;-11.5197389
4.786540803;-4.03723653;14.563122;-8.018193203;-3.601475642;18.81854981;3.004993586;-3.265662505;-43.15416769;4.156084886;-8.433682971;-15.23315424;34.97806106;-7.183993757;-13.19196946;-20.21133668;-30.55018261;-64.67414064;-13.71040493
3.403118381;-0.72305803;13.06405949;-9.772502706;-5.922228146;18.21418865;3.963311841;-4.152671624;-37.01527491;1.220712881;-7.73728372;-13.90332461;33.94218367;-6.22041134;-15.23522133;-18.16124939;-31.58124483;-65.04737032;-14.68864548
2.715920142;2.34185412;13.11425098;-10.49493558;-7.580139908;16.44010347;4.53775276;-5.153040586;-28.05671415;4.480959088;-9.310455888;-10.5837307;32.76987192;-6.896061668;-14.58968528;-15.1172796;-30.67;-62.90872994;-14.08635512
2.228861072;3.107545699;14.11491291;-9.999656149;-7.454585072;14.6197131;4.801719603;-5.633444155;-19.08862617;11.57948494;-9.992049717;-6.442754142;30.64133862;-8.203750991;-11.40290725;-12.66441602;-28.93146121;-59.10036516;-12.64626419
0.956637028;2.53803246;14.73393241;-9.472379637;-6.152133295;13.63907409;4.599694997;-5.464345081;-12.42870789;17.34064909;-7.101703021;-3.654170086;26.69935512;-7.486791562;-8.031566015;-12.21806978;-27.92323664;-54.78662016;-11.64152298
-1.597496881;3.942535386;14.15430563;-10.16094236;-5.446393587;13.77242485;3.869257891;-5.103341348;-8.256232237;18.11429723;-0.87228011;-3.251457124;20.95357898;-3.206910892;-7.172061677;-14.20863888;-28.30251526;-50.64242158;-11.8688559
-4.881302914;9.456822162;12.74145689;-12.02293832;-6.896238059;14.68335221;2.832356539;-5.304435142;-5.12446258;14.47557144;5.319291449;-4.19427207;14.46093886;2.944677458;-9.735462294;-17.81601492;-29.30511283;-46.84251609;-13.0475598
-7.645726042;16.73774197;11.56600454;-13.69349267;-10.72586743;15.69538413;1.81635892;-6.703533618;-1.844649148;10.00894803;7.375397218;-4.601829014;8.667257173;6.961923852;-14.19354483;-21.414455;-29.50018766;-43.61626229;-14.11612766
-8.882167191;19.23979863;11.31281363;-13.82332712;-15.69742087;16.15725017;0.932978766;-9.473070754;1.308507663;7.597164511;3.782036688;-3.901700203;4.53516209;6.06125926;-17.79818542;-23.41279871;-28.11755993;-41.49;-14.15796313
-8.529328085;10.66307458;11.64446314;-12.469212;-19.89192147;15.75719832;0.038655736;-13.12449709;3.315970388;6.888394557;-2.912088436;-3.628581279;2.185293486;1.690517421;-18.53928291;-22.97420632;-25.75231007;-40.73960905;-13.16466721
-7.390058594;-9.524911627;11.6;-11.12046998;-21.73444055;14.67524615;-0.904315444;-16.5294417;4.25412449;5.355702973;-7.843107969;-5.844996026;1.204023475;-1.153123626;-16.27012777;-20.28024214;-23.84868416;-40.60843785;-12.00603445
-6.419212737;-34.01959404;10.60086588;-11.23620727;-20.62690028;13.49249204;-1.437714425;-18.26470776;6.183793587;1.81114078;-7.595516009;-10.55273579;1.128806274;1.633303454;-12.33959522;-16.35061696;-23.47899839;-39.36595096;-11.66800066
-6.054773126;-51.30860023;9.070260074;-12.63758613;-17.00059956;12.86137755;-0.700070801;-17.27668964;11.8259006;-1.240957747;-2.996121579;-14.72442561;1.55135159;8.622157458;-8.380318436;-12.63623395;-24.53700742;-35.58385883;-12.43468288
-6.132513075;-52.87706261;8.066607755;-13.3367476;-12.00135163;13.08982188;1.905288483;-13.57691871;21.94801292;0.950002441;1.41260602;-14.34336707;1.820972164;12.41557411;-5.418542563;-10.56164114;-26.02887851;-29.65982398;-13.70286572
-6.327994545;-38.87980893;8.283860277;-11.11224135;-7.083986468;13.90106287;5.987981041;-8.467730999;33.87702199;11.09213692;0.929423071;-8.035060814;0.893239528;4.668858444;-3.855620089;-11.06170157;-27.10484574;-24.00052016;-14.54003906
-6.598838706;-18.06375843;9.373571631;-5.505555558;-3.618935733;14.56522897;10.11231676;-3.963147164;42.83326785;26.56707386;-5.519122518;0.959727261;-2.180452745;-16.8647249;-3.872772927;-14.15486992;-27.80837686;-21.23693671;-14.45523284
-7.178684196;-1.918929851;10.23381957;1.560533892;-2.496061878;14.35077132;12.6371661;-1.626058744;45.35607338;40.42090045;-14.42626126;6.703513285;-7.31070876;-44.97596269;-5.470369201;-18.74286633;-28.834454;-21.71654572;-13.70459781
-8.180741396;2.705680638;9.996919343;7.168652559;-3.792583704;12.98985464;12.89765609;-1.583411243;42.10039711;46.22675067;-20.38394557;5.327662262;-12.82510785;-66.62615454;-7.970609942;-22.90842579;-30.56875074;-22.56145539;-12.90980885
-9.280735006;-2.729801358;8.797068169;9.63989656;-6.707239018;10.81777439;11.78344568;-2.490294319;37.5871214;42.89183972;-20.2378786;-1.19355973;-16.08324574;-71.4280966;-9.67554972;-24.78035359;-32.39352659;-19.57914141;-12.39198293
-9.862719052;-10.8032031;7.615662293;9.682741267;-9.910576228;8.493375577;11.17744716;-2.559783936;36.94452299;35.32243977;-15.37467687;-5.808654273;-15.11189026;-58.77659035;-8.48964054;-23.6012857;-33.01688356;-10.85608124;-11.86236741
-9.526308927;-14.26302075;7.369627576;9.495239408;-12.18290262;6.544541852;12.62416171;-0.921062099;42.20610155;30.32127075;-10.36174763;-1.76078188;-10.13663985;-38.17245854;-3.437398569;-20.31773824;-31.61409743;0.944034357;-10.75911837
-8.462798891;-11.1388724;8.105554952;10.70213433;-12.94857137;5.116858254;16.23652409;1.760757264;51.12605408;31.17644185;-9.162076275;11.34258767;-3.741195726;-22.43530506;4.069669192;-17.16918519;-28.75958078;9.905781024;-8.913501268
-7.308241052;-5.237487248;9.040808099;13.04302134;-12.35476835;4.105128459;20.66835529;3.920946339;59.36636948;35.50414862;-12.07598555;25.76371816;0.66666019;-18.96514455;10.51961762;-16.38520576;-26.23865789;11.25587578;-6.917076092
-6.58636286;-2.240670455;9.37933607;14.98762766;-10.90441493;3.486690071;24.12255837;4.471536055;64.10544858;38.03684652;-15.84320037;30.19024113;1.070397711;-25.58063168;12.33817624;-18.77638357;-25.78672387;5.460834435;-5.817948409
-6.271828429;-4.901091744;9.098775471;15.6047962;-9.026907144;3.483722906;25.55888766;3.747377189;66.02262967;35.73139473;-16.6431408;17.71952076;-1.877803846;-33.66898724;8.361243482;-23.17652943;-27.76108095;-1.548072152;-6.362774082
-5.91418634;-11.11597743;8.945145848;15.77033551;-6.995387101;4.349127001;25.17949125;3.179838579;68.12684688;30.61568994;-13.36848263;-8.57200619;-5.462882267;-35.59498024;0.844548088;-27.15934296;-30.84857021;-2.722884843;-8.39991646
-5.228172079;-16.01937893;9.639824542;17.36809823;-5.222287285;5.95629422;23.93977844;3.9435076;72.65269728;27.90016705;-8.470743526;-36.82025119;-6.898205616;-30.25926757;-5.905301204;-28.5680893;-33.05289842;4.273647546;-10.92755659
-4.578035725;-16.00947255;11.07087919;21.06709024;-4.529383527;7.616957539;22.64478101;5.753282231;78.83895995;31.14174181;-5.842794679;-53.7288514;-5.164597102;-22.70943943;-8.369602538;-26.82350916;-33.13932918;14.41144345;-12.73932185
-4.832847413;-11.38071101;12.27697459;24.78954597;-5.934119868;8.400662043;21.44674443;6.927935696;83.50657172;38.85570347;-7.678090743;-52.89039658;-1.366495714;-18.86741543;-6.047422388;-23.15349563;-31.36660536;18.28785531;-13.15566797
-6.633635135;-5.708931657;12.29245202;24.62727728;-9.930490291;7.786923134;20.08558362;5.77275627;83.83820975;45.62322609;-12.93033778;-38.19169989;2.473542618;-20.30954272;-1.47400801;-19.67690122;-28.98879768;8.907209593;-12.31310626
-9.688287525;-2.869974308;11.09363265;17.87891311;-15.8045749;6.134928521;18.49056021;2.149202253;79.87145454;46.68154356;-18.43;-20.167625;5.032600047;-23.49053118;1.837795463;-18.06303888;-27.06756172;-12.71705594;-10.88879769
-12.75658151;-4.272513395;9.749543846;5.835610739;-21.67119969;4.538127737;17.06138464;-2.163163824;74.56189097;41.86540516;-21.39516683;-8.39340441;6.375012805;-23.59788982;1.840063477;-18.69339042;-25.66998909;-37.4142046;-9.583985213
-14.43046708;-8.355506586;9.581122051;-6.197974074;-25.43246604;4.108128966;16.31942221;-4.755413716;71.45176333;35.37958253;-21.06444818;-5.668068723;7.306100129;-19.18699182;-1.042505935;-20.77431625;-24.10213759;-53.43606934;-8.799876859
-14.12761294;-12.35292128;11.03978601;-12.09922623;-26.09074722;5.211210009;16.28245837;-4.562471716;72.01739137;31.65719786;-18.26884925;-7.916528213;8.187478832;-13.35409293;-4.841900436;-23.12308625;-21.86362512;-53.82281054;-8.669683769
-12.50484442;-14.58392436;13.29627493;-9.145339001;-24.45183523;7.244452255;16.22842324;-2.886463116;74.90775045;31.10121845;-13.81258189;-9.071113714;8.415236166;-10.59;-7.849445772;-24.95184176;-19.37945214;-40.41573499;-9.255217955
-10.95797164;-15.417399;14.91604132;-0.044949245;-22.62205057;9.116176155;15.17407613;-2.526798029;77.51696397;29.63638032;-7.597419992;-6.476007583;7.05909623;-12.43406007;-9.727293481;-26.15020942;-17.81213115;-21.99791154;-10.61200394
-10.6144066;-16.42534495;15.03610034;8.872278973;-22.5970642;10.03548742;12.71744966;-5.60249286;78.31267637;22.59035727;0.48114681;-2.439416324;4.02336961;-16.03300669;-11.22623413;-27.07027139;-18.12180078;-8.311528191;-12.63955181
-11.61404075;-18.76115149;14.01721644;12.02575335;-24.95215668;9.988925669;9.509911249;-11.76343012;77.85116222;9.508126419;8.820506773;-1.124253689;0.561497643;-16.91202197;-13.12617042;-28.17576537;-20.22720905;-4.343759011;-14.91960112
-13.19640835;-22.22775635;13.02198426;8.258642915;-28.58139475;9.572263887;6.901098237;-18.2378451;77.77312746;-4.43370997;13.66115342;-3.934899307;-1.465492416;-13.31438602;-15.56944713;-29.86447441;-23.01939221;-8.522617725;-16.80346266
-14.4325816;-25.66592156;12.93042128;1.139918618;-31.62827536;9.391489283;6.002052358;-21.72806082;78.95061281;-11.85949079;11.06410856;-7.671480438;-1.050798456;-7.993841782;-18.33110741;-32.4532954;-25.20897239;-15.27580479;-17.77540599
-14.95054592;-28.08377054;13.5817059;-4.13816258;-32.8464403;9.576621586;6.916082807;-20.70807762;80.62514833;-8.736271358;0.212067476;-7.191708102;1.018567511;-5.689128622;-21.48463351;-36.10187706;-26.25716712;-19.42102357;-17.82209973
-15.09414946;-29.4274958;14.00915764;-4.721113342;-32.34999578;9.79749775;8.746803747;-16.38119743;81.30609618;2.546201582;-14.66788849;-0.357816395;2.613517488;-8.535053935;-25.4958466;-40.56625774;-26.59940534;-19.1715501;-17.47664517
-15.49340274;-30.38762773;13.41818243;-1.878010487;-31.26138505;9.695899369;10.33571911;-11.64699706;80.46406684;15.04566954;-25.82589558;9.027486219;1.826318931;-13.68408745;-30.44011399;-44.98093586;-27.03074732;-16.19865657;-17.45753446
-16.50390361;-31.57097361;11.98256194;0.53538782;-30.66338839;9.288960648;11.08670362;-8.990802568;79.29755195;22.42906509;-26.46713424;13.07702541;-1.577805089;-15.52710544;-35.11500617;-48.01288577;-27.86939962;-13.51031588;-18.16777386
-17.99394265;-32.87984353;10.71317812;-0.563769785;-30.76780154;8.965329831;11.21125096;-8.970849326;79.75252225;23.14461218;-15.24295793;5.394013734;-5.978893555;-10.73425386;-37.18578096;-48.50171339;-28.67712669;-13.09693447;-19.44402971
-19.56563605;-33.64388119;10.51492286;-5.08475909;-30.94323963;9.101757996;11.27053729;-10.36495087;82.66083108;20.39721192;2.493503696;-13.78104916;-9.129273607;-1.620791999;-34.67668992;-46.25241983;-28.7674493;-14.85118054;-20.73509781
-20.90048786;-33.30637923;11.30231243;-10.10805312;-30.47530028;9.684460414;11.50051281;-11.6261742;86.74706311;18.41315775;17.71813773;-36.83979099;-9.808735545;5.397411292;-27.78827635;-42.38544693;-27.99028262;-17.0175447;-21.53232087
-21.8833278;-31.97901996;12.0033955;-12.44699042;-29.33496501;10.30019391;11.55139702;-12.28767819;89.50813665;18.51769767;23.06051288;-53.22766301;-8.621735748;5.232534274;-19.43719511;-38.8609517;-27.02330517;-17.49607492;-21.68817768
-22.46434262;-30.34917463;11.48095209;-11.19602097;-28.28653096;10.49981511;10.85383662;-13.15087661;89.27591681;18.3818263;16.86513981;-55.9498425;-7.375989792;-1.163338051;-13.75021857;-37.37305261;-26.85458594;-15.15235869;-21.39636185
-22.51810403;-29.04418136;9.564205364;-8.241737065;-28.27501552;10.18336183;9.241269317;-15.23982815;86.67711559;14.77228019;3.471694553;-45.62947895;-7.610175418;-7.087705016;-13.4018582;-38.31437662;-27.8915757;-10.54385159;-20.92365013
-21.93621923;-28.04953247;7.26842247;-6.501412465;-29.64023684;9.644318471;7.23501682;-18.57470567;84.20281344;7.058551365;-10.06689998;-29.4724661;-9.453786715;-5.562585477;-17.76246508;-40.52621994;-29.5;-5.731585679;-20.38328874
-20.88139963;-26.7202631;5.989450589;-7.471078464;-31.80434233;9.245560587;5.714679771;-21.90444362;84.24302735;-1.729622433;-18.29299362;-16.18310399;-11.65806094;4.304665045;-23.33108518;-42.03323992;-30.42912372;-3.107479973;-19.75023154
-19.87827529;-24.39220387;6.361218352;-10.07460283;-33.63871031;9.055500802;5.247789242;-23.62942155;87.26073629;-7.11958875;-19.85525412;-10.57879107;-12.67782625;15.41571591;-26.1903512;-41.2876724;-29.81592203;-3.673324941;-19.04832845
-19.51711823;-21.06436114;7.756338465;-11.61715781;-34.16118692;8.807265936;5.646103864;-23.08069954;91.6176222;-6.578802445;-17.06779542;-11.49715476;-11.90344767;17.18219375;-24.64599079;-38.11047781;-27.94830417;-5.845144726;-18.46228305
-19.93729203;-17.54069765;8.841930545;-9.947229769;-33.02094403;8.222502181;6.111304978;-21.03405255;95.09878646;-1.097018046;-13.50049675;-13.93605804;-10.11436637;3.273786753;-20.10119467;-33.74685609;-26.14083229;-5.981467122;-18.21561258
-20.55513544;-14.85929806;8.68722748;-5.094031828;-30.50386503;7.374000865;5.835659754;-19.03897749;96.73689856;6.166035282;-11.60340261;-13.35070365;-8.885184847;-23.22519089;-15.64910251;-30.06;-25.79588761;-0.887541367;-18.31693993
-20.37334173;-13.44338565;7.464764962;0.779894286;-27.22284172;6.707335495;4.573843574;-18.18021126;97.36919201;12.61500799;-11.79655466;-8.831662802;-9.448703652;-51.18277166;-13.6456358;-28.42851817;-27.3767126;9.110253118;-18.44493156
-18.71698666;-12.68807648;6.176436088;4.897335698;-23.83842663;6.665214899;2.776003352;-18.34493508;98.56406947;17.73617612;-13.08055085;-3.135486502;-11.83612429;-68.31943112;-14.19885155;-29.03723531;-30.07843297;18.96415604;-18.13855977
-15.81781005;-11.39994082;5.701088826;5.614062487;-20.97035867;7.257630613;1.258247063;-18.57160746;101.0103217;22.23656021;-14.22938122;-0.038337834;-14.82882023;-68.63287528;-15.600214;-30.9341828;-32.42120016;21.19954274;-17.17045911
-12.72765213;-8.82663198;6.028616823;3.188631879;-19.16403132;8.007009217;0.724832922;-18.08206888;103.8771875;26.06595222;-14.6033037;-1.295075817;-16.67499038;-55.26078886;-16.07971787;-32.72594609;-33.28243805;10.80535951;-15.78166546
-10.57951041;-5.464190184;6.333286199;-0.73532742;-18.71040488;8.365618296;1.479105739;-17.02144523;105.7048296;27.63021219;-14.25550773;-5.427727895;-16.08418476;-37.34626592;-15.29107836;-33.43588721;-32.59327925;-10.56779748;-14.54823689
-9.778416384;-2.879171914;5.768030751;-4.306348982;-19.35725981;8.246361552;3.414764553;-16.24357187;105.9657335;25.19911074;-13.59524002;-8.95670273;-12.9408147;-23.78610215;-14.36408326;-33.02180558;-31.23813941;-34.50109239;-13.96556262
-9.786499903;-2.489147905;4.235353027;-6.394214459;-20.22113698;8.159903058;6.139506338;-16.37584888;105.8225837;19.15709614;-13.00430005;-8.898067629;-8.406291273;-18.44258838;-14.69845939;-32.29872603;-30.31919666;-50.48670555;-14.09023169
-9.66951156;-4.145449257;2.453566686;-6.79707561;-20.17121782;8.776931085;9.065759837;-17.06335643;107.3193801;12.66907529;-12.61183382;-4.662127667;-4.402178701;-19.57471842;-16.69747276;-32.35887133;-30.37813298;-52.42152946;-14.53434083
-8.91728362;-5.744386075;1.299123702;-5.895632246;-18.56370331;10.26200579;11.46905438;-17.1368093;111.6252191;9.670338492;-12.25733425;1.807549123;-2.729615866;-22.79036542;-19.51480393;-33.84268089;-31.11282133;-42.26973971;-14.79737106
-7.816442315;-4.519306541;1.049392184;-4.227656124;-15.79733003;11.97487907;12.63942641;-15.61755757;117.7926442;11.67072587;-11.64355971;7.456547608;-4.228865044;-24.58813039;-21.85590349;-36.4818839;-31.69862549;-28.15610596;-14.62743301
-7.057196423;0.608819205;1.203381916;-2.28400341;-13.16357472;12.85486964;12.17514367;-12.70408155;123.0944584;16.2569369;-10.65138048;9.944908414;-8.389500628;-23.97102186;-22.94912156;-39.1862674;-31.39327326;-18.34192411;-14.09676363
-6.947726768;7.320423167;1.002106067;-0.474892606;-11.97148807;12.21573139;10.26543896;-9.85509593;124.7418433;18.94237356;-9.631803859;8.718491243;-13.64330397;-21.77090023;-22.80242446;-40.64460527;-29.97767001;-15.69630633;-13.36147927
-6.975132893;10.45386559;0.133538309;0.93684176;-12.55454496;10.29773865;7.71097826;-8.823331526;121.7298146;17.09489573;-9.353996044;4.910839238;-18.22069357;-19.12428628;-21.68776644;-40.10217985;-27.78889487;-16.78739922;-12.38390279
-6.15753671;5.026855549;-1.032590094;1.985991767;-13.95831371;8.102633792;5.580739786;-10.36979227;115.5222992;12.63479196;-10.45141698;0.462702823;-21.08822792;-16.63602424;-19.58319792;-37.84275614;-25.42088131;-15.92423323;-10.93202806
-3.927578923;-10.00561808;-1.871815179;3.056014028;-14.63041627;6.63909278;4.69495904;-13.66290291;109.2042679;10.95472887;-12.68694009;-2.836202541;-22.37419773;-14.54621635;-16.27912353;-35.05458588;-23.35871074;-10.50122032;-8.892400509
-0.79104829;-29.94814574;-2.16359852;4.629180009;-13.62941366;6.211801399;5.286781731;-16.82337076;105.7886112;16.58439955;-14.73498127;-3.906179751;-22.99099087;-13.1277785;-12.07040599;-33.13837462;-21.78313674;-3.13777639;-6.598644305
1.842369021;-46.24520484;-2.344138108;6.793026527;-11.40177045;6.34767067;7.058968391;-18.18119596;106.7791262;28.95980391;-14.95045378;-2.492485005;-23.73174647;-12.58857196;-8.218819648;-32.88518377;-20.61519342;0.968727031;-4.813207362
2.579966255;-51.30615348;-3.102691745;8.865121373;-9.4730498;6.393597642;9.522103873;-17.29956695;111.7006472;41.82101836;-12.75269737;0.950103768;-24.54228398;-12.62594887;-6.458884546;-34.04938514;-19.71018066;-1.094147298;-4.289470485
1.016731743;-43.26225205;-4.686498626;9.536947374;-9.259447882;6.228522238;12.27640549;-15.07171282;118.5871505;47.02150112;-9.47739602;5.424806827;-24.57491305;-12.36954614;-7.719401657;-35.57756753;-19.04495623;-7.248079612;-5.236496478
-1.989478894;-27.35372469;-6.558714769;7.609240566;-10.93459545;6.432074535;14.99473982;-12.94982691;124.9530574;40.07959818;-7.682546044;9.6065634;-23.02766991;-11.06549759;-11.11681127;-36.30942277;-18.77585075;-12.20572012;-7.143062781
-4.922198153;-12.78723033;-7.746277198;2.914319368;-13.26853469;7.738224377;17.19714834;-11.98027306;128.7601892;23.41676419;-9.086533428;12.1783443;-20.10762352;-8.938244063;-14.26118634;-35.66794706;-19.13471825;-12.05501594;-9.14363663
-6.593109205;-7.062219948;-7.602091012;-3.227815815;-14.58179979;10.25105307;18.15944649;-12.33453253;129.104994;4.971822006;-12.68104161;12.27527212;-17.28422718;-7.269221153;-14.89825118;-33.91832226;-20.23129245;-7.534718369;-10.64746314
-6.773982739;-11.60721258;-6.337184813;-8.45813341;-14.05245622;13.13680256;17.2091629;-13.51653861;126.490705;-6.702726252;-14.81213184;9.86327711;-16.51024301;-7.387756384;-12.71700439;-31.9224988;-21.89702939;-3.150700677;-11.70927192
-6.092390472;-21.63432593;-4.874256978;-10.59405918;-12.32497657;15.11365851;14.28190091;-14.88480675;122.5781296;-7.359296714;-11.65316657;5.823843916;-18.91180239;-9.389520473;-9.839990338;-30.6522814;-23.69603748;-3.032643932;-12.82672938
-5.411805501;-30.04599352;-4.150912423;-8.918813445;-10.94061646;15.3727023;10.27881864;-15.99836211;119.4124864;1.182328669;-2.43317557;1.639479738;-23.92237631;-11.82935661;-9.437078853;-30.78987259;-25.12737336;-7.285951849;-14.34319694
-5.248641811;-32.33606621;-4.450445124;-4.716987939;-11.07020615;14.17751704;6.812334694;-16.60792264;118.403658;13.07097892;9.208043351;-1.203171268;-29.54771159;-12.83467565;-13.37112081;-32.54670503;-25.90029675;-12.03498287;-15.98853681
-5.614717226;-28.93214768;-5.283817716;-0.645234871;-12.58873619;12.64445156;5.367413746;-16.50724094;119.6066042;22.30300008;17.20598276;-1.812937941;-33.60285083;-11.73184502;-20.61142469;-35.61323846;-26.08694539;-12.96586252;-16.9868206
-6.239166052;-23.64889651;-5.863494432;0.748466268;-14.23147899;11.88424047;6.399238024;-15.55084524;121.7869443;25.70163385;17.24967812;-0.223583854;-35.02687741;-9.679646114;-27.6482337;-39.14418965;-26.02869124;-9.072412473;-16.67338713
-6.842562308;-20.01556758;-5.73300696;-1.52090841;-14.67317011;12.2070404;9.015157864;-13.88160038;123.275786;23.49728324;10.03114409;2.660134296;-34.34431497;-8.630387218;-30.68319462;-41.86166845;-26.06162249;-3.274435242;-15.10960166
-7.22390956;-18.69673911;-5.042300059;-6.343954417;-13.62531535;13.01651791;11.51073725;-12.09556948;123.0408874;17.94962693;0.908660311;5.419456374;-33.02369903;-9.50230309;-28.08340665;-42.4634229;-26.283533;0.446650592;-13.15958686
-7.213624233;-17.94650754;-4.309281046;-11.24014919;-12.06171286;13.42324763;12.41939334;-11.04811252;121.2218656;11.5320791;-3.930541154;6.598656778;-32.32114931;-11.27560963;-21.43239293;-40.33665209;-26.55959062;0.570161031;-11.93094283
-6.701039787;-16.23561428;-3.9429729;-13.87501248;-11.42409397;13.01373184;11.36280974;-11.32515976;118.796396;5.89313768;-1.865034146;5.146509115;-32.51934879;-11.95018605;-14.54611769;-36.19418599;-26.75392635;-1.057731587;-12.0130315
-5.804213927;-14.33003906;-3.949386475;-13.41064086;-12.49358422;12.12224557;9.142238545;-12.77053686;116.737052;1.791855898;4.683416344;0.755925756;-33.05755188;-10.55204321;-11.21428921;-32.05097297;-26.95567549;-1.581008339;-13.1184166
-4.991898601;-14.76403297;-4.015676768;-10.85972729;-14.84900199;11.4219304;7.065303473;-14.50683763;115.3906921;-0.511723793;10.7846096;-5.923183518;-33.28618537;-8.274497208;-13.16478555;-30.26579704;-27.4528215;-0.238200732;-14.39803278
-4.91165063;-19.18130256;-3.819127981;-8.284496559;-17.30050424;11.25106421;6.032410044;-15.52473711;114.5393265;-0.930539695;13.26982765;-13.27671277;-33.11791405;-7.515732676;-19.41196985;-32.07940325;-28.43949675;0.967956484;-15.14459497
-5.936432646;-26.10813326;-3.255367567;-7.430562676;-18.86284828;11.29728995;6.02564544;-15.43252462;113.9420632;0.56057113;12.99216214;-19.075873;-33.03569461;-9.529237387;-27.13409087;-36.63965573;-29.72592359;-0.261503687;-15.29408016
-7.778175592;-31.4519278;-2.424005066;-8.699473042;-19.41767784;10.91530698;6.297934357;-14.77601386;113.7289454;3.883000295;13.13521173;-21.27267127;-33.53586454;-12.86133925;-33.32058338;-41.35770499;-30.77483272;-3.453731015;-15.33398092
-9.565034;-31.59079431;-1.466554408;-11.05213121;-19.53860818;9.778488819;6.043322513;-14.64168395;114.2193222;8.673806459;15.23080125;-19.05454412;-34.56623011;-14.25014677;-36.18033346;-43.54474562;-31.11632451;-5.041348384;-15.74768632
-10.42159467;-26.48882433;-0.46122202;-12.76400936;-19.70997931;8.273513254;5.026156824;-15.81586597;115.3671936;13.97712609;16.78255501;-13.60910731;-35.46576895;-11.47648788;-35.68148766;-42.25834048;-30.80846977;-1.565216684;-16.51348781
-10.1170898;-20.05786236;0.539075828;-12.43070651;-19.69696073;7.283022186;3.742476074;-18.13610724;116.4701079;18.05483092;13.13291375;-7.920169692;-35.42133148;-5.693420273;-33.18452469;-38.9843732;-30.48010419;6.428348825;-17.10370903
-9.211404617;-17.26777268;1.428265172;-9.601160844;-18.6743348;7.538814894;3.058690368;-20.53662915;116.5669543;18.77473638;2.351019695;-5.302151271;-33.99959671;-0.906608222;-30.53878291;-36.55046671;-30.79911942;13.76669872;-16.96935696
-8.518601588;-20.32628528;2.075674815;-4.826358299;-16.03642699;9.088467941;3.625719787;-21.76155613;115.2660038;14.76532503;-11.21278669;-7.226422029;-31.29314294;-0.643277462;-29.12483544;-36.99979398;-31.74262212;14.56927163;-16.05807529
-8.32118003;-27.11372272;2.462731174;0.648533038;-12.18808757;11.29863922;5.470198134;-21.2172779;113.2440508;6.760058594;-18.51012971;-11.78776615;-27.61945451;-4.494293564;-29.24543676;-40.01311085;-32.33344047;7.659158643;-14.88291025
-8.050161047;-33.15751245;2.760249181;5.219875293;-8.591528773;13.34755174;7.996497908;-19.34842327;111.8627549;-2.044021569;-12.19024261;-14.19666778;-23.13516702;-7.74197958;-30.10424937;-43.11488404;-31.22606098;-1.493299292;-14.06263089
-6.790783703;-35.39692874;3.192471007;7.210164652;-6.938925751;14.76384571;10.35081555;-17.29870454;112.1266468;-7.424368255;6.910158486;-9.618486478;-17.78207078;-4.967370238;-30.3772796;-43.54639446;-27.82699869;-4.68799768;-13.73745175
-4.240752542;-34.47967341;3.748806592;5.2857949;-8.037686963;15.5841158;11.89331934;-16.14403523;113.8555582;-6.813983072;28.70040573;3.024429391;-11.63311796;4.891478957;-29.08954793;-40.38038208;-23.08373338;1.949614452;-13.40041956
-1.275695301;-33.6823507;4.014546573;-0.876117907;-11.2423675;16.08107091;12.4979976;-16.25472095;115.8289397;-1.339553769;39.85560701;18.85436059;-5.294617673;16.20199238;-26.29133862;-35.24508056;-19.19257022;13.69234991;-12.34374156
0.474148852;-35.56016237;3.361173517;-9.947153725;-14.85144406;16.39395364;12.53213351;-17.18319537;116.8284474;4.644943525;32.94126229;28.55807834;0.069887892;19.4614099;-23.08500484;-31.11179581;-18.25976363;19.82166708;-10.381321
-0.185053552;-39.4256212;1.441689856;-18.92645564;-17.15956409;16.43265258;12.56267883;-18.05640146;116.6855074;6.652721619;11.82742288;23.53326837;3.218058039;7.771244466;-20.94335207;-30.11930702;-20.81697662;11.62851245;-8.230617115
-2.97877442;-41.95314428;-1.380579222;-24.15081364;-17.40213869;16.11586218;12.98776984;-18.12282206;116.3938249;3.664723024;-10.91587568;1.8629414;3.505415388;-17.63091829;-20.75850806;-32.13696685;-25.31722583;-10.41409804;-7.167967467
-6.17923261;-40.33286324;-4.07519313;-23.05247811;-15.98260231;15.65386218;13.82261733;-17.08941149;117.1578125;-0.70162181;-22.87639698;-28.92284297;1.285129791;-47.03202896;-22.28109468;-35.12673511;-29.07;-36.20749193;-8.142241419
-7.750891963;-35.04880702;-5.534674616;-15.67422613;-13.96070735;15.53390318;14.7626978;-15.12873084;119.2122644;-0.787405252;-20.28720713;-54.84489494;-2.230192517;-67.68825131;-24.33734844;-36.89803974;-29.99236792;-52.90729024;-10.98891437
-6.783416077;-29.66968601;-5.334479695;-4.872443289;-12.30112088;16.15882906;15.46014092;-12.69337155;121.4893217;6.419053861;-9.807155067;-63.13293621;-5.518305975;-71.42471684;-25.63039358;-36.771899;-27.90985532;-53.79410717;-14.35935042
-4.101823457;-27.7525226;-4.09220981;5.103735274;-11.43929135;17.44800308;15.79824371;-10.33656827;122.4777753;18.15442218;-2.511455714;-49.99098889;-7.352799179;-59.20482117;-25.50852187;-35.84759285;-24.47405216;-42.24478574;-16.47602632
-1.582150235;-29.62253105;-3.110613536;10.8575583;-11.34014634;18.78960006;15.94768135;-8.607363601;121.5486795;27.10335276;-5.036945219;-23.25417216;-7.181693476;-39.73972475;-24.17075498;-35.79783284;-21.82420555;-28.03;-16.22189308
-0.730962484;-31.97324347;-3.517677618;11.49288823;-11.78765393;19.44585456;16.15706112;-7.942278056;119.5722859;26.47531418;-14.82467492;2.273099385;-5.228182228;-23.4846562;-22.28962271;-37.33478015;-21.06778121;-19.42408205;-13.82240213
-1.656758266;-30.72533398;-5.508725903;8.639817936;-12.53180883;19.1087054;16.4560909;-8.477042665;118.2492515;15.26561624;-22.8743033;14.09728513;-2.399712063;-16.41369865;-20.49778604;-39.67069816;-21.72914119;-17.7128444;-10.66199004
-3.201980152;-24.63418404;-8.236693317;4.986396308;-13.18453714;18.14723336;16.54903099;-9.845712464;118.7114084;-0.386958126;-21.35629794;9.821503495;-0.041843992;-17.64045327;-19.18972154;-41.34156051;-22.47771053;-18.14460671;-8.376725755
-4.028973053;-16.42468353;-10.42697819;2.482805169;-13.09844707;17.32946347;16.04369469;-11.15799908;120.6081147;-10.99171049;-9.768191646;-1.954572179;0.515361586;-21.79750817;-18.65737476;-41.54492925;-22.40417634;-15.61985524;-7.845373641
-3.68786157;-10.43424203;-11.27062563;1.506543366;-11.52911935;17.2371218;14.87772172;-11.2929678;122.4835305;-9.962003593;5.104674508;-8.367264638;-1.405399823;-23.7002185;-19.16670394;-40.73544631;-21.72694021;-9.571101043;-8.733970933
-2.773193395;-8.888561033;-10.96324742;1.415951688;-8.097587688;17.84716467;13.59653888;-9.426012525;123.1202293;2.233680828;14.89354843;-1.982815998;-5.276356482;-21.68927022;-20.64239893;-39.95333403;-21.37454367;-3.782102565;-9.840078125
-2.106765173;-10.16225982;-10.52807759;1.794261489;-3.207397715;18.60997735;13.19999165;-5.493011038;122.6730433;18.9187934;15.99746623;13.47228072;-9.331879426;-17.67177138;-22.14485925;-39.55187719;-21.89304699;-1.89371023;-9.942632151
-1.738785121;-10.55085427;-11.0695138;3.207202459;2.002511792;18.93850646;14.5894175;-0.284039305;122.5982734;32.08830434;11.46703293;25.55955797;-11.30925516;-14.63177645;-21.78014917;-38.56253817;-22.70452207;-3.339317424;-8.56518091
-0.707227845;-7.854184013;-12.97769564;6.813865958;6.25614009;18.69191198;17.97451529;4.915615281;124.4353233;37.44;7.399534966;22.11229071;-9.703902659;-14.02935886;-17.53327227;-35.37582535;-22.41433638;-3.808270803;-6.180078125
2.177027037;-3.40855358;-15.60576632;13.2023476;8.901775258;18.26503737;22.66606258;8.920019531;128.4899612;35.97240091;7.439360898;0.335407767;-4.79756962;-15.02742321;-8.741957139;-29.2198155;-19.93618878;0.224222134;-3.795552246
7.156688459;-0.666032773;-17.61049992;21.4879098;10.2520677;18.24065687;27.41448067;11.11220988;133.5345485;31.62197358;10.22113904;-30.54679897;1.29469687;-15.66112247;2.84212608;-21.15179619;-15.48542856;7.463875551;-2.271599662
12.96876941;-1.685306844;-17.73296015;29.48095757;11.21045916;18.91899814;31.06054286;11.54612374;137.74455;27.55238795;11.63295971;-55.01959196;5.73846064;-14.57144384;13.4613647;-13.63237658;-10.5931825;12.5168673;-1.83956276
17.42640402;-4.930803475;-15.55585574;34.84720969;12.46209946;20.11060711;33.05967516;10.71478051;140.0406795;24.33662666;9.402428462;-61.27641514;6.636020144;-11.84570351;19.3312394;-8.933010035;-7.110166681;11.07741601;-2.098728214
18.75996735;-6.611472007;-11.8149291;36.40928864;13.88440302;21.32691806;33.58224243;9.226568719;140.7179528;21.11373895;5.582572103;-48.41203317;4.178478454;-8.578928351;19.03239477;-7.619442426;-5.990151709;4.745011263;-2.407278483
16.74436155;-4.41842695;-8.097953018;34.69129028;14.67774493;22.16541643;33.23995511;7.620434522;140.9275568;17.96292107;4.611403908;-25.96993316;0.542141187;-5.860058594;14.62426404;-8.302874542;-6.782270301;0.480892192;-2.330518761
12.82302864;-0.072335128;-6.083056296;31.44710164;14.12838536;22.55312786;32.73475587;6.357137729;141.5820014;16.79482231;8.749663209;-6.666907855;-1.396737385;-4.110759056;10.53017403;-8.808447045;-8.139223688;4.424644413;-1.82232344
9.206263048;2.018670012;-6.69929136;28.6441976;12.36895412;22.67437943;32.67392896;5.84031487;142.6799953;19.73851813;15.15800212;2.08738909;0.305039963;-3.11580049;10.80224108;-7.774003813;-8.831194843;15.25652045;-1.059975029
7.633413693;-0.916181503;-9.640188214;27.61057343;10.46381925;22.69727188;33.53512646;6.316116603;143.5636284;26.61640546;17.50247788;1.840370258;5.669822594;-2.420138989;16.58440829;-5.4152605;-8.43564524;23.41925348;-0.131181944
8.614422298;-6.677616242;-13.49789925;28.71485122;9.678473837;22.56779439;35.58371216;7.671188402;143.729784;34.14970218;11.00869117;-0.08396709;12.94322515;-1.633184375;25.49781383;-2.968327562;-7.268326914;17.88528853;1.125925651
11.49633396;-9.268362784;-16.46937649;31.46285962;10.47683284;22.04373407;38.64;9.324499292;143.3570254;38.01575225;-3.201929278;2.600177632;19.60858315;-0.521482109;33.31334821;-1.438839672;-5.817290241;-4.475415887;2.975200716
15.08896591;-4.18592568;-17.2659253;34.72370465;12.06137139;20.90699343;41.8708494;10.40373852;143.0673463;36.18199814;-18.19553435;10.24638725;23.56343381;0.930901601;36.67556445;-0.785510913;-4.302355648;-34.70360816;5.447504795
18.31501513;6.553363083;-15.72252669;37.00220379;12.87974008;19.14517468;43.92650974;10.1846896;143.225612;30.58616999;-25.83120581;17.79311311;23.84265918;2.403566843;34.99758521;-0.167505739;-2.728087473;-56.78834359;8.12045272
20.53827775;14.44277813;-12.76612083;36.89694402;11.75818327;16.95260999;43.54861594;8.521222298;143.5177965;25.54089271;-22.32777378;19.62434054;20.70797834;3.259114841;30.38487511;1.105410844;-1.233801219;-58.57040195;10.24943208
21.58712983;10.40444194;-9.791071831;33.77571407;8.79705256;14.58744342;40.342192;5.933059526;143.2373234;24.10789769;-10.54770443;14.39955795;15.30442947;2.926003685;25.91971359;2.863561566;-0.241231149;-40.21034946;11.211575
21.67084445;-7.700630623;-7.859261138;28.32718913;5.315641752;12.24570009;35.13709466;3.236359494;141.9798592;25.54702701;2.503629781;5.927853404;9.173867207;1.488071735;23.69494956;4.244401725;-0.146784196;-13.68583221;10.95191755
21.28755025;-32.14066532;-7.23058942;22.45131202;2.863666483;10.06329591;29.56121886;0.952525773;140.0311658;26.08309743;10.70338041;-0.282958568;3.788101028;-0.079782329;23.9035713;4.512353218;-0.837840533;6.13258127;10.07709336
21.05244151;-49.83871225;-7.465772586;18.28697691;2.053493828;8.19895641;25.03290913;-1.064540083;138.0424466;22.3546076;12.42212842;-1.602124057;0.152908466;-0.472619704;25.3012326;3.714052031;-1.579808244;11.72524046;9.483606773
21.3835841;-51.28254752;-7.922714839;16.88257922;2.119652785;6.855584398;21.88796928;-3.470126201;136.3165582;14.54200844;10.35211633;-0.093176238;-1.442116736;0.845458889;26.35524297;2.555782984;-1.521777881;6.714143219;9.762697777
22.1820997;-37.04947713;-8.213844916;17.47406028;1.54854862;6.167051372;19.32515978;-6.817720773;134.4495177;6.429121648;8.40962015;-0.253425855;-1.396434318;2.937152414;26.13321665;1.66586275;-0.458785343;0.987073338;10.8135781
22.79255386;-16.9211137;-8.296233865;18.02562669;-0.716641426;6.043028749;16.24359186;-10.93886414;131.7478934;2.327149712;8.647893071;-4.844769288;-0.446212716;3.907351293;24.49668773;1.000313408;0.844965486;1.910217373;11.95737834
22.39750582;-2.413660693;-8.224805154;16.73541792;-4.437721641;6.15236465;12.32203233;-14.80564918;128.0652747;3.534199038;10.50992271;-12.44952767;0.828493281;2.465848606;21.84129494;-0.0016642;1.159937554;8.992898986;12.46861834
20.63778776;1.300975593;-7.894594343;13.37296185;-8.25264911;6.127883979;8.459635096;-17.03942842;124.2261548;7.393230756;12.35295913;-18.72557434;2.28011093;-0.717915284;18.84551634;-1.658257032;-0.212961818;15.78375826;12.11929325
17.98114995;-2.109059154;-7.07340092;9.364516372;-10.69659162;5.864289618;6.185934676;-16.7556926;121.5287475;9.709315516;13.29841225;-20.11363644;4.011712149;-3.219253106;16.37771899;-3.45889775;-2.785152598;16.44554179;11.32189746
15.48432468;-4.626988083;-5.711651421;6.532810929;-11.2520383;5.652015021;6.480931061;-14.16943695;120.6773524;8.339232095;13.6565864;-16.75057245;5.878025085;-2.768595223;15.32558736;-4.318849422;-5.176361748;10.88193219;10.77546049
14.0672801;-1.091062852;-4.207605162;5.5411881;-10.61187125;5.98433656;8.941350492;-10.53278851;121.0888341;4.784309403;13.94422302;-12.17958355;7.149194546;0.586939798;16.13232565;-3.559473125;-6.188804222;4.232752182;10.91032348
13.85457549;6.987672521;-3.30098959;5.389977745;-9.993236785;7.139070214;11.96783508;-7.433868538;121.2546255;2.455798421;13.95962102;-10.26827192;6.766202082;4.064042165;18.24969834;-1.756234562;-5.791552103;1.851346972;11.5754027
14.13053559;13.73163161;-3.591815412;4.441170654;-10.10358175;8.852816;13.83741627;-5.918155368;119.9150314;3.282916336;13.11123351;-12.06713884;4.138222675;4.221097521;20.06748672;-0.604188302;-5.17403918;4.661687577;12.19679895
13.96218411;14.65266796;-5.050087891;2.102529878;-10.61482027;10.37710161;13.83259873;-5.990613363;117.0499784;5.808553783;11.61760042;-15.23052992;-0.108123858;0.106471014;19.68406967;-1.757510172;-5.786760773;8.918413851;12.24169653
12.96802439;10.47295912;-6.951196337;-0.349238157;-10.55362097;10.9295991;12.58617506;-6.765847213;113.819635;6.547159784;11.03220223;-16.30394765;-4.129750179;-5.227902509;16.19452932;-5.520100613;-8.143458153;10.06983571;11.58126852
11.56403223;5.815059135;-8.348837481;-0.65893449;-9.247818407;10.23809079;11.45632319;-7.088913643;111.5129728;3.39202556;13.0870521;-13.74432799;-5.826817527;-6.604885893;10.57776849;-10.47444829;-11.37190487;6.817734341;10.46306962
10.4627463;4.45281944;-8.744342076;2.430509032;-7.017499986;8.774329949;11.50353709;-6.180304063;110.4526182;-2.061238326;17.64171844;-9.065269624;-4.208330879;-1.054837422;5.368906614;-14.41117006;-13.87472949;1.752058262;9.170078125
9.874621835;5.880200007;-8.421773971;7.777373261;-5.0284154;7.48153292;12.87651929;-3.933265863;109.8391868;-5.515808997;21.77266944;-5.282155967;-0.194654882;8.676838508;3.147698344;-15.85553535;-14.53007813;-1.509985562;7.731784402
9.167192667;6.461602824;-8.175116378;12.3266988;-4.431492387;7.164360543;14.97880648;-0.802978168;108.6506243;-3.591925402;21.34276418;-4.211821317;3.800330947;14.63131383;4.826469375;-14.98808605;-13.42722008;-1.520759576;5.997558444
7.371008799;3.866208918;-8.650478447;13.27210536;-5.502020532;7.959750682;17.10822348;2.496773881;106.7316618;3.044453736;14.18597244;-5.065502957;5.315783944;8.537412966;8.982916562;-13.25828001;-11.56563345;0.508771421;4.023585012
4.161520412;0.181299337;-9.842097769;10.23927279;-7.479901229;9.254601684;18.93772724;5.236033692;105.0256318;9.847929897;2.314200947;-5.472513895;3.3772464;-12.00403561;12.77641414;-12.07143054;-9.861252999;2.880659951;2.380804858
0.448614423;0.225694052;-11.14330417;5.704780099;-9.22132651;10.10372957;20.47731121;6.773831214;104.7005914;11.86981539;-8.964921112;-3.839881266;-0.901052303;-40.60201727;13.82465893;-11.67416872;-8.391983211;5.39481704;1.993811132
-2.056563936;6.22287119;-11.88094707;3.214519957;-10.1056192;9.859020587;21.71094821;6.636027572;105.9746486;7.688442133;-14.64209991;-0.81145717;-5.011909638;-64.9831412;11.70552995;-11.14972187;-6.562423131;8.670985226;3.50649312
-2.095691065;13.87375803;-11.86217507;4.724277927;-10.45372174;8.588972325;22.39528792;4.683254414;107.7674073;0.491435738;-13.54198288;1.484100998;-6.541226736;-74.1660503;8.045141786;-9.461218811;-4.004494014;11.50124625;6.631039505
0.015701821;14.21700904;-11.47672398;9.113400036;-11.14886983;7.024767026;22.27658827;1.316938631;108.5696562;-4.604025741;-8.909485471;1.61557895;-4.479884448;-65.1479206;5.215538793;-6.587832511;-1.331727468;9.588564277;10.06127046
2.368020905;0.713610093;-11.30176972;13.01754153;-12.82370292;6.088808037;21.48641119;-2.488606818;107.786222;-4.728756805;-5.5590107;0.352265683;0.367988751;-44.54535058;4.66076501;-3.737533462;0.03688682;-1.805838346;12.16135584
2.704651503;-24.02799054;-11.58669898;13.32128105;-15.31848127;6.321390787;20.63074297;-5.498622706;106.3187971;-1.429353479;-6.01043404;0.018733333;5.948504474;-24.14616513;6.053721004;-2.423544746;-1.056445785;-22.70163022;12.03210235
0.089504177;-47.97105048;-12.07534381;9.399221187;-17.84635592;7.561258036;20.36;-6.794483523;105.797267;0.939570801;-8.890989548;2.247385792;10.00470996;-13.56124386;7.780761568;-3.164754289;-4.421848275;-45.44108973;10.19355816
-4.261757904;-57.04199168;-12.29670148;3.465795906;-19.67348391;9.055241995;20.75024032;-6.275583891;107.0864767;-0.849606612;-10.86113954;6.217101643;11.0089064;-14.99504149;8.257668359;-4.898753062;-8.384223297;-57.80013788;8.327748758
-7.685851073;-45.05761859;-12.02811688;-1.095071272;-20.6860642;9.905794213;21.09769808;-4.724850985;109.3866194;-6.021513456;-10.16132477;9.104558468;8.647875645;-23.33455076;7.056473885;-5.627194424;-10.81799215;-51.11721025;8.182840046
-7.881515075;-18.55514196;-11.49399364;-2.051276303;-21.3470704;9.579392652;20.42319798;-3.351230009;110.7591225;-10.41068278;-8.397183589;8.493500796;3.836901741;-30.81508589;5.087517821;-3.837552887;-10.60832342;-27.49186932;10.36556264
-4.553426981;7.434703842;-11.12584448;0.404768753;-22.11624484;8.188827471;18.33179828;-3.100513218;109.6585598;-10.00921765;-8.781063304;4.652434996;-1.643083865;-32.47627727;3.833294838;0.34540369;-8.418268876;0.164437976;13.8621428
0.286924557;19.62616883;-11.12397728;4.157481242;-22.90429802;6.411717832;15.48253925;-4.202490244;106.1547742;-4.440746037;-12.37871472;0.583479563;-5.808315799;-28.60801926;4.265210179;5.097107495;-6.177001932;16.23115542;16.63109896
3.579978611;15.02598993;-11.24264434;6.792789678;-23.10660996;5.116876908;13.19083936;-6.239443625;101.8036126;2.532477879;-15.98222552;-0.356295346;-7.304612719;-23.09299785;6.181266502;7.929615918;-5.702353295;12.98072245;16.86748344
3.149392772;1.559150445;-11.00577082;7.028299187;-22.22568843;4.921553361;12.42846955;-8.612847862;98.3302597;5.855501264;-14.04655374;2.710624319;-6.089226282;-19.65903015;8.323446397;7.101308897;-7.510840966;-4.410712715;14.09119406
-1.015884043;-9.124786545;-10.15440059;5.069997494;-20.51762589;5.920785126;13.05344414;-10.98135418;96.33679604;3.030570194;-3.541138489;7.370101438;-3.515486253;-19.19477686;9.122635575;2.523677101;-10.65418508;-22.38096908;9.370783167
-6.932038657;-10.5823828;-8.90964042;2.012528875;-19.01062175;7.714840032;13.9593499;-13.29848373;95.18237104;-4.085622781;12.33056593;9.926939592;-1.578714978;-19.87739165;7.608709051;-4.274387948;-13.57743965;-29.42821968;4.611873643
-12.0039781;-5.30897137;-7.807584444;-0.95474411;-18.7559565;9.683085061;14.0596859;-15.45304136;94.06820241;-10.80652538;25.12040682;8.577626778;-1.623825408;-19.37235723;4.009866466;-10.95538123;-15.23887121;-24.1952944;1.448994132
-14.59511137;-1.025631648;-7.26208308;-2.926398524;-19.86658751;11.31705847;13.27595908;-16.8956301;93.21753769;-13.05565512;26.7070754;4.990285868;-3.321781513;-16.90464558;-0.249166828;-15.43297912;-15.65114849;-15.01095017;0.462101099
-14.75333347;-3.377669077;-7.262124791;-3.256699646;-21.1706612;12.41147201;12.6493046;-16.68832533;93.93604824;-9.970771934;15.37889406;2.836549231;-4.714900489;-13.55963612;-3.177132241;-16.6855563;-15.57832336;-11.847959;1.123588242
-13.76094023;-11.37415176;-7.476884169;-1.545216634;-20.88214547;13.02420403;13.42325691;-14.07228784;97.3899426;-3.866117258;-2.441923621;4.473416952;-3.472542579;-10.96386234;-3.221519538;-15.05404443;-15.80436492;-17.79320523;2.356673295
-13.00265843;-18.99018787;-7.64868506;2.133661189;-17.87859908;13.27800907;15.84147543;-9.176255909;103.1938954;2.006285313;-16.48429731;8.699667876;1.397199634;-9.828660326;-0.163163787;-11.97240129;-16.61325071;-27.122354;3.241418026
-13.01220126;-20.88757904;-7.874869672;6.998616982;-12.63522716;13.17672062;18.68937685;-3.282944415;109.1887013;5.848793262;-19.83140262;11.72969187;8.573267566;-9.655604128;4.634999035;-9.235467513;-17.78726503;-31.10562649;3.433440488
-13.28396355;-16.94563181;-8.48485393;11.75730004;-7.061141381;12.57915052;20.01654606;1.66886274;112.7958369;8.05204789;-13.55126812;10.76740857;14.95088012;-9.602375688;8.88893972;-8.072296868;-18.92819093;-26.01611365;3.154755887
-12.82066273;-11.80742824;-9.618115893;15.30213805;-3.295831858;11.34055758;18.499627;4.112134733;112.9174598;10.08526557;-5.232378239;7.116867818;17.40314532;-9.42668985;10.68651779;-8.458101896;-19.70724949;-16.20882897;2.907540822
-10.91452758;-10.28397468;-10.92586744;17.41179603;-2.322779736;9.497026032;14.37408108;3.744610143;110.7804755;12.84176373;-2.697873628;5.812296425;14.62230192;-9.535683061;9.643905632;-9.105085537;-19.87157168;-9.804284405;3.15608322
-7.620097656;-13.00837318;-11.73886214;18.79977589;-3.409456671;7.334653122;9.226355097;1.663883079;108.9510359;15.88861471;-7.927070571;11.47855275;7.836076133;-10.22404942;7.126742391;-8.264575357;-19.1758244;-11.16242782;4.128031737
-3.697841146;-16.19369315;-11.61569417;20.34616091;-4.761942406;5.276432911;4.873878981;-0.371883503;109.2827953;17.99824911;-15.90965325;23.45339427;0.007492888;-11.05611308;5.308167627;-4.938093114;-17.48418362;-17.05048445;5.750678811
-0.18323308;-15.45090761;-10.79574048;22.10689734;-4.871637994;3.662051163;2.264229472;-1.065397355;111.4760295;18.18586454;-19.1021169;34.34846342;-5.831503638;-11.15825931;5.667861545;0.293384349;-15.02901314;-19.88173581;7.6845067
2.097740467;-9.987446132;-10.10544617;23.0038337;-3.537416007;2.578603592;1.215490868;-0.327165592;113.4146829;16.26;-13.69003906;34.0040614;-7.976745329;-10.16084263;7.998308293;5.472148769;-12.52212608;-14.91883382;9.440873315
2.827673787;-3.335234119;-10.3203407;21.59731987;-1.837270395;1.862186675;1.037956165;0.836619352;112.9551577;12.62129445;-2.582239855;16.67305408;-6.417635355;-8.74374997;10.65525637;8.465236704;-10.84890582;-4.772064554;10.58284052
2.252600244;-0.046766896;-11.48466069;17.40354344;-1.148420136;1.26485063;1.33861821;1.173408296;109.6552895;7.842311325;7.107401052;-13.62372955;-2.25522756;-8.055014853;11.85796914;8.36993059;-10.46076594;2.938386494;10.95147482
1.048176314;-1.481217974;-12.78343147;11.65720369;-2.020719709;0.665505609;2.254829246;0.147705352;105.0568188;2.620157078;9.824881393;-43.89459656;3.142869217;-8.441720073;11.02605516;6.106944246;-10.95514042;2.594949895;10.78401989
0.063043981;-4.571568944;-13.13424637;6.776477866;-3.764512534;0.179243049;3.991980277;-1.652320966;101.4133374;-1.952997736;5.82773059;-59.34106211;8.628674848;-8.793848459;9.112531889;3.747732498;-11.28533649;-4.200087891;10.60033732
-0.010111778;-4.700729524;-12.06149038;4.818427435;-5.017661811;0.095273813;6.235705467;-2.918845842;100.0405543;-4.415955355;0.593743935;-52.47352218;13.31508647;-7.389421763;7.712863977;3.075896206;-10.53948514;-10.0594439;10.87207669
1.049834819;-0.059515245;-10.15053066;6.069972398;-4.803180829;0.687269671;8.119248713;-2.525722772;100.6554662;-3.670405788;0.079920738;-28.0289823;16.52894217;-3.680332568;7.737004088;4.469867887;-8.689835431;-8.652070939;11.66894111
2.838809021;6.513851299;-8.694624911;8.869035951;-3.258276784;2.014427979;8.862230637;-0.29426621;102.0765442;-0.004050825;5.788288895;-0.137237049;17.98488569;0.687090533;8.778368173;6.918308277;-6.656059663;-0.656577017;12.54337548
4.476141893;9.989013987;-8.79215411;10.81119857;-1.520626677;3.830048828;8.505346758;2.883147323;103.4366246;4.590225142;13.54401097;16.57775105;18.07298377;2.924480366;9.690808025;9.049978528;-5.566761891;6.799309754;12.78290376
5.05433355;7.821266502;-10.59146581;10.43122966;-0.91329795;5.652268353;8.013863087;5.615055541;104.7179006;7.418814103;16.77003906;16.05452909;17.8545312;1.700109454;9.814341799;10.24729634;-5.806806886;6.927118808;11.90129307
4.179119976;2.694112617;-13.25180662;8.116042104;-2.05675466;6.969538095;8.572709029;6.876590845;106.2033091;6.90152446;11.52030905;3.92946113;18.53297507;-0.963399327;9.703185687;10.90635683;-6.673225834;0.134616269;10.04492332
2.271763982;0.688780678;-15.60746948;5.645793397;-4.518559282;7.486745541;10.64657014;6.604079813;107.5530339;3.797738071;-0.606087945;-7.26323932;20.67422084;-0.633069651;10.64091786;11.71043848;-6.973938539;-5.631901816;8.017250879
0.40538496;6.101249931;-16.97822623;4.818023428;-7.166195938;7.287465093;13.62633989;5.660319989;107.5855203;0.717676747;-13.62701572;-7.360456998;23.78964506;5.810463923;13.3280192;12.6932242;-6.078941332;-1.984059772;6.869086754
-0.268605793;17.07411857;-17.50382105;6.232250201;-8.894658104;6.810131911;16.37824966;5.226207485;105.1265487;0.12857458;-21.18476495;4.202643864;26.68467035;16.37694456;16.93502871;13.06660364;-4.496387365;11.32427375;7.297198242
0.832495855;25.7808928;-17.81726349;9.061541321;-9.212567527;6.618304731;18.20099531;6.024554336;100.1850742;2.374083172;-20.29146319;18.18795595;28.34674026;23.55122653;19.48388221;12.07240861;-3.418859996;24.18947049;9.229942975
3.406512938;23.43514412;-18.41566884;11.80864827;-8.361589073;7.065848507;19.32358373;7.863709211;94.29393048;5.334942279;-12.39494858;22.35100295;28.65363319;18.53656756;19.39318262;10.10413;-3.586035379;23.14078553;11.86174062
6.475763243;6.672227438;-19.28070906;13.35;-7.004182626;8.051077985;20.49877729;9.773244323;89.55154641;6.082389347;-1.680346778;10.305078;28.30151464;-2.261064968;16.94855186;8.956624621;-4.461757225;2.411021587;14.11203312
8.969572867;-19.2502465;-20.01523677;13.51503781;-5.764062583;9.039233035;22.09093186;10.63436772;87.0943699;3.235059714;7.569237121;-13.82643221;28.02021231;-33.22590266;14.39352473;10.71657965;-4.522641514;-29.98597121;15.22339056
10.28935988;-42.74146161;-20.28743667;12.94731079;-4.910928112;9.382384272;23.54686872;9.904711896;86.30719393;-1.888714097;12.63272828;-38.12343782;27.78501053;-61.5116739;14.40513735;16.00955447;-2.521896132;-56.65778804;15.14277206
10.5057372;-52.19994173;-20.13692901;12.54702579;-4.317725872;8.755824726;23.80407215;7.977080445;85.47391645;-6.274766439;12.50102557;-50.81291882;26.76414806;-74.35416257;18.06764624;23.04153965;1.295297776;-62.80565246;14.47972315
10.11844322;-42.39389651;-19.88258413;12.96280471;-3.64364208;7.411393728;22.31367786;5.933440664;83.30488565;-7.569129794;7.364495099;-47.6912312;24.1019878;-66.97412243;23.95112615;28.41941427;5.104607496;-46.59853481;14.09603928
9.617903584;-17.2071491;-19.77390798;14.37856896;-2.608010486;6.03798378;19.73494494;4.835679085;79.99577916;-5.885606118;-1.551246665;-33.89871178;19.87700504;-45.53567534;29.08363647;29.37401375;6.744640159;-19.92527317;14.58864213
9.193956887;12.44261191;-19.76063765;16.5447134;-1.213133911;5.288795781;17.5887722;5.006730288;76.90175763;-3.629218623;-11.73400726;-19.22086018;15.37046349;-22.96174276;31.11030735;25.80852528;5.376013548;0.84557641;15.96631325
8.775759234;33.93299316;-19.61199148;18.91759917;0.197872972;5.299313531;17.0746511;5.79389714;75.17564497;-3.518104253;-19.54973684;-10.80574987;12.33821756;-10.50656053;29.97496895;20.56591596;2.231393528;6.614434167;17.68530248
8.299089408;38.5656953;-19.25147964;20.87421662;1.107380171;5.565227855;18.05097348;6.017735368;74.67197432;-6.406889349;-21.50631211;-8.812252033;11.82511814;-11.0175591;27.82857062;17.56310582;-0.204236374;0.687485825;18.99064554
7.918426039;24.96070404;-18.94390637;22.02380848;1.168342983;5.307871743;19.11458257;4.852564214;74.17837126;-10.59799992;-16.20591256;-7.921491045;13.46300196;-18.46310941;27.26845942;19.05284262;-0.011489842;-6.068738076;19.33931901
7.951293577;-0.882800641;-19.10233274;22.51;0.545452089;4.084818045;18.79757702;2.552590578;72.8;-13.08086006;-5.611549907;-2.954390529;15.79743712;-23.59266001;29.31017783;23.99651458;2.725459769;-5.243192458;18.65374247
8.594832005;-28.48354833;-19.8553441;23.03378684;-0.00488607;2.18872658;16.90457961;0.477630222;71.20789947;-11.64757711;5.573721147;6.274924275;17.34184101;-21.14254969;32.65559914;28.77339512;5.963551255;2.551635233;17.27971966
9.671699856;-47.36219341;-20.77788566;24.40130248;0.52546576;0.506076171;14.82483677;0.302084025;71.49802785;-6.295254046;12.32010505;14.87321352;17.49680723;-13.17253062;34.75513463;29.75941936;7.19247361;9.670218294;15.71949522
10.65553302;-51.28490137;-21.08424621;26.77856053;2.748468367;-0.09423793;14.47705161;2.853539989;75.60580238;0.943151479;12.0028359;17.46673295;16.66736069;-6.415772792;33.76129304;25.94370328;5.243801514;9.530570418;14.34903598
10.99439359;-40.52846912;-20.18545456;29.21393998;6.313009405;0.597911569;16.70493081;7.341181063;83.52991903;7.336107413;5.667373005;13.42685707;15.65112281;-6.242978681;29.85369514;19.72246309;1.088410277;3.264644475;13.31362811
10.48678504;-21.17583847;-18.17265706;29.96149052;9.857530838;1.949692247;20.44661496;11.55234149;92.87726289;10.8357317;-2.931920271;8.058168163;14.96893645;-12.26427182;25.01100802;15.31739585;-2.89799181;-1.063191826;12.63656573
9.397982784;-1.790875986;-15.81253338;27.58302876;11.63875163;2.914182071;23.4;12.99823095;100.1880602;10.67065554;-9.736921493;8.396871237;14.73669227;-18.94671632;21.55151722;15.93183475;-4.579361443;4.014407494;12.39156594
8.205186224;10.80347873;-14.02489713;22.1156622;10.53031648;2.765916719;23.68686108;10.3563309;103.040217;7.161105352;-12.57634476;16.84950215;15.04466489;-20.41314855;20.63227994;21.58988607;-3.402166978;17.72682086;12.7311447
7.171347513;14.38392551;-13.23653389;15.37074373;6.770797971;1.600678745;21.20049456;4.3183786;101.320141;1.322359378;-11.85129901;27.98966132;16.25872976;-15.27888082;21.7575168;29.06756698;-0.572517601;30.13963113;13.69321652
6.107054073;11.38145878;-13.11149378;9.970564565;1.937344856;0.234201383;17.58764134;-2.709273291;96.7929541;-5.341870214;-9.61212736;31.59202721;18.74496651;-7.575315747;23.43923387;33.87917817;1.879678098;29.14085771;14.93479572
4.539391346;6.446221676;-12.8579033;7.682467566;-1.896431362;-0.411898619;14.9319417;-7.898021507;91.53;-11.00242126;-7.956963018;20.0708906;22.17966457;-3.185709866;24.29773767;32.96958961;2.362942321;9.906268805;15.67268205
2.16735671;3.340399011;-11.85621091;8.222168285;-3.315158996;0.028863795;14.23505649;-9.510491959;86.60862627;-14.01307847;-7.873975597;-5.204457371;25.18946689;-4.911390081;23.74925176;26.43161292;0.47745684;-20.69786698;15.0054522
-0.775550834;3.16;-10.11562309;9.430127462;-2.308649102;1.139745706;14.88829906;-7.740676407;82.08053562;-13.77825378;-9.064049531;-33.69539091;25.93996407;-10.2879281;21.97803417;17.31859748;-3.042357031;-48.27850032;12.49305775
-3.580851115;4.681924257;-8.224672404;8.735297055;-0.161437011;2.059964897;15.45253871;-4.426669713;77.95236562;-11.38929345;-10.52880803;-52.07065063;23.46772121;-13.86588905;19.53335822;9.845348822;-6.906196379;-60.42025883;8.603556379
-5.538978228;6.048179691;-6.869378574;4.86934353;1.399778195;2.103083154;14.98574508;-1.882559356;74.99888416;-9.305608441;-11.3465466;-52.69416119;18.7378174;-11.93598663;17.0521063;7.150967566;-9.878084242;-54.36612492;4.640200535
-6.465718827;6.271506025;-6.312092935;-1.372026138;1.226551483;1.192932309;13.77710455;-1.598800355;74.46401447;-9.984727261;-11.1780277;-38.16551799;14.40195642;-5.702112562;15.24330292;9.870575407;-11.14506716;-37.5187714;2.086424603
-6.849470669;5.601923247;-6.217113055;-7.787926638;-0.685286004;-0.159611773;12.93560671;-3.56487496;76.8489228;-14.28398592;-10.35624296;-18.86915849;13.17144392;-0.253544918;14.8479416;16.13394958;-10.47367895;-21.16199286;1.739435885
-7.478054206;4.951965647;-5.915007818;-12.27905446;-3.350153857;-1.250092773;13.28521039;-6.517281088;80.96065009;-20.82183191;-9.628932589;-5.685277411;15.89013762;-0.186233124;16.28390887;22.76579033;-8.265636523;-12.71509861;3.212056061
-8.827461307;5.235999476;-4.87232069;-14.09403104;-5.460361121;-1.609186289;14.57043338;-8.837461099;84.27740506;-26.86639103;-9.698791032;-3.340938482;20.79045422;-5.492658292;19.1131805;26.90122379;-5.487978946;-12.19079006;5.174034793
-10.6994781;7.147913097;-3.021960806;-14.029645;-6.097071165;-1.176115978;15.64425261;-9.487925827;84.55302639;-30.14673125;-10.762278;-8.892062999;24.61693863;-11.15956141;21.86400488;27.1774357;-3.353159139;-14.55766211;6.199014033
-12.39855517;11.11092705;-0.758362591;-13.63570624;-5.09347891;-0.179388404;15.43626156;-8.450433014;81.43986555;-30.23180031;-12.31357619;-15.57738125;24.87928281;-10.97070896;22.62890707;24.02862814;-2.758823183;-15.02285851;5.647589111
-13.29316313;16.84316497;1.343885736;-14.12846306;-2.951220462;1.08895888;13.85673988;-6.508252171;76.79071025;-28.46181255;-13.4207287;-18.32058992;21.58708395;-2.672429151;20.23974565;19.12660125;-3.771338495;-12.60228458;3.986014712
-13.28463296;22.5766237;2.867595871;-15.74125873;-0.47577129;2.401175569;11.90122622;-4.619662751;73.3418266;-26.59667121;-13.3923436;-16.5390713;17.18324554;9.471180618;15.21524976;14.39921745;-5.549585642;-9.600913919;2.349685181
-12.78744527;24.81813986;3.742302779;-17.76462003;1.619493311;3.579004861;10.92498954;-3.319841139;72.79465444;-25.3802844;-12.38688618;-12.77805097;14.76404701;16.81019864;9.67271593;11.16629284;-6.862532532;-8.397917205;1.705504637
-12.25211405;19.60317772;4.212731067;-19.04201277;2.967007726;4.448366806;11.71498254;-2.494999832;74.77786077;-24.22942042;-11.42473697;-9.319600746;15.95836951;11.78735837;6.098286742;9.757575683;-6.900834825;-8.917311398;2.234301242
-11.67499709;5.086651592;4.644271968;-18.55702062;3.598925105;4.878220553;14.05942041;-1.604395799;77.40452899;-22.2364785;-11.65343556;-6.215821791;20.01889152;-6.954565507;5.75901792;9.656318944;-5.805448507;-8.974862751;3.347425704
-10.57366195;-16.1491849;5.285127356;-15.91679965;3.816138672;4.884389433;17.01740965;-0.163246051;78.82369717;-19.51054689;-13.35689601;-2.313461023;24.65122565;-33.24259455;7.884059227;9.940586536;-4.512049978;-6.776555217;4.246841049
-8.509574236;-37.11942942;6.104298258;-11.68317445;3.928263934;4.665409548;19.52170833;1.822222746;78.43;-17.57981507;-15.53196986;2.250743045;27.75049719;-56.61647355;10.22200132;9.719581876;-4.030750242;-2.941749114;4.539517714
-5.734418876;-49.53611601;6.790503344;-7.43981157;3.976199162;4.476779083;20.80047116;3.723922924;76.82813549;-18.40123367;-16.49251105;4.992790202;28.63211737;-67.98631185;10.57693575;8.390154182;-4.721519756;-0.090735854;4.429429385
-3.360588233;-48.45275333;6.933648006;-5.37289792;3.605724238;4.414863603;20.43007813;4.547412809;74.80585696;-22.75690524;-15.11419178;2.853490996;27.94094102;-64.22806016;8.218061586;5.732351907;-6.112461813;-0.433471813;4.397247886
-2.791922452;-35.45031866;6.313351723;-7.29093032;2.234447102;4.306489086;18.24284404;3.451044222;72.41443681;-29.39368344;-11.7191255;-4.714584616;26.60589432;-49.20759101;4.192021346;1.950940247;-7.351907011;-3.645880703;4.702702304
-4.751908893;-18.01424721;5.124707022;-13.46599835;-0.511475181;3.842410894;14.39016461;0.260711058;69.0544517;-35.68331042;-7.82235716;-14.36522921;24.9345787;-31.0659003;0.415527387;-2.307405702;-7.878569054;-7.006473173;5.157928104
-8.625880538;-5.247860924;3.961429953;-22.07482957;-4.345455483;2.880342953;9.560280273;-4.307113805;64.46138026;-39.3371117;-4.914057974;-20.82924127;22.63827183;-17.6978609;-1.691579472;-6.063961196;-7.763700208;-7.686379824;5.347817605
-12.66105985;-2.624164191;3.506067323;-29.86764612;-8.215159266;1.663710789;5.023121798;-8.872640161;59.59454588;-39.85248517;-3.321408446;-20.83671475;19.60110377;-13.04435252;-2.024305998;-8.354782406;-7.511284616;-5.160268249;5.067207496
-14.95245577;-9.177855357;4.091343205;-33.91040909;-10.74015166;0.735565688;2.210548545;-11.99674646;56.4640294;-38.60530428;-2.162836922;-15.6654941;16.48833162;-15.97472164;-1.570441949;-8.738524702;-7.576835403;-1.616206243;4.558580303
-14.55640191;-18.84141986;5.43685024;-33.35705648;-11.00793489;0.571271562;1.956339702;-12.86479306;56.85105334;-37.60779659;-0.42838279;-10.02782056;14.4776175;-21.91082223;-1.47314674;-7.653065339;-8.057460549;-0.002760181;4.320882966
-11.97583205;-24.79;6.78818883;-29.98292008;-9.216567864;1.208890949;3.93175951;-11.67383029;60.87986687;-37.98680222;1.853932367;-8.16817448;14.2893246;-25.91724376;-2.16956195;-6.274010549;-8.772606448;-1.391847796;4.648448707
-8.72628144;-23.74201296;7.406993965;-26.98035652;-6.666801976;2.192120976;6.788418461;-9.485526574;66.61371181;-39.36394846;3.550128926;-10.51825641;15.43390647;-25.41932915;-3.211025793;-5.818570626;-9.551843796;-3.917619261;5.307903059
-6.350661261;-17.45445813;7.078189476;-26.79096585;-5.017932154;2.903695782;9.008884734;-7.609720789;71.08809194;-40.49356458;3.622331522;-13.77943082;16.47317733;-21.1484624;-3.768793302;-6.687406986;-10.37142731;-4.228189664;5.655412457
-5.595480164;-10.77988036;6.252032064;-29.52895521;-5.260427376;3.042416275;9.876804548;-6.874885297;72.09166382;-40.47976905;2.476149952;-14.24736379;16.18997824;-16.02945978;-3.33191735;-8.076438671;-11.19294109;-0.300166705;5.128256751
-6.252237665;-7.972222944;5.693515923;-33.15063221;-7.111469667;2.859512699;9.833765956;-7.227674185;69.44745135;-39.51284544;1.998403161;-11.28366974;14.68910942;-12.91494844;-2.065756074;-8.451600082;-11.72504561;6.670039063;3.726876013
-7.614044028;-9.868082327;5.890326267;-35.19370225;-9.276092735;2.948934915;9.951178459;-7.906585771;64.9442559;-38.58899521;3.924667977;-7.728176693;13.42320588;-12.69337463;-0.656811067;-6.66251016;-11.46309718;12.88387026;2.101333747
-9.063313817;-13.67614707;6.670918078;-34.68924067;-10.39894564;3.74538831;10.94895945;-8.065462298;61.05736244;-38.58416752;7.823222857;-6.88668184;14.02348008;-13.97322079;0.135065689;-2.926231625;-10.0983595;14.70317105;1.165503589
-10.31929382;-15.2223836;7.331764494;-32.73760899;-10.01761461;5.129007383;12.55261563;-7.422230838;59.39823207;-39.54617953;10.65171175;-8.967280429;16.86522695;-14.43757903;-0.130263536;1.095499292;-7.967921789;11.5149182;1.523408794
-11.26709142;-11.95618861;7.177307739;-31.34716434;-8.82177573;6.45960813;13.69307017;-6.487368667;59.89453402;-40.7770312;8.727865005;-10.47211156;20.58623743;-12.77860017;-1.423415856;3.29124028;-6.06531409;6.498192406;3.115908086
-11.68555184;-4.713240076;6.053149707;-31.5619022;-8.044928538;7.023703422;13.36267098;-6.211020183;61.09060974;-41.53043015;0.832546903;-7.381762037;23.02055565;-9.709579021;-3.305915275;2.522433356;-5.452341473;4.555507967;5.302719137
-11.24306523;2.844224943;4.464527518;-32.47564928;-8.472441572;6.550078125;11.42513348;-7.288718108;61.20768677;-41.63759424;-10.13203869;0.661325366;22.83304162;-7.273939078;-5.091874897;-0.55395932;-6.460039063;8.693901248;7.264378365
-9.818036796;6.708152566;3.205929518;-31.97571388;-9.832083451;5.400039063;8.753011835;-9.604992808;59.23305228;-41.51790183;-18.65359472;9.195985686;20.5410365;-7.030705266;-6.073160791;-3.908033193;-8.342938375;17.32282993;8.41141993
-7.831396973;5.341123587;2.807109468;-28.60917906;-11.02124515;4.30139639;6.63981053;-12.20132926;55.45339802;-41.63870596;-20.48839965;12.3420435;18.10261153;-8.634704808;-5.82428572;-5.549212655;-9.755577368;24.47120717;8.554857845
-6.202756462;0.971990888;3.218948263;-23.0236727;-10.96699707;3.8497778;6.001654702;-13.7935708;51.2688438;-41.97805481;-15.95072749;8.10744774;17.42208943;-10.04228332;-4.518617552;-4.923143591;-9.754537758;23.09500179;7.82340724
-5.841103286;-1.668690965;3.93980071;-17.77076048;-9.431843753;4.1614519;6.979790258;-13.49;48.49333822;-41.98941472;-9.820849827;0.836374993;18.98640912;-9.226346032;-3.037769292;-3.270578776;-8.548066946;9.599091581;6.491452148
-6.998365604;1.350121418;4.4243108;-15.57905984;-7.146668403;4.90924079;9.145250205;-11.23977102;48.50871976;-41.06673631;-7.663774096;-1.889320975;21.68747733;-5.968078982;-2.646571629;-2.672754089;-7.361392899;-13.26210124;4.873473743
-8.982315084;9.832000235;4.425283354;-17.41556308;-5.205540867;5.6542251;11.98773288;-7.750484584;51.63110997;-39.05405356;-11.34592152;4.170454853;23.86773373;-2.152765492;-4.252879792;-4.468122461;-7.476001254;-37.13525669;3.299675235
-10.48695891;18.51956491;4.033576253;-21.7923768;-4.241846411;6.168414792;15.19790192;-3.995577549;56.94905866;-36.34757905;-17.40406534;15.29832572;24.62968122;-0.231251574;-7.641351146;-8.184113039;-9.18063953;-52.32108771;2.080671595
-10.3411988;19.75454088;3.468573498;-25.78293547;-4.052739344;6.496806884;18.5393826;-0.697132658;62.71758964;-33.55888614;-19.76181356;21.49264853;24.30913506;-1.11395642;-11.25166784;-11.75180537;-11.46926767;-53.12329183;1.403915293
-8.169518819;8.551555033;2.865125877;-26.93111767;-3.942938333;6.761925259;21.54920354;1.86335957;67.14125156;-31.11810715;-14.74066529;13.76152319;23.80627713;-3.338134177;-12.83577492;-12.85227201;-12.74089213;-41.01902724;1.228461563
-4.540711587;-13.12529194;2.245904539;-24.67506944;-3.455367684;6.937927599;23.48032462;3.649368246;69.1476949;-29.20346559;-4.300114757;-8.455563573;23.47975355;-4.313959346;-10.75845157;-10.45796581;-11.96642875;-23.59420267;1.307199114
-0.568592247;-36.14126101;1.646848927;-20.41481776;-2.843145638;6.825230916;23.65440522;4.546413755;68.72100868;-28.00026217;5.2564969;-35.75945586;22.65969825;-2.636798387;-5.181762672;-5.528407794;-9.429675311;-9.848410678;1.377402649
2.698383874;-48.88626369;1.207617485;-16.4099459;-2.867241641;6.252375364;21.97057065;4.256122873;66.62829966;-27.9132254;8.202039006;-54.73976675;20.24585587;0.563587803;1.692501611;-0.427642711;-6.501861985;-4.873881477;1.391726536
4.684560133;-44.29155648;1.096574098;-14.42943296;-4.081441;5.311299092;19.11858096;2.545499235;63.79219164;-29.37247452;3.972430115;-57.07364822;15.86594467;2.514624877;6.637022545;2.513629152;-4.666331801;-7.366201064;1.581934558
5.31293938;-24.54814354;1.339198765;-15.00959666;-6.212929819;4.392388342;16.26072376;-0.340002441;60.81145451;-32.29299336;-2.387252769;-44.89063107;10.54770391;1.258019336;7.186515157;2.35360663;-4.553885458;-11.4970986;2.259855686
4.784616574;-0.07675391;1.74664654;-17.54011842;-8.193897255;3.958232749;14.38457533;-3.475258341;57.97480431;-35.67621587;-4.39568219;-28.44578466;6.251519656;-2.467052655;3.153658061;-0.003181271;-5.670470814;-11.63796996;3.488711607
3.376007768;16.85417564;2.057333718;-20.81880302;-8.885273619;4.225240011;13.7997794;-5.523350905;55.6478892;-37.84721775;0.41101224;-18.18508909;4.570503056;-5.671073681;-3.097770225;-2.4555375;-6.914709919;-6.439854464;4.902293592
1.394911264;19.62852695;2.184327129;-23.61371814;-7.96878296;5.009064884;14.12369494;-5.388437504;54.53923931;-37.34123434;8.222560482;-17.52995904;5.608549345;-5.644085347;-7.887475383;-3.008367771;-7.399872361;0.651196502;5.862426873
-0.777704442;10.7676111;2.326634315;-25.04581836;-6.31842045;5.859865621;14.69804493;-2.862029649;55.43050919;-33.8779192;11.83782318;-21.77885522;7.909541786;-2.406745559;-8.304948327;-0.945498181;-6.961171527;4.613951954;5.876814488
-2.71932537;-0.856298002;2.803815341;-24.8459641;-5.529939341;6.379458553;15.05836819;1.166401561;58.46660991;-28.69731637;6.458759148;-23.35492072;9.46975239;1.159274885;-3.928956501;2.774544001;-6.077473651;3.121285783;4.968577277
-4.118641537;-6.763918379;3.733593135;-23.49756993;-6.903826236;6.471419774;15.10307356;5.096739065;62.60634773;-23.95254632;-6.231927567;-18.58955076;9.034546331;1.789872535;2.873032126;6.083808206;-5.411921832;-1.57141597;3.699184143
-4.922146681;-4.477499263;4.847014738;-22.09970642;-10.5751393;6.339734483;14.92264645;7.385412562;65.84729319;-21.53913614;-18.99244336;-10.4137295;6.727947727;-1.14398444;8.295144236;6.995442432;-5.384544351;-4.57701085;2.805205707
-5.304724576;1.944458108;5.642471155;-21.81194325;-15.37411332;6.260130574;14.54757675;7.248496508;66.27278568;-22.14035474;-24.24075178;-5.160136165;3.661965007;-4.804090008;9.320422824;4.758816267;-6.032149599;-2.491842261;2.711471743
-5.445471298;6.263828029;5.781091483;-23.07668222;-19.48590722;6.324608692;13.89270835;4.929031313;63.26095874;-25.07038244;-19.4871779;-6.714483143;0.979442353;-5.193419765;5.484558187;0.33323386;-7.112737197;3.765315206;3.280785953
-5.296091958;5.37436997;5.388140724;-25.16021469;-21.44804525;6.364277606;12.92869695;1.450895466;57.95881386;-28.88579309;-8.824005783;-13.22512844;-0.863381118;-0.781703116;-0.920701512;-4.111342716;-8.264523692;9.768455578;3.972599061
-4.579838384;1.231949306;4.978614042;-26.48802073;-20.85081962;6.09693883;11.85664741;-1.923879951;52.61194944;-32.21830914;0.481568396;-19.0185508;-2.097510929;5.73917352;-6.353575427;-6.419393016;-9.112685714;11.3799001;4.265479468
-3.07586432;-1.792419586;5.043837125;-25.68725;-18.36970932;5.363320804;11.04984138;-4.211295127;49.19499422;-34.25171396;3.431129769;-19.71760093;-3.103904249;9.3693254;-8.299094424;-5.70840859;-9.363877707;8.324045962;4.010058594
-0.970143636;-1.395414018;5.644043964;-22.612648;-15.22345348;4.257038068;10.76364727;-4.978943011;48.31869582;-34.6821395;0.537090395;-15.91073732;-3.918515962;7.059662261;-6.847727739;-2.897373729;-8.941870688;4.467166503;3.464322618
1.060509019;0.478911868;6.366425097;-18.51755596;-12.47509289;3.054472335;10.86610992;-4.352629284;49.15681288;-33.4559646;-3.371376176;-12.24069139;-4.210419633;0.758097648;-4.520029297;-0.144853871;-8.090799372;4.476108832;3.033711798
2.187236128;-0.340302852;6.699462841;-15.14420356;-10.59007813;2.017230833;10.85841533;-2.855469953;50.331479;-30.67759473;-3.432878926;-12.94218581;-3.670377822;-3.618487354;-4.423789767;0.487223124;-7.289115994;9.63640951;2.960737339
1.995288973;-5.971360121;6.506173738;-13.40161202;-9.411305621;1.233691837;10.21037799;-1.182127215;50.98382801;-26.7809588;1.439001625;-17.92226921;-2.385169597;-0.897352241;-7.971660335;-1.693121551;-6.933435451;16.4494661;3.205272227
0.845620429;-13.92904358;6.180058594;-12.71023156;-8.436060708;0.619937467;8.752649489;0.041270012;51.20663924;-22.6896327;8.038556776;-22.827732;-0.842321104;8.543967264;-13.73989862;-5.621400139;-6.996270121;19.39893597;3.558299269
-0.300184444;-18.75738799;6.33596091;-11.60475182;-7.166754051;0.063382506;6.806219516;0.476855675;51.62313198;-19.62466879;11.61583008;-22.91145452;0.408193199;17.90201462;-18.31693956;-9.219797784;-6.979440513;15.7484288;3.830842987
-0.531184886;-16.55800904;7.293933592;-9.14625173;-5.366834813;-0.420163089;4.94995265;0.203086503;52.60921011;-18.53024168;9.405272856;-17.19267641;1.099811804;18.15052467;-18.62615396;-10.74748271;-6.294716406;8.342970726;3.933820895
0.337168436;-8.482252194;8.800340913;-5.964151229;-3.167981381;-0.648859335;3.630788;-0.338489892;53.87427657;-19.48568554;2.248808813;-9.28877155;1.306940118;4.483053399;-14.14481212;-9.832308643;-4.818850426;3.810131444;3.815499852
1.58487746;-0.061870957;10.22696713;-3.980897235;-1.035276878;-0.391309592;2.937447053;-0.595771981;54.70605349;-21.57633803;-6.484378445;-4.3416523;1.229554184;-19.75533749;-7.45373068;-7.515668151;-3.13926813;7.257702164;3.387235411
2.09222495;3.168683477;11.07461259;-4.928940672;0.400349045;0.446056111;2.690110706;-0.236743393;54.5668868;-23.38336134;-13.32720011;-4.865576199;0.977025881;-44.6522125;-2.674590344;-5.367738996;-2.193799477;17.57094108;2.576647893
1.201125843;0.074562923;11.34721282;-8.798988816;0.616968674;1.69497188;2.708110467;0.652975724;53.46540092;-23.77861907;-16.48380469;-9.109416608;0.57912143;-59.76395328;-2.816809534;-4.37620364;-2.512329309;27.21700519;1.490343696
-0.695500411;-5.389127753;11.48641482;-13.49671376;-0.51238377;2.954889716;2.973732805;1.651624635;51.8131819;-22.47979452;-15.9975613;-13.11486918;0.17249526;-60.31807512;-7.823347966;-4.401434604;-3.665633878;27.1;0.506289652
-2.310468626;-7.750926265;11.95018516;-16.08542685;-2.588712669;3.766700121;3.539221954;2.307679087;49.99094758;-20.02876357;-12.89905251;-14.35166169;0.095552551;-49.36413471;-14.62094447;-4.493938052;-4.432269727;13.07696975;0.12768693
-2.316015457;-4.757072584;12.82726028;-14.7604538;-4.8432026;3.834891575;4.296531414;2.436314141;48.08856128;-17.31673996;-8.468342094;-13.59188811;0.703786294;-34.81317922;-19.09424447;-3.710907528;-3.632548208;-10.65549764;0.63520593
-0.322720977;0.792070584;13.82676631;-10.11713166;-6.542827751;3.177773401;4.882789301;2.17373024;46.0444351;-15.09385762;-4.066095222;-13.52472421;2.021938442;-23.97632859;-18.61407951;-1.768863525;-1.004769414;-33.84145348;1.798034566
2.723039722;3.607589364;14.62317632;-4.792146252;-7.406658833;2.126947279;4.877714849;1.761569847;43.96507466;-13.81261466;-1.052660675;-15.69646998;3.57231271;-19.60692348;-13.46376009;0.882621369;2.579083331;-46.49390306;2.926023969
5.057919467;0.569543253;15.20472317;-1.752476199;-7.736539055;1.174929083;4.164001063;1.274994969;42.2173139;-13.77496086;-0.223975912;-18.82318319;4.615214524;-19.76808264;-6.370256641;3.459538856;5.741259796;-44.79127546;3.304864546
5.236748145;-6.58876351;15.87648786;-2.446937934;-8.140983277;0.743356145;3.131679423;0.567453067;41.14368529;-15.25209801;-1.018361097;-20.08152021;4.671724952;-20.73544867;-0.668628037;5.28206211;7.55922868;-32.607041;2.729387375
3.129130296;-12.84217908;16.90590965;-6.044602464;-9.037073024;0.981959777;2.498792538;-0.492280371;40.68447883;-18.31222488;-1.478772702;-18.06607146;3.901554037;-20.15553566;1.562236462;5.934316082;8.07948016;-18.09901047;1.715762154
0.078339738;-14.22914988;18.15513454;-10.1414668;-10.31339516;1.695485471;2.830205157;-1.712352687;40.33834511;-22.46195932;0.412791406;-14.47524693;2.975811925;-18.14742904;0.264310446;5.200118304;8.00204484;-8.262481061;1.175698316
-1.929018883;-11.16335409;19.0824808;-12.3205583;-11.44264941;2.436294035;4.102641071;-2.545163968;39.57446387;-26.51852391;4.748531089;-12.78011045;2.493435937;-16.16221462;-3.127505907;3.058704988;7.878352986;-5.353817777;1.744180949
-1.559437545;-7.860900658;19.16483244;-11.51355527;-11.98487539;2.718999326;5.654805536;-2.477536738;38.32151624;-29.04691703;8.808360154;-15.0211258;2.398648454;-15.20511801;-6.827733203;-0.121311602;7.578048816;-7.142365888;3.248937993
0.965196556;-8.483894458;18.38851142;-8.425541413;-12.08235214;2.249541801;6.575987478;-1.601338255;37.00662816;-29.23189814;8.534511292;-19.74373171;1.898658704;-15.09671941;-9.589811825;-3.403381602;6.512138872;-9.883351823;4.74303954
3.976350816;-13.43918546;17.35471819;-4.974435351;-12.50210903;1.051424782;6.256102876;-0.870152334;36.01028636;-27.58909786;1.727579273;-23.13077611;-0.005102445;-15.09500321;-10.95418604;-5.488450414;4.388688506;-11.20907898;5.119321989
5.425506057;-19.05131912;16.85994778;-3.224994328;-14.10449209;-0.572802798;4.710128281;-1.693169478;35.01086068;-25.88842479;-9.43242719;-22.43958051;-3.76077984;-14.88239668;-11.06945248;-5.399471126;1.766520849;-10.90500954;3.885789974
4.21092459;-20.81640055;17.27676278;-4.401989957;-17.08126256;-2.214525937;2.478382052;-5.006990213;32.92031559;-26.17063746;-18.86341353;-18.62124254;-8.868777941;-14.81645464;-10.49112441;-3.238507493;-0.165199923;-9.741844286;1.545228928
0.889598001;-17.32674708;18.26044603;-8.367046149;-20.54894162;-3.56170895;0.225926639;-10.43678584;28.66607691;-29.43246617;-20.2415907;-15.61301868;-14.14719015;-15.32389594;-10.07949639;-0.363160561;-0.450501848;-8.105784787;-0.698293124
-2.686195268;-11.44140382;19.04858233;-13.69723455;-22.88414128;-4.516403081;-1.640203293;-16.21124015;22.28408327;-34.88716947;-11.4310501;-16.78918859;-18.44075317;-16.2541847;-10.77481466;1.344909727;0.8696582;-5.857876532;-1.697153903
-4.546995905;-7.735853688;19.11439389;-18.3262762;-22.66434241;-5.173091099;-3.08503365;-20.02844732;15.36535281;-40.37179669;3.607700907;-21.73617141;-21.22213271;-16.96204795;-13.06270008;0.733765847;2.789986117;-3.229797457;-1.047354485
-3.806437695;-8.483281419;18.62007813;-20.53706265;-19.61132572;-5.694943143;-4.285106768;-20.39164002;10.29912261;-43.67759947;17.0015842;-26.37783915;-22.65928548;-17.00712016;-16.3625775;-1.74215847;4.179478619;-1.349019958;0.755717386
-1.108597147;-11.61242646;18.27613283;-19.88235562;-14.88439998;-6.186020639;-5.392841128;-17.54915971;8.726417202;-43.90804114;21.77642862;-26.52067441;-23.1818542;-16.64143792;-18.92534548;-4.244725796;4.712121883;-1.395327722;2.750173483
1.915499563;-12.32247593;18.71822017;-17.49668855;-10.49257563;-6.649122397;-6.433515429;-13.39343087;10.35713035;-41.93243611;15.90254861;-21.7179338;-22.97779901;-16.48134625;-18.64322727;-4.790888876;5.071640623;-3.001476444;4.169288012
3.753719672;-6.953418127;19.9307203;-15.47043716;-8.190058594;-7.049729965;-7.378256752;-10.36217585;13.13626717;-39.64464316;2.897263948;-15.87975031;-21.86378336;-16.68701531;-14.46539362;-2.612288991;6.241834149;-3.674634508;4.851265731
3.920586467;4.028495556;21.21214198;-15.51357414;-8.558218175;-7.425537558;-8.264161788;-10.04967437;14.73267475;-38.5864565;-10.98440766;-13.85204213;-19.61370623;-16.59429574;-7.445017895;1.394973977;8.510317304;-0.421980788;5.158166437
3.111945421;16.1313997;21.71832278;-17.71307942;-10.82365095;-7.944261329;-9.203413043;-12.40140893;14.26043522;-38.92821913;-20.5085289;-16.86058552;-16.42267591;-15.34117259;-0.476970108;5.463914149;11.08626613;7.260901878;5.555329573
2.605028692;23.64419716;21.1285715;-20.29406417;-13.44865048;-8.845393615;-10.24831238;-15.93262302;12.91012641;-39.50475986;-23.4792018;-20.96090975;-13.07175847;-12.951796;3.346133373;8.33838962;12.7031887;15.54952031;6.230742478
3.38661699;22.85268215;19.87847547;-20.70967883;-15.03999418;-10.28348444;-11.23491654;-18.71948129;12.98641681;-38.81697103;-20.24985562;-20.17955338;-10.6166603;-10.69988832;2.732153707;10.11905714;12.70210627;17.72665256;7.040387555
5.584633531;13.57719069;18.77423746;-17.43742136;-14.9945722;-12.16787424;-11.77288436;-19.46319356;16.07931999;-36.21912516;-12.16511545;-11.88175371;-9.814630368;-10.1351225;-0.911653841;11.90344153;11.64500082;8.578415204;7.757066801
8.479026279;-1.298880964;18.32462459;-11.2503471;-13.57560862;-14.11392196;-11.44389566;-18.00320137;21.7575287;-32.41822482;-0.870210869;0.312584756;-10.70207066;-11.49562957;-4.437686959;14.56378172;10.89898539;-11.20769417;8.345829918
10.95734091;-17.17470716;18.35276355;-4.989537395;-11.53593992;-15.56501749;-10.10271419;-15.12592315;27.74895171;-28.95636058;11.05510907;8.921872245;-12.60188398;-13.04642159;-5.164877791;17.73780439;11.52517236;-34.15503971;8.994609282
12.06718809;-28.89044601;18.19744334;-1.878324801;-9.64783187;-16.04199643;-8.077574672;-11.98418109;31.42847243;-27.10425686;19.53174524;8.675287254;-14.51666885;-12.24240582;-2.730782479;19.93694509;13.41778415;-49.85651851;9.872908555
11.39276743;-31.76691453;17.31066487;-3.469500681;-8.426126991;-15.38907002;-6.113698328;-9.579940836;31.48402776;-27.00392985;20.15143654;1.267974686;-15.62334298;-7.943742992;0.80529263;19.73477009;15.42647624;-51.27957403;10.85451697
9.187751642;-23.21590409;15.73776613;-8.61554056;-8.078014798;-13.87181523;-5.060466375;-8.549140001;28.59059062;-27.68114646;11.0332899;-5.446699894;-15.5878306;-1.734480826;2.691338731;17.06810754;16.34226471;-39.1681544;11.49207396
6.313437458;-4.808770829;14.08952857;-14.16220119;-8.533688692;-12.05983485;-5.462346513;-9.176161668;24.7404685;-27.89148149;-4.793517004;-3.623907218;-14.60310035;3.052019199;1.707625153;13.54707804;15.88469551;-21.36;11.32275477
3.998141133;16.73757319;13.05629349;-16.89230889;-9.447515541;-10.55269421;-7.276824783;-11.43306617;21.85307513;-27.15881914;-19.99093323;7.793984894;-13.23081338;4.017122884;-0.853592147;11.45227619;14.84600455;-7.469954035;10.28682338
3.387312326;31.47481804;12.88503265;-15.43773807;-10.2225244;-9.703774956;-9.876935268;-14.94903342;20.67776121;-26.23869672;-26.9207283;21.24732224;-12.16942073;1.820866103;-2.236819296;12.1571755;14.30267415;-2.753670308;8.905513181
4.952939809;31.08328472;13.23652603;-10.97454423;-10.19266205;-9.497206081;-12.34366575;-19.0009731;20.61798871;-26.65666577;-22.55485402;25.50232247;-12.01317619;-0.272189601;-0.492337735;15.18062998;14.62168576;-5.478973751;8.017347329
8.048978287;14.05938471;13.49336631;-6.37574431;-8.979697929;-9.633739201;-13.89856281;-22.66547806;20.37145924;-29.61954949;-10.58962074;13.84145698;-13.02753336;0.734000409;3.819762371;18.57229034;15.14684005;-9.402354112;8.207707965
11.00433124;-12.53062376;13.21988031;-4.463876698;-6.82258489;-9.748011977;-14.25064729;-25.13563221;18.80402823;-35.0258192;1.106993321;-10.68176631;-15.00402443;4.707923505;7.859887703;20.28699611;14.82248476;-9.116424359;9.327717605
11.91656748;-36.63238258;12.39471938;-6.448411772;-4.585114498;-9.604732796;-13.67630223;-26.02993497;15.52431821;-41.23921748;6.019578678;-36.91757332;-17.3022149;8.233920626;8.548410731;19.47133562;13.1704444;-4.056383329;10.47456616
9.805158439;-48.21035567;11.28276482;-11.3751858;-3.323261988;-9.156740876;-12.79743112;-25.49066899;10.99280855;-45.80550101;3.371281511;-52.93668786;-19.12843556;7.625868205;4.880122516;16.74064279;10.73428015;1.71816353;10.49761809
5.375081645;-44.9838443;10.13689109;-16.75717233;-3.63572831;-8.463292144;-12.19450774;-24.02385647;6.292664977;-46.71431315;-1.92735724;-53.52215053;-19.93478083;2.665854229;-1.247156454;13.39365591;8.602668746;3.391744474;8.720230886
0.739898008;-32.88593916;9.030058594;-19.9508001;-5.249139619;-7.570903079;-12.08568766;-22.22702299;2.727658271;-43.49125854;-3.592903949;-42.50790878;-19.68419201;-2.38164362;-6.324937162;10.34557657;7.460930051;-0.451275177;5.399283703
-1.881597165;-21.10353417;7.941301472;-19.56;-7.179091793;-6.470787317;-12.2561642;-20.60070259;1.331605458;-37.51311861;0.958172304;-28.7923079;-18.77678599;-1.898528704;-7.683434661;7.679676229;7.039067266;-6.716581732;1.609340519
-1.681221375;-15.5961375;6.948922051;-16.20131518;-8.402039359;-5.162071358;-12.25706212;-19.50651519;2.393168154;-31.37632328;8.758264155;-19.59553774;-17.67753292;5.965396543;-5.289321475;5.076995582;6.454215303;-10.40490215;-1.377358611
0.116805225;-15.93804806;6.286181306;-12.24368642;-8.572428438;-3.745305481;-11.71929489;-19.16510875;5.230144967;-27.65170783;13.91398782;-16.16976453;-16.5393489;16.42423966;-1.613848395;2.578551267;5.127926384;-8.583924427;-2.810058594
1.09194718;-17.42334801;6.171214811;-10.57035712;-8.251300531;-2.439420712;-10.56777394;-19.56624682;8.468265566;-27.66092633;12.34500667;-14.70352565;-15.14502808;20.32328743;0.245383968;0.868984786;3.435128246;-2.450989864;-2.819654164
-0.573825738;-16.06463449;6.571836214;-12.90604554;-8.456312439;-1.485573614;-9.01725459;-20.32230146;10.81260115;-30.8765263;4.748660163;-10.87531321;-13.23566839;10.44780481;-1.254778978;0.75301378;2.480484584;4.006329111;-2.217093576
-4.61715789;-12.00557058;7.155543489;-18.61017591;-9.849963595;-1.009837482;-7.404243247;-20.66696146;11.87664217;-35.21937473;-4.37948336;-3.921565205;-10.94895;-12.66577709;-5.194868554;2.277462885;3.178374706;7.372956893;-1.904297228
-8.677545484;-8.633725648;7.513430189;-24.75672663;-12.16348674;-0.962549334;-6.018413319;-19.77187629;12.44391243;-38.07959895;-10.47799805;2.959848511;-8.960564973;-39.97226796;-9.102139064;4.33128734;5.431904602;7.280891671;-2.308215811
-9.852182987;-8.656270857;7.48369305;-27.67025363;-14.2873241;-1.188236787;-5.055384506;-17.29147715;13.85926118;-37.54120622;-12.10569545;5.694788636;-8.146282436;-59.15230162;-10.86707196;5.191554133;8.116368928;6.074747037;-3.195301869
-6.747866045;-11.05362368;7.287414925;-25.14107011;-14.97072327;-1.560298947;-4.666827088;-13.76248793;16.91899428;-33.21187834;-11.10755975;2.921833733;-8.9920428;-62.2802993;-10.19849924;3.681227233;9.867766422;6.271415847;-3.939119867
-0.542640691;-11.8594046;7.340949181;-17.93479912;-13.63519619;-2.050194892;-4.976166051;-10.46772044;21.10740088;-26.28238322;-10.12656312;-2.964630557;-11.22316067;-50.51560461;-8.61672633;0.050981649;9.99587358;8.241854445;-4.010019531
5.727784041;-8.073765401;7.894094407;-9.495735929;-10.74389079;-2.659530767;-5.969120013;-8.715619799;24.84568239;-18.84542404;-10.07712549;-7.940155822;-13.97;-32.6464548;-8.138783083;-4.129527644;8.782253319;10.1433874;-3.33782679
9.142326476;-1.022937009;8.803307121;-3.881877812;-7.508015574;-3.280762469;-7.327677983;-8.958690757;26.64459242;-12.87291835;-9.914190785;-9.59847127;-16.34470422;-18.85862014;-9.742615619;-7.018108441;7.009673836;9.971861153;-2.324054902
8.702020602;4.139025749;9.636790176;-3.225426833;-5.175711139;-3.64245304;-8.398707072;-10.38448309;26.29447841;-9.382948541;-8.628020817;-8.768947762;-17.94676209;-14.40531331;-12.74589853;-7.697265578;5.245746643;7.671334002;-1.537019653
5.724654258;2.635212014;10.02159795;-6.437791849;-4.391209577;-3.441710055;-8.432348991;-11.33906392;25.14292072;-8.161239967;-7.181759941;-8.366539733;-18.86817947;-17.49123321;-15.45312902;-6.630688733;3.556798161;5.262466555;-1.323417827
2.673644264;-5.614901891;9.936477398;-10.0670215;-4.987368107;-2.597872085;-7.004677641;-10.34839638;25.21664742;-8.057935881;-8.16360311;-10.6977268;-19.20965128;-22.19360617;-16.46958343;-5.087643822;1.846260383;4.871445349;-1.592755626
1.409588657;-15.45718539;9.708310675;-10.70102033;-6.229172716;-1.420191536;-4.334572436;-7.039281297;27.87303621;-7.585290028;-13.19667759;-15.54271614;-18.57836713;-23.53727063;-15.66689901;-4.053392824;0.373636527;6.579437686;-1.889159418
2.166343996;-20.44283101;9.730443649;-7.212744912;-7.24829311;-0.506836059;-1.216854124;-2.31044233;33.03149925;-5.472051318;-20.50913901;-20.43255162;-16.10422664;-20.73823612;-14.15135497;-3.512750395;-0.171604967;8.264414765;-1.677648107
3.858650751;-18.01115911;10.15308251;-1.304707694;-7.383977627;-0.389449172;1.443921654;2.346753951;39.51892653;-0.987494353;-25.25040889;-22.62899069;-11.09346005;-16.65024904;-13.3747916;-2.646178438;0.78194224;7.771844604;-0.661316087
5.25;-11.48940348;10.79900824;3.896705158;-6.323615121;-1.158203764;3.191675436;5.847993449;46.11274498;5.933696103;-22.83149038;-21.07411092;-3.865117312;-14.62789038;-14.11848059;-0.718479638;2.993511361;5.451873499;1.041897448
5.929903845;-7.145428722;11.34364822;6.0317644;-4.114535604;-2.35730739;4.250227556;8.089782905;52.31193682;14.64780014;-12.74966562;-16.89505209;3.927436994;-15.73723355;-16.07358441;2.110657586;5.272907796;4.48194263;2.938489925
6.375916029;-8.772860041;11.57075975;4.865230445;-1.143100463;-3.262211107;5.231586233;9.717244625;58.19274124;23.82063885;0.413053755;-12.40347062;9.867593596;-18.39173234;-18.22293175;4.737755471;6.16088428;8.188941465;4.382906347
7.242325126;-14.42729491;11.47681656;1.990048828;1.925863782;-3.361774266;6.529773817;11.35439591;63.60646539;31.63972967;10.00532861;-9.636466981;11.96110539;-20.16643611;-19.63901344;5.879205699;4.954774248;16.36313917;4.881262464
8.641605371;-18.092978;11.16699383;-0.617072506;4.330643682;-2.698585669;7.87568116;12.97092265;67.62320391;36.35134722;12.18957523;-9.508874692;9.680640676;-19.86310602;-20.08150533;5.039725125;2.247115392;23.86606973;4.342840562
10.06814141;-14.83010042;10.6894818;-1.91364797;5.52835598;-1.814189778;8.426780616;13.90352492;68.91011504;37.02898493;8.824472791;-11.83227673;4.193111116;-18.11159631;-20.01449856;2.913216663;-0.495250533;23.32501728;3.158022544
10.93670264;-5.000602648;9.997122505;-2.046114357;5.497795688;-1.340661353;7.356525561;13.47944069;66.83172437;34.18421238;5.913095196;-15.72087952;-2.335297298;-16.37240194;-20.12974816;0.889034653;-1.997858501;10.40540655;2.037988444
11.13338114;5.96620657;9.073920844;-1.637334228;4.800861279;-1.547499048;4.509533323;11.68755612;62.29266055;29.74565797;8.686805575;-19.88437758;-7.848303096;-15.56534698;-20.79415164;0.031529572;-2.0432505;-12.25809808;1.657683712
11.02326529;11.92764446;8.076190439;-0.97956003;4.291209874;-2.181323026;0.621469786;9.320332355;57.44364955;26.22320887;17.12929371;-22.81051535;-11.21884864;-15.56900583;-21.82706405;0.30505459;-1.466454863;-35.77386429;2.267003657
10.94347127;10.67930167;7.305907555;0.105584549;4.612708907;-2.703353949;-3.072992544;7.468101333;54.30939917;25.41132169;25.47981223;-23.16690103;-12.3958293;-15.76288104;-22.72085664;0.629178259;-1.348164383;-50.27219526;3.498951154
10.74683197;5.013112482;6.996434738;1.763656685;5.813826928;-2.722944263;-5.559708885;6.786513019;53.37278257;27.38876693;26.20406195;-20.49026784;-12.02078271;-15.79988022;-23.09307509;-0.27569217;-2.121993132;-51.11598824;4.533112966
9.922946294;-0.393140418;7.093254402;3.639218438;7.346013785;-2.287302043;-6.573868951;7.12519587;53.28566793;30.49243943;15.52521811;-15.69077192;-10.95097739;-15.79407864;-23.02603379;-2.877755238;-3.329220143;-41.53432411;4.570727308
8.237949875;-3.139417529;7.251438698;5.028733424;8.440598721;-1.819129887;-6.589787648;7.777633101;52.00212748;32.35740659;-3.500522675;-10.76241648;-10.00302507;-15.90486032;-23.06457012;-6.398816172;-4.154539499;-29.77907358;3.356125489
6.264669538;-4.441246153;7.092305121;5.535492547;8.584635609;-1.777132772;-6.346596035;8.088356504;48.45915426;31.39696477;-22.47370951;-7.658042712;-9.887818239;-15.95857672;-23.88720562;-9.267111345;-4.204972314;-23.01707432;1.401354006
5.192060388;-6.574180305;6.518757118;5.524335781;7.764765324;-2.316730334;-6.315609514;7.887225843;43.46030384;27.76560105;-32.52548998;-7.092171401;-11.10632003;-15.60184109;-25.86430319;-10.12446036;-3.83038801;-22.57480415;-0.273406794
5.940397566;-9.155492775;5.81;5.821034383;6.356554176;-3.197737513;-6.50108454;7.425648593;39.06299404;23.17768567;-29.24160016;-8.255996011;-13.70003906;-14.77398534;-28.76106065;-8.664629023;-3.73624754;-23.97442976;-0.755979862
8.302562175;-8.262593683;5.390564851;6.862166978;4.821274736;-3.969429001;-6.648387865;6.963010049;36.99401465;19.73767924;-14.67568144;-9.720339644;-17.04120565;-13.85789521;-31.7423238;-5.721604571;-4.276060749;-21.4057421;0.175180857
10.91955968;0.151909391;5.453361245;8.129964478;3.489246225;-4.254144784;-6.596728641;6.461140066;37.39014818;18.61429152;4.266520328;-10.72374024;-19.96971242;-13.22227535;-33.67617212;-2.584379268;-5.069343786;-12.88623166;1.899354488
12.23580295;15.26224688;5.760424425;8.538987632;2.570459246;-3.914841307;-6.435301388;5.713773194;38.84398278;19.46438445;19.5613691;-11.61273122;-21.36063583;-12.6251026;-33.60186925;-0.075049118;-5.2741266;-2.012267519;3.351469765
11.70968142;29.52909386;5.806948433;7.558833326;2.2831028;-3.032353612;-6.342563699;4.790058594;39.62490962;20.9317704;25.65132316;-12.9373978;-20.80486664;-11.24097323;-31.16764831;1.919085768;-4.266943319;4.92977076;3.706866143
10.2540842;32.58481733;5.226245896;6.060449053;2.871731135;-1.787270311;-6.293766863;4.320626404;39.00041506;21.75439476;21.35251334;-14.04534667;-18.88560094;-8.487652344;-26.85516498;4.128975017;-2.161125297;4.01218103;2.882722908
9.467776039;18.63010734;4.098301107;5.961686136;4.416241233;-0.385932326;-5.940406735;5.238924379;37.58725747;21.60957628;9.769449815;-12.72672058;-16.76855757;-4.89834939;-21.87672362;7.076218115;0.226432453;-3.209419499;1.513514645
10.23633553;-8.259724914;2.896258646;8.747142724;6.588829707;0.930324718;-4.803937404;8.065822617;36.56023755;21.10188405;-3.354687174;-6.737761288;-15.349339;-2.02171449;-17.74676035;10.40333679;1.877268229;-10.90089406;0.435562227
11.86432623;-35.46945106;2.108174736;14.01107542;8.644304219;1.878185008;-2.639365149;12.28776492;36.52223686;21.01132179;-12.21510419;3.679498767;-14.5874134;-1.161492506;-15.66893893;12.9171758;2.126371229;-13.39401403;0.067452456
12.51589773;-49.45862254;1.847865327;19.33095733;9.778039862;2.224388957;0.332494006;16.40882464;37.05231397;21.49547671;-13.64076304;14.41101756;-13.55447354;-1.998797039;-15.99485208;13.35554146;0.911577371;-9.300495272;0.137616903
10.67217017;-44.36990441;1.780102078;21.78271184;9.659821472;1.95431052;3.520901207;18.78099819;37.26274802;21.9286153;-8.757010784;18.89252897;-11.18368401;-2.525213333;-18.02930034;11.31800055;-1.323115542;-2.156430935;-0.058159667
6.445076823;-25.40068209;1.420140252;20.03805139;8.736000191;1.367568727;6.318584658;18.69279338;36.76569477;21.4944029;-2.442763776;11.97243653;-7.152290084;-0.678034127;-20.33269506;7.646222426;-3.86646545;2.689154897;-1.082472273
1.661386321;-4.588926731;0.551696549;15.40754338;8.005334829;0.960662124;8.44229036;16.92861246;36.11123615;20.00354578;-0.337744426;-6.252950284;-2.218689687;3.594036508;-21.43018018;3.931199252;-5.943037008;2.31363134;-2.903343187
-1.39146334;7.66077354;-0.590390664;10.95255611;8.361651144;1.12268952;10.01787535;15.34117876;36.28340219;18.21246534;-4.854246655;-29.50307961;2.235792775;7.820923583;-20.59466422;1.479692452;-6.886243219;-1.743805413;-4.892555418
-1.58539373;8.971524334;-1.525687854;9.302186234;9.956317804;1.855087815;11.38210548;15.67784641;37.72149038;17.3274031;-12.88282569;-48.33018189;5.089197732;8.913544778;-18.27801559;0.492290588;-6.367400299;-5.065285587;-6.258552781
0.324933895;4.898917643;-1.948208108;10.83828486;12.05946067;2.75196806;12.78528245;18.4452855;39.76626491;18.05057266;-17.29367966;-55.35521041;6.106527787;6.134032572;-15.91094132;0.058985635;-4.633914238;-4.083715482;-6.581490524
2.40382093;3.131406422;-2.010452386;13.60457137;13.54474157;3.292811153;14.22097683;22.57676786;41.04184872;19.91316164;-11.82853047;-49.32641087;5.878751476;2.4593781;-15.12833911;-1.034624863;-2.532742627;1.080444384;-6.065036657
3.049347993;7.036301746;-2.236727156;14.91824037;13.65542465;3.242029989;15.47343949;26.10331853;40.44971834;21.43475779;3.794777573;-35.36881308;5.213914728;2.62961062;-16.82034394;-3.309719238;-1.135947054;6.844850886;-5.349574427
2.103991172;13.64822301;-3.134786135;13.35868644;12.49860139;2.839875581;16.29712072;27.34867661;37.93056636;21.02235014;22.47959718;-21.43601513;4.538486983;8.922956113;-20.54490458;-6.161018423;-1.092969373;9.144354244;-5.052683373
0.745691554;17.22796142;-4.811687775;9.624894754;10.92844249;2.616706149;16.57320929;25.85904359;34.39212849;17.97554274;33.66389652;-13.52261656;3.792403583;18.00333281;-24.65899563;-8.296981165;-2.147688473;6.751922142;-5.373238654
0.37597118;14.91865939;-6.882781828;5.768158852;9.945490852;2.962090477;16.35563643;22.52917781;30.95509115;12.91572353;30.24282247;-12.79585861;2.827940303;21.89688006;-27.11887441;-8.684097882;-3.238665092;2.357158753;-6.010078125
1.501949892;9.513951269;-8.722394507;3.608267771;10.08500924;3.787855621;15.83086699;18.96508966;28.23677884;7.411946369;13.63007813;-16.15278701;1.876254211;13.1528965;-26.50555727;-7.251454696;-3.184675574;0.578058018;-6.400727441
3.510820668;6.996947898;-9.848390467;3.649196222;11.22749144;4.561304621;15.26109421;16.59035498;26.27542564;3.149006718;-6.907012395;-19.20180842;1.607936179;-9.24189494;-22.696689;-4.8318909;-1.46987176;4.366714749;-6.078474356
5.401665868;10.98887502;-10.16126619;5.197296283;12.89335134;4.693528601;14.93699828;16.05563704;25.0410909;1.228777627;-20.41864806;-19.22026111;2.698056435;-37.72183783;-16.82078381;-2.442313659;1.471707691;12.41293855;-4.91619315
6.724577355;18.85850888;-9.904373397;7.295659779;14.70109791;3.982568863;15.10858427;17.1886923;24.91411835;1.970455045;-21.58343572;-16.16975195;5.25992784;-59.86964601;-10.56321263;-0.524968998;4.671408714;19.42619274;-3.152216517
7.873098041;22.92084273;-9.432086329;9.503683733;16.5848491;2.766044517;15.87227742;19.32590321;26.56277706;5.12505198;-13.83958567;-11.66277893;8.637125779;-65.83331011;-5.273309049;1.232915569;7.351685718;19.19922235;-1.250553396
9.523590565;16.0450213;-8.98620242;11.90430662;18.6277542;1.670236794;17.06642449;21.69139467;30.2573086;10.14214663;-6.115567224;-7.278537217;11.7426201;-54.39799175;-1.412177023;3.391470079;9.324032414;8.515019937;0.285598318
11.80135886;-2.574707404;-8.620975758;14.56481387;20.72665571;1.161667228;18.27870047;23.60331094;35.24225745;16.22627558;-5.761658578;-3.709323456;13.68224102;-33.50677425;1.366510835;6.030601526;10.75136015;-10.57282531;1.064501154
13.97650882;-25.95544698;-8.26830067;17.1647178;22.4444427;1.253247459;19.01892288;24.52016759;39.80298358;22.25080838;-13.09519004;-1.087091641;14.1897102;-14.96356598;3.627386111;8.439043935;11.58448653;-31.52438998;0.903775215
14.98058443;-43.41448163;-7.836540517;19.20826538;23.21759675;1.577261585;18.97952597;24.0698723;42.0869439;26.81948509;-21.59499621;0.320446498;13.59527329;-7.124303244;5.498186607;9.491030927;11.30924404;-46.71766195;-0.119798272
14.27550254;-47.33183792;-7.256502041;20.52799568;22.74800833;1.735607157;18.20729634;22.14642698;41.09586978;28.66248171;-23.33825517;0.007826901;12.45256785;-10.55873126;6.413766457;8.406838974;9.348890782;-51.4582989;-1.686864338
12.29061394;-37.81762417;-6.475916969;21.42676044;21.22815796;1.625323806;17.04855595;19.0151478;37.12560739;27.220684;-15.28336982;-2.157616297;11.19415945;-19.21359002;5.450284483;5.296534173;5.805089741;-46.24315917;-3.345437821
10.04546083;-22.16601937;-5.458926791;22.19107187;19.18964505;1.481696242;15.89533954;15.29957649;31.40216928;23.022749;-1.553722432;-5.393165993;10.07566467;-25.56547401;2.04928857;1.098123625;1.81147416;-36.00112697;-4.693779396
8.317387726;-9.778068924;-4.221213159;22.45554044;17.10189598;1.630856228;14.9216398;11.79834514;25.30253945;17.53803491;9.812844755;-8.327313919;9.337410309;-25.70414643;-3.333864374;-2.970009766;-0.96157012;-26.87742657;-5.543660523
7.117552793;-6.302228387;-2.867316752;21.21318922;15.07913859;2.181947497;14.01448687;9.217137652;19.78825679;12.54683229;12.85652069;-10.10785279;9.292157651;-20.9387499;-9.104357632;-5.969872124;-1.368501419;-22.62091989;-5.95394085
5.941702781;-10.93264017;-1.573398423;17.73637034;12.96665465;2.921184004;12.94959072;7.963795126;15.34844649;9.410481312;7.714840555;-11.29155394;10.14889614;-15.51260093;-13.08263862;-7.435560088;0.422816521;-22.83109717;-6.10478108
4.535463927;-18.23048963;-0.505879021;12.72137674;10.73739399;3.484292183;11.65840922;8.088989232;12.21277198;8.664951841;-0.202680274;-13.53065415;11.70050938;-12.83743356;-13.50253062;-7.221516071;3.088806168;-24.05544283;-6.110468007
3.418670157;-22.5857304;0.265099397;8.514928843;8.829846206;3.648611722;10.35340665;9.335312312;10.38870774;10.08132342;-4.82272142;-18.1036314;13.21604109;-13.25520398;-9.937860691;-5.348950658;5.14384387;-22.79751473;-5.931567534
3.606150508;-21.8904645;0.783292825;7.876922811;8.068099812;3.499053459;9.392645728;11.20652303;9.387539483;12.98888782;-3.932218053;-24.48217758;13.75505344;-14.61569168;-3.640226934;-2.114167394;5.943482712;-18.21327057;-5.472909804
5.686984853;-18.05872565;1.140327149;11.98734655;9.138382716;3.343130957;8.981869822;13.02962565;7.990149341;16.53855138;-0.185172092;-30.28602463;12.74768093;-14.60383236;2.943232007;1.661130329;5.875785256;-12.57140742;-4.788711612
9.045251457;-14.62574519;1.389017081;19.24106544;11.98829293;3.462226268;8.952054013;14.07418349;4.535172323;19.77137862;1.770459285;-32.88862604;10.396738;-12.6578159;7.270463863;4.643998843;5.65878438;-9.258088944;-4.198746512
11.96474511;-13.72175111;1.517116528;25.96695258;15.63689395;3.906902514;8.796878514;13.7920207;-2.207822229;21.64177118;-0.655520672;-31.47745801;7.542369349;-10.08931766;7.873839293;5.532388118;5.471241518;-9.970294546;-4.165047823
12.66592627;-14.79540998;1.500520979;28.76226706;18.61559751;4.484179875;7.952507574;12.11340102;-12.13143422;21.23305206;-6.102922508;-27.83722264;5.047639611;-8.699283607;4.986663341;3.889460393;4.774389116;-13.33419904;-4.970078125
10.54655747;-15.7468019;1.372853904;26.79089543;19.79413597;4.914230005;6.117493775;9.593554201;-23.60983062;18.19273559;-10.79358149;-25.07470524;3.169417918;-9.287806341;0.294825489;0.626916644;2.999154511;-16.01685586;-6.425275135
6.686491943;-15.13819362;1.229323094;22.29879454;19.04016432;5.007374034;3.390374126;7.2101314;-34.33274975;13.09961668;-11.88207401;-25.21530948;1.414796519;-11.23627043;-4.038057859;-2.391016364;0.404239927;-15.37894112;-7.859480319
3.21173887;-13.45960706;1.149590873;18.90799278;17.25528243;4.728452502;0.15409578;5.82454294;-42.63357342;7.376669495;-9.71845785;-27.62614801;-1.001640959;-13.24519052;-6.515646107;-3.516057964;-1.815474774;-11.47795747;-8.453686347
1.962614557;-12.45332069;1.113565979;18.95218023;15.75976873;4.139018651;-3.171504224;5.604284634;-48.33773572;2.633436001;-7.279171348;-29.62552658;-4.475688259;-14.39676815;-6.981319554;-2.480782786;-2.418940294;-6.808440298;-7.73055033
3.403493567;-13.2671606;1.004622378;21.84981541;15.44602288;3.314311716;-6.310247739;5.820634048;-52.49197872;-0.22171412;-7.471776078;-28.84838059;-8.663993886;-14.66065599;-6.473223311;-0.665450694;-1.277201207;-4.090729992;-5.875268717
6.486480278;-15.19813321;0.718379312;24.68708655;16.26302802;2.328569234;-9.131510008;5.242378441;-56.21995492;-1.496923933;-10.66312585;-25.42952916;-12.73809088;-14.6108999;-6.418408608;-0.176368185;0.293972448;-4.063681113;-3.664956405
9.45829807;-16.20523807;0.288934758;24.47559254;17.34275521;1.30765612;-11.52654112;2.938378161;-59.65511308;-2.449186418;-14.38762347;-22.13983993;-16.00020232;-14.78371228;-7.70870071;-2.343007181;0.46910974;-5.175551113;-2.045917806
10.96265407;-14.75578924;-0.088366308;20.32526658;17.63430441;0.464819195;-13.3117668;-1.026876997;-61.82515679;-4.366603176;-15.29502346;-22.26082263;-18.31851463;-15.25533871;-10.22565162;-6.722521328;-1.578367836;-5.338693578;-1.627906655
10.69564163;-11.33430945;-0.177280386;13.96355944;16.59570818;0.046890321;-14.26947195;-5.499896618;-61.55692104;-7.621821686;-11.66817992;-26.8664693;-20.01;-15.68529911;-13.04352223;-11.35549961;-4.885116056;-4.038845931;-2.399561921
9.307059636;-8.178227945;0.124933711;8.397052093;14.50896298;0.209982479;-14.30007813;-8.850885467;-58.61188577;-11.36083187;-4.613239557;-33.72129421;-21.29531452;-15.65905993;-15.08371665;-14.08975866;-7.381068698;-2.769062179;-3.801643885
