Channel 1 - P4;Channel 2 - O2;Channel 3 - P8;Channel 4 - T8;Channel 5 - C4;Channel 6 - Cz;Channel 7 - Fz;Channel 8 - F4;Channel 9 - Fp2;Channel 10 - F8;Channel 11 - Fp1;Channel 12 - F7;Channel 13 - F3;Channel 14 - C3;Channel 15 - T7;Channel 16 - P7;Channel 17 - P3;Channel 18 - O1;Channel 19 - Pz
40.22999754;77.36507565;16.37056556;37.33172921;35.76010766;26.21978935;30.66146312;6.251589152;38.9162601;26.73085972;15.35917287;66.34761437;80.44030248;93.91460346;13.22704496;20.64938613;101.9581036;81.97250241;9.342685374
27.86608489;69.15307161;9.460690829;14.8109179;18.43755475;19.90674725;18.48629206;-2.129658086;29.56962571;6.302521975;11.99911607;51.56700259;64.1711308;69.63457066;6.863702694;15.71180647;101.0577259;73.09696204;5.657857159
10.77019217;54.55129138;4.44505734;-7.90742804;-1.145575181;9.70072512;4.592370766;-6.297644766;18.83660953;-8.968416035;-0.309403787;18.59683777;33.8591218;29.2447863;-7.060691243;8.413715979;75.25414906;52.44623107;0.838671512
-2.496249688;41.18789756;3.096778543;-21.55230426;-14.44107043;1.135192237;-5.827520978;-6.048509235;10.72444837;-15.39162668;-13.3067658;-13.59417263;5.578596596;-5.961736161;-24.61483125;2.619839234;43.79518156;31.19522532;-2.707813001
-6.945230767;30.9015615;4.599484851;-22.5367474;-17.53272194;-2.228011881;-9.943676255;-3.520447821;6.980381633;-14.73907866;-17.96737024;-26.76007813;-7.644807991;-20.16549637;-37.17397615;0.812275403;24.59312101;17.98131822;-3.463306497
-3.509185142;20.33996442;6.484508537;-14.09252328;-12.72169692;-0.648933657;-8.625015148;-1.557021466;6.410878001;-12.0396742;-10.92668917;-15.94900892;-3.368689514;-12.24320035;-37.34922072;2.781194507;23.61502582;15.27997933;-1.591244992
2.866369564;5.98605255;6.691886748;-2.87979822;-5.731431827;2.726932211;-5.27270108;-1.792364646;6.263318783;-11.602562;3.254521537;7.721321283;10.37439696;5.720353908;-24.55089422;6.124653508;33.99771886;19.90213565;1.29821693
7.381707438;-11.23128325;5.106020334;5.784170801;-1.101355869;4.578853559;-3.183776443;-3.765990031;4.499729218;-14.24093471;15.65438064;26.11813165;22.00710628;18.65375584;-5.734777443;8.044444582;43.91722177;26.37711501;3.205021711
8.408288123;-25.70418593;3.412155584;10.37686036;0.585049337;3.719115805;-3.440302697;-5.567400688;1.226022314;-17.46131788;19.55093827;27.84910078;24.60523208;19.26472294;9.33526671;7.131168327;46.03852719;30.49450574;2.926027998
7.39366361;-31.25522537;3.502272682;12.06960151;1.833126559;1.407568399;-4.747024814;-5.411428509;-1.701441657;-18.02873218;14.95168165;16.0784656;19.51380975;11.50142106;14.63367439;3.99865888;41.38958731;30.92482143;0.654080019
6.432121969;-25.98703948;5.799793509;11.96485184;5.005832569;-0.205742752;-5.059118595;-2.955856067;-2.420300151;-14.67060617;7.831255475;4.664895757;13.52390891;5.108045416;11.21606432;0.532640903;35.9641171;28.68657869;-2.313186012
6.032556697;-13.93812502;8.87081474;9.618210221;9.757931377;0.011322541;-3.521632473;0.52957884;-0.68189289;-8.892416548;5.014118347;6.165166601;12.65651599;6.616739521;5.061085196;-1.542751853;34.2867277;25.64935936;-4.49095254
5.002717511;-2.417360313;10.59;4.084864908;13.27907323;1.464619698;-1.171689317;3.139444442;1.937516243;-3.575314375;8.874148778;21.44480245;17.65274205;14.30109006;1.580068359;-1.739799908;35.81;23.34679283;-5.128301696
2.181729833;2.730255038;9.857260816;-3.92957472;12.89961483;2.676802221;0.015676542;3.651585099;3.333859448;-0.746350096;15.84408698;38.94526974;24.24944203;20.67698441;1.484591035;-0.885788409;36.62943595;22.50980339;-4.561448003
-1.939991506;0.400349116;7.447976284;-11.31273145;8.602203161;2.720501248;-1.191507624;2.23848114;2.572231214;-0.337798187;19.51848132;43.73513335;27.25157085;19.67413236;1.271789395;-0.330375168;34.05875608;22.99407301;-3.829711424
-5.401446792;-5.975881023;5.327564187;-14.26433844;3.20257463;1.936744539;-4.294389831;0.156641845;0.592287786;-0.722288866;15.62280404;28.87301717;24.67166469;12.0116758;-2.482428783;-0.964416005;29.4511127;23.8111436;-3.867498441
-6.587132278;-11.41887564;5.024031409;-11.11666603;0.090875292;1.42494948;-7.508565101;-1.240737488;-0.63705768;-0.319962339;5.0361333;0.301957248;18.7365737;4.319326482;-9.069661042;-2.745183556;26.78043265;23.45299947;-4.842837101
-5.879272026;-12.7266184;6.395438123;-3.766984735;0.540548091;1.916486957;-9.175505617;-1.404810252;0.181193428;1.143900055;-7.042952223;-27.90256107;13.50457893;3.130428043;-13.58573359;-4.964055263;28.61173185;20.81116291;-6.088172063
-5.462622344;-9.97881804;7.773877423;3.519257195;2.886718537;3.106472622;-8.95098366;-0.816583548;2.483329438;2.63755846;-14.6444308;-43.50981555;11.53595778;9.17753202;-11.08406365;-6.938622533;33.39095342;16.39201243;-6.649777874
-7.339178985;-5.71208031;7.340996824;6.818380816;4.182706927;3.991095945;-7.877388073;-0.505621217;4.11656644;2.829896315;-14.44483439;-43.45383548;12.39917786;16.90669222;-1.428807313;-8.549374362;36.59263435;12.79723678;-6.047972397
-11.3425656;-2.81452275;4.620389093;4.46754742;2.801739849;3.803329534;-7.424249315;-1.317460231;2.867506096;1.098546644;-6.936340652;-33.61250285;13.83935193;19.45571448;9.457486426;-10.21829396;34.66443349;13.52395557;-4.687582646
-15.03695611;-2.664782981;0.919160262;-3.048998139;-0.282795589;2.643252728;-8.379783431;-3.463244827;-1.918067698;-2.262745451;4.657472863;-22.56471664;14.11637359;14.64222988;13.39552488;-12.3817796;28.21481027;20.34166217;-3.6017612
-15.71590117;-4.499383451;-1.590217977;-14.34220724;-2.560611455;1.263422139;-10.46409328;-6.566882439;-8.824158308;-6.586848538;16.20581547;-15.16825404;13.31424702;6.77305805;6.072589672;-14.90611139;21.63685071;30.97568571;-3.694624093
-12.78280419;-6.114469849;-1.407399329;-27.60608238;-2.341987505;0.295172482;-12.813028;-10.01626873;-15.28438872;-11.41033959;23.90575698;-10.84460151;12.697788;2.81558241;-9.29317168;-16.9472859;19.53153895;39.18895944;-5.030680637
-8.369822689;-5.352118112;1.296439478;-39.72;-0.279759732;-0.299725153;-14.73737315;-13.25415504;-19.18408674;-16.46600259;24.87124412;-6.714116383;13.08234105;6.357308645;-23.75860724;-17.42666078;23.02127328;37.94736517;-6.713614764
-5.568124667;-1.525089142;4.889176568;-45.52216493;1.266444465;-1.036581432;-16.03589972;-15.806438;-19.96079441;-21.16442879;17.84564407;-1.659099079;13.94946408;14.6156777;-28.74093539;-15.81115766;29.01369436;24.01224636;-7.483716246
-5.776827768;4.047440938;7.431275244;-39.45607862;0.413229823;-2.20594598;-16.6795634;-17.15548574;-18.5055693;-24.22831372;4.314705056;2.637561434;14.12389361;21.0347277;-21.8905803;-12.60779667;32.87123896;0.848496583;-6.627549757
-7.517682309;8.837989181;7.867267629;-19.74506681;-2.476148709;-3.396950058;-16.34035312;-16.73387758;-16.13007813;-24.06240036;-10.89028744;4.135256196;13.22007813;21.13073543;-8.442985085;-9.139294727;32.1194104;-22.48614537;-4.533620269
-7.817048193;10.91304487;6.4550293;7.88445528;-5.006333322;-3.765912448;-14.38953246;-14.19171829;-13.52410028;-19.76181533;-20.8327647;3.354514802;12.31175901;16.44166332;2.787843429;-6.682835812;28.15807843;-36.13870436;-2.458257031
-4.987913953;10.5719562;4.300507057;30.96901603;-4.774136974;-2.844737672;-10.501558;-9.789959099;-10.50378551;-12.00569075;-19.76063448;3.519622411;13.04383927;13.09789617;5.60850815;-5.563679207;24.80729654;-34.96830963;-1.638683994
-0.35232265;10.4411844;2.51045123;36.84281554;-1.456900401;-1.131816094;-5.335654215;-4.565851944;-6.617121865;-3.054768002;-6.750908738;7.622204146;15.93639769;16.22232191;0.221306754;-4.896468808;25.15823813;-21.18722278;-2.386021734
2.696633367;13.53510953;1.617997743;21.33773193;2.828596429;0.143955439;-0.563090155;-0.009559011;-1.966477487;4.280885361;12.91723845;15.26258676;19.48634893;25.05095578;-7.942221642;-3.233585089;29.37226957;-2.520888715;-3.829024848
1.589474764;20.40839658;1.565145322;-6.838800569;5.207085951;-0.034697234;2.004313897;2.657001625;2.508500376;8.052487107;30.13335545;22.45463171;21.05322651;33.15559121;-12.97375648;0.30194101;34.98261627;12.6546252;-4.514730183
-3.029040122;27.62755147;2.037315857;-30.35895185;4.35671285;-1.602901985;1.642150782;3.163065934;5.531739104;8.031933409;36.94470161;24.80385722;18.9549169;33.82292605;-12.88145997;5.233817064;39.06701312;19.8385128;-3.443622342
-7.532969606;29.23275276;2.753188711;-34.23652838;1.543614064;-3.377027778;-0.647006181;2.348122685;6.345713946;5.523810342;30.99626782;21.25117238;14.07143088;26.13548526;-10.2869901;9.924187311;40.30489123;19.82939229;-0.795691723
-8.104800392;20.71851637;3.505715959;-16.01252012;-0.428641625;-3.924034623;-2.663015381;1.633568846;5.216852595;2.394817487;16.48108264;14.96909443;9.554639075;16.45461621;-9.242545394;12.64669557;39.39415718;16.73878311;2.168030932
-3.834719207;2.862877289;4.067911605;12.44169391;0.562035483;-2.641788594;-2.41427268;2.122418779;3.204517549;0.059647255;1.089832107;10.59138622;8.73422188;13.64711828;-11.09215554;12.76223939;37.91210174;14.61193042;3.941477096
2.427689493;-17.63341648;4.195627523;33.16389337;4.380219844;-0.178113448;0.578530068;3.923079106;1.411564809;-0.971679672;-8.767426509;10.33752874;12.75645325;21.6018271;-12.93286408;11.11530115;36.92868272;15.17656974;3.739247623
6.194468613;-31.66549801;3.79460611;34.43607232;8.882685688;2.122932153;5.004247687;6.149377293;0.317040693;-0.918520639;-11.18920285;12.59753173;19.71654465;35.06981821;-9.991446536;9.358214279;36.55359433;17.82765283;1.926667639
4.727631252;-33.26;3.076786587;18.07732912;11.63418681;3.252786339;8.674336154;7.571008256;-0.333402434;-0.304730924;-8.628111862;14.2022434;25.89944044;42.5081353;0.016845672;8.742728933;36.48162823;21.04920873;-0.327608469
-1.006870525;-23.2804868;2.482906981;-3.485973874;11.60083711;3.192905198;9.932410254;7.428654007;-1.084728943;0.322725747;-5.13313553;14.07129246;28.17841917;34.19698625;14.14809504;9.32462798;36.67204787;23.67637067;-1.857498801
-7.287690363;-8.638459856;2.359704993;-17.51215133;9.512216354;2.708432005;8.565456373;5.83554906;-2.196912066;0.462899844;-3.436117047;14.52223829;25.85653206;9.697407881;25.50237777;10.17;37.37973041;25.13570488;-2.169002088
-10.57821195;2.381497651;2.646211486;-20.10783296;6.813181006;2.548855697;5.676496043;3.532110291;-3.383997252;-0.268416043;-3.894138501;18.66012941;20.7813299;-20.95845477;27.79032074;10.32054934;38.60840642;25.09379081;-1.558969074
-10.02279866;5.253254451;2.87112537;-17.13473767;4.292170041;2.794363115;2.782093273;1.268043493;-3.993372644;-1.897681805;-5.418430665;26.09289763;15.88325737;-43.34780611;19.87769088;9.661889385;39.7298753;23.44879784;-0.717174551
-7.601457793;1.219391097;2.51714396;-16.8803468;1.603626426;2.892707965;0.903347702;-0.650142909;-3.398595166;-3.814258969;-6.954922032;31.20816169;13.32699436;-47.69475853;6.906055658;8.96213506;39.83096166;20.89786175;-0.194066983
-6.082514283;-4.82314574;1.475056215;-21.41256634;-2.018608239;2.283875139;0.270641028;-2.29976225;-1.292500836;-4.798602649;-8.087471678;26.38264729;13.51631052;-34.54889837;-2.928690635;9.09775275;38.54371808;19.2633504;-0.123167148
-6.672550468;-8.423356989;0.196581329;-24.3834067;-6.650479455;1.000187187;0.659785327;-3.704326727;2.237722918;-3.56196624;-8.621014228;8.182182252;15.38447171;-13.46424053;-3.686062174;10.2094539;36.5380168;20.61241643;-0.309104894
-8.30921682;-8.342813518;-0.615735261;-17.19262966;-11.26243802;-0.306575067;1.866438197;-4.504265962;6.740332735;0.422639183;-8.142127203;-18.43063684;17.4672086;3.834558788;4.666353543;11.58710082;35.11252062;25.31386786;-0.49839329
-8.970577053;-6.22859096;-0.552772707;2.048324009;-14.39506946;-0.914749321;3.820691699;-4.129775098;11.39939877;6.359753631;-6.410246899;-41.81491346;18.87590978;10.65470812;16.73812333;12.40777831;35.17141364;30.56338183;-0.572218408
-7.636668738;-4.189448672;0.166364519;24.92374876;-15.30471309;-0.647248361;6.290573868;-2.391924331;15.06160608;12.32738362;-4.237289077;-50.70356019;19.59719519;8.111254713;25.78878305;12.63667533;36.48729366;31.11084106;-0.549968004
-5.124232587;-2.801170621;0.855381476;38.11494967;-14.54157307;-0.006839846;8.579266498;0.042834683;16.50124905;16.22664522;-3.610222835;-41.63411961;20.14588549;2.37940943;28.30950761;13.18931079;37.91825572;22.41559418;-0.487773278
-3.174126639;-1.204461617;0.897205056;33.594415;-13.44893076;0.261087896;9.660727897;1.830145126;15.01614734;16.93346636;-6.300461398;-21.24244618;20.99223265;-0.695621197;25.84319528;15.07823955;38.37745719;4.304174416;-0.415171148
-2.776912766;1.262667832;0.220954644;15.08023292;-13.03775032;-0.233174906;8.786126558;1.80341419;11.085317;14.91524333;-11.78564162;-1.701018436;22.17092062;0.580681506;22.96986381;18.21319398;37.66761676;-17.71663743;-0.355390446
-3.334656395;3.872231972;-0.668208187;-4.805923269;-13.22776076;-1.283259798;6.105236295;-0.090445446;6.540078125;11.90549157;-16.45573887;7.275587974;23.22088893;3.804325261;23.25582158;20.94973023;36.4387096;-34.98249483;-0.35620216
-3.396083281;5.078335609;-1.122285674;-14.41910365;-13.09632802;-2.364400642;2.735663169;-2.566648573;3.848335441;9.84180353;-15.44629619;4.03538134;23.38093259;5.462300511;26.35889388;20.95525406;35.36391068;-40.71417913;-0.454088267
-2.217013916;4.229872023;-0.879518227;-11.78065809;-11.87578872;-3.118103729;0.109562266;-3.81036531;4.705467309;9.736723988;-6.26366474;-5.486388778;21.90592885;3.983317023;28.42756427;16.86971766;34.36481407;-34.18210268;-0.599504159
-0.650426131;2.538746213;-0.250278856;-4.880579854;-9.792630808;-3.582740804;-0.979154821;-2.82099629;8.764008862;11.16428098;8.553961532;-13.23609213;18.40151117;0.561511714;25.32671342;9.494693276;32.65969508;-21.00468584;-0.652595524
-0.50639637;2.11809729;0.182301256;-3.593951646;-8.002899048;-3.995394595;-0.91128959;-0.287358556;13.46741465;12.63097179;22.27866453;-14.88334502;13.08261619;-2.335055352;16.09302478;1.516638303;29.61507727;-9.329272916;-0.505061819
-2.928693313;3.88946829;0.07791697;-10.41101546;-7.681884418;-4.419591703;-0.920453457;1.751750188;15.34902005;12.55619185;28.32449851;-11.76346531;6.832637451;-3.060482843;3.954548625;-4.113907122;25.59864926;-4.638684505;-0.233450879
-7.232623572;6.448161994;-0.375276178;-18.16760665;-9.058033024;-4.612532502;-2.118151244;1.313924545;12.14755359;10.25335099;25.07089358;-8.226422103;0.965928939;-1.720252644;-5.799668374;-5.965482596;21.99489926;-6.843229358;-0.104428097
-11.24976717;7.209716305;-0.647869332;-16.84507052;-11.21493127;-4.290130241;-4.588144476;-2.054109876;4.397326959;6.346684364;17.32191525;-7.333174984;-3.264962409;0.467458048;-9.415985857;-4.767097724;20.29098148;-11.45920662;-0.354852995
-12.91207032;4.962144702;-0.364946427;-3.524149885;-12.81664352;-3.531926376;-7.245454779;-6.857768247;-4.649891277;2.411634321;12.83695455;-8.633403057;-5.197769097;2.40223648;-7.050078125;-2.529166092;20.98184957;-13.55694969;-0.896837343
-11.75472874;1.412626532;0.319168993;13.37510298;-13.13455489;-2.896476891;-8.59196214;-10.65435126;-10.86482101;0.069264263;16.23628873;-9.428164482;-5.038371272;3.726053068;-2.300985039;-0.969552215;23.21228027;-11.26402114;-1.236670809
-9.129144065;0.034281299;0.797924808;19.72874644;-12.52818722;-3.065495804;-7.825098794;-11.76042405;-11.7266218;0.063383154;24.95390566;-7.783123014;-3.726351156;4.528053639;0.511437879;-0.549663118;25.42766058;-6.34019544;-0.776084177
-7.047431221;2.986961636;0.49488922;6.955220434;-12.02217046;-4.279905106;-5.480611172;-10.39866945;-7.836608307;1.857257509;30.67721249;-4.336840341;-2.463884292;4.779917407;-0.835859003;-0.796318396;26.44683569;-1.924352282;0.660073242
-6.705125299;8.85554747;-0.634543424;-20.36603086;-12.38206451;-6.058973598;-3.122080782;-8.429354582;-2.446723841;3.997420274;25.58993199;-1.439800299;-2.16239489;4.269709757;-5.522615638;-1.413278024;26.07287554;0.241323266;2.486120923
-7.884965779;13.46917541;-1.990793242;-46.98122163;-13.47689603;-7.481800693;-2.279854358;-7.887812055;0.685746705;5.043708813;8.85523905;-0.746096156;-3.069100374;3.088694076;-10.93246074;-3.000433856;24.8536712;0.743654957;3.561365166
-9.567575814;13.3754585;-2.708471676;-57.80380096;-14.43064672;-7.834711076;-3.381289385;-9.451901716;-0.317851915;4.500646376;-11.72562844;-1.66394736;-4.704770695;2.015112453;-14.75205412;-6.599608394;23.39114523;1.151355477;2.901425088
-11.00710004;9.006183904;-2.24470012;-48.55768349;-14.3874219;-7.107904714;-5.417084925;-11.98969152;-4.402804566;3.142618322;-24.48576569;-2.043303033;-6.095804732;2.19312769;-16.20665796;-12.42034008;21.93161542;2.035792045;0.426351839
-12.22687816;4.58688568;-0.745013219;-27.95269639;-13.22829875;-5.944997103;-6.568768452;-13.47993605;-8.482203031;2.479315744;-21.83448413;-0.284235302;-6.200213114;4.258130787;-15.76390948;-18.95801497;20.56968813;2.395624794;-2.828632849
-13.56484263;4.601844885;1.059971724;-10.15251232;-11.66456623;-5.1056024;-5.364865016;-12.54511524;-9.586388051;3.674507034;-5.583887308;3.211251763;-4.392057746;7.715379554;-14.0475369;-23.50909184;19.69706882;0.979756825;-5.266794383
-14.86761651;9.777918541;2.317942489;-4.092895185;-10.67551931;-4.895866352;-1.599000313;-9.414667483;-6.766731011;6.638439727;14.29165368;6.55933838;-0.831566167;11.2309202;-11.21960205;-23.9382409;20.04140287;-1.943353845;-5.71499334
-15.27481927;16.21535238;2.530092773;-8.293222684;-10.78070164;-5.018980335;3.56;-5.645887182;-1.537850782;9.945956358;26.57184109;8.258811728;3.47620646;13.64659081;-7.363990697;-20.41541503;22.06906331;-4.314387858;-4.166803949
-13.93927068;18.68355524;1.736141695;-14.66733456;-11.71972807;-4.916894465;8.279666779;-2.924158429;3.278164383;11.68592885;26.31854576;8.532943337;7.055270355;14.8127459;-3.242585007;-15.70106648;25.25612983;-4.010561733;-1.765722657
-11.06373338;15.37162177;0.364066316;-17.09197218;-12.73575755;-4.262025713;11.09506371;-1.933402411;5.373085152;10.68628085;17.60337171;8.878718715;8.664038678;15.47913783;-0.366059403;-13.58757682;28.02411344;-1.039070973;-0.051842498
-8.216200327;9.85011943;-1.06386246;-16.79126575;-13.17135595;-3.170048828;11.61676962;-2.127477275;4.189510813;7.272522885;9.695196214;10.3469752;7.969533271;16.39162271;-0.045540629;-16.50522373;28.63951141;2.006827738;-0.009096769
-7.435674628;8.196148115;-2.141937532;-19.92889877;-12.88572059;-1.99462513;10.55255566;-2.436187057;0.896272784;3.044555452;9.803129139;12.3175916;5.748297564;17.52996614;-2.246213603;-23.9561543;26.49053135;1.990661422;-1.552098918
-9.701280666;13.43268533;-2.632609162;-30.02694277;-12.20979607;-0.949574753;9.144669897;-2.199119281;-2.62508275;-0.131155769;17.82106576;13.03489213;3.416191825;18.2814309;-5.462273551;-32.83503958;22.69471109;-1.809116771;-3.730501007
-13.97676469;22.02331347;-2.447707224;-42.539139;-11.55200202;0.065256717;8.448996273;-1.533439202;-4.909490264;-1.161157898;26.75589609;11.41853813;2.143926925;18.36390825;-7.972143222;-39.32512639;19.4369498;-6.508417274;-5.41115653
-17.6765282;25.75999166;-1.669694776;-47.00829704;-11.01632898;1.282691594;8.885453813;-0.921090681;-5.407456553;-0.076591739;28.17320634;8.354874756;2.145979991;18.45354569;-9.443011886;-40.99954159;18.46360729;-7.574716004;-5.922695958
-18.30518966;17.98279968;-0.603683505;-35.45580112;-10.32794858;2.731506091;10.23127174;-0.502270489;-4.248529381;2.436657068;18.42829569;6.094052796;2.643655689;19.66409873;-11.28676215;-37.78195573;19.89014861;-2.579930199;-5.281025863
-15.09676663;-0.682265776;0.261135679;-9.941290609;-9.084132966;4.091495717;11.93044626;0.222655383;-1.740649513;5.809412459;1.219993727;6.186809452;2.519861135;22.20443691;-15.13487968;-31.40102531;22.26043849;6.403443314;-3.986002384
-9.472553394;-21.7703916;0.46453663;17.41655536;-7.107501887;4.899207238;13.45366881;2.002312356;1.854090818;9.960597305;-15.00544403;7.900250338;1.166116179;24.59344352;-20.59313101;-24.05462589;23.78197315;14.06367873;-2.659367109
-4.034356445;-34.31447413;-0.12777393;32.51101865;-4.643254235;4.92476919;14.50936626;5.122953421;6.138699972;14.9929112;-22.54093636;8.771248996;-1.107615163;24.57544206;-24.43658814;-17.35068525;23.70630246;16.07761012;-1.788246539
-0.876559001;-32.13125675;-1.177977806;29.23106165;-2.28921956;4.372111226;15.07162867;9.035229181;10.33320742;20.58607838;-18.83253686;7.023503722;-3.357901996;21.32695878;-22.50011525;-12.07050906;22.74022592;12.9307873;-1.632715912
-0.41427213;-17.62016157;-2.061308374;13.54446672;-0.72847136;3.713474874;15.30805565;12.66716727;13.38644878;25.75559729;-7.149929647;3.697997466;-4.682368865;17.00441316;-13.2245297;-8.492948528;22.22428432;9.952556713;-2.194727146
-1.436188822;0.544244112;-2.312194315;-1.36389062;-0.42397847;3.305200425;15.49323167;15.15890888;14.52212651;29.31884826;6.218096194;2.309623094;-4.704278068;15.74245046;-0.023216207;-6.656649357;22.86038874;13.09295756;-3.179969471
-2.163629666;13.69975944;-2.010216125;-4.834994697;-1.418294794;3.13278489;15.92794008;16.39513109;13.83473894;30.74748256;15.75203536;5.866499269;-3.529255768;20.20227335;9.940916433;-6.255955423;24.1136613;23.53641874;-4.03146086
-1.464724121;18.53412343;-1.768837996;4.274577449;-3.31755631;2.913461919;16.84322237;16.91446068;12.41394566;30.67773659;18.94063669;13.53144509;-1.357970847;28.20158252;10.34900631;-6.445787777;24.77931111;35.52896167;-4.160314378
0.565485697;17.78246218;-2.268612942;18.30099121;-5.472752854;2.454552392;18.29613517;17.33936105;11.80187968;30.57911528;16.16897165;19.9132381;1.751611312;32.61668879;0.591988868;-6.045889842;24.1666522;39.57689563;-3.338448303
2.87618175;16.56762685;-3.65432594;27.72859394;-7.298424681;1.928141597;20.11888195;17.8767359;13.11113261;31.77075602;9.293156364;18.14944849;5.677460764;25.63212267;-12.90428257;-4.254753657;22.81834945;29.06170429;-1.984166774
4.232606381;17.94159114;-5.280560088;28.27577194;-8.584224815;1.794092044;21.98703038;18.32830601;16.41221829;34.53350954;0.464138736;4.910321034;9.807739667;4.864267696;-20.40022859;-1.38261674;22.10595816;5.516365089;-1.026773842
3.952736658;21.20289693;-6.071962393;22.68809596;-9.606755516;2.419356772;23.59661626;18.53944226;20.8028268;38.0032348;-8.120019531;-16.34994666;12.94950985;-23.24360775;-15.35571655;1.092962396;23.03808619;-21.42503892;-1.306464506
2.257765648;23.69965833;-5.296807741;16.78714486;-10.91777091;3.718014062;24.84129874;18.78720195;25.06142095;40.89060082;-14.06422363;-36.58374989;13.89652665;-45.99541479;0.843326225;1.388441115;25.31461129;-39.58201537;-2.876547254
0.168488711;23.82317608;-3.192778951;14.03033399;-12.88594882;5.128325304;25.85498334;19.66352599;28.38060783;42.40249263;-15.13678657;-46.32601097;12.34952213;-51.98892743;19.47880016;-1.336301458;27.46288598;-41.50258411;-4.766383534
-0.954211709;22.31615079;-0.93685263;13.3777449;-15.28718794;5.961446579;26.87460174;21.50046812;30.68328429;42.61480665;-10.35930632;-41.44956461;9.421927534;-38.63940445;30.17371651;-6.275100517;27.98012797;-28.53731593;-5.504198164
-0.067910394;21.04957843;0.087168098;11.64903455;-17.28367753;5.850915554;28.02066729;23.85692412;32.40208345;42.06315757;-1.061633985;-25.58511479;7.157644816;-14.18814441;27.70337214;-11.40142962;26.5615992;-9.228163764;-4.127861089
2.923157567;20.92779708;-0.766780639;7.386570481;-17.90548369;4.96274742;29.16893318;25.59291844;34.0097005;41.01187958;9.15145796;-7.611304611;7.257174889;7.569991721;15.18777882;-14.74479759;24.42007813;6.432257291;-0.969384584
6.89621188;21.20562195;-2.935542487;2.277937945;-16.76763723;3.83608184;30.02020056;25.56815019;35.69625864;39.11938225;15.87245697;3.964470861;9.925879281;16.28632365;1.589736222;-15.5701275;23.43857322;12.71624539;2.421933476
9.883241537;20.82328544;-5.014916326;-0.996210176;-14.5073907;3.016207045;30.31267106;23.44103721;37.36121482;35.82227846;16.05757109;5.895149607;13.76879893;11.38864504;-4.443637025;-14.59252277;24.81814748;10.27204281;4.25333619
10.07001953;20.16165823;-5.723835774;-1.953242052;-12.54798647;2.766719493;29.99881105;19.91755828;38.77734018;31.07974187;9.576845365;1.258481029;16.87426422;1.285389135;0.084664395;-13.12963561;28.24416909;4.019421981;3.709212522
6.935578056;21.09828733;-4.776241004;-3.02585092;-12.2555011;3.026610956;29.23812746;16.23643065;39.68739852;25.77096866;-0.762409246;-3.584814202;18.26365286;-3.678574585;11.54164401;-11.92626676;32.14636386;-0.876933001;1.536242982
1.784660854;24.93848318;-3.035594647;-6.874237676;-14.0326958;3.553725662;28.22130601;13.30979802;39.76861539;21.33297123;-10.62806908;-3.656173302;18.55433345;0.997176616;23.15287003;-10.610326;34.78189645;-1.903817061;-0.457893133
-2.817259326;30.08175607;-1.856572335;-12.94326642;-17.00538261;4.080058594;26.99842088;11.21795225;38.62846626;18.89148084;-16.10577188;1.642304933;19.30463944;11.30172569;29.91415323;-8.192819265;35.30709766;0.534981346;-0.655582693
-4.490097656;31.92101404;-2.115241136;-16.96638294;-19.57089485;4.376344526;25.48782973;9.438135094;36.01072406;18.57431074;-15.16597267;8.967350509;21.59494189;18.83476213;31.29388015;-4.168839612;34.11474159;4.727566291;1.255843293
-2.475949649;25.71135005;-3.642241752;-14.4833716;-20.45213394;4.271000728;23.67588507;7.549618257;32.15044985;19.5239342;-8.164519732;14.12402542;25.03941126;18.05144831;30.23690868;0.698401208;32.32797342;9.274179386;4.085395172
1.912047121;10.46365371;-5.448186579;-5.479011972;-19.5077406;3.718562247;21.82137078;5.758323031;27.95898352;20.52366532;2.511272584;15.2893768;28.06262822;10.69602421;29.9221391;4.566375444;30.93397068;13.49629181;5.962313387
6.165732673;-9.289088334;-6.524695285;4.281937485;-17.71161168;2.912065978;20.43656985;4.770194502;24.74024663;20.67921312;13.28302046;14.05997362;29.20278275;4.015229987;31.13934765;5.571276759;30.1889166;16.86836883;5.56503831
8.18387628;-25.57268854;-6.585013974;7.081880537;-16.33353231;2.305909514;19.99040407;5.141567937;23.49;19.66620004;20.4389649;13.80879348;28.3261649;4.506917107;32.16934417;3.002263353;29.61587975;18.55325673;2.898597473
7.478247246;-31.66391259;-6.187426577;-0.495116677;-15.96063839;2.426666403;20.5361471;6.710241583;24.23228181;17.54808595;21.28225345;16.82041641;26.71113975;12.52483706;30.77942585;-2.223429862;28.4695115;17.73766561;-0.848143612
5.169554274;-26.10969414;-6.184064324;-14.15230265;-16.11942873;3.529144687;21.58022073;8.638622954;25.9231657;14.57036471;15.17874745;22.44285158;25.930524;22.1758864;26.34961838;-8.078638738;26.29409541;14.44253509;-4.154011731
2.871525044;-13.30175973;-6.959445034;-24.59526673;-15.78340156;5.345006934;22.35405933;10.04632742;27.07371923;11.24245642;4.111065844;27.59999643;26.50028042;26.44506425;20.37883122;-12.55563733;23.25168129;9.916163222;-6.065153958
1.376807064;-0.419547865;-8.066954437;-24.60170508;-14.34455975;7.167868519;22.32891159;10.6726698;26.6867318;8.54668007;-7.699714098;29.18615224;27.47165047;23.14298978;15.20961409;-14.6775506;20.10249512;6.117850213;-6.559219627
0.153931169;6.910744573;-8.543050122;-14.81782152;-12.24498284;8.2783733;21.58629599;10.97604202;24.83243684;7.798004308;-15.23044394;26.46191535;27.33303731;16.6664781;12.26341215;-14.82719073;17.89408553;4.680930995;-6.262790027
-2.010501127;7.318518684;-7.649470256;-3.411226005;-10.72014566;8.419798792;20.73338143;11.58405919;22.4588723;9.929618442;-14.71916309;21.59920541;25.44792835;14.13291341;11.24894872;-14.31045242;17.49536758;6.189739783;-5.871016029
-5.787889924;3.395947602;-5.475149339;0.363180018;-10.81185123;7.95269923;20.39903619;12.60382256;20.63659181;14.62865468;-5.476341887;17.95386779;22.76949735;19.18041049;10.78268546;-14.50940585;19.14816935;10.20325911;-5.732810087
-10.48909472;-0.730254378;-2.95200008;-6.4262196;-12.41556294;7.547309946;20.69326412;13.44431525;19.8675586;20.14316083;9.459889956;17.4210713;21.17042104;28.68231543;9.691582697;-16.12779445;22.23962091;15.6844715;-5.819451108
-14.29194993;-1.969577949;-1.285280757;-18.03700112;-14.14879199;7.643204289;21.06790467;13.34838131;19.97426474;24.20759458;24.28038229;19.00040284;21.9077265;35.20284763;7.921736855;-18.88398273;25.47053043;21.19303457;-5.953973334
-15.34804118;0.506329853;-1.217213928;-24.7419875;-14.22670474;8.105284951;20.71345793;12.17306989;20.53316861;25.57429477;32.72049497;19.80653433;24.50152405;33.24108327;6.533158392;-21.72491679;27.43248749;24.69802267;-6.028336167
-12.96725697;5.55518678;-2.627511149;-20.80690851;-11.75688796;8.352243738;19.19703872;10.68723783;21.32972926;24.9256889;30.82805685;17.7990173;26.99178798;24.11689939;7.024995417;-23.38941612;27.34552171;23.61509105;-6.046045412
-8.066926156;11.13780888;-4.695793499;-9.309505511;-7.509993137;7.845669936;16.8399848;10.0409494;22.34462244;24.2427395;18.95150059;13.97024413;27.40791528;15.36302968;10.52186661;-23.02562698;25.52785064;15.77247596;-6.038301692
-2.631411907;15.4195826;-6.448672565;0.109622342;-3.56753258;6.530609042;14.52964452;10.79196669;23.31126237;24.94865528;1.892203718;11.93745535;25.28816344;14.88022338;17.12252331;-20.57665526;23.25676336;1.157661759;-6.001054303
1.399374082;17.56194312;-7.290629924;-1.188896697;-2.044721398;4.866225951;13.10811322;12.31613174;23.40940742;26.34118455;-13.11465853;14.87253032;22.04839974;24.34337132;25.46486771;-16.77110829;22.04044515;-16.80737127;-5.924489393
3.082582128;18.0703545;-7.20377188;-13.90325961;-3.747661504;3.437956975;12.81663156;13.17007813;21.6371419;25.84291401;-19.8475555;22.03568011;19.93656731;37.04629134;32.66876788;-12.750287;22.72448634;-31.92787553;-5.851468504
2.736218621;18.48557403;-6.582307674;-29.83422422;-7.668386393;2.496031328;13.22003906;12.19926616;17.77451818;21.20802149;-16.28196901;27.93158047;20.42725539;42.02687782;35.05923312;-9.548337438;24.99863204;-38.12605483;-5.863705671
1.475923634;20.31517126;-5.906294788;-37.55966794;-11.62900096;1.815153887;13.63594836;9.531315611;13.15127945;13.05289808;-5.646495131;25.40735465;23.29392899;31.58306027;29.88152583;-7.708100453;27.61951546;-33.0380509;-5.988732028
0.407872708;23.68319815;-5.49632273;-30.40256315;-13.6016017;0.977703036;13.68278945;6.628807452;10.3489501;5.463102207;5.524005699;10.92537668;26.97419846;6.812229212;17.40688866;-7.207138122;29.19139874;-19.84484388;-6.133355631
-0.01914596;26.77035442;-5.451869271;-10.92877023;-12.81690117;-0.191694314;13.48532461;5.296033721;11.7148841;3.703700142;11.41174931;-11.85152036;29.78688246;-22.65679919;1.991863077;-7.651209944;28.99081794;-5.755750079;-6.144929777
-0.172724008;26.89281421;-5.71456986;10.8738909;-9.9958283;-1.439046003;13.39442969;6.370687671;17.60767333;10.39186254;10.56286149;-33.25493825;30.96051629;-44.37070504;-9.242606796;-8.529415962;27.32919779;2.16338776;-5.969868721
-0.881153753;22.80247644;-6.145118644;23.93597889;-6.686593968;-2.310171722;13.51368158;9.099367891;25.73692777;23.0129962;6.651569924;-43.30905201;30.7391617;-50.18580781;-10.04385119;-9.347059007;25.28578108;1.140353203;-5.752185175
-2.80277149;16.41234254;-6.564582671;22.39906272;-4.270407453;-2.585430653;13.49608697;11.67295865;32.31414922;34.97332987;5.621112793;-38.1304914;29.69887815;-40.2548448;0.973070766;-9.631036724;24.04454966;-5.968102697;-5.737888002
-5.888134807;12.08213979;-6.790390729;8.099976004;-3.315814584;-2.519121608;12.82760705;12.5025596;34.39111177;39.80208947;11.02843829;-22.38047471;28.04792323;-21.84710602;18.72362141;-8.960078125;24.25987961;-13.00810174;-6.027555083
-9.257122536;13.35645853;-6.704573269;-11.38427235;-3.595954407;-2.652606634;11.361685;11.26494528;31.76680384;35.58513155;20.93836184;-5.856838075;25.56916447;-4.484259335;34.01018911;-7.140039063;25.7788376;-14.79766703;-6.391572087
-11.60104815;19.43136267;-6.330585475;-27.02879766;-4.567449409;-3.351244232;9.611164565;8.965853923;27.04783884;26.3017354;28.85049603;3.30700632;22.16848987;5.174547176;38.75696782;-4.437141898;27.79661527;-10.31229747;-6.352619534
-11.91527744;24.49778499;-5.846353507;-32.32056504;-5.840731368;-4.469890851;8.482427583;7.059270079;23.77944243;18.93490294;28.2695217;3.763949655;18.39390616;5.843116177;30.85588365;-1.609389081;29.30694181;-2.705176733;-5.525796505
-10.12890667;21.28602748;-5.491960746;-25.4391449;-7.304544491;-5.451426008;8.615708298;6.373982217;24.01997888;18.42515245;17.67886837;0.658340712;15.33314732;0.823629447;15.38122847;0.445530563;29.62233514;3.526294228;-3.96262079
-7.204068235;6.720490812;-5.420970481;-9.575922559;-8.928455366;-5.789676072;9.866747931;6.678787798;27.15226399;24.23537442;2.109115052;0.492341993;13.91528963;-4.787676403;1.326066933;1.28486882;28.74702371;5.910538635;-2.197366821
-4.586113692;-14.63146632;-5.606519675;8.2921845;-10.53116359;-5.464996836;11.39292196;7.142285968;30.74742541;31.09297375;-10.12877051;5.573190466;14.23801205;-6.97897248;-3.916553647;1.316075204;27.43159638;5.430125937;-0.913184973
-3.331558833;-32.49885591;-5.878917816;20.05600532;-11.7696132;-4.970639994;12.3253423;7.213692653;32.68541012;33.26098254;-13.29562544;12.64965747;15.55269894;-4.45346688;1.361305038;1.588773896;26.82943804;5.194605408;-0.464334728
-3.504352769;-37.4243288;-6.063543442;20.14686919;-12.34727521;-4.888554508;12.50729399;7.159277183;32.78301248;28.97738911;-8.27106871;16.66662449;16.9497916;1.337513782;13.01728396;3.010078125;27.84940969;7.653469654;-0.635835631
-4.276384289;-27.26470336;-6.10296693;8.758216634;-12.21478313;-5.358101655;12.68552484;7.834565423;32.65324413;21.6364685;-1.617911273;16.07670832;18.13955551;7.413340995;24.42152303;5.522282783;30.5186201;12.60211796;-0.849912578
-4.662748212;-8.720598623;-6.065038874;-7.605776512;-11.54631537;-5.884606415;13.9556131;9.928190961;34.02084387;16.90754929;-0.2813097;14.70350747;19.61956256;11.06299786;30.63196641;7.924209307;33.77577189;17.4405325;-0.664985184
-4.33334735;7.417065188;-6.044474562;-19.52086509;-10.50063054;-5.667481954;16.86414129;13.32699288;37.00201725;18.18898959;-6.005314025;18.12566856;22.0682328;11.38897045;30.56159283;8.59405694;35.94595289;19.34801216;-0.15881588
-3.866679763;13.74587987;-6.061419031;-20.56905124;-9.001374241;-4.209304638;20.87022164;17.11040772;39.85782016;24.02705138;-13.88350681;27.5290089;25.51677741;9.76470764;26.24699241;6.661306749;35.7203229;17.63634199;0.13261374
-4.241136467;10.76324366;-6.056702713;-11.92670864;-6.782878733;-1.738554557;24.61311471;20.1463782;40.45505957;29.45490644;-16.26762814;36.65437517;29.08286177;8.805751315;20.54701285;2.750112708;33.04725477;14.49863788;-0.314269163
-5.972192953;5.148490889;-5.983690574;-1.87575818;-3.721294551;0.880385309;26.81486213;21.79606924;38.19096893;30.03792444;-8.991286501;35.30466313;31.5737052;10.37069168;15.34907927;-1.329261866;29.28594812;13.57999513;-1.516065409
-8.603836817;3.604710231;-5.896419342;0.1536262;-0.195706747;2.686964262;27.15443069;22.2047897;34.70638952;25.32268906;5.05734868;17.39207618;32.48990017;13.98081085;11.31314413;-3.776046977;26.41251006;17.31862943;-2.889931421
-10.9870407;7.536229498;-5.931232862;-8.952183408;2.8579484;3.223754634;26.46997752;22.03709221;32.70126181;19.00808228;17.93814547;-12.76973977;32.5672406;17.03817169;8.565990548;-4.005148532;25.74484132;24.8239286;-3.672123472
-12.13529669;12.85813286;-6.180859893;-22.78145672;4.336366012;2.783688555;26.15572124;21.95028377;33.75792664;15.87964029;22.71616917;-41.49679606;33.34167907;16.9973625;7.116723997;-2.944221881;27.06344379;31.73391754;-3.533334083
-11.96240523;14.6646488;-6.57147937;-29.51767949;3.596970656;2.169205257;27.21331609;22.2345238;36.94219988;18.09644083;18.76191105;-54.15738952;36.02842762;13.94788793;6.536010015;-2.196270292;28.78900248;32.31958346;-2.895175379
-11.2908309;12.27055828;-6.866443587;-20.90468165;0.903466443;2.168940966;29.63858449;22.81658075;39.35916662;23.75979556;12.03583389;-45.07119092;40.58622576;11.32399099;5.637341939;-2.734563972;29.13659661;22.78472114;-2.669564816
-11.11393222;9.925465661;-6.815764075;0.596392454;-2.646598157;3.113155459;32.52857558;23.48090799;38.27014985;28.6797012;10.09850296;-21.43014782;45.6985677;13.59907066;3.140213371;-4.164628852;27.43457975;3.942605213;-3.592699148
-11.71528853;12.46490084;-6.339954003;22.31890048;-5.708955765;4.758482756;34.74443555;24.02233418;33.11895175;29.6602976;15.82947538;1.84823901;49.66508344;22.25358685;-0.784778656;-5.1248029;24.64244934;-18.37034201;-5.650691023
-12.37718568;19.83521374;-5.600334313;29.86597453;-7.438258164;6.501367922;35.59940156;24.20462691;25.89580007;26.58829754;24.89405853;12.50090566;51.48210253;33.13902492;-3.524159501;-4.475440353;22.67326546;-35.68454452;-8.035500697
-11.93599329;25.67816642;-4.901520317;17.61118702;-7.918967207;7.728320929;35.11227475;23.66647156;19.60509309;21.85374226;29.01045558;8.730371725;51.29040103;37.86520707;-1.101457379;-2.299123088;23.00751745;-41.07983067;-9.673369211
-9.752696668;21.79079464;-4.511568883;-6.676364001;-8.007906802;8.090632274;33.76286404;22.00867435;16.09223751;17.95476471;22.45556278;-1.185654694;49.93657325;29.01220291;8.757477472;0.091636811;25.60959394;-32.94805784;-9.943481715
-6.326747768;5.116531493;-4.543712862;-26.88;-8.693247943;7.601103423;32.05543877;19.11144501;14.92360245;15.52276603;6.715508785;-6.596244771;48.12608879;5.81485178;23.71333898;1.123212315;28.92658777;-16.07176347;-9.075506686
-3.062733702;-18.56908994;-4.969559541;-29.8350335;-10.38019812;6.571242859;30.25639986;15.44331737;14.09;13.37;-10.2805211;-3.014194228;45.92192159;-23.94523479;36.7562055;0.109576775;30.94537739;0.875201666;-7.965371998
-1.36341177;-37.69439721;-5.702316022;-14.64219556;-12.55454224;5.45843698;28.4307517;12.02428917;11.82261999;10.21793905;-19.62793091;5.202253512;42.96123076;-47.75218901;39.89368071;-2.322572361;30.52453025;10.13974365;-7.571297562
-1.729944792;-42.65892095;-6.631356849;6.868910091;-14.03697919;4.683999784;26.61453516;9.929610871;7.990916445;6.296674296;-17.35617416;9.591806141;39.09338517;-55.70135103;29.47702295;-4.809601047;28.06503608;9.143484232;-8.324630291
-3.510862386;-32.43924962;-7.565753807;18.81984456;-13.68003906;4.471072864;24.88462528;9.608210748;4.017128001;3.272246401;-6.464428712;5.252868353;34.78364794;-46.45622849;9.312789649;-6.29360883;25.11576246;1.473561207;-9.930436613
-5.421969747;-14.99302797;-8.178006902;12.62737963;-11.09388323;4.76040347;23.25827052;10.51141731;1.529820996;2.615600711;5.962910106;-5.106026257;30.87819229;-27.69267103;-11.0985347;-6.676975416;23.28529629;-6.038733028;-11.6238697
-6.398972262;-1.308209144;-8.085248084;-7.289324525;-6.966898325;5.259100812;21.5761851;11.36493291;0.987207155;4.013753585;13.82636818;-13.79653152;27.94;-10.78475965;-22.35820808;-6.635222498;23.26457216;-8.139585486;-12.64536822
-6.172408393;2.171062257;-7.092288287;-27.33713945;-2.779754846;5.621657114;19.56568686;10.96129292;1.41989261;5.385962744;15.27360306;-14.75070518;25.78041054;-3.565613071;-21.00377312;-6.872407521;24.57952574;-4.505330916;-12.61305576
-5.248831511;-2.944088678;-5.435238042;-34.87465867;-0.058932903;5.66956314;17.09872005;8.945311399;1.41529539;4.572033264;12.18497429;-8.251844805;23.65134338;-6.197538558;-11.15842272;-7.53108524;26.10406347;0.688786492;-11.61855183
-4.448332682;-9.678390238;-3.786737827;-26.97579751;0.414263568;5.502266238;14.43074412;6.036392342;0.408165439;1.19437372;7.235343331;0.029702457;20.97338799;-12.65822795;-0.835724839;-8.245530648;26.85419548;2.497307188;-10.09125077
-4.404749939;-11.79157839;-2.923773717;-11.63477884;-1.008439195;5.406193921;12.16211553;3.52067036;-0.862125132;-3.001648344;1.611350973;4.370914773;17.97116095;-16.12770468;4.195787759;-8.694736333;26.50371217;-0.72787543;-8.587840446
-5.334177781;-8.209495095;-3.23488506;-1.13742807;-3.07477009;5.612927566;10.87135667;2.369382544;-1.098592614;-5.666798891;-4.701599229;3.69767159;15.62960207;-13.92053772;4.223168548;-9.057444123;25.38066268;-6.099196382;-7.620651701
-7.088072297;-2.66956982;-4.42732208;-3.015930004;-4.337492318;6.085397728;10.66267391;2.605851848;0.271920567;-5.880413729;-10.90368965;1.577578425;14.94416127;-8.457061455;4.189607143;-9.895860352;24.10198799;-8.680437803;-7.53559883
-9.313716324;0.338180413;-5.701208346;-15.27244243;-3.908659228;6.509087706;10.98862249;3.353789619;2.383459644;-4.871553674;-14.21;1.933167308;16.04721306;-4.19263373;8.38973165;-11.56400833;23.17495524;-5.609631166;-8.411213796
-11.57819631;-0.539168054;-6.32012817;-28.83558597;-1.828283627;6.516832628;10.9298013;3.499903337;3.382211424;-4.780447138;-11.2484837;4.822476763;17.9303169;-3.546840512;15.74638308;-13.71709462;22.78509038;1.530556385;-10.00149087
-13.46161759;-2.939845742;-6.178010357;-34.70577015;1.117393123;5.98780461;9.765361844;2.468184368;1.682074834;-6.595302756;-1.155274495;6.427410555;19.02250088;-5.255838066;19.75833088;-15.44217902;22.78372462;8.01659282;-11.80062079
-14.68984911;-3.448545924;-5.918753075;-30.17976266;3.926606177;5.185029137;7.430305282;0.548807567;-2.950504972;-9.177154415;12.41622335;3.304179778;18.20373662;-6.151993142;13.48488973;-15.97746167;22.7874913;9.833461505;-13.26770683
-15.28580434;-0.726229672;-6.475633168;-19.8979632;5.858570771;4.60290774;4.526704881;-1.422803878;-9.25980249;-10.32746427;22.57980721;-3.23347258;15.48918745;-4.38195042;-4.202901729;-15.42793753;22.34145943;6.831735828;-14.11676301
-15.59748372;3.629927624;-8.342534866;-11.70429129;6.562628954;4.61404281;1.887601042;-2.755472813;-15.31655547;-8.987048442;23.34398399;-7.104273261;11.89060157;-1.046962209;-26.13965741;-14.82489827;21.14990338;2.566294987;-14.47071618
-16.08788258;6.872403796;-11.12088319;-10.96646519;5.89613057;5.168018507;0.026118024;-3.420761684;-19.61069654;-6.550203736;13.66847251;-2.416495013;8.616917568;1.092948664;-40.51771759;-15.39109881;19.32742562;1.033550438;-14.72587249
-16.97053221;7.58409418;-13.70661282;-17.49177803;3.739846829;5.774420137;-1.121392667;-4.009952295;-21.66823006;-5.965231827;-1.6076868;10.76524876;6.27849255;0.473603481;-38.43693235;-17.53920009;17.50835894;3.195353639;-15.17948637
-17.96729172;6.63999341;-15.01085139;-26.63033576;0.094594451;5.806650553;-1.985738949;-5.171726732;-21.92337182;-9.224695582;-14.69715091;25.22915246;4.707977498;-1.601835871;-20.08029178;-20.38955561;16.63614154;6.369016657;-15.68703728
-18.43755847;6.155612111;-14.7017617;-32.95211112;-4.573867942;4.932680765;-2.877250654;-6.964656695;-21.1455373;-15.3483267;-19.51484867;31.73226502;3.466173541;-2.060163061;4.922444183;-22.22327688;17.43816016;7.050944934;-15.64583809
-17.85146493;7.761573656;-13.42793852;-33.48;-9.107862585;3.380547026;-3.616088638;-8.626023867;-19.92270747;-20.6797496;-14.80871195;26.60059385;2.523453627;1.065080708;23.30956264;-21.58270779;19.87340866;4.647536864;-14.38448286
-16.26924617;11.77502586;-12.3611639;-28.52808764;-11.93777988;1.850443091;-3.579048352;-8.959329682;-18.48025482;-21.43220493;-3.951837266;15.38525764;2.472439695;6.629101535;26.25705105;-18.24949353;22.97023698;2.617779278;-11.71596243
-14.42691675;17.52206842;-12.39273214;-20.39863985;-11.88419895;1.118170873;-2.142112717;-7.096925433;-16.77121858;-16.51012155;7.826908087;8.992368567;4.040339258;11.15328706;14.35474075;-13.42953827;25.27521305;5.648148706;-8.239479455
-13.30380196;23.80163771;-13.55976608;-11.60714209;-8.997658145;1.576823219;0.800153367;-3.119347283;-14.63235965;-8.339195203;16.39283456;14.86756169;7.285564787;11.8002429;-3.53627945;-9.046664141;25.7032284;14.98839578;-5.114188429
-13.45572412;28.66720903;-15.09289381;-4.01740866;-4.7643217;3.002291257;4.619108736;1.899540254;-11.90422713;-1.034769385;19.95132014;30.19756691;11.17476223;8.933364562;-16.33723998;-6.640615201;24.23657295;25.98050303;-3.402063957
-14.60242777;29.05503453;-16.0167515;1.038229503;-1.366572913;4.684097616;8.211810258;6.466071295;-8.550949616;2.605079471;18.52933618;42.89623925;13.98076658;5.916563396;-17.4223517;-6.564145921;21.96640733;30.34492882;-3.413194172
-15.77998871;21.6351937;-15.84894626;2.538711503;-0.386134934;5.834485839;10.58294633;9.485928042;-4.794362398;2.885263979;13.00586199;40.13577656;14.30991283;6.202116979;-7.678090685;-7.903521075;20.41356656;21.98485374;-4.518625946
-15.9461027;5.335468019;-14.90520808;0.146988659;-1.834598791;6.021394339;11.38039125;10.7923733;-1.145249093;2.458313338;4.818861857;18.14555752;12.04947417;10.20819032;6.426624282;-9.070153502;20.58741352;2.009006027;-5.578768955
-14.59861533;-16.08776284;-14.0297891;-5.082299014;-4.246492183;5.365398139;11.04615724;11.04702476;1.807989696;3.827809291;-3.784609099;-14.18568886;8.529959973;14.81879434;17.74166048;-8.669361968;22.43444056;-21.04801299;-5.69476326
-11.99010493;-34.15478829;-13.98080772;-10.57188927;-5.816147868;4.394666008;10.48975388;11.10314708;3.790078125;7.274240302;-9.966387769;-40.72419605;5.733133351;16.15135414;22.69738846;-6.202159526;25.0305762;-36.29371889;-4.756576916
-8.853534818;-39.70230196;-14.91403853;-13.25337761;-5.754145371;3.666933971;10.48832394;11.28587963;5.084402886;10.86471274;-11.54416806;-48.55956929;5.053683243;13.32686568;22.34342473;-2.318862232;27.31015339;-37.28750868;-3.415250172
-5.90982335;-28.83731281;-16.30013969;-11.32883515;-4.831587889;3.409832339;11.18368017;11.10010448;6.302557171;12.34507835;-8.536025144;-35.95591995;6.444779431;9.859776006;20.1571325;1.445296984;28.7422102;-25.72359196;-2.533611733
-3.52978798;-6.460750037;-17.29167743;-5.554938432;-4.682203781;3.411865742;11.98523149;9.585306335;7.717575097;11.1314656;-3.541209887;-12.42184416;8.513002798;11.05749302;18.77348732;3.348328475;29.45998247;-9.539833814;-2.545949518
-1.729294848;15.93398148;-17.26592837;0.976787619;-6.404242;3.22683366;11.94076811;6.091200734;8.678342882;8.655653279;-0.229079966;8.444379917;9.471966761;19.16368864;18.13830587;2.281890047;29.83190121;2.800860277;-3.199003092
-0.390587175;27.36226851;-16.1901124;4.568008019;-9.576029781;2.542317359;10.35181812;0.946253805;7.735788682;6.868401096;-0.854949479;17.65965736;8.287598339;30.16336581;16.16987088;-1.596423588;29.92641636;7.472646259;-3.831512791
0.530494078;24.47881826;-14.6041858;3.093531898;-12.48855903;1.448855769;7.25663864;-4.461558541;3.630913887;6.354390646;-4.745461093;15.079047;5.252407695;35.26653285;11.05820589;-6.809226265;29.38321453;6.385464114;-3.930849269
0.960041504;13.38663974;-13.26626383;-2.731570925;-13.42750985;0.412582698;3.478050647;-8.301412809;-3.472566706;5.810876061;-9.030608373;7.150488169;1.658634966;26.61150056;3.248995975;-11.22890813;27.81595416;4.161990717;-3.510460001
0.791093179;4.621524956;-12.69667184;-9.749797403;-11.98108634;-0.037867194;0.198177939;-9.268633321;-11.52423019;3.366991087;-11.02283377;1.070489148;-1.125105684;3.31039802;-4.421407206;-13.20237757;25.37193669;4.019720289;-3.023895958
-0.02305118;5.102804289;-12.89366664;-14.14053447;-9.31598407;0.308877965;-1.680156358;-7.319655096;-17.48100225;-1.459320846;-10.21568871;0.128059857;-2.485902694;-26.68455243;-8.511866303;-12.50526978;22.89714567;5.894773154;-2.919323106
-1.429713275;13.27711391;-13.37945349;-13.53839502;-7.198893982;1.176978541;-1.985324954;-3.717546209;-19.12386477;-6.953911361;-8.226070981;3.064937271;-2.743436054;-50.63665876;-7.353272337;-10.49917089;21.46793706;7.741871432;-3.224897704
-3.257760072;21.14171854;-13.54185533;-8.352220587;-6.571281027;1.976682276;-1.260266256;-0.352523503;-16.53139565;-10.31984711;-6.867579627;6.667476572;-2.623770538;-58.52372408;-2.295579075;-9.314358332;21.60383936;8.140941267;-3.513423931
-5.180489351;21.29034982;-13.06394844;-1.629052745;-6.857839356;2.207266605;-0.306246925;1.258299924;-12.05037826;-9.786065248;-6.2375532;8.672713643;-2.501960538;-48.96453256;3.072391079;-10.52318413;22.80175144;7.56796062;-3.268925842
-6.712364085;13.1105692;-12.17075382;2.474816586;-6.581710588;1.804394146;0.385270745;0.705140515;-8.67369572;-5.915961358;-4.65447264;8.76893033;-2.033998558;-29.6019498;5.204614358;-14.14777659;23.83224252;7.391844916;-2.341970341
-7.343886345;3.100185433;-11.5152792;0.916411642;-4.764160348;1.180909894;0.908680746;-1.251520496;-7.978389743;-1.03518289;-0.507122743;7.749748397;-0.480898898;-11.83774736;2.81852346;-18.65133061;23.64411265;8.036658737;-1.110282553
-6.822970888;-0.752666599;-11.74494955;-6.383291453;-1.914396873;0.929796771;1.735031665;-3.275140783;-9.181724866;2.655094094;5.79066111;6.405207993;2.513121216;-3.674155177;-2.453498576;-21.90358581;22.20425208;8.494678648;-0.208634584
-5.403632697;4.349680978;-13.01521055;-16.08712046;0.260195504;1.402171743;3.181558097;-4.302332197;-10.05031271;4.600218821;11.72798977;5.321259054;6.292080968;-5.508592968;-7.384001825;-22.45851111;20.59265164;7.826816371;-0.047673742
-3.802023577;13.9036783;-14.79387497;-22.87193762;0.226355304;2.460664648;4.971287814;-4.123870248;-8.948475206;5.76612284;14.74905568;5.268191622;9.237999869;-11.38250156;-9.453094438;-20.31065316;20.21845093;7.011898233;-0.511097688
-2.770506125;20.198856;-16.13991195;-22.26453129;-2.042711717;3.576459298;6.244191634;-3.376517725;-6.385560992;7.112016388;14.58205738;7.070967374;9.564237629;-14.24223616;-8.457805176;-16.71317897;21.71496667;8.821407077;-1.069157455
-2.534452456;18.95667024;-16.31570394;-13.44959266;-4.901139784;4.189581813;6.059626399;-3.004938783;-4.786601475;8.192220976;13.56614077;10.60072661;6.391442463;-11.12829617;-6.287494912;-13.30652531;24.36257911;15.15491921;-1.205677543
-2.54503353;12.77564913;-15.32015729;-0.311685269;-6.218432517;4.073298781;4.064517957;-3.568741928;-6.607956193;7.300456739;14.45604084;13.90049;0.421003044;-4.665053249;-5.12379146;-11.21811444;26.5245844;23.96333404;-0.809535495
-1.8429244;8.507725793;-13.93298829;10.24884245;-4.99671458;3.459960017;0.859707816;-4.836657433;-12.24765106;3.147088036;17.60497142;13.82224738;-6.249794954;-0.224787109;-5.553572382;-10.68445853;26.81738493;28.92499977;-0.227256673
0.14118415;10.97571559;-13.18172851;12.0781792;-2.124694595;2.869526985;-2.214271782;-5.907524237;-19.39692734;-3.405991094;20.23806609;8.28253691;-11.10099778;-1.328960794;-6.174643134;-11.27563595;25.15370127;23.13860896;0.039034369
2.942693183;18.58204666;-13.57754603;3.487318039;0.338348703;2.784963675;-3.763419883;-5.766413444;-24.38408402;-9.219567137;18.81219722;-1.540549333;-12.40562054;-6.896089587;-5.084568966;-12.38159084;22.85717297;4.606472823;-0.277683357
5.155224005;24.67144197;-14.68533236;-11.44746382;0.77764739;3.395073727;-3.077702871;-3.927487944;-24.54288806;-10.73240544;12.60816752;-11.20693788;-10.01197035;-12.25167645;-2.050346633;-13.55576515;21.72541214;-20.80569525;-1.040852831
5.328532434;23.48191177;-15.39566058;-25.02640663;-0.740657883;4.542086165;-0.474710275;-0.776569144;-19.88634215;-6.475558417;5.291489513;-15.75553056;-5.293103925;-12.84163392;0.556060096;-14.5692889;22.712865;-41.86220278;-1.862374984
3.095483627;15.49682656;-14.75837312;-30.34356363;-2.560692252;5.856797807;2.929723349;2.586576293;-12.93822442;1.721277249;2.655863005;-13.3134275;-0.351239812;-7.639882522;-0.87586244;-15.31502676;25.20972305;-48.76361214;-2.401529674
-0.313350412;7.456831421;-12.78739369;-25.25415195;-2.73126462;6.96086903;5.844883078;4.913566485;-6.970133493;9.829089664;8.034436592;-6.644022695;3.039363112;0.304836406;-8.317421183;-15.7593794;27.46636718;-39.55569924;-2.543011706
-2.637720619;6.823493147;-10.61346997;-13.38894125;-0.449990221;7.619667928;7.434290829;5.459747096;-3.998629115;14.23399018;19.11411604;-1.151105236;4.17920872;6.39045493;-19.9217128;-15.97748961;27.86621356;-21.37349856;-2.337480457
-1.943615107;15.24084871;-9.807592883;-1.64312382;3.443553927;7.800366539;7.615820418;4.363144013;-3.903446297;13.93522829;29.02208784;-0.743957077;3.540433025;7.921506771;-30.49489626;-16.14837845;26.11667854;-5.4745858;-1.828876344
2.1178062;26.48508227;-11.31224902;4.11080443;7.203629372;7.650822906;6.938585173;2.550649506;-5.041587139;10.7989967;31.12214121;-4.849900874;2.259527136;5.823939197;-34.65862834;-16.42126596;23.48328764;0.317416422;-0.991494547
7.997326757;30.74480902;-14.73757565;2.252761023;9.447236564;7.426585164;6.186874055;1.235665809;-5.620264541;7.893259713;23.8119793;-9.033471927;1.382830007;3.466324437;-30.57943363;-16.75051795;21.89313787;-3.777989803;0.136424301
13.09123936;21.91282848;-18.54563602;-4.35247083;9.931323377;7.381075269;5.963436205;1.287876337;-4.71968781;7.329476272;11.48744598;-8.744299614;1.302510407;3.748605512;-21.46552282;-16.90742443;22.55657974;-11.00138059;1.272515589
15.18421321;2.17737107;-21.01525331;-10.89328503;9.339483503;7.641382557;6.444300934;2.808843007;-2.39451737;9.199807919;0.943447511;-3.123572094;1.656762332;6.868466583;-13.52975147;-16.74730913;25.09370805;-14.07778239;1.91065711
13.58554249;-19.53695302;-21.31726275;-13.86196126;8.446507583;8.122848759;7.362045782;5.117421239;0.855270367;12.12846278;-3.771583773;4.240152445;1.674386554;10.45635118;-11.76018944;-16.53122709;27.770792;-10.83074244;1.627779277
9.32849092;-33.81154224;-19.95618484;-12.75551352;7.480636479;8.54604631;8.166102109;7.120667518;4.536336909;14.65356869;-3.833970894;8.162287397;0.694164703;11.7669597;-16.59396439;-16.95602146;28.65198753;-5.124175232;0.470566448
4.444479501;-36.70523548;-18.30149234;-9.400078125;6.198554083;8.571174786;8.268880616;7.852574477;8.137922047;16.19585023;-3.622326072;5.906803188;-1.477538232;9.991467121;-24.00375598;-18.733651;26.84669357;-2.851803103;-0.933674118
0.854897482;-31.1475989;-17.58506997;-5.930973176;4.466607862;7.978751533;7.291847178;6.906224991;10.87110313;16.99679232;-6.251691969;-0.873684312;-4.561305956;6.790998594;-28.92502195;-21.96872592;23.01799562;-6.647308842;-1.728788021
-0.474703515;-23.40216899;-18.09548689;-3.286046214;2.682513695;6.776701374;5.238237668;4.576831501;11.72113;17.42083111;-10.73870454;-7.718757779;-8.082040598;4.733792422;-29.34082019;-25.85007813;18.88087794;-13.7336005;-1.446973347
0.238197794;-18.05239455;-19.10932828;-1.31505502;1.573657044;5.160517676;2.531100716;1.698633381;10.0451962;17.47646324;-13.27090947;-10.92205969;-11.66417173;5.078920872;-27.77827015;-29.00644676;16.11702823;-18.44266083;-0.41489948
1.945559521;-15.56434168;-19.53613782;-0.020634006;1.547895668;3.369225693;-0.113236469;-0.70592188;6.31892733;16.99533959;-11.27509422;-10.04211898;-15.09142631;6.824398649;-28.97618036;-30.35275814;15.4666584;-16.98797338;0.431577856
3.417218059;-13.73686755;-18.75331647;-0.419608725;2.233924264;1.565683783;-1.944799853;-1.802902609;2.315802537;16.13015139;-6.398909245;-7.476537951;-18.09811305;7.776076782;-35.53789127;-29.79846229;16.53731367;-10.37423152;0.261245343
3.863694457;-10.92;-17.02813308;-3.918318878;2.695984076;-0.159604167;-2.474408821;-1.225431663;0.342468832;15.49216981;-3.465838069;-5.851450057;-20.1244893;6.626221731;-45.07821364;-28.22419856;18.3185246;-3.160297144;-0.926153416
3.284863592;-7.747715895;-15.2820379;-10.57061564;2.1841452;-1.68884633;-1.677080733;0.8080585;1.901165776;15.66086923;-6.131891909;-5.738941431;-20.35688347;4.179896794;-51.31518858;-26.69306591;19.93501785;0.582694009;-2.155563794
2.398413626;-6.016020313;-14.4405628;-17.8361605;0.767650653;-2.816353204;-0.014985686;3.556710327;6.678198772;16.51536767;-13.09885223;-5.637615054;-18.17590854;2.651197609;-48.51;-25.51190014;21.10604538;0.506802369;-2.105313752
2.148209387;-6.255036556;-14.86225674;-21.32945777;-0.722698055;-3.336456501;1.728139989;5.998472753;12.60171583;17.11594424;-18.47304061;-3.92038291;-13.77299402;3.67288831;-35.98183204;-23.93907726;22.07971366;-0.26251659;-0.100703334
3.009768883;-6.729231758;-16.20621332;-17.52301571;-1.407084636;-3.237287156;2.73035357;7.206039967;16.97417281;16.39348164;-16.32043737;-0.683854038;-8.453703762;6.810382679;-19.22648617;-20.84696612;23.20582426;1.625838335;3.260601351
4.508841858;-5.045470054;-17.73718326;-6.621415407;-1.097525053;-2.815455643;2.423277794;6.741456294;17.93875961;14.11546439;-5.709908898;2.295781317;-4.264030035;9.927843308;-6.644618518;-15.85237578;24.51594909;6.556364683;6.356310916
5.354398093;-0.825029823;-18.77970201;6.674574798;-0.409616745;-2.545702668;0.690058594;4.890458339;15.34896976;11.25319663;8.10526048;3.351053234;-3.02778398;11.09662967;-4.141051861;-9.981889812;25.6018973;11.63924982;7.534288539
4.245847292;3.348793809;-19.01072567;15.48456829;-0.152649623;-2.737675306;-2.096665575;2.577744051;10.58151897;9.343165315;17.56728116;2.592144495;-5.355776594;10.32780578;-11.41712992;-5.244409773;25.83893203;13.42066588;6.170108421
0.902784025;4.006975485;-18.47977231;14.87015381;-0.559557185;-3.232648139;-5.212656442;0.94389065;5.563516851;9.321430947;18.65713812;1.741560929;-10.29797161;9.528503228;-22.48597029;-3.334581094;24.77947727;11.04218262;3.048436341
-3.428065619;0.277711061;-17.4624969;4.998664921;-1.067747199;-3.427118941;-7.851418188;0.767027408;1.727513838;10.80735411;13.86356547;2.267765164;-15.91848377;10.66975697;-29.84883253;-4.415095669;22.46684999;6.962908515;-0.178609609
-6.490988653;-4.478447882;-16.31653173;-8.922116851;-0.86457632;-2.686133557;-9.42138721;2.0450008;-0.49615927;12.44855176;9.805651615;3.703519626;-20.43284875;13.81927535;-29.24746087;-6.92520647;19.48765584;4.646208763;-2.042772696
-6.361630869;-4.836446401;-15.41192503;-19.9868157;0.289709368;-0.881734865;-9.739848266;4.000191624;-1.511668325;13.02109546;11.52306947;3.960854513;-23.13848996;16.90789698;-21.77579778;-8.610792337;16.72766594;5.40604918;-2.078652119
-2.73646899;2.05308938;-15.08533898;-23.90739306;1.71938653;1.365404892;-9.032112879;5.530258922;-2.012037188;12.32895419;18.23028135;1.542746834;-24.52722992;17.57962381;-12.30833678;-8.047672368;14.94816794;7.377872258;-0.898882971
2.775158574;13.1353562;-15.54582544;-21.28226245;2.315965101;2.987373326;-7.74940312;5.84576048;-2.475480511;11.15217407;24.04418887;-2.423647437;-25.59206722;15.51657324;-5.874216332;-5.557641029;14.40327432;7.621059703;0.407870359
7.636566859;20.57510376;-16.74744799;-16.31246027;1.455915811;3.155695004;-6.32883121;4.904863418;-2.955626581;10.36716815;22.9678265;-4.503693354;-26.94527221;13.02539669;-4.758502693;-2.881642596;14.72324978;5.421890135;1.02715837
9.980635492;17.04099381;-18.33434222;-13.09228679;-0.437422139;1.874089173;-5.04880518;3.381038035;-3.175550009;10.10766811;13.87580394;-1.743684402;-28.46336313;13.10479697;-8.083183111;-1.902600639;15.16210726;3.605834456;0.778232686
9.667955196;1.369186171;-19.75109611;-12.37796398;-2.180387517;0.029378444;-4.047115024;2.206994989;-2.796561987;9.769892127;1.383591591;5.375604552;-29.68319205;16.54082761;-13.48592703;-3.379233519;15.08537766;6.300019531;-0.061038683
8.055199185;-19.80193291;-20.4937947;-11.29814324;-2.719530774;-1.16394681;-3.427348382;2.015180391;-1.710312048;8.849836154;-7.923697227;12.65232844;-30.50226459;20.71497114;-19.06965554;-6.570816669;14.38646137;14.77397948;-1.16962305
6.722451111;-35.93918072;-20.35713557;-6.144555253;-1.861717525;-0.941477404;-3.30330502;2.844620659;-0.216794843;7.785984069;-10.54184051;15.29093902;-31.461441;21.55942492;-24.05867536;-9.913806207;13.52581583;24.95870552;-2.421846757
6.21440025;-39.37308965;-19.5199534;4.038440868;-0.241619651;0.558933798;-3.698826567;4.272739119;1.030617818;7.927342185;-8.156366685;12.13418482;-33.26260388;17.32269954;-28.07936393;-12.14539355;13.13494547;29.18711217;-3.782844699
5.799731153;-30.02228912;-18.42110803;15.97888869;1.378426803;2.468627466;-4.383941365;5.819060842;1.355119353;10.52517487;-5.356146207;7.340732417;-35.89270171;10.87858579;-30.25692193;-13.03165863;13.46706189;21.34825951;-5.056626205
4.379015607;-14.75674834;-17.5202151;24.07462394;2.781854283;3.816481642;-4.837653606;7.289077806;0.532445334;15.56355111;-5.338170661;7.598490135;-38.16269759;8.101884589;-29.30615116;-13.26481038;14.13731596;1.730937653;-5.81899517
1.699449908;-2.143268663;-17.0998156;24.26832058;4.298685745;4.132284007;-4.459931226;8.808972232;-0.889289659;21.46282724;-7.516702339;16.59212837;-38.20956088;13.00060827;-24.6469835;-13.75807381;14.40398121;-22.21169672;-5.667977816
-1.214635785;3.309286411;-17.20807939;16.94174367;6.148263374;3.612159579;-2.939766106;10.56942142;-1.724157708;25.99084948;-8.939418114;31.00343205;-34.7244045;23.33233399;-17.44241622;-14.95515124;13.80475649;-39.99533591;-4.589292177
-2.81622938;3.202615713;-17.72527906;6.631631225;7.807681824;2.805741582;-0.504124513;12.53118293;-0.768916889;27.70034876;-7.816992833;41.56068758;-28.00714882;30.65285795;-10.40270467;-16.63722213;12.62672453;-44.32351743;-3.084322497
-2.331421272;2.533286847;-18.46267672;-1.150274353;8.133024165;2.145417195;2.190192053;14.36085689;2.438827236;26.76734872;-5.594845886;38.94883125;-19.99280639;25.59954154;-6.267366415;-18.24648433;11.7682994;-35.10594962;-1.891115373
-0.455730615;4.897544583;-19.21884372;-3.488885145;6.293270118;1.704260338;4.491907131;15.65698412;7.254939194;24.61860589;-5.50208913;20.56362868;-13.15728422;4.975874025;-6.087577756;-19.36526637;12.0343297;-18.74057043;-1.487352869
1.195395093;9.68886733;-19.79075432;-1.331570217;2.768987275;1.32024821;6.194904012;16.2717428;12.26241304;22.74631763;-8.956155459;-6.825154148;-9.087056173;-24.69997833;-8.686670775;-19.96570649;13.41364999;-3.608125348;-1.775781812
1.450212607;13.39;-19.9886487;2.285429336;-0.53945777;0.898552588;7.607201583;16.44516758;16.10250948;21.73017004;-13.36782781;-30.63469485;-7.758718402;-50.30760189;-11.73303346;-20.31485236;14.97080541;4.795789143;-2.21865259
0.591395391;13.48356037;-19.69027131;5.289406953;-1.404190209;0.580385461;9.152088155;16.62064443;18.20333079;21.20217722;-13.7333267;-39.94587875;-7.98970753;-60.15443555;-13.5328187;-20.70194764;15.51652368;5.94419778;-2.313420092
0.10736592;11.30773553;-18.91449576;8.179487251;1.133772457;0.627958742;10.81216111;17.07618;18.86991328;20.59831598;-6.914297243;-31.84105504;-8.571809099;-51.36408624;-14.08436291;-21.22463839;14.5602457;2.915421472;-2.00851503
1.340798583;11.15522878;-17.85616607;12.83228622;5.882584166;1.151800117;11.91630736;17.66465939;18.71032614;19.8678341;5.141613774;-12.48600183;-9.085530135;-31.35061678;-14.60704624;-21.73945347;12.75978105;-0.577085425;-1.703912269
4.161713298;16.20438174;-16.8398111;19.68512937;10.10463972;1.945518251;11.53767759;17.87614025;17.92141951;19.44855827;16.313141;7.370353567;-9.752225735;-12.39926621;-16.07070562;-21.9306525;11.45634953;-2.308022321;-1.835080332
6.830078125;24.73999507;-16.20288888;26.02136436;11.27491515;2.583545713;9.264027458;17.18272698;16.07570412;19.59449905;20.89835287;19.05625577;-10.59511347;-3.414024951;-18.07660845;-21.42417104;11.64082784;-1.753398987;-2.401953117
7.253688234;30.14975987;-16.16239675;27.25580769;8.761047247;2.697504863;5.730880682;15.40979545;12.61679718;19.80532085;18.12649689;20.32849835;-10.838255;-4.807511361;-19.08941541;-19.9408068;13.19685283;0.815928032;-2.864797665
4.675856347;25.26192643;-16.7224038;20.53140983;4.225594173;2.200632724;2.415579597;12.87052719;7.641004799;19.02578113;12.70632731;15.06677736;-9.270346065;-9.885120517;-17.82205705;-17.50557121;15.05165683;4.930110028;-2.528309429
0.427948603;8.010826655;-17.65460541;7.743814741;0.493540572;1.298101775;0.741978895;10.19887139;2.259101981;16.53621347;10.81416823;9.381609471;-5.386969284;-11.06281606;-14.57096944;-14.63745413;16.09112271;9.681862485;-1.121727064
-2.899833375;-15.94053023;-18.55857466;-4.761937796;-0.26019804;0.32044714;1.119201279;8.043499267;-1.846064483;12.75141807;14.82927588;7.348670391;-0.303111616;-5.806921832;-11.33181483;-12.3323452;16.02956776;13.42140878;0.897972943
-3.256703001;-35.95;-18.99466957;-10.07137918;2.276862749;-0.448063196;2.651202204;6.850863824;-3.384932877;9.158792216;21.25854995;9.153860534;3.532902312;2.129947036;-10.53849007;-11.69309427;15.47246965;14.39834077;2.58675677
-0.519277196;-42.88848657;-18.66521951;-5.472672205;6.678640582;-0.821077361;3.773698457;6.829708469;-2.223492615;7.364772287;23.63142061;12.1986463;3.846840572;6.57414726;-13.38616851;-13.30449596;15.15521545;12.27288164;3.137779258
3.566242057;-34.88;-17.58439062;5.506008856;10.95003906;-0.676243336;3.358552242;7.99659277;0.627607053;8.011516822;17.944366;13.61673979;0.203257079;4.306292942;-19.00048473;-16.72795881;15.12073915;9.119677065;2.425793111
6.767080133;-18.24071456;-16.14305351;15.48567671;13.76564719;0.035320791;1.450856839;10.14601225;3.747146259;10.44506147;6.088890233;12.16137324;-5.51258774;-2.458510074;-25.00327738;-20.53356336;14.67983545;8.494297431;1.069720996
7.937076677;-3.015331897;-14.98869256;18.37358354;14.9356903;1.181818892;-0.907054781;12.7292091;6.158960781;13.351843;-5.567718763;8.503722319;-10.28840075;-8.147574693;-28.9484509;-22.98035095;13.25818049;12.66031405;-0.019297353
7.57987912;3.614979214;-14.72874618;13.42533447;14.99788608;2.356917311;-2.576634515;14.8224251;7.682766316;15.74397294;-11.17708419;4.409245034;-12.01706021;-8.331018618;-29.5518748;-22.98201151;11.32591124;19.95343187;-0.257494276
7.088992858;1.384241874;-15.59111429;5.230660594;14.50904153;2.97890677;-3.181201661;15.39825314;8.642306538;17.42987807;-9.762146493;1.81621287;-10.81328971;-2.818369694;-26.98865035;-20.72408463;10.40096105;24.71452148;0.27005249
7.419453654;-4.160647246;-17.24580312;-0.211226295;13.69234678;2.626803417;-3.213205325;13.89351101;9.335798926;18.66172599;-5.398382376;2.327568702;-8.591430843;4.895425786;-22.36642813;-17.48521259;11.89685104;20.55167515;0.954703101
8.319899806;-6.646818376;-18.93019266;-0.155153879;12.61674006;1.413619094;-3.34029197;10.74629967;9.792212177;19.46003906;-3.337709903;6.840787438;-7.270130835;10.8549816;-17.03775743;-14.76259253;15.71181167;5.028060135;1.138736222
8.682060326;-3.741951872;-19.84105485;3.123267158;11.54820353;0.075845729;-3.56338219;7.445349383;9.964839208;19.39933117;-5.590701155;14.89473387;-7.09136062;13.53512427;-12.27017047;-13.30835963;19.88355429;-17.62789143;0.55191237
7.590607005;1.691559972;-19.57289315;4.685742839;11.00719464;-0.387448471;-3.025260042;5.877525445;10.04128763;18.1222363;-9.739506823;23.94836987;-6.455837188;14.13284362;-9.217462331;-12.75165431;21.85666615;-38.13347148;-0.574874731
5.118110345;4.649844579;-18.33118832;1.336060142;11.43483551;0.651866527;-0.713684933;7.256635721;10.44316364;16.04205436;-11.75248437;29.4856238;-3.427483307;14.55933505;-8.770715001;-12.04410449;20.49857155;-47.41124256;-1.732563516
2.220650496;2.465785137;-16.78273516;-5.554857173;12.81199363;2.980358365;3.494410137;11.30223712;11.44527493;14.40108353;-10.02256686;26.68111159;2.339386021;15.38473974;-11.08734001;-10.35551489;17.18852889;-42.0845508;-2.476824106
-0.082491712;-2.98564244;-15.64048127;-11.03584223;14.64731327;5.604315832;8.35928786;16.27260705;12.79619163;14.41898856;-6.872565076;13.22421601;8.885698822;15.66573764;-15.14718963;-7.73233557;14.9129133;-26.46111894;-2.645169009
-1.463889393;-7.005125527;-15.25362535;-10.48196551;16.38683796;7.339614217;11.87551979;19.92120657;13.7948005;16.1894316;-6.163343315;-8.372052987;13.12125272;14.51340478;-18.94099853;-5.048584323;15.93606641;-9.654489182;-2.3525098
-2.326812685;-6.09958061;-15.46209588;-3.236779697;17.8618383;7.529276306;12.57331764;20.79690465;13.85895568;18.37101615;-9.232913139;-30.88197899;13.02460436;12.52873751;-20.48978608;-3.34111216;19.91094485;0.13136458;-1.844142421
-3.170514204;-0.892241278;-15.78811621;6.853418692;19.32161442;6.38512641;10.54712026;19.03018678;13.09677683;19.11799764;-12.98383917;-45.50650067;9.149982918;11.48465341;-19.11700796;-3.078211994;24.05836601;0.257879022;-1.347923248
-3.935288977;4.488175781;-15.81124898;14.28051613;20.98623296;4.733111811;7.398692486;16.07899362;12.29107565;17.57772418;-12.10385053;-46.55884297;4.247796012;12.53247515;-15.97791334;-3.914404607;25.36171856;-5.706059956;-1.006128859
-3.969345787;5.968746013;-15.4644599;15.72142425;22.54635361;3.389759243;5.107729458;13.63342211;12.1948093;14.66306794;-3.739823774;-34.84045414;1.287452486;14.82611463;-13.28525136;-5.061383662;22.98233116;-11.36526602;-0.875199897
-2.662031157;3.029631392;-15.06286667;11.93172786;23.15446381;2.654728443;4.670957868;12.47070621;12.70533853;12.33069888;9.353755034;-17.36136847;1.408732036;16.1425497;-12.70035791;-5.917525252;18.83982171;-12.18887822;-0.94845197
-0.159472934;-0.802283363;-15.0681329;6.509589014;22.040598;2.274469148;5.517158481;12.06690243;12.70433588;11.88623046;20.07557198;-3.313437326;3.336210257;15.08190804;-14.1267234;-6.435645739;15.83995416;-8.204315412;-1.186782263
2.514543524;-0.899258051;-15.76148208;2.890953925;19.28454351;1.834892742;6.086827776;11.19539489;10.84614909;12.77094156;21.92462756;1.269298617;4.599421414;12.70144004;-15.92010242;-6.973885715;15.29501746;-3.146072913;-1.569465512
4.090601387;4.507064955;-17.03952378;2.119830266;16.03428093;1.207904156;5.071246682;9.009279135;6.73594336;12.97101702;13.81726018;-3.261502015;3.501583105;11.76820125;-16.39755073;-7.819725091;15.84558786;-1.139399996;-2.152679347
3.93223238;12.64616887;-18.45068176;2.938851995;13.84478527;0.671091105;2.349600974;5.767369174;1.504303405;10.81085254;0.96486672;-11.12194813;0.289530547;14.06284285;-15.3929131;-8.827437958;14.90025784;-3.560104794;-3.076371642
2.432097926;18.27189909;-19.43525494;3.618717632;13.54475087;0.624610653;-1.024748229;2.667318196;-2.800555311;6.615057853;-8.9;-15.46056667;-3.270645933;18.25599994;-14.46804994;-9.476513911;11.32575332;-8.248695892;-4.465297992
0.606725926;17.88301944;-19.61940746;3.597810869;14.50739003;1.174784676;-3.658207631;0.946786144;-4.611617998;2.711952853;-11.02393389;-13.03016307;-5.397817665;20.68328638;-15.46410412;-9.281363274;6.880200108;-11.35127936;-6.257381475
-0.750200357;12.71997872;-18.99883873;3.507725647;14.9730105;1.954282534;-4.746201042;0.963649399;-3.934782217;1.610898139;-6.678041938;-5.933331931;-5.58458633;18.76501088;-18.53765901;-8.189836979;4.900112271;-10.21319332;-8.095018367
-1.636949237;8.058499838;-17.92237872;3.884223475;13.28095371;2.338278868;-4.411852589;1.957319408;-2.233303984;3.802869033;-1.601415444;0.593410465;-4.702010369;14.08041544;-21.43198407;-6.635323505;7.244988041;-5.209624974;-9.419763831
-2.677415802;9.200124002;-16.8973161;4.133503363;9.134211052;1.887950867;-3.333615477;2.654865414;-1.185272801;7.092612075;-1.273726352;2.471721386;-4.016567562;11.87138631;-20.86985397;-5.209851271;12.26441431;0.659647664;-9.77383242
-4.403937104;17.14315663;-16.32845099;2.977507957;3.943263338;0.680888945;-2.108487738;2.248081401;-1.339337635;8.190322517;-6.719520434;-0.19577612;-4.076074703;16.61725909;-15.21490663;-4.236066749;15.86965306;3.981082753;-9.123968103
-6.639343027;27.20796115;-16.33156681;0.021367475;-0.037089493;-0.704801108;-0.902847644;1.01357615;-1.783680167;5.396949333;-13.87546084;-3.611748671;-4.390068359;27.03356436;-6.326887699;-3.580151359;15.07170689;3.362158727;-7.95099863
-8.526124094;31.72018298;-16.71757138;-3.188273211;-1.163623382;-1.513980732;0.428227809;0.141921526;-1.080781795;0.202791386;-16.70286017;-3.703877038;-4.032029998;35.06637827;1.085440565;-2.832808314;10.92957179;0.460126356;-6.986672876
-9.183661542;24.93494029;-17.14642002;-3.947689254;0.594021704;-1.202094636;2.020132865;0.927438803;1.360940995;-3.606713091;-11.54007813;0.415967816;-2.490114683;30.70669526;2.486908705;-1.688418121;8.028659926;-1.073543049;-6.746819406
-8.435145835;6.888750724;-17.35007813;-0.676413834;3.79057213;0.348921312;3.851077833;3.897720674;4.670788156;-2.760347462;0.392823526;5.820462134;0.016129266;9.657646789;-3.128050354;-0.218534319;10.50947347;1.895565838;-7.193862159
-6.986628545;-16.24495763;-17.28182015;5.210492148;6.604234806;2.851199227;5.859086876;8.444665328;7.17377409;2.929135889;13.78024213;8.461238429;2.930688171;-22.00345352;-12.06950523;1.147184188;17.91690383;9.557983547;-7.791880151
-5.897222498;-35.30511916;-17.09907209;9.691889374;8.039013786;5.769456344;8.075416234;13.12821426;7.724346463;10.25168411;22.38016359;6.884262173;5.946782925;-50.3255593;-18.06304323;1.877358625;24.77555993;18.38784886;-7.923554206
-5.759307196;-42.69889011;-17.00427834;8.880188772;8.375183809;8.48993609;10.50223474;16.38875177;6.542302595;14.80575663;22.36184289;3.744698171;9.133221407;-62.00796281;-16.36228444;1.621171997;24.89948015;22.70699517;-7.347547311
-6.23454092;-35.8008762;-17.07209849;2.15;8.651215885;10.45575711;12.78868817;17.22530101;4.852229312;14.0399041;13.96716742;3.692022118;12.48426498;-53.0140874;-7.051171413;0.344488732;17.20438107;17.89582639;-6.332767394
-6.299018195;-17.75519529;-17.20119738;-6.867670679;9.696052426;11.29803873;14.09033741;15.5287094;3.719767629;8.866327787;1.008247617;9.277309689;15.42619539;-30.97567841;4.806413517;-1.690531705;7.875924816;3.451717238;-5.3648944
-4.997264375;4.16472958;-17.22802495;-12.44099498;11.49316243;10.96925674;13.4448273;12.02217666;3.194512241;2.775831983;-11.0986504;18.33722432;16.92387641;-9.628150601;12.34027454;-3.997888707;6.192533092;-16.03608518;-4.678676492
-2.135917827;21.51407221;-17.10280304;-10.62448804;13.29502029;9.803837487;10.53304687;7.938474332;2.55128766;-0.68552251;-17.66666881;25.23627637;16.25916612;0.527271134;11.23481457;-5.920019531;16.52215973;-32.84551218;-4.026659164
1.570058594;27.74995167;-16.96741526;-2.052330708;14.27066252;8.406570524;6.224241898;4.583908336;1.352609783;-0.114458045;-16.55529176;25.17732628;13.82507528;-1.546383256;2.357489728;-6.707612131;32.80328778;-40.09530747;-2.90517337
4.957052421;20.54906149;-17.05027218;8.422077028;14.09210968;7.3664002;2.312184054;2.894107231;0.225129762;3.331624372;-8.919712908;18.12621454;11.11191947;-8.525119399;-9.00466759;-5.728626259;40.72734447;-35.44490423;-1.065547269
7.114043503;2.731544972;-17.45129079;14.95790755;13.01630236;6.945082601;0.435832938;3.086689335;0.455052114;7.213084226;1.389634212;9.040464066;9.689148148;-11.60996709;-16.61846788;-2.806113151;27.19870768;-22.24774486;1.129562374
7.846707328;-18.68505384;-17.99946144;14.4665765;11.50899507;6.952893171;0.900777588;4.556266608;2.623776218;9.48439536;9.671148972;4.05566927;9.905756337;-7.405901887;-17.06901935;1.50070283;-9.344145542;-7.416433529;2.847680308
7.651139636;-35.2889911;-18.324253;8.255320361;9.836905819;6.914227703;2.338694857;6.129390679;5.525161963;9.305034141;12.73506836;5.667367041;10.41631873;0.434104484;-11.41832792;5.938989385;-55.63099104;2.640346661;3.365441977
7.29481222;-40.98543649;-18.11122839;0.653425448;8.012725135;6.414390191;2.588738572;6.629161014;6.545504109;6.765465023;10.54382859;10.88466122;9.074485786;5.403008944;-3.975158482;9.045563159;-90.53716196;5.416237917;2.640352632
7.31983259;-34.82820219;-17.34874335;-4.091708503;6.092418299;5.378133213;0.238420437;5.474187609;3.490331903;2.286387767;6.044507934;13.93042995;4.625789185;4.070151691;0.661810924;9.872169904;-98.08233741;2.975413147;1.395120725
7.761608566;-21.28825656;-16.35954459;-4.315302275;4.468078064;4.085214894;-4.314662975;2.949625269;-3.501893602;-3.511182282;3.127611902;11.253478;-2.103435376;-1.321303988;0.205354009;8.509603139;-77.51499522;-0.252475531;0.600547038
8.194250266;-7.616675587;-15.5727412;-1.262962202;3.797605494;2.938349121;-9.111661774;-0.034351625;-11.60069153;-9.461358281;3.950727712;4.613167214;-8.524751918;-5.381635581;-4.572373427;6.020375645;-43.40275427;-0.771208984;0.729070408
8.025862465;0.202904608;-15.20327821;2.541555633;4.559255706;2.188785243;-12.02883593;-2.53066545;-16.9850079;-13.75258236;7.446100716;-0.427984934;-11.96955481;-4.539502638;-10.98336068;3.757388658;-15.77724286;1.912506756;1.360488926
6.868942674;0.428170829;-15.09184078;5.333772174;6.594198297;1.835586011;-12.25857126;-4.06917646;-17.43251558;-14.65051596;10.10193779;0.636658541;-11.50305977;0.069518717;-16.30135696;2.489992696;-7.436343257;5.632191729;1.469191176
4.806576732;-4.310832121;-14.83923864;7.019042414;9.058773708;1.744770762;-10.74326958;-4.740819057;-13.81076093;-11.73135208;8.50407175;7.217722664;-8.504378694;4.121295419;-19.04834166;1.944009377;-17.20602423;7.65356366;0.196423069
2.427738194;-9.510282031;-14.1359618;8.563916197;10.8863852;1.839831381;-9.264889402;-4.851244131;-9.279017612;-6.565985901;1.845203279;13.9663909;-5.589972492;4.321085092;-19.12323939;1.113622278;-33.19245745;6.739368995;-2.471552316
0.596312804;-11.93450181;-13.02884784;10.68249923;11.4303995;2.168778262;-8.961342137;-4.499654188;-6.816792706;-2.01966619;-7.348845709;15.31568868;-4.726680552;1.352058685;-17.14856968;-0.838945995;-42.64774566;3.774718207;-5.629753572
0.041998691;-11.19596724;-11.91388613;12.99292694;10.79601646;2.78979264;-9.474947201;-3.487629825;-7.038695774;-0.446831731;-14.70506658;10.36233522;-5.96205818;-1.020146388;-13.8150384;-3.736262331;-40.70398542;0.879792988;-8.02921578
0.976721634;-9.001053591;-11.2596374;14.23584703;9.617616927;3.605099875;-9.389180518;-1.649109314;-8.011018287;-2.098760928;-16.58158136;3.799453389;-7.652406333;0.356328418;-9.705684741;-6.252020555;-31.95438333;0.032105472;-8.854300053
2.965505023;-7.143802311;-11.27420106;13.25016658;8.491433078;4.333180369;-7.53981038;0.71743443;-7.139687965;-5.033954183;-12.01511025;1.9372566;-7.871887737;5.065709177;-5.490407417;-6.683424181;-24.87742232;2.230252287;-8.131784796
5.156988386;-6.095284826;-11.76379729;9.9118286;7.546788561;4.68337148;-4.082084096;2.770608771;-3.511915103;-6.652838879;-2.989768482;7.146253642;-5.821580336;9.630234695;-2.051667025;-4.169287788;-24.44432236;7.383833316;-6.526167785
6.752328156;-5.196534486;-12.2728964;5.401311977;6.500238466;4.598274911;-0.429472407;3.575776359;1.258660265;-5.635266919;6.769970412;15.58901382;-2.189197059;10.90287614;-0.258078696;0.481458501;-28.88;14.39351735;-4.768414941
7.415462357;-3.892291206;-12.38169641;1.687459012;5.106128485;4.342897472;1.862332032;2.781683238;4.351495524;-2.718424513;13.49223949;20.41426952;1.644647294;9.095114903;-0.515179876;4.992434164;-32.45975613;21.02796813;-3.216817594
7.353386981;-2.580363431;-11.93945771;0.562509696;3.566431463;4.332496789;2.320476432;0.971311165;4.084732776;0.255566564;14.67668521;17.85395851;4.734091576;7.571569627;-2.476722344;6.833562934;-31.14085617;23.96729836;-1.866991813
7.031269718;-2.207682029;-11.09464694;2.724375621;2.497844972;4.812154555;1.878475265;-0.647586084;1.327530539;2.112059476;9.800658178;10.94744945;7.064110366;9.599976207;-5.178658799;4.734745085;-25.93012888;19.78937355;-0.694587958
6.765066135;-3.097334272;-10.15470718;7.335278727;2.449872783;5.638445173;2.061102174;-1.016752494;-1.157610781;3.348623372;0.536494681;7.386229692;9.129504632;15.1238731;-7.505104258;-0.454894005;-21.38539597;7.031578501;0.080406521
6.528196083;-4.306214018;-9.417068646;12.3051784;3.3841706;6.344089074;3.73685583;0.124584392;-0.845617163;5.507699035;-9.560920697;12.90068615;11.15859781;20.64138199;-8.645125019;-6.130690784;-21.06007813;-11.83119287;0.116399943
6.127077315;-4.302757967;-9.081802385;15.27019829;4.595426222;6.444379068;6.466471474;2.216309741;2.715842496;9.534057835;-16.17599606;25.58564639;12.79888325;22.38327537;-8.26;-9.32038573;-24.16537382;-30.32287325;-0.63179514
5.579517473;-2.414506834;-9.242873219;14.8640958;5.199595892;5.754179426;8.931335205;4.454537259;7.791866594;14.65053513;-16.14825254;36.12990306;13.55375574;19.85030991;-6.363903149;-8.258069112;-26.334726;-40.72744305;-1.619751873
5.33685439;0.3643385;-9.883774656;11.57950334;4.824708463;4.482364155;10.00504839;6.434873572;11.99026182;18.81234827;-9.353482747;34.26172771;13.47208585;16.33642148;-3.147977565;-3.213824423;-23.60923769;-38.46475917;-1.907560499
6.100549223;2.11501979;-10.84050706;7.584598733;3.931937844;3.052580199;9.526519477;8.281074857;14.01862957;20.35677164;0.822061774;16.61052829;13.29807014;15.82377879;1.049483853;3.85092945;-16.00513506;-25.20595936;-0.787107028
8.321917668;1.745546676;-11.78644945;5.44066495;3.465626674;1.810068359;8.156209465;10.1561888;14.19733704;19.35237011;9.2319112;-10.1501834;13.7833362;19.10040461;5.652672444;10.49114797;-7.571184027;-8.240890217;1.630480872
11.76379472;0.165458436;-12.3251635;6.463448633;4.075855117;0.843927522;6.540039063;11.64896803;13.46691525;17.39184257;12.18827311;-33.41411243;14.7113811;22.86589838;9.847262922;15.04997611;-3.022366288;3.895048411;4.377767103
15.49401775;-0.300075073;-12.19445096;9.863840124;5.529034492;0.038565023;4.619610435;11.70464087;11.99069595;15.97798747;9.981582871;-42.91600632;14.59823648;22.93824104;12.82631298;17.25682832;-3.964214611;6.696055494;6.242994571
18.36269752;2.125227801;-11.45722668;13.34756721;6.799883018;-0.72353313;1.775936316;9.329443285;8.766481601;14.97214317;6.647367843;-36.96945003;11.5751796;18.7377102;14.19188701;17.93164697;-7.904486437;2.143386366;6.59429237
19.63833371;7.028959943;-10.51397619;14.77067858;6.802000424;-1.394703065;-2.286309785;4.584633423;2.679931271;12.59837532;6.824946155;-22.3016585;4.954356084;14.64875278;14.21422655;18.16101968;-10.68961787;-3.413881656;5.776013621
19.34958097;12.01226674;-9.88262466;13.57475389;5.19251971;-1.767399773;-6.73094136;-0.986302426;-5.942391986;7.147829581;11.90863896;-8.23502909;-3.731768379;16.35591897;13.69880641;18.57122048;-10.05795853;-4.29782297;4.760972859
18.10817883;14.64172382;-9.877460796;10.85559663;2.610029297;-1.638776604;-9.695950465;-5.015501361;-14.75816505;-1.03596226;18.53867126;-0.132078526;-11.188794;24.86985477;13.50205153;19.1285131;-7.219119042;0.400028076;4.344202914
16.58931084;14.44951406;-10.41839986;8.053889546;0.14978543;-0.999829009;-9.419320884;-5.740252451;-20.50724685;-9.094570263;20.88056785;2.997808867;-14.21174277;33.61833056;14.02790719;19.44883615;-5.288314621;6.714799899;4.544148972
15.09230928;13.17478997;-11.1153921;5.483830569;-1.506101991;-0.106996506;-5.604289009;-3.220603405;-21.05409233;-13.32565762;15.16558946;5.66871253;-11.72477482;32.00829826;15.06998821;19.24907217;-6.20543096;9.54044067;4.704819466
13.50161396;13.01306721;-11.56033414;2.127161248;-2.600889579;0.614549912;0.055979643;0.580899037;-16.81364541;-11.80221275;2.980595771;11.02003906;-5.560430167;13.53968542;16.09316451;18.55480461;-8.974158105;7.0048872;4.19640618
11.61261206;14.50513366;-11.59713236;-2.987411792;-4.037915466;0.779075263;4.711124075;2.995989214;-10.46496434;-5.882896292;-9.443822025;18.14795422;0.628372399;-17.7476928;16.69564527;17.55509093;-10.71403496;1.901055663;3.089513974
9.484920275;16.10766305;-11.36902569;-9.0392534;-6.543298784;0.248835372;6.05732612;2.332313996;-5.209081187;0.625400566;-15.61851378;23.45263509;3.614953321;-48.12681497;16.86049639;16.31050223;-9.441692262;-0.87269569;2.182458334
7.490161102;15.95898448;-11.13613169;-13.09918566;-9.926839244;-0.758204563;3.759512481;-1.109634426;-2.920161058;4.043799715;-13.53539434;24.15385558;2.487275977;-62.56146629;16.81269717;14.62419179;-6.005579368;1.430791103;2.309839509
6.018852673;14.19991013;-11.04486562;-11.96970682;-13.03917071;-1.718329694;-0.379245843;-5.345590267;-3.490840726;3.176473618;-7.021876276;20.58485101;-1.051840215;-54.78886319;16.66564509;12.2175798;-3.44423027;7.099077928;3.502757977
5.134747304;13.44453008;-11.04984828;-4.970732784;-14.47578612;-2.010779763;-3.592268386;-8.052704609;-5.603398917;-0.27428559;-2.582952773;15.48659399;-4.063527792;-31.56985099;16.23951524;9.072789619;-4.371865783;11.51172904;4.753740514
4.524886715;16.50078275;-11.02881467;4.67950547;-13.50072939;-1.220362603;-3.847920127;-7.973490058;-8.033626796;-3.366148776;-4.209628024;11.46747874;-4.388194303;-7.794809571;15.27092137;5.648791294;-8.709575645;11.15363669;4.6772835
3.82874646;23.04425879;-10.9463198;11.41633102;-10.51487646;0.598766557;-0.964628884;-5.46829795;-10.35146291;-4.195705912;-10.2962706;9.248565438;-1.928544608;3.914710912;13.83788728;2.767211132;-13.70913176;6.627965838;2.607201761
3.066289473;28.32656595;-10.88768372;11.02663639;-6.774851341;2.858039136;3.478399604;-2.012607919;-12.62850648;-3.035513817;-15.12339462;8.11367465;1.53036743;1.304602199;12.55368916;1.215840292;-16.17881351;2.118402741;-0.744218998
2.747866277;25.70256079;-10.93114956;3.76189562;-3.645451224;4.659897471;7.211678276;0.81133474;-14.73769938;-1.675521376;-13.66032758;7.565460991;3.638870429;-7.567399021;12.21707875;1.329014344;-14.96010041;1.812189923;-3.651568711
3.48378388;11.61718177;-11.00784352;-5.695671953;-1.965713108;5.241421511;8.526942198;2.048567601;-16.13452801;-1.805518795;-5.746423763;8.060315958;2.921948714;-11.93078392;13.08123012;2.815387615;-11.61134263;6.36049542;-4.559983775
5.346867846;-10.72099464;-10.92981005;-11.61926909;-1.9112426;4.396028135;6.950259061;1.443474042;-16.41373486;-3.881826219;3.757070759;9.942633733;-0.577938767;-7.068199745;14.32955086;4.921237266;-8.90024667;12.34367875;-3.212806259
7.516781438;-32.23508272;-10.6011942;-11.45338463;-3.258585505;2.598527949;3.100662792;-0.926548915;-16.05717271;-7.244804465;8.922845327;11.94412265;-5.678149126;2.635793152;14.31801017;6.793714008;-8.562444008;15.08226394;-0.854344656
8.592929248;-43.37852051;-10.2173659;-7.521630975;-5.643398574;0.723756292;-1.943380752;-4.931805037;-16.49076769;-11.03514163;7.522356751;11.4094475;-10.9686713;8.286276352;11.60182312;7.810900162;-10.24161816;12.30823429;0.665710379
7.472382612;-40.3696721;-10.21547127;-4.804237762;-8.524336162;-0.474943699;-7.237793444;-10.27935868;-19.15737792;-14.83872301;2.665726297;6.727792522;-15.54399046;4.413471526;6.096164562;7.725289374;-12.30732431;5.62195029;0.215739204
4.212962075;-27.65440108;-10.93917307;-6.556715089;-10.97842272;-0.77633305;-12.19250561;-16.18417021;-24.25643851;-18.46799894;0.001758823;-0.163256676;-19.14352323;-6.449865434;-0.518953044;6.631945529;-13.55215101;-1.260382088;-1.861660266
0.223395366;-14.63394391;-12.26231217;-11.39347876;-11.73912493;-0.507612154;-16.44673798;-21.2766601;-30.22255502;-21.30451885;2.849649737;-4.140924665;-21.80318114;-16.08213738;-5.584171751;4.876581734;-14.12741062;-5.630743479;-4.106110621
-2.456122359;-8.980655884;-13.51853845;-14.34994812;-9.732075432;-0.175809289;-19.6633256;-24.02997681;-34.4930821;-22.14514393;9.328089694;-0.832330917;-23.43515821;-17.44184963;-7.005462597;2.989214102;-14.96515792;-7.396312685;-5.091222563
-2.376886564;-11.46283967;-13.87777628;-11.16854928;-4.865331265;-0.022349059;-21.48043509;-23.52807167;-35.0740152;-19.9917133;13.86168301;8.727324899;-23.69708226;-10.15043039;-4.508560776;1.620707211;-16.42798448;-7.904276547;-4.463063347
0.396087484;-16.0583568;-12.93806607;-2.287978873;1.55803578;0.131213659;-21.66451267;-20.05363636;-31.74958825;-15.1859443;11.80283019;17.0872719;-22.21578904;-0.165717622;0.296447985;1.397134528;-17.61637601;-7.472808674;-3.090190838
4.310212579;-15.12795104;-11.07660716;6.903309928;7.307708812;0.621210241;-20.32610118;-15.04905071;-26.06531751;-9.749387094;3.339168148;14.99264348;-18.95875539;5.667872116;5.083471101;2.667635743;-17.05700269;-4.416346397;-2.275585577
7.320203627;-5.646833507;-9.245079379;10.01485641;10.44733333;1.496395907;-18.0105122;-10.43086179;-20.19456869;-6.339477278;-6.528548684;-1.176188666;-14.4715884;5.267948152;8.33237758;5.260371078;-14.12042293;3.07489108;-2.703219486
8.204698941;8.175250423;-8.319228937;4.77703826;10.53164981;2.296665775;-15.55759664;-7.672855026;-15.63357829;-6.450985673;-11.90003906;-25.01668858;-9.814488292;2.392526331;10.07131028;8.444503817;-9.789807401;13.75609454;-3.946515717
7.323474232;17.71703844;-8.484020119;-4.813693278;8.893175037;2.295159351;-13.7639093;-7.189895285;-12.6757297;-9.282982223;-10.56193894;-43.02083824;-6.213292626;2.578260916;11.34731261;11.21758437;-5.99500091;22.10037385;-4.867338883
6.30763554;15.98314578;-9.135436274;-11.23395755;7.727308229;1.054595905;-12.99976736;-8.308159076;-10.85355442;-12.28117441;-5.527388976;-43.50742594;-4.581739516;7.834929679;12.97025545;12.82104016;-4.065288059;21.0008794;-4.519828399
6.902389954;2.431495589;-9.385428168;-9.089699208;8.569880371;-1.141108415;-12.98491699;-9.72821503;-9.722632856;-13.02981273;-2.35136811;-25.17139086;-5.130161188;14.87116102;14.65851585;13.18523192;-3.6831388;7.007598675;-2.822252722
9.757138454;-16.67920096;-8.776184621;0.669829723;11.24841616;-3.35746739;-12.88168763;-10.15755073;-9.203484069;-11.02832089;-4.489243817;1.449392966;-7.25243798;18.29299143;15.34187396;12.99099775;-3.274560908;-15.90723148;-0.517929508
13.98109749;-32.31101865;-7.637369413;11.30025859;14.06852372;-4.578253575;-11.71804806;-8.811682217;-9.268422685;-7.942126228;-10.49304696;21.14326753;-9.778670976;15.7205443;14.33803688;13.25500172;-1.470865173;-37.48622016;1.448962993
17.74337502;-37.97736886;-6.804735173;15.2218599;15.08795919;-4.367904354;-8.952586545;-5.646079829;-9.467320544;-6.152237251;-15.25600733;24.68378101;-11.50821268;10.09649859;12.29513995;14.6698512;1.678111607;-47.08;2.583376673
19.47726668;-32.85247213;-6.93368875;9.640182107;13.52510579;-3.131925107;-4.854492132;-1.313851588;-8.944955345;-6.81340818;-14.19663549;14.96127196;-11.76374045;7.048383284;10.92938884;17.12647138;4.802761146;-40.35150542;3.023228375
18.85219277;-21.1249576;-7.96602663;-1.393667345;10.26813669;-1.781382436;-0.420837309;3.112335643;-7.075938623;-9.000636914;-6.955329465;3.965445734;-10.65124931;9.679057626;11.63324099;19.75455455;6.476254057;-21.95376513;3.218353474
16.8697771;-8.734794388;-9.176060037;-9.939053815;7.152297328;-1.065175362;3.182477863;6.588736729;-4.156757268;-10.58072631;2.309746999;3.056289198;-8.858355911;15.56589594;14.11792991;21.47628096;6.4496994;-2.208415647;3.480936973
15.07044164;-0.01561693;-9.744886289;-9.818807543;5.602202587;-1.081678632;5.333738844;8.570676901;-1.432182149;-10.00790149;8.122367888;14.09129254;-7.120506124;18.86734609;16.39704695;21.70757151;5.74227271;9.758030258;3.814156903
14.44938834;3.816347295;-9.384568422;-0.782756141;5.675348279;-1.324017371;6.338548352;9.264147266;-0.28656799;-7.527205379;7.719177248;28.1408449;-5.731761983;15.85924642;16.37209792;20.72166472;5.565501443;11.43886756;4.093710082
14.84932917;4.063030926;-8.507548784;11.6610754;6.177865976;-1.183722619;7.17741749;9.457497162;-1.207109363;-4.846198185;2.754417598;32.49570132;-4.464199563;8.964212463;13.84103258;19.41324919;6.148054568;7.262283905;4.323791808
15.22317079;2.912059915;-7.824592128;20.26587776;5.676688792;-0.484772633;8.750847575;9.966384953;-3.398693276;-3.661189933;-2.435467899;20.32887879;-2.954870737;5.351175081;11.15941333;18.6225064;6.594848939;4.124188479;4.647500506
14.52983664;2.051359453;-7.727634025;20.76494626;3.581976439;0.37876262;11.14707078;11.02529695;-5.413437031;-4.346005106;-4.331933069;-4.330131305;-1.233950406;10.7677542;11.68709115;18.49888677;5.907159108;5.935945866;5.08270848
12.59355709;2.136062809;-7.978962706;14.02734876;0.501963956;0.789653805;13.48659023;12.06937013;-6.288816042;-5.874908914;-2.582351209;-29.65448082;0.082481861;23.586939;16.9645822;18.36661505;4.156152023;11.2956194;5.280524976
10.31266133;2.963540769;-7.955953377;4.616710067;-2.300920889;0.437078221;14.5002115;12.11784109;-6.241567768;-6.927047267;0.510363673;-44.2331549;0.168333802;34.34800651;24.83096898;17.20024469;2.614080926;15.56323576;4.633669185
9.081674349;3.929126952;-7.227442739;-2.651898006;-3.837153534;-0.402146634;13.44785711;10.52280482;-6.350689622;-7.11966499;2.552989288;-44.07143101;-1.310550194;31.88665007;30.25566967;14.37916302;2.609158876;15.13101499;2.745795006
9.835559404;4.457029293;-5.961379716;-5.506158364;-3.972157939;-1.043168693;10.70601841;7.531627942;-7.545521606;-7.287104788;3.227627602;-33.66752523;-3.736988001;11.77998429;28.66249847;10.18463527;4.114118253;10.3010669;-0.105391512
12.36282783;4.270830269;-4.80955393;-4.721900717;-3.303152387;-0.875882516;7.578780908;4.214374758;-9.805998869;-8.622902282;4.146400531;-21.40806498;-5.770454072;-19.3391947;19.45638773;5.685000844;5.444530889;4.743800267;-2.954381812
15.33123733;3.41619713;-4.35620686;-2.640341223;-2.557400795;0.226722854;5.465531657;1.78675072;-12.25360757;-11.49557022;6.659913576;-13.5620066;-6.185946438;-47.15752134;7.019776848;2.092977373;4.537498311;2.423782681;-4.693586265
16.99937334;2.011040668;-4.58602093;-1.249738452;-2.054302892;1.863510454;5.003899923;0.842368267;-13.97878098;-14.97407652;9.772729806;-11.31055406;-4.726503211;-58.56299761;-1.849369778;0.052345239;0.858681224;4.684764652;-4.81040463
16.17596876;-0.088532284;-4.823113356;-1.192878155;-1.612774643;3.414149124;5.814527757;1.088863142;-14.78148886;-17.42188695;10.28700785;-12.04446199;-2.292135233;-49.74324022;-2.417857527;-0.653041426;-3.698069225;9.63677528;-3.740359813
12.87827553;-3.315000053;-4.223335009;-1.957373612;-0.857923967;4.438472357;6.994217234;1.772123129;-15.11680748;-17.59746603;5.361056085;-12.70449556;-0.260725409;-27.89212843;4.799281224;-0.796488876;-5.846923095;13.90215676;-2.529361783
8.348456985;-7.859770766;-2.464735477;-2.600716702;0.416542322;4.88106987;7.917664606;2.400618536;-15.33271696;-15.35110534;-4.53168764;-12.02940394;0.578504814;-5.738700611;14.53490152;-1.072776441;-3.252898799;15.06069739;-2.043729628
4.44363312;-12.89018443;-0.116083195;-2.303885181;2.120155275;4.988593491;8.685868015;3.131913272;-15.01675001;-11.47449708;-14.84553646;-10.40805348;0.647858969;6.756412059;20.62274178;-1.61040035;3.569308476;13.03510707;-2.342816321
2.71496668;-16.32477935;1.611505131;-0.579759927;3.977461221;5.070166003;9.877298341;4.481523819;-13.22114656;-7.036744878;-19.41924235;-8.455533066;1.228163565;7.624310149;20.35324431;-1.966745733;11.29433155;9.846981057;-2.714738815
3.616371169;-15.80751432;1.589555931;2.625218449;5.677191649;5.306938953;11.85082384;6.618296665;-9.507252514;-2.893059475;-14.61397385;-6.191697305;3.351789065;2.007111471;16.10199664;-1.557249522;15.815059;8.345413481;-2.35010753
6.223362346;-10.54409694;-0.491546701;6.792010723;6.908752436;5.717668926;14.22659034;8.901553436;-4.879040939;0.293717359;-2.131598236;-3.47029889;6.793848939;-3.096190093;13.10749969;-0.149948521;14.83794657;10.75767472;-1.112795042
8.63776609;-2.603902416;-3.841079053;10.84656415;7.347108909;6.23347379;16.02041042;10.13966618;-1.599904002;1.810182868;11.67235265;-0.701738246;10.00320547;-3.895065776;15.23528066;1.960291894;9.253778205;17.47644904;0.221362634
8.956615489;3.766641369;-6.912534652;13.58459955;6.753651619;6.767866671;16.35351102;9.434786323;-1.767988468;0.968524479;19.64647954;1.32552295;11.12951399;-1.127720892;22.05863572;4.204595496;2.450425007;26.25201906;0.474561188
6.37796108;4.911926618;-8.17313448;14.3707742;5.22052995;7.223962604;15.16243485;6.941050384;-5.65291818;-2.351506012;18.22359232;2.470778848;9.443602683;2.371424549;29.4494942;6.185877934;-1.801912853;32.2646743;-1.042583795
1.84800272;0.805103197;-6.877026324;13.56209468;3.337303726;7.476528513;13.30859784;3.876158893;-11.17266933;-7.179736892;9.316558011;3.828574618;6.080039063;4.927244726;33.03966221;7.948714498;-1.412965403;29.78923999;-3.926892969
-2.218642573;-4.241781985;-3.449468483;12.18742941;1.992809505;7.396427562;11.96085001;1.706259313;-15.10418516;-11.62908119;-1.435910204;6.855484897;3.464797831;7.123127213;31.66556459;9.865943217;3.214383117;15.45713212;-6.820255603
-3.154366977;-4.422627566;0.69253412;11.04593965;1.787408675;6.925357778;11.71386449;1.103633484;-15.25397364;-13.91673311;-8.620231746;11.62330547;3.732957705;10.23255335;28.03582952;12.24666911;9.803397257;-8.445281534;-8.20160014
0.394405996;2.754331259;3.785380302;10.0013189;2.438137146;6.132998038;12.13069326;1.488187238;-11.98323235;-13.56819846;-10.30509882;16.05049603;7.203169248;14.01873741;26.20879224;14.98104278;15.56143414;-33.27;-7.289536894
7.479268035;13.36346067;4.526810996;8.188647073;2.726978389;5.185263374;12.07537824;1.519170553;-7.906860439;-11.80379792;-8.457693662;17.36196986;11.98663474;16.32080773;28.08403014;17.49418293;18.40826738;-47.58088621;-4.466378858
15.15562969;18.68310968;2.674008885;5.054367587;1.231772659;4.232346863;10.58947288;0.158700503;-5.965840189;-10.64915511;-6.617847725;14.86281866;15.05034412;14.92519668;31.85597068;19.04147798;17.62204942;-43.75313521;-0.993891961
20.04541949;11.20771313;-0.853497641;1.302002515;-2.542595523;3.310189618;7.651029916;-2.511180541;-7.313821184;-11.34366531;-6.909955308;11.41687121;14.06441943;9.920215736;33.67347474;19.13986204;13.92218151;-23.44840753;1.738375778
20.27362841;-8.976482067;-4.429744497;-1.244946991;-7.457794903;2.349578639;4.25609463;-5.320912302;-10.57365001;-13.27033639;-8.7242728;11.67513433;8.839982231;4.197921996;31.04641877;17.86481144;9.153187003;2.390137207;2.940741826
16.5533665;-32.47651581;-6.524507832;-0.950856232;-11.1259595;1.293329381;1.78489776;-6.820229121;-12.93781094;-14.29705254;-9.858745588;17.89461651;1.455012144;1.447378959;25.09527304;15.86417344;5.630762256;19.99101216;2.729173157
11.67232939;-45.63669659;-6.442667941;2.186086397;-11.31350592;0.217426645;1.137525059;-6.206713158;-12.19655201;-12.32824694;-8.891302781;26.75375555;-4.961044085;3.294846423;19.73974782;14.12113772;5.202900641;21.76253073;1.918829914
8.676403741;-39.43972314;-4.60349201;6.277131257;-7.494184068;-0.663571953;2.24950621;-3.702009375;-8.174497613;-6.903544013;-6.655449831;30.39618421;-7.974420351;8.066670779;18.50921613;13.60240137;8.320612148;11.42818481;1.499856811
8.947312664;-16.05371497;-2.210145523;8.888927107;-1.444142695;-1.131799036;4.26341059;-0.210399434;-2.647841182;0.356470709;-5.559477051;21.74368818;-7.058602526;12.24123048;21.65701206;14.9201811;13.66215158;1.115075866;2.099801704
11.46727355;12.00477104;-0.515956568;8.995523333;3.655864888;-1.141999241;6.135873048;3.329246345;1.969880148;6.743514428;-7.345082075;0.383043231;-3.635039346;13.3011579;26.00417407;18.08826719;18.72399118;2.051133404;3.677591347
13.74465865;29.97156885;-0.135443591;7.879752823;5.127424417;-0.8934886;7.195464839;6.328625275;4.057805334;10.08294643;-11.20131116;-25.70600262;-0.074475692;11.5169228;27.65;22.4376303;21.20181322;15.60866379;5.559574412
13.70619876;30.66066843;-0.80641392;8.093443067;2.487641056;-0.730470291;7.305520698;8.453868427;3.370166066;9.785397623;-13.89069753;-44.47222571;1.632708877;9.227276232;25.28573507;26.76689338;20.34349152;31.61027964;6.792148952
11.18994215;18.95026012;-1.704467708;11.21609135;-2.203466821;-0.936819012;6.658191067;9.329860363;0.663302232;6.715477245;-11.94505225;-47.40983857;0.765616717;8.464132073;21.33609329;29.75889534;17.34166543;35.56778911;6.664189012
7.994085557;7.598061146;-2.051735623;16.26124431;-5.59433351;-1.569997055;5.495902541;8.502782263;-3.002019497;2.255748208;-4.337085051;-35.00481334;-2.054692399;9.213636777;19.95513647;30.55351813;14.45158049;19.68460425;5.155688954
6.509196174;7.408782568;-1.597172849;20.15086449;-5.087628302;-2.441233483;4.018022043;5.814711986;-6.63231618;-2.520615914;6.377042469;-16.05036783;-5.460310258;9.902571099;23.51077284;29.20388145;13.44903019;-10.64774379;3.051215696
7.983088093;19.00230811;-0.679975281;19.99139056;-0.372316036;-3.235107153;2.469248328;1.85861679;-9.272318697;-6.974060327;15.33204088;-1.465157864;-8.132084127;9.513367613;30.45156238;26.71318131;14.5436191;-39.90194266;1.58619409
11.68481773;32.28743027;0.096955568;15.34321136;6.488856782;-3.669843546;1.19718102;-2.007953994;-10.01037656;-10.51290986;18.18404744;2.719731369;-9.348853256;9.107953536;36.32587541;24.54619571;16.50354658;-52.87039811;1.758229556
15.51414296;34.0322519;0.301242615;8.618378187;12.38139646;-3.597954938;0.512195515;-4.291509263;-8.366366536;-12.37162625;13.58813868;-1.77940016;-9.098338665;11.04463931;37.15971217;23.84542807;17.80082087;-44.78739008;3.689599278
17.52130901;17.9183884;-0.090556651;3.268880289;14.95687432;-3.018283637;0.42882225;-4.259736646;-4.838272894;-11.96505983;3.78422314;-8.297679505;-7.837824468;16.41695386;32.50010673;24.8193632;17.81593402;-23.74760342;6.469427997
17.18217757;-10.32573982;-0.760796378;1.267088986;13.80956026;-2.039575945;0.559031178;-2.418421127;-0.963755059;-9.522015008;-6.853787231;-10.86159073;-6.140058594;23.16834481;25.72411248;26.70120121;17.16653682;-4.036132185;8.644230883
15.54675968;-36.40667403;-1.304963115;1.956129555;10.39056296;-0.844497122;0.350857632;-0.141100544;1.490620672;-6.27698804;-14.14768449;-8.127970867;-4.440710149;27.04132331;21.41692237;28.30887925;16.99484715;4.171151075;9.097428905
14.27509963;-46.91248695;-1.46101758;3.148824859;6.882273049;0.338340537;-0.441420046;1.316082363;1.80414677;-3.819811297;-15.86101564;-3.052420398;-2.98074907;25.0491331;21.92339446;28.82123413;17.8984394;0.916383025;7.758764756
14.37243542;-37.87150012;-1.186231133;3.399852677;4.852106733;1.280068359;-1.43487617;1.667256462;1.023600634;-3.005923807;-12.12415258;0.585922158;-1.89929522;18.61298152;25.74505936;28.23388287;19.41718754;-5.674703994;5.655984106
15.55106007;-16.53138852;-0.602719388;3.360863354;4.510746279;1.825090197;-1.777885249;1.650304526;1.351822345;-3.352651455;-4.808709955;1.424497611;-1.347009361;13.28033913;28.91422443;27.19827754;20.44950301;-7.187660593;4.248002375
16.5707391;4.362131784;0.090732491;4.954924573;4.899921009;1.956661991;-0.759917677;2.250285108;4.446347073;-3.536882859;3.402606918;0.969747667;-1.491438762;14.55032199;28.14067414;26.40461085;20.16869444;-1.679682266;4.471903241
16.16246527;15.16776251;0.679914029;9.081912193;4.720834073;1.79943398;1.565862903;3.741983448;9.867713214;-2.668689216;9.765811862;1.499213373;-2.373161821;22.7816684;23.25938817;25.99648097;18.63632365;5.785344164;6.138396653
13.8074688;14.63253579;0.984632926;13.9734937;3.187235835;1.542004594;4.268942555;5.356407741;14.98738938;-1.263702292;12.08307509;3.77351832;-3.702438773;31.47664537;17.21392912;25.45460993;16.64147047;8.497623903;8.06915729
9.906558555;8.698166622;0.928848802;15.88832693;0.398223552;1.328983563;6.104265484;5.864187118;16.62757394;-0.99187158;9.373161684;6.645799763;-4.777924919;31.00760533;13.78839947;24.00796885;14.98878051;4.252390888;8.858365165
5.418318787;4.677945355;0.607622974;11.87112661;-2.876293433;1.201298058;6.375688397;4.602086689;13.32502062;-3.286959207;2.476594988;8.568363456;-4.679393301;15.59279874;14.92684875;21.22862164;13.89021817;-2.990667094;7.729591472
1.381326357;5.722351024;0.275060504;2.43590739;-5.724618436;1.122719331;5.432579097;2.082078556;6.513802688;-7.928590603;-5.92476043;9.221236523;-2.719820848;-11.58736154;19.56388111;17.35397825;12.94307615;-6.97856518;4.933711217
-1.360511422;9.54160762;0.211679138;-8.115568355;-7.538991155;1.05499121;4.365599616;-0.353171561;-0.344570001;-12.84558151;-12.28598292;9.624675772;1.069898956;-39.28778723;24.56337472;13.12670865;11.61361434;-4.796874787;1.486576288
-2.245708591;11.55970167;0.538803053;-14.25990247;-8.139563795;1.005954379;4.08523881;-1.582353236;-4.113573962;-15.44958454;-13.90435884;10.80322572;5.750283147;-54.93229502;26.81283555;9.329116929;9.726561205;0.779480381;-1.501409908
-1.105126023;9.271554972;1.126369737;-12.93556288;-7.619339893;1.012229196;4.492980935;-1.616983399;-4.09983629;-14.53437584;-10.37176601;12.54308318;9.781141381;-52.56637249;24.92747092;6.398157158;7.539748067;4.112421817;-3.422680604
1.633402774;4.146947384;1.692264945;-5.628157236;-6.138634338;1.092375753;4.447282357;-1.604628317;-2.383296191;-11.23836852;-3.756421079;13.5886735;11.730775;-36.36389307;19.6286762;4.387625272;5.431549226;1.971381287;-4.341389961
4.858804347;-0.062273117;2.034777419;2.688544227;-3.870720094;1.239204331;2.642362061;-2.872007498;-2.156882085;-8.255669207;2.696263175;13.04634451;11.00186425;-17.26709404;12.95721188;3.223416681;3.591606201;-3.522879352;-4.721556355
7.101225989;-0.669576782;2.209353132;6.944674596;-1.112854693;1.471450188;-1.21841498;-5.74162965;-5.351623077;-7.865571115;6.482404881;11.45903922;8.133123247;-5.400812964;7.131465603;2.96046683;2.045803139;-6.835555577;-4.99215614
7.271178256;1.97350126;2.487612365;5.205302654;1.602696608;1.881298604;-5.87955463;-9.078084889;-11.28838996;-10.30508829;7.060960026;10.33277206;4.48053414;-3.869932801;3.723253443;3.788961256;0.953581978;-4.003181401;-5.273582895
5.383333574;5.336615481;3.117414487;-0.488971489;3.583060964;2.588105598;-9.142122483;-10.98657856;-17.23907175;-13.74341356;5.630114484;10.52808361;1.477016575;-8.190477394;3.295104354;5.796435833;0.797219945;3.819241882;-5.407703389
2.679854499;7.246130625;4.086047069;-5.997533327;4.262566531;3.586736816;-9.295257143;-10.199693;-20.33076009;-15.83918123;3.8522622;11.21421096;-0.061144284;-11.12044039;5.333452663;8.728654823;2.162382931;11.37615132;-5.194358635
0.919462441;7.627659693;5.103123987;-8.021440253;3.527466909;4.603281662;-6.378163768;-7.132072231;-19.32929537;-15.60933453;2.679696145;10.64806291;-0.165955187;-8.656158304;8.418541145;11.99565631;5.216584316;13.93237894;-4.616750441
1.236388174;7.989117059;5.835578709;-5.921555777;1.826295339;5.119622898;-2.327765765;-3.788318685;-15.11727114;-14.12253828;2.180504689;8.204376665;0.589417434;-2.520500206;10.76245411;14.94466002;9.333792938;11.35987207;-3.892166422
3.377103295;9.41115653;6.197535904;-1.379457848;-0.052254756;4.628145167;0.172445318;-2.527314737;-9.788886219;-13.50546053;2.257235943;5.630330307;1.640778281;2.30314033;11.1127932;17.17644375;13.25045595;8.067931546;-3.336950966
5.910413462;11.17169793;6.431868617;3.370572264;-1.404122569;2.986681951;-0.603692598;-4.50887264;-5.265963594;-15.10567954;3.314195747;5.976389737;2.797422768;2.363041625;9.587010934;18.63912306;15.7089516;8.865340848;-3.162868744
7.290078125;11.41313207;6.892145046;7.089468008;-1.944367632;0.618929417;-4.327598788;-8.877296194;-2.462205841;-18.29611352;6.030573328;10.81209372;4.18574801;-1.361863203;7.754684313;19.43374535;16.13077274;14.46326595;-3.350362047
6.980566737;9.204781003;7.703188186;9.740851899;-1.823903312;-1.627379937;-8.86815274;-13.22363133;-1.342476992;-20.84967463;10.34542369;18.21062693;5.890191136;-4.683342016;7.654307077;19.53322964;14.83469419;20.67753454;-3.677504459
5.785993028;5.920998231;8.604576917;11.5798441;-1.354899183;-2.918668112;-11.69437755;-15.00457819;-1.444217378;-20.55302186;14.67033579;23.67853561;7.641000706;-4.108031241;10.27117958;18.71025596;12.69434907;22.15583716;-3.8784123
5.134332242;4.41892794;9.137470503;12.27441682;-0.707832551;-2.896978416;-11.4503202;-12.99629677;-2.224739797;-16.79331068;16.32733691;23.72327505;8.834328164;0.173227107;14.60838593;16.79610525;10.5709534;17.44397939;-3.823923264
5.888540897;6.575104794;9.033393339;10.99127043;0.143063533;-1.855989498;-8.662175613;-7.910519951;-3.035048218;-10.95245002;13.19674338;19.18211803;8.880321818;4.745473411;18.20635993;14.08631387;8.974493788;10.89590127;-3.60130012
7.629403389;11.40623843;8.468453949;7.334105128;1.182653475;-0.519233413;-5.202705102;-1.901873762;-3.061522359;-5.424842863;5.412172521;15.1837819;7.605135959;6.241298526;18.88095619;11.52663682;8.124505091;9.489378302;-3.429252664
8.977667743;15.64458277;7.942857489;2.160774743;2.069523588;0.410020752;-3.00762239;2.611451085;-1.640043945;-2.10158109;-4.295983563;17.19338341;5.398318709;4.362183626;16.4006338;10.42194017;8.189802691;16.90345936;-3.454442342
8.697841127;16.46960879;7.86576234;-2.60710733;2.127751056;0.609066019;-2.975736663;4.067109153;1.128908959;-1.440569022;-12.04228858;25.9970241;3.009041937;1.97932886;12.74529016;11.75140409;9.358146557;29.64806612;-3.573328522
6.713085242;14.03611784;8.195198273;-5.154304176;0.721981116;0.183880802;-4.72065206;2.257996292;4.042688767;-2.64248865;-15.04665221;35.79171575;1.162438011;2.372609535;10.65725;15.49918737;11.62600655;38.57553878;-3.433244408
4.242057495;11.43056452;8.456671191;-4.996991114;-2.230285017;-0.563786311;-7.150639213;-1.87500487;5.274680089;-4.556220588;-13.0928249;37.43467141;0.26905216;6.222854006;11.58577746;20.47148077;14.5507175;34.9334202;-2.655603918
2.962838534;11.90120203;8.148170739;-3.250731836;-6.033937367;-1.417633301;-9.296418582;-6.851447698;3.551857677;-6.487173333;-8.22157751;24.89142054;0.371989173;11.09029682;14.66734472;24.8015995;17.30970553;16.5946119;-1.149059657
3.851934448;15.75727368;7.198486921;-1.712131559;-9.525994458;-2.349038047;-10.77454226;-11.26908382;-0.800730893;-8.36253043;-3.102714975;0.206848292;1.256476118;13.76421628;17.56528701;26.90933613;19.14476115;-10.03172217;0.72749995
6.558553013;19.86535818;6.080413962;-1.491152084;-11.74954301;-3.400300766;-11.70072298;-14.20950494;-5.863047771;-10.36523965;0.516245843;-26.8351718;2.543052917;13.23721094;18.45726561;26.36378815;19.8769721;-33.67861998;2.321854579
9.723034152;20.4996874;5.461295884;-2.269372073;-12.50543891;-4.503703567;-12.33460823;-15.41715833;-9.347266987;-12.56449213;2.174902937;-44.36933065;3.683946802;11.53522718;17.49774611;24.11557379;20.04098698;-44.79113943;3.103537504
11.92681567;17.17975675;5.669235635;-2.720058594;-12.36222122;-5.427551703;-12.85639276;-15.30656321;-10.21638762;-14.91965041;1.973791673;-45.56285163;3.968439608;11.66663811;16.53346675;21.92202319;20.46448476;-40.55635252;3.047994727
12.54267318;13.85889442;6.423047013;-1.692145096;-12.12490922;-5.902632188;-13.40979086;-14.79422998;-9.436429858;-17.5391583;-0.160817605;-32.36120748;2.711317504;14.65164201;17.35072143;21.2803;21.58747149;-25.47932054;2.676379805
11.92431697;15.80915229;7.062311851;0.79992353;-12.1990285;-5.808932065;-14.205956;-14.91372224;-9.190729264;-20.75598026;-4.281934601;-13.592255;-0.351329027;18.46132056;20.00262969;22.50867974;23.06431062;-7.857883783;2.675968786
10.93311248;24.35894768;7.09282938;3.516364212;-12.36695866;-5.252584369;-15.41761994;-16.26995273;-11.07652284;-24.7576447;-9.473082657;0.859661161;-4.688239456;19.91451254;22.69686241;24.56053888;23.98728898;5.025132201;3.365549879
10.26829053;34.03339048;6.590764605;4.841030496;-12.13829152;-4.473109908;-16.86157371;-18.57364377;-14.65611839;-29.01303948;-13.3170633;5.674607367;-8.964926778;17.77816208;23.36066464;25.72442815;23.57364771;10.03784878;4.431595243
10.10210917;35.27189666;6.123322497;3.860413896;-11.33812213;-3.678000635;-17.79007813;-20.58582249;-17.53260511;-32.07533919;-12.80202212;2.067475298;-11.56578856;14.10547124;21.51606021;24.79887405;21.78282619;8.456162906;5.178380051
10.17356602;21.48233525;6.252662137;0.916433697;-10.38618565;-2.955235475;-17.13564895;-20.64529425;-16.98168962;-32.14955483;-6.40750084;-4.437069176;-11.42842331;12.42264479;18.79548263;21.98576394;19.38685175;4.093490198;5.120882998
10.11354388;-4.778634222;7.045527128;-2.651916085;-9.989141378;-2.319679984;-14.19656839;-17.59158802;-11.97395628;-28.20406765;4.175843081;-8.21859067;-8.678144078;14.35999705;17.59440739;18.87307073;17.4481232;0.883891077;4.434980619
9.677420876;-31.75261646;8.007671604;-5.281996381;-10.49571976;-1.806859297;-9.305050738;-11.57107236;-4.101881555;-20.87918269;14.30272163;-6.799999561;-4.606537745;17.9459158;18.99465121;17.44391831;16.6049947;1.111193441;3.852091339
8.767121704;-45.45202648;8.49963876;-5.927888481;-11.49036472;-1.483140214;-3.902620802;-4.190319811;3.271282176;-12.46906446;18.83190324;-1.45489889;-0.948717334;19.40516964;21.76839553;18.71647303;16.67841545;4.703475647;4.027938038
7.37964932;-39.00915345;8.277606336;-4.394768834;-12.02533906;-1.342508466;0.171130629;2.16704374;7.029713883;-5.857086691;15.25084721;4.480990596;1.1017194;17.01925968;23.37307885;21.93354821;16.83961092;9.570467307;4.884268816
5.661863037;-17.48902644;7.693795802;-1.250561995;-11.34612426;-1.206079673;1.758628312;5.519076179;6.083937013;-3.025807593;5.272728248;8.05039185;1.504777765;13.39294103;22.12692716;24.9192919;16.17284559;12.83546184;5.512006291
4.059388063;5.642720179;7.380578918;2.480187212;-9.516425005;-0.776270552;1.072603923;5.276797467;1.769434721;-4.078871045;-6.229332773;8.375857958;1.228192271;13.54506409;18.70370003;25.4511048;14.2440401;12.56924695;4.812727824
3.343608751;17.92967242;7.684954044;5.658371116;-7.399248979;0.133176398;-0.526471433;2.457321837;-3.226592154;-7.366897933;-14.13551879;6.923932498;1.478696757;19.93991057;15.6351392;22.76462489;11.36144974;9.170701362;2.440835665
4.32446499;16.19587503;8.338277395;7.359295078;-5.979470978;1.359045858;-1.51350578;-0.989460795;-6.510795905;-10.5682425;-15.75870111;6.435277475;2.855720716;28.725256;15.21053811;18.15156078;8.454453987;5.363965687;-0.706178597
7.325002537;7.538588555;8.653291379;7.18799693;-5.579207393;2.374116799;-1.216756053;-3.297240688;-7.080663602;-11.98227702;-11.61140963;9.135226958;4.982635577;31.05655927;17.55402609;14.18749057;6.687451516;4.453412826;-2.921241537
11.77239871;2.618851169;8.098457148;5.496495295;-5.628197828;2.579692529;-0.12810345;-3.749923772;-5.34731163;-11.24673228;-4.215151844;15.13796992;6.798390349;19.38960441;20.5291257;13.07131414;6.977155537;7.804956455;-2.81896828
16.27500754;6.855763078;6.779869188;3.33214025;-5.194250008;1.731458787;0.676242475;-2.816415331;-2.396328604;-9.164554339;3.672860111;22.02826339;7.236743283;-5.819128588;21.56178463;15.20113054;9.562445798;13.45584456;-0.362536312
19.24642543;16.61591985;5.430058594;2.013223489;-3.831270711;0.177546581;0.497856775;-1.577587355;0.785884555;-6.930664161;9.991261927;26.17282713;5.814794826;-34.58899799;19.82265065;18.96774678;13.78;17.24932534;2.995807012
19.73007813;23.22318936;4.90084241;2.457937477;-2.018704039;-1.304600518;-0.412253442;-0.912128055;3.619003134;-5.35887725;13.22725625;25.2603717;2.807270612;-53.02935998;16.89539285;21.89548937;18.20656835;16.00747711;5.210039063
17.89792814;21.09317614;5.552886383;4.620667914;-0.800357199;-1.98837214;-1.091738984;-0.996397902;5.803948667;-4.570714029;12.1294811;20.42536195;-0.977249523;-52.44793699;15.36250031;22.31120552;21.22721416;10.39285455;4.951382448
14.89849266;12.90232678;7.009349272;7.413333561;-0.909002543;-1.658036291;-0.669019553;-1.385067047;7.131923;-4.204017383;6.219978881;16.09894192;-4.565742161;-35.25824723;16.54368613;20.37282097;21.84072105;4.951452172;2.404871452
12.16680086;7.264671376;8.443354568;9.244880502;-2.110216665;-0.714357021;0.942881778;-1.513306463;7.486279924;-3.8573241;-3.104436397;17.06186698;-7.104801727;-13.15098759;19.36309079;17.79067666;20.26017725;4.825416916;-0.986711938
10.65303033;10.80478784;9.15617696;8.935380796;-3.328338777;0.143583621;2.992855042;-1.204200036;6.96169979;-3.416029231;-12.18057036;24.39812724;-8.01750588;1.168287582;21.34713305;16.53790797;17.86502843;11.37406596;-3.586483119
10.4376136;21.43197585;9.003965699;6.495118227;-3.466986802;0.412071389;4.45761784;-0.82700601;5.852658636;-3.081019076;-16.4879246;33.43774978;-7.126677114;2.460314832;20.89522;17.5389198;16.41576565;20.18413912;-4.621499303
10.89870035;28.86209687;8.386720157;3.284921253;-2.254773469;0.086421813;4.723691191;-1.041074211;4.425410305;-3.155477166;-13.41301932;35.87199743;-4.787619189;-4.607932545;18.82764739;20.24435472;16.96277055;23.44303897;-4.493291398
11.23084072;22.5076553;7.87037898;1.395435732;-0.425587583;-0.421284576;3.859611853;-2.343166115;2.685685113;-3.775002079;-4.388825023;25.26937906;-1.916689028;-10.47547561;17.79900105;23.25730017;19.16740238;15.3545547;-4.216503089
10.9401636;0.60480723;7.773229619;2.527695025;0.902547041;-0.638632047;2.362340307;-4.72571717;0.438421595;-4.751950124;5.563414271;2.325086947;0.255732292;-8.754921583;19.99380972;25.38546034;21.52824673;-3.259170042;-4.515623027
10.03976549;-26.92333866;8.020784875;6.976802767;1.127206814;-0.359748102;0.710923259;-7.632550153;-2.326260161;-5.613175357;11.02255894;-24.21716861;0.720395544;-0.855702592;25.03589633;26.27172554;22.38102093;-24.6966597;-5.298402272
8.912884202;-44.5998204;8.318205903;13.32182843;0.606867236;0.293608969;-0.844071546;-10.19405915;-5.058229604;-5.81537507;9.932331922;-42.23049251;-0.745082861;6.171488901;29.93419918;26.22235492;20.97615703;-38.89699699;-5.84832971
8.005848319;-42.13490828;8.439669049;19.07371986;0.320284747;1.066334007;-2.131939237;-11.58314467;-6.714133351;-5.047431754;5.033098382;-43.61132221;-3.367107013;6.236370351;31.2195296;25.56514147;17.88253232;-39.6599066;-5.488326968
7.553620399;-21.66108484;8.386531827;21.98931315;1.065189795;1.806172041;-2.816204691;-11.31509559;-6.357232795;-3.470833854;1.668186184;-29.33333247;-5.733515152;-0.524703361;27.59211358;24.2176393;14.47809684;-28.24832839;-4.145500984
7.462305172;3.972473513;8.324559787;21.32236884;2.873888204;2.534903394;-2.404521398;-9.380058594;-3.874431282;-1.731416686;3.512802562;-8.567518474;-6.537665329;-8.108318297;20.94450015;21.8655077;11.96876211;-12.03361157;-2.40758672
7.371669997;20.37043812;8.408877898;18.24121156;5.091483985;3.333298117;-0.582716073;-6.178899909;-0.189120052;-0.651979366;9.54041182;7.455084364;-5.230983889;-9.96167848;14.93823335;18.53348048;10.68819027;0.546950522;-1.110550664
6.853581605;21.15568864;8.671161614;15.08903069;6.974792734;4.197018498;2.430268504;-2.301204565;3.310339222;-0.700701357;14.69135644;12.40043454;-2.16;-4.465766715;12.30107927;14.9442881;10.14253617;4.996054586;-0.835497045
5.661285858;10.94378287;9.04570685;13.88135554;8.247742587;5.026499679;5.892780812;1.754957489;5.757295085;-1.53462098;13.81354028;7.801024126;1.848912829;4.076677706;13.02127785;12.24595645;9.640557663;2.451523703;-1.672667911
3.911476657;0.209010646;9.466313964;14.98053735;9.144791865;5.753752721;8.992068673;5.77993328;7.433342875;-1.973808284;5.807560592;0.453015575;6.080143433;9.528850615;14.82335607;11.26887605;8.917446605;-2.452607023;-3.317724553
2.080723272;-3.215766542;9.914954358;16.85561221;9.972915239;6.449332038;11.38742128;9.840281138;9.48675917;-0.55808426;-5.307825077;-3.169157211;10.22098023;9.284796399;15.40251279;11.92365844;8.256618537;-5.342807603;-5.300894139
0.775932197;0.805481795;10.37947224;17.17035786;10.66199621;7.258453466;13.36437265;14.04409922;12.91772719;3.551295896;-13.27267684;-1.048589627;14.18395019;6.201427214;14.47247554;13.26289997;8.107513851;-4.58798955;-7.134088401
0.386586763;6.453943063;10.78894842;14.53616356;10.76199456;8.190405854;15.43748537;18.23640286;17.63699417;9.87825758;-14.15148754;4.384416086;17.72590822;5.594053715;13.91123223;14.17730716;8.629406192;-1.192932885;-8.349767386
0.845363649;8.073931989;11.02392672;9.740791288;9.907857536;8.963337235;17.74088512;21.87412127;22.3936508;16.67067711;-9.037763352;9.502278963;20.31370019;10.18580793;15.93889256;14.16250014;9.590574797;2.984169486;-8.564411971
1.690753956;5.026579289;11.0169902;5.53444148;8.316969295;9.102947777;19.77081235;24.24449165;25.68124174;21.76603734;-2.892722787;12.68097994;21.44083597;17.6070267;20.9255232;13.54228654;10.66003906;6.780762209;-7.654364934
2.419354754;1.391141338;10.85256162;4.995711035;6.826694185;8.284222401;20.75852479;24.93853242;26.91458944;23.80492262;-0.599237826;14.81294343;21.13624765;22.63202041;26.71882043;13.00643217;11.73997854;9.930149321;-5.939615556
2.874963267;1.454802335;10.75442444;9.488347174;6.376147708;6.663052067;20.38127745;24.24911078;26.90781556;23.00965314;-3.421491521;17.27791324;20.15081901;22.03539977;30.08904427;12.90033407;12.97020577;12.3360816;-4.155719368
3.354149243;5.49270061;10.94272599;17.55734777;7.334241771;4.895083645;19.17189954;23.1463975;27.22377876;20.97829765;-8.543705493;19.79815537;19.52624577;17.60196146;29.1192835;12.89003906;14.39846661;13.60639984;-3.113289663
4.308055793;9.671121435;11.4654252;25.53751526;9.232518618;3.756683261;18.20275127;22.75709231;28.88673533;19.59891293;-11.75642786;20.41309845;19.79351877;14.51033041;24.59869189;12.27103222;15.68348516;13.44090663;-3.219407738
5.856383572;9.888953286;12.14611802;29.53906028;11.13500738;3.60878531;18.24465381;23.65972835;31.49709829;19.81306473;-10.87255013;17.53661247;20.44850152;16.51392933;19.31758011;10.61793295;16.20991579;12.31931278;-4.210903523
7.524550685;5.763363623;12.70137037;27.59052325;12.34885789;4.107985731;19.09813816;25.49838977;33.49157648;21.08165593;-7.086197165;11.95958883;20.22159404;22.3056414;15.88403766;8.187460916;15.60485466;11.49310837;-5.334669849
8.47532692;0.979754526;12.94081629;20.64929163;12.9009523;4.415521124;19.70413462;27.22344417;33.37359405;21.90813517;-3.399966996;6.702448589;18.04499948;26.49800085;14.84847612;5.723590501;14.21459597;12.01486142;-5.870862734
8.109583534;-0.281215926;12.89394847;11.94472168;13.40774982;3.785031207;19.00256746;27.80534717;30.93925592;21.00289984;-1.728837377;4.701181512;14.00767887;24.55646737;14.60073759;3.846940141;13.04881345;13.66524886;-5.61266716
6.572937924;2.573300329;12.76830623;5.152185275;14.4671526;2.110696934;16.8509311;26.89351727;27.50255586;18.2059305;-1.266344481;6.412584776;9.507889664;17.36908963;13.00852126;2.564375941;13.11857282;14.94653012;-4.942095871
4.727940017;5.875937636;12.7808463;2.525539578;16.07834259;0.030551581;14.21830038;24.92497296;24.91213086;14.48926398;0.53917974;9.549943043;6.389306441;11.19072014;9.357124409;1.312156617;14.63962878;14.38161586;-4.465257134
