Channel 1 - P4;Channel 2 - O2;Channel 3 - P8;Channel 4 - T8;Channel 5 - C4;Channel 6 - Cz;Channel 7 - Fz;Channel 8 - F4;Channel 9 - Fp2;Channel 10 - F8;Channel 11 - Fp1;Channel 12 - F7;Channel 13 - F3;Channel 14 - C3;Channel 15 - T7;Channel 16 - P7;Channel 17 - P3;Channel 18 - O1;Channel 19 - Pz
-68.15430652;-30.60329576;-72.61511593;-0.409628537;-35.43743841;-2.298028524;-17.92781413;15.33312074;-1.858188106;38.35861322;-12.47944064;-54.02300134;-60.93115171;-59.46975963;4.957125619;-2.95607609;-96.99155859;-42.06751938;-22.75078314
-24.37512932;24.5835829;-33.83665035;14.12907783;-10.97507118;1.19207892;-18.42512835;13.9987287;12.25744463;52.95123607;4.987227157;-8.330624834;-34.432408;-19.44083189;-5.421041945;-5.173739668;-38.84863488;-15.16909533;-7.918496076
6.598388406;52.50229648;-1.64967178;28.39432286;10.08262186;10.44123186;-15.60278725;15.6105134;29.62814122;65.63467542;10.97407144;33.9525609;-9.694103262;14.22641727;-20.40947495;-5.791410425;9.636478064;-10.44311723;3.316564957
15.92971866;46.9818299;2.787797138;33.97209542;20.3397838;19.08020163;-13.52593139;17.79638891;40.74225003;72.32195585;7.657217568;50.12836184;1.742320726;29.11094451;-35.61732672;-7.411617978;29.58881045;-17.20695387;7.104534357
7.854162887;19.48309564;-16.71285013;26.58175996;19.29655426;22.13830769;-14.21843423;17.9360161;41.57197251;71.86535104;1.84365369;39.62205067;-2.255703883;26.43971443;-45.42672271;-10.74360434;22.04040792;-22.79723881;3.50456037
-5.154365872;-10.14303989;-38.38501025;10.52719951;12.76783264;19.45866229;-16.56907658;15.37042745;35.34721655;67.09248517;-0.540924772;20.83037914;-13.91353047;17.37523371;-46.35532202;-13.9780033;3.215637479;-21.24909557;-3.374370686
-11.91896296;-26.44684365;-42.41546309;-3.426883394;8.242679783;15.08359314;-17.92308131;11.73352641;29.02007813;62.80391588;1.933214515;13.98207158;-22.27318978;13.13707851;-39.27100641;-14.53479308;-9.527804816;-15.16465296;-8.312816114
-9.464296242;-25.66701004;-26.4207216;-5.541751417;9.706972928;13.45594712;-16.69891405;9.306040136;27.70503756;62.33460374;6.58688566;25.09330898;-21.60818401;17.07285919;-28.91584868;-11.65723467;-9.69355789;-11.01914226;-8.609944558
-2.798828612;-13.92434649;-4.680676642;5.821716446;15.56803598;15.78612825;-13.71567648;8.992836838;31.44572764;65.44517456;9.734627365;43.58815186;-15.00434174;24.24697263;-21.19549106;-7.583044502;-3.234490866;-12.92252856;-5.580419197
1.006267357;0.082839326;6.142483572;23.09922636;20.79423667;19.53464283;-11.25631156;9.711922887;36.27301479;69.10142809;9.560629006;53.73799706;-10.73253006;27.5806195;-20.15024805;-6.195232844;-0.431633058;-19.83916475;-2.93606946
-1.067043265;11.20327185;1.282668915;35.15845617;21.24629884;21.13608608;-10.923476;9.609950627;37.98153965;70.25312637;6.816330717;48.80662346;-14.84172473;24.60071175;-26.398081;-10.13971884;-6.083185962;-27.42944754;-3.553745141
-6.443150141;18.81766602;-9.823475732;35.16016347;16.79300081;19.34341126;-12.28066961;7.891071442;35.29374593;68.18761011;3.599092627;35.82030354;-26.16051977;19.1950975;-37.51140341;-18.66446083;-16.0696924;-31.85593857;-7.243973103
-10.33687039;23.94470313;-13.74540878;24.69193629;11.05473594;16.22722191;-13.40211476;5.597163257;30.20203865;64.65194824;1.791475816;28.02152428;-37.54629154;17.55684994;-49.53747885;-27.87573956;-21.99525091;-32.13214588;-11.12038211
-10.3247762;26.59941156;-5.590383197;11.56089482;8.341203808;15.09680726;-12.68285112;4.712908359;25.90363531;62.00735441;2.331008753;32.72138804;-41.91613404;22.38717726;-58.61377333;-33.228888;-18.77074245;-29.74130407;-12.02121273
-7.949302872;26.03510862;7.310171746;3.693811624;10.37575146;17.36664327;-10.20264253;6.477494206;24.49053222;61.29313142;5.2483172;45.37403052;-37.79515775;30.44731927;-62.18302441;-32.41;-8.345605217;-26.76141794;-8.93516772
-6.387285503;22.82407444;12.97981208;4.159643398;15.28272796;21.24659209;-7.468325155;10.41294372;26.17826487;61.87841279;9.797539934;54.37302323;-29.85740909;35.28489328;-59.80545815;-26.59104309;2.978731133;-24.38654538;-3.6153837
-6.879018007;19.75664744;5.984478266;10.63505703;19.36136519;23.40224864;-5.89657693;14.84116092;30.10679696;62.72295687;14.46273446;51.55437815;-24.37344112;32.51593897;-53.46655048;-19.36438954;10.39670337;-22.57634136;0.86147525
-7.491421804;20.02363638;-7.974206976;18.61409334;20.03485538;22.02126297;-5.510129522;18.3051145;35.41636352;63.77652644;17.31894445;39.02479147;-23.74944876;23.16756599;-46.94857336;-14.34215186;14.07789219;-20.33403009;2.290024414
-5.315760628;24.27565237;-17.65743125;24.94315917;17.66030736;18.46536157;-5.039892165;20.57294749;41.48111249;66.06250371;17.10616923;26.89377808;-24.87941435;12.55199344;-44.03583112;-13.15687398;17.56638951;-16.11145022;0.625296789
0.165311639;29.58435169;-16.41372659;28.88583262;14.97637371;15.98698896;-3.282141123;22.39195942;47.39520661;70.382609;14.42613407;24.58852888;-22.53741649;5.970682715;-46.23931295;-15.0199767;23.27234173;-8.601307557;-2.384425022
5.930451051;31.58748554;-7.575892716;30.77741421;14.83527805;16.66069371;-0.412079547;24.35171792;51.67756667;75.95855436;11.79951612;33.42119355;-14.62556283;4.9488512;-51.56743794;-17.74020643;29.64766328;1.751256184;-4.677943114
7.785040308;27.96709983;-0.707551661;30.50457496;18.04825799;19.32582122;1.976856944;26.00158693;52.84799369;80.40261626;11.95186652;46.14478562;-4.557876866;6.883669206;-55.58119732;-19.21652571;32.65997918;11.31566673;-5.263070938
4.199305084;20.07144817;-2.664703801;27.64774901;22.89353917;20.47734146;2.165364558;26.0705992;50.47138986;81.17056374;15.34723796;52.87228219;1.354386309;7.949312798;-54.39648481;-18.43683684;29.94531618;13.77066996;-4.599361606
-1.908874548;11.31640128;-11.72826467;22.90253288;26.48221538;17.41877203;-0.20211988;23.58689145;45.63895477;77.30133898;19.12708325;47.86824301;-0.750977021;6.518245198;-47.58940546;-15.65632302;23.53186242;3.579181268;-3.942147098
-5.236617407;4.171331567;-19.75510459;18.78600924;26.84924822;10.9194573;-3.72299359;18.87164484;40.32499246;70.02813787;18.8794259;32.16792121;-8.87367395;4.254277043;-38.6986436;-12.01639979;18.45189077;-19.20964978;-4.300793214
-2.377042306;-1.154551421;-19.8492816;18.28880722;24.25248185;4.949711223;-6.260279394;13.51101228;36.13801833;61.88422048;12.3348202;11.40173011;-16.67555636;4.226962682;-32.71517433;-8.9837491;18.41937973;-46.77857238;-5.767722215
5.339566604;-5.125660236;-12.35702096;22.35467199;20.85180655;3.559497586;-6.505170193;9.327254766;33.56424672;55.19238405;2.084522275;-7.977876175;-18.68156696;7.892453104;-32.37908032;-7.779129247;22.45971597;-67.04842172;-7.57867582
12.91319383;-6.430058594;-4.008892935;28.56625118;19.09838738;7.477984908;-4.805969345;7.228286567;32.28942273;51.16142177;-5.302940822;-20.88239006;-14.70329521;13.56200217;-36.20968769;-8.833670026;25.54364687;-71.62676842;-8.745757079
15.7405082;-1.89249026;-1.49885698;32.59053531;19.98497748;13.35162596;-2.683626573;6.867506146;32.10627323;50.02199232;-3.700662985;-23.92073708;-9.670812013;17.58749504;-39.88999797;-11.43353635;22.7550039;-62.45180195;-8.785909991
13.18048567;10.33390081;-5.635011637;31.46318854;22.32847302;16.36774189;-1.559095248;7.298367636;33.37102458;51.60145846;7.731256192;-15.81406626;-9.002237771;17.23071341;-39.87355142;-13.86406116;13.48515769;-51.04210092;-8.058281576
8.600058594;27.09995644;-11.22243274;25.98806035;23.55329697;14.14928397;-1.772302464;7.959995371;36.5182884;55.49737398;23.15782683;1.071397552;-13.52301198;12.88955706;-36.19381441;-14.20576198;2.192793198;-49.47450118;-7.474499446
6.002948062;40.25856909;-12.33204747;20.15169782;21.48748421;8.687239653;-2.580180339;9.115037805;41.21225041;60.72091131;33.62316263;19.73768372;-18.4238024;7.943792586;-32.11124709;-11.45516812;-4.796337988;-59.4129559;-7.738412397
6.349526323;41.6367676;-7.8160918;18.00697789;16.0279668;4.671134103;-2.935712554;11.4090591;46.17619945;65.50460828;33.19850427;30.80267598;-17.34686888;6.358826238;-30.94415108;-6.246837238;-3.777507532;-68.53630909;-8.629488303
6.907915228;29.52394958;-2.085566917;20.65657726;9.551615371;5.565764923;-2.285589247;14.99905926;50.06707765;67.95177579;23.18414759;28.16500646;-8.250058594;9.854898701;-32.88083948;-0.586500375;4.037489708;-59.02062772;-8.931407964
4.223994075;10.99266349;-0.771039004;25.79207942;5.670332273;10.66736282;-0.799538778;19.03129298;52.59432373;67.28790562;11.14381849;14.27106973;4.007917215;16.70655371;-34.60966291;3.318296302;13.87787756;-23.08066389;-7.255666363
-2.011403548;-2.754972534;-5.497477969;29.91453743;6.984699871;15.58172647;0.935552566;21.90804631;54.65279466;64.59677656;5.439088255;-0.111875778;10.85275622;22.99428966;-32.15515049;4.338980921;20.96182403;26.43827991;-3.331517814
-7.844038338;-4.889034999;-12.49528014;31.04753661;13.24915972;15.75972746;2.302672696;22.13030623;57.11682959;62.09911;9.345772312;-3.088367997;6.647082776;25.35853988;-24.49148895;2.910048828;23.37693572;60.35013004;1.21206468
-7.993981776;1.635503703;-16.0238214;29.56107999;21.25970771;10.22487715;2.793172085;19.10439644;59.37161154;61.28111746;19.08713473;8.804797597;-6.547084302;23.27089262;-14.7914136;0.425339935;22.43471888;51.5143451;3.427305404
-0.539515269;6.644980713;-13.2822996;26.73487285;26.73241064;2.478271023;1.992274583;13.42026973;59.19703804;61.39737235;27.05313665;26.40430157;-20.15169418;19.2238075;-8.197502134;-1.890869036;20.8425366;-5.009436414;0.941657608
10.70670137;1.587088718;-6.492650954;22.91050788;27.05064677;-2.1417697;-0.289886212;6.542074224;54.54372792;59.81744321;27.55215991;33.54231172;-25.53887913;16.73894099;-7.994954226;-3.709796759;20.49775637;-85.34115787;-6.016769614
18.45450847;-12.64326094;-0.719011281;17.35685066;22.99904023;-0.531876164;-3.694622254;0.192541791;45.87586957;54.2096091;20.7132226;19.2030448;-20.77070146;17.6526532;-13.39235262;-5.422937574;21.46951284;-150.1107567;-14.07292816
17.31478926;-25.7052121;0.21869847;10.04616607;18.15046407;5.875918487;-7.154120597;-4.249050353;36.85265958;44.86755933;11.83199895;-12.98271078;-12.19999405;20.66977697;-20.63777989;-7.394017526;22.42263226;-169.4649934;-18.42215662
8.052964981;-25.98558111;-3.867315078;3.322357176;16.19953957;12.31475573;-9.291544899;-6.163048291;32.24371012;35.13548008;7.043106949;-45.85972307;-9.488060362;22.28981995;-26.26763226;-9.439727311;21.6971764;-142.1570827;-15.93521533
-2.811253485;-10.23563145;-10.38203015;1.206337577;18.12062792;14.33514365;-9.302355407;-5.847852605;34.37188437;29.33250055;8.841588036;-60.45077425;-17.82453083;19.49126593;-29.53029111;-11.04094076;18.21277721;-94.77737296;-7.513556
-7.918942037;13.50501361;-16.53222111;6.24800301;21.32101311;11.01969967;-7.659162925;-4.341849071;40.97134549;29.67546454;14.75175434;-49.69121999;-33.45050507;12.22046902;-31.97625114;-12.01386656;11.940691;-61.56359356;2.183219244
-4.714229874;32.27797093;-21.04751378;16.46181861;21.5835341;5.364053954;-5.924533124;-2.870738525;46.53959653;34.63863719;19.78296259;-23.65131063;-46.09813843;3.781403531;-34.92519943;-12.87383092;4.052429344;-59.61970704;7.714793339
2.618509888;38.4993903;-23.96290098;25.40564931;16.46726261;1.735564278;-5.613757503;-2.102778413;46.47448306;40.09091662;20.45329971;-2.11874468;-46.59066921;-1.290650959;-37.47874415;-14.40070631;-3.290358425;-77.75828816;6.542578703
6.451179413;35.41099656;-25.5746064;26.1026172;7.581214731;2.539120697;-6.921206696;-1.668619994;40.79397513;42.29571859;17.2542629;-0.228664709;-33.81155831;-0.400689512;-37.14108868;-16.72918564;-7.733490148;-86.87031661;0.714545333
1.651946797;33.1321023;-26.17270379;16.14419565;-0.160554009;6.642269795;-8.406700718;-0.406389189;34.27876319;40.36179445;13.91992646;-18.14861281;-15.71400116;5.225523998;-32.51968545;-18.86347952;-8.03530267;-63.54746721;-4.783950831
-10.46289009;38.97106765;-26.65718307;-0.074949531;-1.952702496;10.55891839;-8.066798762;2.652252618;32.65252111;36.27638124;14.36705967;-42.39358753;-3.623321534;11.39988902;-25.44263905;-19.25191466;-5.121733166;-8.951449946;-5.847481244
-23.17369588;50.67944599;-28.61275654;-14.03929287;3.28513918;11.22563351;-5.064190198;7.185642316;37.73831286;32.74608363;19.74145434;-57.04645283;-4.191425309;13.97292745;-20.20035832;-17.11223284;-1.877673865;51.0883541;-2.357367685
-29.47392458;58.6875761;-32.82905815;-18.88303607;11.86163306;8.140818531;-0.726018151;11.29598047;45.58485563;30.87994179;27.64523023;-55.58138782;-15.04332523;11.73377875;-20.24049731;-13.40353414;-1.407852748;84.37462791;1.819561656
-27.23038609;55.30927215;-37.34512713;-13.89238863;17.76413102;3.373148996;2.117691026;12.50271191;49.30308697;29.71310532;33.8622177;-44.12871037;-27.19184263;7.033387052;-25.13738947;-10.4706862;-4.835010042;75.00828993;1.959272606
-20.47461745;42.55257073;-37.4940184;-4.375382527;16.89257507;-0.278404223;1.097153441;9.50579557;44.52210265;27.78154764;35.16845173;-34.42679907;-32.09;3.730659788;-30.66572273;-10.43521971;-10.40954828;33.71179525;-3.686756741
-16.02799376;31.23357553;-29.13693831;2.748294943;9.962358886;-1.350855321;-3.874992036;3.452524079;33.11222338;25.06502071;31.27314589;-33.06861999;-27.80382053;4.151467478;-32.18635042;-13.52540273;-14.89789895;-11.04533519;-12.34435519
-18.23902725;31.76516316;-13.05626004;3.949709855;1.921342444;-0.451526186;-10.33260526;-2.393186567;22.07745816;23.32942359;24.74052788;-36.17355364;-19.73995887;7.469727261;-28.57129663;-17.73732937;-16.34131937;-33.55972155;-18.66518297
-25.87869525;44.56627063;3.546014215;0.794687866;-1.662833083;0.662940166;-14.78463509;-4.579488399;18.35416698;24.45941179;19.15644857;-33.58505129;-15.74281154;10.68645895;-23.24833066;-20.23875833;-15.9140513;-27.52197373;-18.65389436
-33.36404629;58.73635497;10.80481917;-2.562349747;1.466590192;0.685414749;-14.92327289;-1.743120121;23.56700086;28.33368126;16.8573055;-18.62;-19.66014212;11.23305523;-21.31542475;-19.51655283;-17.11569926;-7.256835216;-12.54190605
-35.09311229;60.64803309;3.047727555;-3.485069243;8.888624179;-0.302058178;-10.9128659;4.410213191;32.87076199;32.34214832;17.66630185;4.997479146;-28.40177216;8.962979849;-25.06289024;-16.59346615;-22.70364269;5.731932944;-4.454403134
-29.4547879;45.41406296;-16.7741498;-2.883969962;15.57286663;-1.164699312;-4.933161603;10.20454792;38.76765417;33.2339869;19.33997317;24.75319058;-34.54817174;5.959396833;-31.69240414;-14.30566417;-31.83648813;-0.454088841;0.750186878
-19.61773531;21.40892696;-39.30019959;-3.639178367;17.65882755;-0.862528979;0.488050497;12.43375868;36.85802724;29.853802;19.32867572;28.13270492;-32.20995404;4.547235479;-35.23617723;-15.14576415;-39.98834626;-20.66748331;0.941007026
-10.86402664;3.748013983;-56.36410717;-7.215310653;15.04479354;0.609015812;3.979540306;10.39023868;29.02138934;24.38831481;16.64267522;11.59209872;-21.51262671;5.410296707;-31.17073713;-19.32544185;-42.03737796;-39.0377697;-2.141139134
-6.812575282;2.033195796;-67.68835527;-11.79359806;10.96250768;2.185872875;5.610523723;6.03335076;21.65038367;20.89400274;12.55901817;-17.04951474;-8.42710316;7.456331771;-19.99549919;-24.55849005;-36.24143101;-42.68907895;-4.726612921
-7.426378193;12.66340168;-80.5569472;-13.70380391;9.107514331;2.5115516;6.016686022;2.261543;20.48625871;22.15865192;9.665167512;-44.12213828;-0.393433579;9.334618472;-6.972819074;-27.72261009;-25.89147666;-31.52261773;-4.170973877
-9.99858131;22.22123346;-102.2123034;-10.81905966;10.698908;0.842099389;5.371352064;0.681858196;26.16654428;27.40572567;9.881401716;-58.9075266;-1.266901178;10.93421184;1.574635732;-27.1014617;-17.17251756;-16.84673051;-0.870184318
-11.89397768;19.07278661;-131.4295862;-4.734636476;13.71508177;-2.56321926;3.197975662;0.604575406;33.84490714;32.71950663;12.88448378;-59.28531657;-9.264247304;13.27123308;2.332119699;-23.49440467;-14.79506645;-10.91566113;2.424246477
-12.62471617;3.370446365;-157.1572604;0.366546814;14.7245529;-6.705846309;-0.852396498;-0.020108421;36.94440698;33.88098917;16.15849967;-50.94392108;-18.97120228;16.85322728;-3.599511787;-19.41119223;-18.77045176;-16.37158563;3.090440522
-13.67398414;-12.94787652;-166.4254642;1.253863757;11.72416191;-10.42564974;-6.063976555;-2.553216909;31.9797156;29.40074315;16.74978691;-41.95151632;-25.37491204;20.28221489;-12.46419377;-17.06659686;-24.76673673;-24.05765778;0.780264418
-16.49969203;-16.06595272;-155.4427093;-1.52841578;5.753153723;-12.85553031;-10.53967661;-6.201529418;20.82886792;21.46949781;13.47946273;-37.34078216;-26.72927381;20.83934657;-20.68452038;-16.76;-27.58816428;-20.64289398;-2.441352925
-20.64227979;-1.700004883;-134.2382275;-4.112293056;0.143635359;-13.57468376;-12.18121913;-8.353465014;9.057849972;14.28397091;7.907183714;-37.25670799;-24.49104212;16.9413802;-26.26201092;-16.82491259;-24.89800526;0.211554617;-3.87136305
-23.66514667;21.4715376;-120.0104872;-2.728598622;-1.885227456;-12.57967881;-10.08722848;-6.510214996;1.937924454;11.22505194;3.215007617;-38.78809559;-21.11392255;10.33029139;-28.13930694;-15.05570753;-18.3339028;31.91376181;-2.262017764
-23.0332519;38.94528571;-123.893937;2.837110097;0.565293899;-10.25726624;-5.298078381;-0.353352416;1.253001122;13.02769081;1.805293578;-38.98804651;-17.97640951;5.660477618;-25.11654971;-10.42107651;-11.50345254;58.73526391;1.433384237
-18.36939863;41.8355383;-141.9961291;8.789993752;5.594764524;-7.380472404;-0.294594449;7.637767585;4.966598505;18.00678951;3.49509437;-36.61258334;-15.09610486;7.23681902;-16.22054012;-3.783561637;-6.913177288;66.42183029;5.05786215
-12.17073677;33.07684874;-158.5938756;10.36856877;9.903794725;-4.988077187;2.41157127;13.5403119;9.423691054;23.68010523;5.780908431;-32.03490109;-12.37193331;15.33442681;-2.580602897;2.765255205;-4.506320193;51.80241263;6.955106681
-8.278109356;23.67323557;-159.3297541;5.888645316;10.92384725;-4.046165642;1.627419179;14.40384804;12.01710519;28.25152492;5.979710271;-26.46477966;-10.71166737;25.33381204;11.22918626;7.276082065;-2.776023;24.61299535;6.941041533
-9.178270782;22.80904943;-143.5211173;-1.599027458;8.216454289;-5.003920806;-2.077230451;10.07650218;12.36283908;30.96677288;3.471211534;-21.60388622;-11.71232664;30.83927043;18.53415428;8.944309945;-1.029013309;0.586771712;5.934091389
-14.16685971;30.4889983;-124.9889295;-6.47739662;3.403744019;-7.529317477;-6.972695435;3.235511443;11.57798335;31.59923899;0.142138032;-19.66833339;-16.12886316;28.56646151;14.49756951;8.157190255;-0.452839019;-8.990243208;4.850703876
-19.77754631;38.63702845;-120.3166268;-4.868981525;-1.049358895;-10.65294428;-11.26818378;-2.334119303;10.76861264;30.0270971;-1.348740836;-22.88962841;-22.65448655;21.01;-0.086976255;5.848806817;-2.926732487;-3.947961177;3.888955628
-22.18600451;38.99887179;-134.3012559;2.323666719;-3.267116635;-13.27731586;-13.96266741;-4.029882334;10.14145645;26.45782935;0.041975413;-32.12767801;-28.34060857;14.48629325;-18.39753969;2.884619817;-8.743735923;6.097323303;2.777539461
-19.83246638;30.5110827;-155.182859;9.995678364;-2.788696632;-14.73929321;-15.04311097;-1.834447308;9.267819262;21.90674884;2.853313073;-45.50309921;-30.50307182;13.97635922;-31.4436052;-0.054735621;-15.50945256;9.547438063;1.564391038
-14.37335843;19.78530075;-164.2546154;12.52557293;-0.520101251;-15.06786689;-15.13060702;1.939441278;7.926248003;18.09771835;4.594204033;-58.51725761;-28.56917959;19.06039579;-33.6355536;-2.246259406;-19.45884685;1.314400498;1.015428709
-9.339691568;14.77321829;-152.1520053;7.732481009;1.945939457;-14.79865259;-14.95328071;4.236379055;6.586986846;16.50476562;4.303618987;-66.18092344;-24.30128383;24.51722864;-26.00107104;-2.874029117;-18.23410187;-13.80860595;2.120930127
-7.565724;17.64693303;-127.9530731;-1.754668057;3.200416666;-14.5171664;-14.96539243;3.091329287;6.121084521;17.23126437;3.814133976;-65.94089088;-20.22156877;25.24684391;-14.76015762;-1.440310035;-12.78596777;-24.83231514;5.119355423
-9.293520915;23.265195;-112.7292187;-10.47089974;2.693289661;-14.46813573;-15.21341034;-1.379883779;7.089684409;18.79911778;6.347821094;-59.27378554;-17.62149737;21.28751613;-6.603245023;1.657416052;-6.734901046;-22.3940723;8.973805581
-12.26785733;24.29825976;-122.0781819;-13.75169819;0.967487717;-14.47813636;-15.40124884;-7.275830024;9.278648015;19.22818775;13.43596746;-50.66079968;-15.87438931;18.29185435;-4.460048828;5.013636747;-3.656764346;-5.259841182;11.88383296
-13.61089602;18.0989458;-151.743188;-10.42589096;-0.643668524;-14.18663178;-15.09115553;-12.13193522;11.82300889;17.61322025;22.82516356;-44.64623196;-13.57884254;22.51923946;-6.793124157;6.909780926;-4.47885892;18.71137936;12.5050385
-11.98078922;9.060838488;-178.5084847;-2.995540954;-0.750519973;-13.36963385;-13.99121594;-14.25132705;13.72935344;14.85956177;29.44360481;-43.14710839;-10.40426334;34.26228695;-10.27915696;6.454766843;-7.026721522;37.47012168;10.90090864
-8.414629132;4.492123893;-176.4772787;4.342640882;1.273268382;-12.11662486;-12.22971409;-13.41241642;14.35939019;12.89395826;28.99677526;-44.8885264;-7.867677018;45.48681901;-12.99232758;4.303490789;-7.944359803;42.08705462;8.442601995
-5.346269657;7.919180089;-136.3938029;8.198706056;4.859925891;-10.77031139;-10.44501786;-10.70404676;13.61057722;12.98730488;21.4135447;-47.07764163;-8.227669105;44.46776588;-15.22601205;2.278220997;-5.323065691;31.74991514;6.734662076
-4.687141;15.91924165;-73.04680237;7.475630107;8.518266077;-9.72;-9.558534581;-7.764172693;11.83851251;14.62933332;11.24349958;-47.72047143;-12.40092007;24.53500314;-17.67356682;2.030323824;0.023269389;13.56626948;6.433213219
-6.490297936;21.24811898;-15.10726616;3.337976149;10.68384901;-9.214433438;-10.29368252;-5.955293661;9.687273756;15.93395758;4.462658334;-46.72609093;-18.7632494;-9.698566406;-19.32151618;3.685866153;5.413231376;-2.224980913;6.878850383
-9.151420036;19.32657733;14.60620486;-1.852757609;10.6059759;-9.297460723;-12.7235403;-5.904527039;7.893051655;15.21898011;4.093747343;-45.21224599;-24.01725853;-43.82657541;-17.61361907;5.542899112;8.321456791;-8.272249987;6.773396554
-10.8444433;12.22705348;13.43400575;-5.835572596;8.673723266;-9.851846323;-16.16628854;-7.50892997;7.026276746;12.38384783;8.110973588;-44.0063409;-25.549394;-62.34700093;-11.06063299;5.168148855;7.889869394;-3.632998878;5.295444338
-10.95771934;6.673621169;-2.318216293;-7.42092121;5.987415088;-10.66885602;-19.52548926;-10.21064058;7.21098187;8.913806716;11.31655622;-42.85320488;-23.37542906;-58.49790493;-1.794295864;1.187943432;4.982777539;6.93521096;2.758201754
-10.39511677;7.967856379;-11.73742014;-6.897782422;3.5504197;-11.48796979;-21.84977304;-13.26921313;8.012946323;6.571533194;9.66947212;-40.96777414;-20.04633819;-38.17454393;4.78236508;-5.512932613;1.18028025;16.83077191;0.352219353
-10.59516095;15.30502004;-4.787817851;-5.7857927;1.724516874;-12.02276896;-22.73229532;-15.90306085;8.674930916;5.978400875;3.563314362;-38.22265127;-18.553263;-15.27988041;3.62279176;-12.10854101;-2.195322294;21.77028774;-0.736391466
-12.16415402;22.56537857;12.6990434;-5.956283653;0.328309775;-12.02454576;-22.31980772;-17.37330591;8.615009576;6.31840334;-2.561525727;-35.69107577;-19.92960695;-2.200063477;-5.80730912;-15.52229432;-4.339336182;21.69066615;-0.110493871
-14.28049806;23.73076135;26.7835895;-8.439985499;-0.814876753;-11.39577103;-21.02307474;-17.14976605;7.819368276;6.324653752;-3.87127891;-34.93191112;-22.49849476;-2.429315565;-18.46773995;-14.35512043;-4.743760752;19.66745128;1.690603037
-15.33916914;18.05212436;28.07348983;-12.59387246;-1.455694675;-10.2897589;-19.22959032;-15.17228613;6.781021531;5.540235569;0.974826161;-36.61945388;-23.34656385;-10.25440619;-27.0362576;-9.731575181;-3.154352605;19.12343528;3.660453499
-14.2713405;10.4843293;18.65410334;-16.30318164;-1.053896112;-9.098988605;-17.23918261;-12.02882729;6.021104194;4.653852076;8.832919016;-39.75188845;-20.77371938;-16.77281646;-27.14864722;-4.505165547;0.06261197;21.44720768;4.954897998
-11.44741424;7.20076913;8.665973268;-17.30278041;0.643357084;-8.288995959;-15.369733;-8.819734408;5.646409633;4.645058745;14.65523554;-42.17425822;-15.69946455;-16.94084686;-20.39984437;-1.411083267;3.627100402;25.47976116;5.229491575
-8.45169659;10.28491559;6.8482914;-14.82919711;3.139651578;-8.147286284;-13.99201223;-6.660640273;5.409274174;5.635213562;15.42067313;-42.01598921;-10.9118403;-12.28191215;-12.67039331;-1.455141195;5.757151122;28.84366493;4.578660377
-6.947392429;16.22423977;13.66493664;-10.38192576;5.338686679;-8.60029265;-13.34151518;-6.074202699;5.25735218;6.627783783;12.23046992;-38.89239476;-8.832787684;-7.965228079;-9.206727624;-3.594327298;5.263053863;29.88794331;3.296968536
-7.548754911;19.31371591;22.30909467;-6.876205321;6.266295409;-9.231171889;-13.23646796;-6.679190244;5.808270986;6.460314878;9.04602599;-33.97504454;-9.648091694;-7.557844596;-10.56984807;-5.801865886;2.489528089;28.82828752;1.72413697
-9.537145542;16.7721898;25.60311979;-6.647909276;5.796185584;-9.507847511;-13.01668958;-7.433037579;8.126536268;5.089278978;9.323023207;-29.00603828;-11.27705019;-10.13305059;-12.76581816;-6.64195852;-0.815021614;27.4204522;0.233531291
-11.52418836;11.06960019;22.12721217;-9.720760965;4.763846108;-9.08664047;-11.89187852;-7.300922259;12.77526829;3.930479718;13.35536667;-25.14;-11.11332092;-11.81033327;-11.27493323;-6.199811464;-2.774911298;27.56538124;-0.767285811
-12.42806414;7.623984737;16.46338771;-13.65274147;4.346681875;-7.997988071;-9.52742933;-5.902407595;18.88216431;4.791066047;18.31380873;-22.49184705;-8.067851187;-9.780864621;-5.398790899;-5.778040434;-2.829691841;29.89555288;-0.944937356
-11.98837451;10.11096894;14.17322315;-15.1416151;5.198053271;-6.596016406;-6.421747353;-3.694766963;24.15867895;8.235773989;20.63293089;-20.55155514;-3.30717552;-4.95116258;0.84560188;-6.713278158;-2.113984136;33.30367449;-0.21295573
-10.55245966;17.50785885;16.62894134;-12.25608216;7.018931532;-5.314041155;-3.718279337;-1.600254687;26.13789191;12.82909059;18.61186991;-18.90135676;0.774110987;-0.944810841;2.032904488;-9.272678292;-2.409292838;35.70409797;1.192403499
-8.52127582;25.19885975;20.32028685;-5.705684551;8.868831258;-4.398994919;-2.515948778;-0.398076665;23.83773999;16.0041684;13.24482565;-17.53905164;2.397784902;-0.635883854;-4.006492927;-12.44146574;-4.547677471;35.5138305;2.827405763
-6.063102433;28.83054946;20.74137227;1.685286537;9.900429391;-3.803954346;-3.157052577;-0.344613173;18.53744711;15.91136183;7.018890942;-16.61060031;1.584244379;-3.508961397;-14.10933211;-14.681432;-7.646779201;32.86573262;4.261689493
-3.336187226;27.42840296;16.82888502;6.800731187;9.888542454;-3.296063632;-5.024698237;-1.248437812;12.92609428;12.73119042;2.063735737;-15.94862471;-0.129318038;-6.186551741;-21.99098814;-15.01996493;-9.832328233;29.68859464;5.220603806
-0.893083111;23.32444997;11.8147978;7.992738113;9.167530255;-2.679969037;-7.008593586;-2.825997988;9.16758046;8.37897983;-0.767601307;-14.96627131;-1.027522192;-5.489916365;-22.87656742;-13.65713293;-9.795086458;28.47463274;5.555253575
0.280039673;19.48473509;9.995057694;5.642493892;8.144384196;-1.962489462;-8.29210448;-4.95315507;7.371663519;4.900575537;-1.504263713;-13.07708;-0.481965705;-1.173171369;-16.82633054;-11.72875787;-7.815720494;30.4545864;5.133830709
-0.701421736;16.98547521;12.6951449;1.402405985;6.907849746;-1.344441314;-8.880408241;-7.583822003;5.718845575;2.955564565;-0.262737331;-10.29112649;0.734759696;4.067138006;-8.32269455;-10.52499967;-5.41166249;34.45734337;3.833918838
-3.879125628;14.83813872;17.20367057;-3.066286021;5.302306864;-1.066034393;-9.505816632;-10.46969229;2.18265505;1.65163913;2.868664267;-7.448131927;1.104393982;7.12139199;-2.825298369;-10.8007606;-4.018203068;37.47;1.701216347
-8.147614709;11.88720733;19.45862631;-6.885563824;3.347701096;-1.238104807;-11.02072286;-13.03360012;-3.524842705;-0.229795548;7.180097656;-5.830368527;-0.667522651;7.087214615;-3.236309019;-12.60383355;-3.944069394;36.81843869;-0.866526074
-11.73148256;8.572612134;17.78307778;-9.8970767;1.535269957;-1.7817021;-13.73845784;-14.60731721;-9.381198446;-2.795836874;10.88374502;-6.384959321;-5.026118643;5.626886852;-8.80799928;-15.53738966;-4.490938989;32.57991167;-3.13680886
-13.16128729;6.721022052;14.19239041;-12.0894117;0.643676361;-2.492120886;-17.15905681;-14.86997063;-12.36353816;-4.718214007;11.78435552;-9.076838283;-11.45951028;4.959962384;-16.64686253;-19.04127206;-4.96412845;28.30506105;-4.344721737
-12.05469195;7.66624987;12.25318172;-13.14046823;1.186918024;-3.140175112;-20.19338145;-14.07802512;-10.63198786;-4.323901104;8.887471899;-12.79533571;-18.67610523;5.623036405;-23.91351615;-22.40021781;-5.456862178;29.00329341;-4.108884153
-9.167617644;10.71428413;13.70032791;-12.42669197;2.97836053;-3.515297835;-21.66906022;-12.82168366;-4.883464924;-1.133772204;3.626295426;-15.86918059;-24.85654833;6.244805643;-28.81567385;-24.60772107;-6.576543585;37.29818718;-2.65801075
-5.761911352;13.59934864;17.00656688;-9.401596058;5.217933682;-3.403596352;-20.8058124;-11.47443711;2.139439326;3.510058594;-0.583164075;-16.88559479;-28.0504483;5.507398334;-30.20989715;-24.48892181;-8.413756277;50.36219219;-0.690705992
-2.836112399;14.55227941;19.0846284;-4.028825476;7.048018013;-2.588063839;-17.48306943;-9.830019531;7.523401957;7.289751195;-0.454784635;-15.36657043;-26.87726666;4.202715079;-27.1622909;-21.30127109;-9.911692959;60.25449272;1.02730433
-0.774824739;13.95587567;18.32486408;2.957926917;8.104164434;-0.956205689;-12.29672599;-7.313163508;9.946124233;8.532751339;4.855624236;-11.96088906;-21.38224204;5.060449993;-19.61839891;-15.51208262;-9.490269399;58.22298276;2.032867799
0.469530989;13.92356874;16.0388814;10.03691008;8.598468171;1.312266908;-6.450242896;-3.65707791;10.04886811;7.290214369;13.02297767;-8.070019531;-13.48362097;10.15005859;-9.698258306;-9.078151806;-6.542670372;40.60959643;2.268212218
1.011139734;16.15740981;15.0370192;15.16085091;8.905781264;3.632373614;-1.469531205;0.518285752;9.359090235;5.066224366;20.0204539;-5.112669087;-6.439782011;18.20302979;-1.874386168;-4.741634922;-2.423329391;12.36020065;1.927842616
0.900845153;20.14699107;16.82590925;16.36767118;9.076066123;5.143109453;1.276079993;3.792771885;8.844218026;3.534933298;22.69224621;-3.824801618;-3.354547847;24.68828463;-0.905171204;-4.56068973;0.189616678;-14.72680165;1.255716036
0.310202706;23.48859953;20.14623737;12.67717776;8.75172739;5.099795409;1.134087497;4.753546009;8.316346683;3.351645765;20.53750379;-3.987022909;-5.525539231;25.20316966;-8.518606823;-8.581863677;-0.727140808;-28.4469972;0.473553894
-0.276054404;24.08089351;22.19745445;4.889110034;7.577246275;3.336340029;-1.470325663;2.970299317;7.027058572;3.951791876;15.53794523;-4.7270508;-11.73442831;19.57670378;-21.48103133;-14.6330499;-4.812432893;-23.36365962;-0.173232977
-0.19830924;22.12759658;21.31109679;-4.323633877;5.713950819;0.492226883;-5.15494926;-0.605257914;4.735000671;4.318536897;10.44237309;-5.173222302;-19.02604166;12.91658664;-33.07906605;-19.51795147;-9.39500917;-3.936336944;-0.412885715
0.923177189;20.0181408;18.50639175;-11.39198615;3.955061561;-2.200097656;-8.210866981;-4.146537887;2.210833505;3.930867765;7.005643958;-4.979816609;-24.48085752;12.00836008;-37.40891241;-20.89813841;-11.46807907;18.56488373;-0.088794033
2.815851255;20.15722513;16.48985287;-13.56171715;3.284803012;-3.503712782;-9.416304955;-6.01;0.757187885;3.102150581;5.437486532;-4.336537538;-26.76720021;19.42897536;-33.38356019;-18.61516387;-10.00228395;33.25228696;0.659310886
4.67417341;22.77512999;17.10390612;-10.34130316;4.221230559;-2.82215922;-8.545851255;-5.591443532;1.231950547;2.568771108;5.110718958;-3.496928536;-26.45752591;30.1446646;-25.29837099;-14.57309839;-6.660039063;35.97149828;1.401018339
5.762486687;25.78698863;19.65629716;-3.691541427;6.475132969;-0.521416207;-6.283676157;-3.43723241;3.442500394;2.827382316;5.55052203;-2.294913355;-25.05785941;33.93527795;-19.41146609;-11.32019701;-4.281079164;30.59700039;1.709235185
6.018508097;26.82155177;21.66670019;3.227470025;9.179973409;2.265778996;-3.671381454;-0.678999724;6.354630657;3.798893475;6.731000446;-0.168127722;-23.64966405;22.54515965;-19.20391845;-10.37278775;-4.409208645;24.84584459;1.555599972
6.10432847;25.45747575;21.25720031;7.887269105;11.46380173;4.239252633;-1.52842284;1.659028736;8.809472163;4.963228536;8.585088305;3.237854582;-22.22327943;-3.540019531;-23.06804797;-11.43661962;-5.972313971;24.15632531;1.445741692
6.79882933;23.49676;18.89404355;9.514045689;12.88437611;4.590048828;-0.224161608;2.97016032;10.08507959;5.673517092;10.462022;7.403254387;-20.09437434;-34.00811521;-26.15690831;-12.94533303;-6.250253922;28.32205508;2.083617346
8.219493669;23.00653589;16.86213916;8.82384524;13.4401759;3.361284214;0.176894233;2.948818193;9.950190275;5.343366469;11.26534601;10.91287796;-16.86310669;-54.64248718;-24.68548698;-13.35312747;-3.296594772;33.08186866;3.751705027
9.564071548;24.06830721;17.03162672;6.841424268;13.29166289;1.347344187;-0.301633325;1.424061306;8.442263635;3.52580939;10.25151799;12.31087155;-12.9895996;-56.31258678;-19.01662255;-12.15088355;2.27608668;34.79251885;5.902264096
9.656648498;24.53592594;19.07482166;3.977754882;12.56387598;-0.369643413;-1.541232164;-1.508135075;5.831007594;0.11903287;7.754771088;11.26107741;-9.498244086;-40.6717203;-13.03623652;-9.933559556;7.687574546;33.93106078;7.367700278
7.893026157;22.19325426;20.82094939;0.169368249;11.43701042;-0.972293137;-3.120671502;-5.135944902;2.879327421;-4.258055447;5.1285704;9.028855836;-7.145649368;-18.55398679;-10.5736375;-7.669582707;10.22296007;34.36652057;7.130628035
4.80711498;17.29388593;20.38;-4.225307396;10.35498315;-0.267060914;-4.232575961;-8.03219411;0.989334934;-8.078595947;3.904876513;7.734242106;-5.850606436;-2.415746598;-12.12491489;-5.910192999;9.401868252;39.07496479;5.10887342
1.769500546;12.90404328;17.99143982;-7.880269944;9.997301434;1.300843184;-4.01030805;-8.580865915;1.736347208;-9.369412463;4.85939681;8.836319892;-4.90587245;1.586372645;-14.74510731;-4.585055609;7.263314953;46.14252326;2.327778101
0.05189328;12.42611421;15.83204489;-9.113330367;10.88106899;2.945110072;-2.160760005;-5.961108876;5.833277994;-6.823171017;7.689425542;12.04204831;-3.759914895;-3.656704401;-15.08355543;-3.419221167;6.582036252;48.85184088;0.28377505
0.025641914;16.41474995;15.9652047;-7.280329838;12.88466281;3.972965872;0.592655857;-0.897604411;12.25468075;-0.87569996;11.40116641;15.58120488;-2.643574373;-10.01793299;-12.71853967;-2.455182903;8.579313881;40.34897207;-0.068999748
1.137252747;21.70524208;18.37502928;-3.628022792;15.17386929;4.129679435;2.74160878;4.49778293;18.37367347;6.172796862;14.90844444;17.67145925;-2.466746304;-10.98858609;-10.68894857;-2.14397225;12.05042471;19.48829041;1.0422834
2.620009766;23.93774505;20.94892485;-0.558039314;16.72163518;3.680704268;2.898446239;7.843787181;21.28053027;11.3294934;17.33492732;17.94597809;-4.063533864;-6.178109944;-12.64853;-2.943324388;14.54639722;-6.847315137;2.432727298
4.255996384;21.42110226;21.43432275;0.342490358;17.06422903;3.197983389;0.7839155;7.863845954;19.4756125;12.68321794;18.01218019;17.59597903;-7.428664;-0.425496918;-19.15376212;-4.851169851;14.48857106;-27.19585021;2.88077007
6.470913768;16.83793895;19.53584388;-0.159900757;16.64274523;3.180116715;-2.472426171;5.064258334;13.7211431;10.49435253;16.56290748;18.09523058;-11.5804577;1.051844129;-26.50451486;-7.348447821;12.38752813;-32.60973227;2.050141624
9.665447699;15.04070232;17.18181959;0.586423234;16.36911531;3.737617965;-5.037668123;1.256647443;6.418180468;6.748532739;13.27490798;19.68153304;-15.14592597;-2.869590555;-29.43417768;-9.804388643;10.22922278;-22.38921596;0.724210995
13.41697273;18.71279354;16.69865606;4.687153492;16.73196879;4.542557506;-5.638086298;-1.682538681;0.007958671;3.518392424;9.404297436;21.06533147;-17.18375557;-8.677293094;-25.57799093;-11.93173567;9.717066759;-4.333423059;0.198763893
16.36725936;25.79174522;18.58806206;11.21872492;17.22591243;5.076387142;-4.458191345;-2.89624044;-4.370217083;1.452701246;6.794345698;20.75176394;-17.62672908;-11.61312984;-17.93608019;-13.82813983;10.9694783;10.62471533;1.313739831
17.05133275;31.18661622;20.98237187;16.00855152;16.68167124;5.006844139;-2.988060246;-2.763191082;-7.026744183;-0.393800753;6.706829729;18.8012518;-17.09898178;-9.780019531;-13.02379923;-15.56188545;12.7297599;15.48558201;3.849018216
15.07916699;31.48592622;21.30614478;14.3529049;14.30780269;4.427416033;-2.915521308;-2.266958124;-8.792936039;-3.318089758;8.667111387;17.26353181;-16.37296861;-5.454141907;-15.91099346;-16.7509944;13.7294148;10.97699098;6.698678825
11.68511001;28.42436358;18.63456478;4.850298457;10.57295452;3.785465194;-4.887633379;-2.163050147;-10.01416784;-7.457201229;10.48720304;18.58539374;-15.93726659;-2.734214985;-26.00613072;-16.65296536;13.86712494;3.724435782;8.643037558
9.085260414;27.63983603;14.59294113;-8.722492395;7.093391356;3.553776853;-8.059381336;-2.609897492;-10.39909727;-11.37700521;9.865285541;23.20073219;-15.93169808;-3.827039815;-37.02533087;-14.81942377;14.15885422;0.64308039;9.125814035
9.016754701;33.30819907;11.97398103;-19.33189469;5.484610799;3.895755138;-10.73338823;-3.40014631;-9.742225397;-13.15169302;6.535910548;28.54360778;-16.33383719;-7.263878309;-41.3837536;-11.77792558;15.62408867;3.960438291;8.503466694
11.51982315;43.16352636;12.32511065;-21.32260985;6.050550858;4.578653899;-11.56398887;-4.374727648;-8.641816368;-11.98653987;3.129570407;30.7616221;-17.10712248;-9.462788732;-35.79266995;-9.04694929;18.2412604;10.40086728;7.669932791
14.89088154;48.63601258;14.67445197;-14.38016824;7.420097656;5.189435106;-10.40582621;-5.524188593;-8.317455756;-8.927364262;3.638085149;28.05313171;-18.15952046;-8.063190415;-23.85840037;-8.276535272;20.96333079;14.63703372;7.407120479
16.86895227;40.84696595;16.5034161;-3.724043488;7.534700127;5.461169414;-8.218756023;-6.704658174;-9.530804909;-5.992210587;10.30460835;22.79844081;-19.21566172;-3.989664809;-13.70308932;-10.06398025;22.72735225;13.90128094;7.942698743
16.19479535;18.15327641;16.03381412;3.753007178;5.281929202;5.430475573;-6.200461266;-7.368507392;-11.59217196;-4.470843805;21.30841335;20.22544474;-19.79948355;-0.457337622;-12.31162708;-13.36668437;23.44736475;10.06498934;8.965397063
13.41915722;-10.88329931;13.74717617;4.514343089;1.479189289;5.299011753;-4.886601046;-6.746083619;-12.53444013;-3.909939903;31.32848638;24.09274276;-19.386432;0.084989698;-20.65804261;-16.05495762;24.02621529;7.781580834;9.981930678
10.41956176;-32.051245;11.81251816;0.724549137;-1.631525862;5.140547647;-3.905203347;-4.461101273;-10.57077999;-2.720634549;34.93430196;32.65643192;-17.59357071;-1.74625168;-33.00860002;-16.27986446;25.38201924;10.47871774;10.687051
9.040583112;-34.71502504;12.02608469;-1.865518077;-2.044674234;4.746037246;-2.488863744;-1.054883425;-5.73522535;0.108016584;30.40261894;38.54964172;-14.25062685;-2.825693135;-40.76668626;-13.67360867;27.4321514;17.54907525;11.08289742
9.866719721;-19.06039441;14.18196902;1.235924858;0.468198217;3.788300257;-0.241174065;2.148192107;-0.253498655;3.749634899;20.9970242;33.48047364;-9.35301312;-0.436192139;-38.10962611;-9.503640795;29.02159293;24.92245628;11.32401674
11.95700352;3.982724319;16.3247511;9.546992185;4.147900864;2.195704635;2.492231379;3.87889468;2.878798916;5.970784836;12.60469326;14.75600259;-3.043892684;5.090298817;-25.63079334;-5.698510697;28.8956128;28.38813943;11.47208628
13.61624111;20.05543252;16.57203066;17.93728222;6.538094419;0.400988657;4.907354029;3.859929543;2.134196148;5.024296891;9.499626789;-11.30524812;4.279211587;10.43099887;-9.760690607;-3.51443242;26.83901742;26.87719441;11.3784498
13.55626982;20.55557395;14.78659996;20.65061934;6.270943774;-0.811937587;6.376603792;3.057396313;-1.264426064;1.430333943;11.53266684;-32.18025299;11.84434913;12.05890996;1.39190901;-2.837895159;23.94456372;23.07698647;10.78419927
11.62682797;7.241305941;12.59374406;15.76925373;3.973272988;-0.822675103;6.868563285;2.965988504;-4.139690265;-1.966225381;14.90123351;-36.78492379;18.60123836;9.325566273;2.95618874;-2.564646365;21.76705834;21.0022498;9.555754184
8.717680952;-10.45771056;11.81739375;6.61424855;1.641046255;0.317288795;6.81467114;4.438961947;-3.725146031;-1.90362593;15.71568787;-22.77762709;23.61105529;5.074120646;-4.057827126;-1.639549162;21.12155619;22.6239916;7.879028214
6.058597713;-22.6993179;12.84913325;-0.878134589;1.042138159;1.803646171;6.578235818;6.981361964;0.199998965;2.835311505;13.29192967;1.727603277;26.48929072;3.153058841;-13.77851637;0.116213422;21.57547394;26.37801961;6.263865135
4.494545581;-25.43093399;14.44788835;-2.55691772;2.430619483;2.552787207;6.015443806;9.080638776;5.079830926;10.35897205;10.40337509;23.40060202;27.50520415;4.963327798;-19.26494365;1.992638716;22.02316939;28.79222987;5.330184151
4.195859914;-21.45094628;15.06828803;1.280957747;4.53752094;1.92885842;4.528227026;9.322983046;7.455599992;16.89440031;10.38433642;32.24283558;27.1754064;8.117042233;-16.66062878;3.080222139;21.75407538;27.86942201;5.485084145
4.858850293;-16.56389622;14.38374627;6.872708879;5.746408478;0.200754175;1.591105505;7.421992711;5.509229526;19.39925701;13.73012949;27.44970779;25.66601302;8.51405036;-7.286643046;3.013312915;21.03324826;25.32894176;6.680976086
6.111364861;-14.55406514;13.54297704;10.48147119;5.443949703;-1.621888998;-2.659362822;4.382521832;0.350507905;17.57501307;17.30765717;16.67576955;22.5935651;4.132450562;3.408382414;2.179694932;20.73324531;25.60740294;8.418467975
7.784268194;-14.8597504;13.95407437;11.3375605;4.47261347;-2.476097637;-7.243600629;1.74055779;-4.857114138;13.80935551;17.0286242;9.686316219;17.55254618;-2.794068537;9.276789566;1.338651639;21.46051895;32.09090887;10.02305871
9.904788655;-14.0687084;15.80845032;11.67759008;4.395835741;-1.974708869;-10.73452222;0.54468841;-7.161141023;11.2248162;11.75815002;11.35003906;11.03446769;-7.278076231;7.186817776;1.08106442;23.04768951;43.42551591;11.0469359
12.50364138;-9.278286595;17.79277593;14.14036722;6.235114295;-0.668532401;-11.98065426;0.878007871;-5.717608653;11.4398376;4.998136185;19.03674307;4.905881551;-5.66684757;-1.170521059;1.600366827;24.85910844;53.02740553;11.540361
15.42781892;-0.386747324;18.28573307;19.00837245;9.693584631;0.322367672;-10.68971936;2.187933492;-1.994242922;13.73443658;2.627826965;25.83506913;1.797097616;1.13309357;-10.4093168;2.855375185;26.5270045;52.72789411;11.99524905
18.29122557;10.15450658;16.90635302;23.76882013;13.41482609;0.023975277;-7.524404715;3.988329455;1.643847476;16.07150147;8.296250683;26.56178261;3.583505876;8.189145838;-14.76579253;4.808972802;28.31920844;38.36340785;12.97656134
20.57354094;19.34345588;14.93194834;25.31771689;15.98086317;-1.831068567;-3.702307983;6.235217492;3.69144123;16.93925355;20.15623598;21.71276109;9.976191202;10.59760802;-11.53547575;7.405138769;30.73651267;13.39210082;14.68811055
21.79608422;25.49535947;14.1638458;22.76964656;16.82723745;-4.743466018;-0.397741427;9.052393755;4.253908315;16.45514651;31.69699303;16.52164619;18.33802799;7.726108719;-2.521900114;10.29657861;33.74679684;-12.29698798;16.78886684
21.6898239;28.7225159;15.28408002;18.31803585;16.41930079;-7.85251538;1.685207113;12.12923122;4.423902146;15.94470299;36.1869581;16.32378132;25.02292212;3.945070689;7.314323217;12.68243496;36.47549583;-27.94400754;18.60656543
20.29252673;30.18245365;17.23367801;15.33749966;15.68007813;-10.46335603;2.375987047;14.44243277;5.050465559;16.5392465;31.3407691;22.20598929;27.39447123;4.984471758;13.01698913;13.58688569;37.76010773;-28.25526174;19.59732353
17.93843944;31.07143354;18.19409307;15.3879219;15.22326197;-12.3301959;1.817536632;14.68048981;6.024052245;18.09130193;20.65481813;30.37621461;25.13631092;12.80750695;12.51681168;12.49914181;37.11964713;-16.23205098;19.70416997
15.13663595;32.08330718;17.25854654;16.80720712;14.99997638;-13.5674248;0.215185935;12.1258367;6.590869987;19.31942701;10.53175762;35.47493292;19.99310621;23.38023265;7.475404708;9.883226258;35.22382169;-0.594270342;19.34208444
12.38265596;33.33239257;15.23974412;16.24771474;14.54862753;-14.34712638;-2.227101829;7.323598629;6.259320163;18.98350113;5.613570223;34.89140966;14.27727245;29.52528673;1.806850174;7.066011696;33.35961823;10.28626386;19.03531058
9.992537545;34.41661689;13.87164426;11.93585142;13.5401861;-14.66220334;-5.160662974;1.996894035;5.40573461;17.03359883;5.982074865;30.54661272;9.376451684;26.83169743;-0.879773961;5.476501507;32.33410597;13.57764362;19.01365381
8.045820956;34.55940345;14.16429173;5.821595435;12.1363035;-14.33142763;-7.91879452;-1.769097907;5.049416373;14.75637654;8.147663184;26.88080814;5.376252267;17.81040809;0.833068661;5.757390194;31.83360169;12.7020535;19.0993763
6.456552853;33.05556344;15.45864795;2.561245543;10.9020377;-13.21065389;-9.556545502;-2.533062677;6.043348346;13.82113355;8.586057293;26.94520466;1.902714236;10.56963406;5.949801117;7.416460973;30.88861626;13.40891623;18.95803108
5.100689266;30.01580957;16.06917567;5.869136401;10.39492314;-11.42358768;-9.200584977;-0.076361367;8.407075861;15.02473526;6.655257813;29.95106204;-0.738946522;12.56261874;12.20129727;9.278157549;29.06171117;18.56070185;18.46547041
3.890765783;26.83581293;14.91346873;15.06306826;10.76919155;-9.428443137;-6.552739148;4.692764014;11.33618267;17.72656621;4.544565912;32.28017385;-1.236465116;24.08242895;17.44321814;10.36468793;27.22728405;25.85915535;17.84328948
2.744570355;25.66053814;12.59961643;24.69435694;11.66200276;-7.861886533;-2.212724254;10.29200824;13.80164431;20.36135449;4.631678879;31.00892623;1.916587132;36.76918494;20.41250061;10.51373262;27.08838467;30.25722389;17.43183791
1.501987096;27.83130681;10.93855725;27.86531891;12.3895316;-7.24684656;2.463566436;15.26117386;15.18592279;21.56843682;6.853122318;26.88574261;9.165770769;38.80318218;20.75722647;10.29616805;29.69881948;28.8972445;17.31562138
-0.091710305;32.40419282;11.30931524;20.97411305;12.28875809;-7.729038767;5.97399403;18.53486781;15.47062289;21.06235439;8.550644015;24.12246975;19.27814752;23.35657564;18.84883652;10.40192643;34.24477982;24.22951911;17.17578431
-2.261346085;36.20521776;13.374698;6.446893409;11.00937574;-8.990375705;7.421457298;19.58990905;14.95962271;19.65471292;6.954152252;26.94774482;29.87429886;-5.796072468;15.76496446;11.08701886;38.26213271;22.36;16.55809198
-4.984572721;35.89464957;15.33374221;-8.551464271;8.645273881;-10.39640851;6.94330592;18.48352525;13.9210961;18.51767594;2.054818677;35.55147107;38.6459405;-35.73973037;13.26674865;12.15809216;39.30778732;27.65781194;15.36174385
-7.832867273;30.76293947;15.49382959;-16.5140847;5.68878894;-11.31193058;5.540860603;15.81727738;12.51123108;18.30027412;-2.792089107;44.70865867;44.28271701;-52.14238612;13.29590858;13.4334474;36.82512102;38.03304892;14.11470286
-10.01575857;23.98472399;13.74377746;-14.0133927;2.840965288;-11.41709809;4.428986826;12.55353832;10.9763047;18.72152334;-3.263448491;46.48172085;46.50246615;-47.98260714;16.89414175;15.15393148;32.6653553;45.19312397;13.73719191
-10.65672498;20.90441316;11.60888334;-3.236073541;0.742340345;-10.8350894;4.35018715;9.655408098;9.808813286;18.8479729;2.42181644;35.3833345;45.44075653;-27.42785397;23.17404049;17.84998512;29.74654111;40.4135266;14.91395251
-9.184678828;25.18381171;10.86590379;10.03678692;-0.270184244;-9.978812208;5.298455974;7.696905122;9.57431857;17.7818764;11.81970233;12.48318096;41.1896909;-2.563883084;29.27847639;21.68381403;29.83610269;21.77238536;17.54596414
-5.649087404;35.54448867;11.99172103;20.17763477;-0.255331416;-9.207367636;6.768559885;6.696889996;10.47767729;15.2691551;19.92104584;-14.45316109;34.00300162;14.37615165;31.7030667;25.82743316;32.18337124;-2.88061811;20.72371394
-0.798839768;45.72304678;13.83452732;24.47660429;0.454107042;-8.538511824;8.246547123;6.306670742;12.04805525;11.86237293;22.93094033;-35.04874691;24.900254;17.8877793;28.28847492;28.51697409;34.08077853;-20.10937592;23.26439117
4.126917285;48.03144952;14.75069727;23.40128842;1.506124301;-7.656778623;9.511902308;6.199160752;13.28171456;8.589468436;21.15518708;-42.06345176;15.88978916;10.9717682;19.53176416;27.93726478;32.92284044;-19.72217398;24.41272087
7.824905236;38.23502246;14.11735308;18.92612014;2.71916171;-6.249903214;10.5468782;6.325891193;13.21286933;6.364872836;18.62923206;-35.20259559;9.312047049;1.496502351;8.265128466;23.41675319;28.18621511;-1.939554793;24.189089
9.407985996;18.42082456;12.83055103;12.76421962;4.04083966;-4.426350129;11.24074518;6.822650388;11.51397867;5.495746067;19.70502569;-20.74010394;6.642701256;-3.598474497;-2.046203905;16.09750362;21.86833815;22.50581677;23.17073096
8.739308536;-4.059821022;12.37767183;5.892271669;5.306524829;-2.841732666;11.27765752;7.67554955;8.684956744;5.557220782;25.25638975;-7.445466371;7.69582708;-2.170404053;-9.110997405;8.551590082;17.14440694;39.62029023;21.94794812
6.455669433;-20.7485059;13.39679703;-0.759229218;6.037939066;-2.338059309;10.40883887;8.502204706;5.708718216;5.692944344;31.5253778;-1.546242318;10.92569206;3.219693992;-12.46912515;3.517308921;16.31276032;41.53504493;20.72118856
3.637831463;-26.5309629;15.07858447;-5.711961157;5.542100746;-3.288077642;8.889554138;8.710762852;3.449659726;5.146836392;32.62811454;-3.800962819;14.61026386;8.359868898;-12.78033514;2.506074264;19.49041177;31.19034176;19.3250103
1.26856433;-21.71798002;15.94357275;-7.464237273;3.339307964;-5.139983293;7.604026067;7.935466749;2.222408835;3.683883025;24.93913097;-10.14683802;17.92871785;10.66161543;-10.66225336;5.086024277;24.80383089;19.05155776;17.56659945
-0.230211422;-10.97841446;15.23408964;-5.853014229;-0.366072713;-6.593175248;7.592125077;6.349819327;1.767877036;1.62260527;10.13141137;-15.03391182;21.04549567;10.42007813;-6.239539703;9.192089179;29.68607192;14.62183361;15.51388773
-1.093374115;-0.365927278;13.6062392;-2.883479802;-4.576129072;-6.39118663;9.222156603;4.531683451;1.544206406;-0.525464273;-5.374089171;-15.02961273;24.23134747;9.741463182;0.258829767;12.20585493;32.25116342;19.34863846;13.47265954
-1.861233757;5.579621476;12.49085636;-1.86422709;-7.929951405;-4.209382225;11.67351743;2.965453704;1.06054292;-2.503277601;-14.19638234;-10.44875615;26.96553938;10.49566705;7.617007539;12.18995266;31.94223471;26.22290049;11.72734584
-2.808865393;5.360322471;12.74932955;-5.102474367;-9.429856861;-0.962967505;13.28197479;1.643231405;0.063512691;-4.437746897;-12.41039239;-4.324113216;28.01247717;12.97439146;13.56351274;8.700241109;29.36445543;26.03920031;10.35204654
-3.575211865;0.533783114;13.89663326;-11.8309776;-8.944217771;1.759342518;12.662312;0.189798393;-1.411614148;-6.488493832;-1.6750317;0.182366453;26.55234737;16.00880921;15.86291567;2.897498541;25.74;15.15329557;9.303294007
-3.309640933;-5.300764924;14.60743389;-18.16302461;-7.100915325;2.771643942;9.839272656;-1.533580238;-3.018613321;-8.291253064;12.11261351;1.989261532;23.36819624;18.09630228;13.77060084;-2.99844959;22.41158091;-1.379113484;8.683778706
-1.290969517;-8.089376274;14.00340285;-19.45715723;-4.657014553;2.089188169;6.47901985;-2.893445186;-4.093060414;-8.746709025;22.44047941;2.516750959;20.86012732;18.51072951;8.600932367;-6.659661573;20.48638736;-13.56900604;8.844960303
2.398500486;-5.146546957;12.49259303;-13.58022456;-1.867995664;0.839003913;4.913278501;-2.614663005;-3.785200122;-6.527496591;25.57290716;4.288180151;21.5713533;17.64547537;2.860432495;-6.648216817;20.51014732;-14.00631638;10.11773898
6.649730602;3.365279099;11.37083158;-2.71300156;1.595067149;0.348396124;6.571113452;0.341518472;-1.437661637;-1.105076118;21.73962476;8.89996947;26.23996638;16.53374565;-1.358137138;-3.067153038;22.19;-3.21083034;12.33690264
9.769637864;14.19187907;11.57410285;7.714179849;6.07636412;1.124963874;10.94928038;5.757155281;2.909126342;6.43620444;13.91596015;15.8231349;32.96739443;16.03154706;-3.381247843;2.459210666;24.41417831;11.11843967;14.60446241
10.33808816;22.54927825;12.7731974;12.31214709;11.18284731;2.531104488;15.90798507;11.85440693;8.232964287;13.54654959;5.561214618;22.76572105;38.33575211;16.25166148;-3.598249681;7.548964654;25.7732361;19.99793635;15.62346935
7.937960248;24.91133127;13.67451375;9.002304542;15.53956366;3.394482189;19.09811629;16.10906097;12.79927505;17.45157767;-1.009505518;27.19473354;39.7640206;16.57730335;-2.276572041;10.25298125;25.4011219;19.40386003;14.47707925
3.323723671;21.26515635;13.24793212;0.077610486;17.39688229;3.030356232;19.46525457;16.7252085;14.97850266;16.78053517;-4.882428569;27.89298322;37.33327738;16.19618905;1.1118118;10.03989013;23.56761617;12.21443981;11.30598872
-2.000895106;15.07490016;11.72334196;-9.496595879;15.75766893;1.814465854;17.72692997;13.75091543;14.17186769;12.47372096;-5.92604163;25.54409604;33.6517153;14.78304435;7.199077024;7.973854315;21.5036948;4.912631731;7.335802514
-6.452648777;10.75071133;10.40923254;-15.16919478;11.21746891;0.827167838;15.5374709;9.026701977;11.23154406;7.271096398;-4.291936002;22.11067635;31.84315397;12.85288908;15.21220955;5.93610498;20.49063339;2.199264961;4.167601861
-8.881110938;10.46234436;10.49053775;-15.12549673;5.83679363;0.881300882;14.09095751;5.009814791;8.036369522;4.059846288;-0.52746209;19.58898849;33.21685454;11.48294434;22.22424327;5.365734128;20.8663237;3.886994868;2.811969575
-8.762370908;12.87771735;11.92298137;-10.52425148;2.031615213;1.781862115;13.3299783;3.340108043;6.446276312;4.182272318;4.097669144;19.02739228;36.41479501;11.51938406;24.3546116;6.348387339;21.73736482;6.114372018;3.153289312
-6.193576148;14.95097031;13.45766444;-3.974418359;1.186445351;2.479967365;12.3842452;4.154548661;7.297141065;6.840058594;7.815978365;20.35198542;38.6460871;12.81773467;19.46893057;7.665494349;21.66060072;5.254841071;4.200852645
-1.860289296;15.24746365;13.78003906;2.29308715;2.918611991;2.017205674;10.80257683;6.518562974;10.07282984;9.934610572;9.371233011;22.88697068;37.97675107;14.16488607;9.389563901;7.746931064;19.78015612;0.976616588;4.883379466
3.03523653;15.73919118;12.71158438;7.259733994;5.475149295;0.454099536;9.440998028;9.459199666;13.41024407;11.65613562;9.107133507;26.00015862;34.8642348;14.10302355;-0.403030713;5.826521198;16.52817076;-3.908087772;4.75991699
7.065102342;20.10291525;11.36527575;10.76373649;6.953938661;-1.050957943;10.12205429;12.676971;16.01509362;11.65106678;9.02132481;29.34714966;31.79428149;12.14413023;-3.891546782;2.469469339;13.34608287;-6.203838147;4.147903185
9.168686838;29.62846983;11.11813524;12.7581655;6.489942709;-1.147526762;14.2019335;16.38662681;17.32405491;10.99696069;11.32314628;32.62916988;31.39714626;9.405683284;1.430781256;-0.871917852;11.66727338;-5.014245487;3.672922053
9.29564359;40.31734883;12.35757269;13.07173137;4.626671104;0.532628705;21.14867785;20.54338515;17.51155688;11.14807387;16.34052681;35.2310827;34.54938656;7.998324031;12.44431556;-2.88776522;11.9649517;-2.087873429;3.689688304
8.599622765;44.27702092;14.15765077;11.81531887;2.715824595;2.927955112;28.34513338;24.25589789;16.98157426;12.74458439;21.48434834;36.20776851;39.85376343;9.454366607;21.9356233;-3.230128682;13.56067134;0.134018336;4.055338913
8.846801192;35.1399769;15.16753951;9.809141148;1.873549662;4.263763188;32.45662625;26.01878014;15.87020619;15.17279108;22.50358015;34.77441346;44.72671606;13.3708859;23.01058261;-2.544471315;15.24094953;0.744269157;4.371423083
11.25896349;13.61024139;14.86779876;8.359347174;2.271147066;3.41555734;31.50470461;24.67534344;14.01385584;17.09763235;16.58860552;30.99094543;47.11420495;17.44453897;13.58721854;-1.783100152;16.11382564;0.859996919;4.397756656
15.54046219;-11.47675971;14.02;8.395402987;3.20580072;0.838466921;26.19448833;20.36415797;11.38411352;17.43884075;5.211467273;26.0889835;46.54180656;19.05078011;-1.955995522;-1.41897505;16.04880196;2.155999265;4.235986041
19.8514052;-28.0708817;13.90215235;9.694311258;3.776562298;-1.705475718;19.52529079;14.66210132;8.539260469;16.0103902;-5.661502596;22.07538745;43.91255901;17.22901391;-15.06658397;-1.197196483;15.48551769;5.025563804;4.141380077
21.87278234;-28.61873847;15.06239571;10.94669277;3.567346361;-2.43926809;14.9203289;9.742512855;6.579920333;13.42016942;-8.731977899;20.74103773;40.49962015;13.48261035;-17.85180561;-0.565609558;14.92596111;8.149933013;4.181721781
20.28995262;-14.95013556;16.77077957;10.70532909;2.812053487;-0.880504501;14.14600634;7.123545904;6.495349582;10.45644048;-0.171253694;22.65266469;37.07926227;10.67526865;-7.590501431;0.652637614;14.58669892;9.803700697;4.091296999
15.65589751;3.345055005;17.68755099;8.456677344;1.988447927;1.848101472;16.4042024;6.887063845;8.337031854;7.541647381;17.18794167;26.77685494;33.80888841;10.85841169;11.61456551;1.962504134;14.41505619;9.57152742;3.468183167
10.02097064;15.81646621;17.12142138;4.926397223;1.259972734;3.922213346;19.12232959;7.880580565;10.90135039;4.672135425;34.76841697;31.00902509;30.70106343;13.79003906;30.84955148;2.545340975;14.29720663;8.831477787;2.138905492
5.62917085;18.09147992;15.69388513;1.411844247;0.28415087;4.186223832;19.79141169;8.685327604;12.30430762;1.788654973;43.08321486;33.30360901;28.07659786;17.35364528;40.89432411;1.955218543;14.17636992;9.581792672;0.366888678
3.65909086;13.74867692;14.77835922;-1.193304092;-1.430461861;2.902576343;17.55507299;8.610058594;11.17446051;-0.835316252;37.50466541;32.71864681;26.53956406;19.46646667;36.8693854;0.566520872;14.00668743;12.73214549;-1.270454853
3.883115851;10.16657044;15.22891463;-2.771059316;-3.92397359;1.335148526;13.54072756;8.021503411;7.666415446;-2.566859418;21.14519632;29.76128949;26.55057577;19.77301635;20.7188542;-0.613648796;13.71147031;17.40510234;-2.222061892
5.330287782;12.13690408;16.58239299;-3.463058048;-6.482619116;0.583073091;9.865222167;7.858187671;3.533507422;-2.782438574;2.863263008;25.89518075;28.04171282;19.61984046;0.29652451;-0.624091246;13.30123948;21.77666572;-2.244906524
7.238751273;18.52667303;17.48388774;-2.90281343;-7.960247773;0.665002764;8.130275741;8.761145309;1.116547645;-1.329502372;-8.30385045;22.61110541;30.41298907;20.38050207;-14.57871179;0.82357729;13.05213714;24.56073081;-1.44328997
9.445131401;24.39728012;16.9503976;-0.157595751;-7.545915224;0.59656928;8.454887615;10.47398087;1.878109014;1.281688724;-8.561471394;20.69428964;32.85052336;21.75498092;-17.21755794;3.250523534;13.45755199;25.76279467;-0.112664454
11.97003906;26.26333388;15.30546046;5.302989821;-5.406287873;-0.651796374;9.59773566;11.91258684;5.46624775;4.093216332;-1.09248615;20.10231149;34.63793366;21.76353431;-7.6538443;5.874002935;14.81432849;26.17484419;1.424589665
14.34984595;25.59912775;13.91558721;12.37343602;-2.676511575;-3.156316047;9.933745977;11.81773135;9.945034626;6.163513157;6.814145885;20.38547792;35.23861039;18.61844497;7.395710429;8.199259788;16.70577031;26.3518962;2.868447964
15.50927664;27.39049955;13.96216197;18.08209513;-0.74809137;-5.84368826;8.536434729;9.537782001;13.01918968;6.985182945;9.006057053;21.20881532;34.24845026;12.82795693;18.48792223;10.23977275;17.89912635;26.23442387;3.92329436
14.44015588;34.96735156;15.37003906;18.99257257;-0.353580113;-7.246778249;5.678382176;5.456736785;13.39928021;6.644271719;4.394824926;22.54007813;31.48483683;7.470508876;19.23358356;12.22408633;16.95558195;25.77541871;4.34146163
11.13183686;45.72279257;16.86821368;13.50681778;-1.138783274;-6.573894574;2.557025119;0.845099331;11.40258383;5.696812979;-2.936212153;24.41323268;27.29414264;6.083224486;10.37064972;14.11386135;13.25629348;25.75465538;4.062247532
6.859397184;51.75284414;17.11706124;3.393595829;-2.066243915;-4.227579264;0.572017771;-2.740908764;8.483050831;4.877363789;-7.129174195;26.55792012;22.81085723;9.789735025;-0.687210973;15.42226444;7.680472912;27.65336716;3.32138492
3.430255064;45.39849715;15.86662284;-6.788106995;-2.34918805;-1.405249819;0.671512253;-4.163219087;6.156061879;4.780270518;-4.780410175;28.28820839;19.76786557;16.17452754;-4.858360786;15.53953343;2.301049289;32.39390146;2.572359906
1.914171788;25.51202012;14.09897524;-12.22211632;-2.168843726;0.816707946;3.088954469;-3.155008033;5.136832184;5.612461395;2.962083577;28.79882134;19.73638788;21.06609273;2.195095044;14.29017383;-0.827027893;39.02771235;2.216240333
1.906613794;-0.554046778;13.05865662;-10.68936476;-2.554766606;2.128226665;7.435530522;-0.342039897;5.209694183;7.077707286;11.61196983;27.65203092;23.1670089;21.87130138;16.68981048;12.19381245;-0.968608695;44.76959947;2.338481382
1.987350042;-21.0424215;13.09726983;-3.802403064;-4.451705211;2.873366201;12.89685286;3.113660545;5.692604188;8.434536723;16.65287209;25.07102632;28.87960004;19.61936017;28.99235753;10.12270281;0.858427389;46.69464225;2.685575736
1.023119983;-27.14166135;13.40986169;4.178329705;-7.681198358;3.386963752;18.34547759;6.020078125;5.931864762;8.739043985;16.45274593;21.8208021;34.43539864;17.85392078;30.23402562;8.579493624;2.655282951;43.86941346;2.916983039
-0.801520957;-18.34585518;12.89124145;9.035168396;-10.68110473;3.457175879;22.41435892;7.551032584;5.404210265;7.214979549;12.88499809;18.79446578;37.2539775;19.2438231;18.69828135;7.208738549;2.848168669;38.14153462;2.908826107
-2.155595047;-2.171867135;11.28815628;8.912753324;-11.38128175;2.439675812;23.73285196;7.382571163;3.535620053;3.615866734;9.556291927;16.62937128;35.84451005;22.9117372;1.321514116;5.040212091;1.292456882;32.85695466;2.820765444
-1.83910724;11.21290683;9.54672295;4.844818248;-8.700444522;-0.071254148;21.43344378;5.601043738;-0.27718745;-1.581757765;9.152136041;15.58730496;30.46807185;25.03039338;-10.96974853;1.384191309;-0.812408151;30.52517732;2.854423908
-0.06731868;15.39242903;9.005944568;-0.514877429;-3.586732542;-3.640707692;15.74670191;2.5403101;-6.14224735;-7.256234879;11.77748906;15.66171047;22.93833177;22.42265183;-10.86396564;-3.29412798;-1.927461645;31.32572743;2.943278445
1.425635759;10.78826726;10.16589062;-4.743280398;1.257817635;-7.055893209;8.263469403;-1.303134051;-12.95926436;-11.97729571;15.24710531;16.69909877;15.77672363;16.08402398;0.271407434;-7.293977482;-1.268342275;33.54689705;2.715269925
0.693374358;2.900609888;12.16388572;-6.734871394;2.933018651;-9.080058594;1.508520172;-5.257139969;-18.28310152;-14.48043896;16.88742143;18.4041001;11.21187778;11.26164385;13.58137166;-8.625157136;0.798395895;35.32826776;1.830892547
-2.703258982;-2.312871536;13.45220751;-6.561813174;0.198752011;-9.309560959;-2.127225901;-8.475111321;-19.28850594;-14.10386363;15.51594962;20.32424178;10.44845975;13.44277158;19.30747154;-6.40453016;3.203730846;36.04874451;0.416456316
-7.009173741;-2.339641871;13.0797331;-4.679043571;-5.626601007;-8.422699862;-1.560450074;-10.0782972;-14.49299136;-11.02244243;12.32431099;22.0062363;13.39229587;23.1856384;13.91562752;-1.678664579;4.961252883;36.2802689;-0.850169023
-9.310171361;1.128646985;11.44027371;-1.380296677;-11.37695038;-7.594312458;2.434521112;-9.44452079;-5.08797809;-6.179340663;10.19159163;23.33486904;18.82451135;34.12302223;2.530387707;3.035892993;5.641438366;36.75381773;-1.188932525
-7.603773323;4.394183394;9.847426078;3.091051295;-13.91902407;-7.541311238;7.713455957;-6.499221113;5.252654879;-0.9294525;11.90818631;24.77182859;24.93097454;36.31994373;-5.053679943;5.296731628;5.296506653;37.67465706;-0.401155881
-2.344908098;4.773829565;9.359436757;8.116260379;-11.97679508;-7.979935421;12.03120639;-1.828201293;12.22472407;3.454906379;18.36635033;27.14381598;30.02653513;23.02844432;-1.757502928;4.326572498;4.114442077;39.07165589;0.801350589
3.737253188;2.250647078;9.928647666;12.57716656;-6.746477905;-7.945300135;14.27174904;3.453099821;13.27259185;6.172670782;27.74545384;30.95524578;33.20346202;-3.965211362;11.46534094;1.500360876;2.234072221;41.41236995;1.194879269
7.439498931;-0.996460823;10.60768829;15.27928794;-1.00331907;-6.715821005;14.80736049;7.979193541;8.843428534;6.970844096;36.17052022;35.69278483;34.57195109;-34.43288847;26.20925183;-0.668777079;-0.134392227;45.15270329;-0.046775376
7.166045469;-2.367893243;10.55086684;15.59033376;2.598826075;-4.580741788;14.76369576;10.4172452;1.615757509;5.89711767;39.53847939;39.77390281;34.91030198;-55.41130984;32.54433511;-0.345637857;-2.521365302;49.08035923;-2.627433919
3.784249354;-0.509665444;9.834625889;13.75620963;2.894094121;-2.801932762;14.7844866;9.705272574;-5.686985763;2.96173527;35.56487643;41.38956177;34.91517857;-58.71585618;25.93343601;2.326522453;-4.258461849;49.19362664;-5.212270387
-0.27333961;4.064297947;9.33412093;10.67523803;0.468049668;-2.760078125;14.29496105;5.318534306;-12.19863476;-1.959236131;24.9457593;39.74373513;34.59019434;-45.32909589;10.28386596;5.405583551;-4.817205458;40.28174459;-6.331314224
-2.870609334;9.452157989;9.80871919;7.384897204;-3.118945651;-4.925413923;11.90446037;-2.392971543;-19.07554974;-8.829147996;10.98892598;35.73236367;33.29505145;-24.13131664;-4.7523276;6.683623463;-4.12320392;20.27694223;-5.440881039
-3.574518209;13.42810297;11.09644965;4.668838556;-6.432180544;-8.438097762;6.692134962;-11.95394847;-27.90237492;-16.98709747;-2.06739601;31.41672173;30.49926475;-6.346580794;-10.05267429;5.428391592;-2.525963121;-5.701836111;-3.31430371
-3.665140216;14.49283479;12.20118969;2.933089606;-8.822700811;-11.61946475;-0.637758576;-20.93123036;-38.78;-24.99895644;-11.07011654;28.57999524;26.66153403;0.434192829;-2.496723379;3.022236726;-0.434615535;-25.83116925;-1.438642281
-4.917755911;12.50176189;12.20071747;2.182659287;-10.36442785;-13.03728546;-7.741257621;-26.73851291;-49.80986974;-31.17081582;-15.16699961;27.46386681;23.42091991;-4.771378616;13.74128701;2.014783045;2.025531399;-28.06916575;-0.87784815
-8.165152352;8.669761537;11.12200535;1.939856458;-11.34859527;-12.36;-11.94885853;-27.86055883;-58.50185532;-34.55249247;-15.65534911;26.72691935;22.73151824;-17.27753517;30.34144715;4.301849062;4.985001972;-9.038070897;-1.488292905
-12.63935885;4.951720366;9.955647858;1.257124551;-11.83837706;-10.43219005;-12.0504644;-24.81294584;-63.95063088;-35.73527965;-14.78837566;24.7001573;25.43211296;-30.07994389;39.87533935;9.791626497;8.453372342;21.514005;-2.090360621
-16.3902071;3.060597007;9.78436095;-0.844063779;-11.59049319;-8.599667199;-9.239550163;-20.09675708;-67.86897744;-36.70581023;-14.4419436;20.90299016;30.33478592;-37.33913276;39.49518478;16.52434703;11.99680341;45.38532935;-1.441548423
-17.33403003;3.631011236;10.82544191;-4.490658019;-10.29344278;-7.832329068;-6.440832603;-16.95068322;-73.43137134;-39.61984312;-15.42711483;16.49909163;34.68658004;-36.51405324;31.5223898;22.09114103;14.86421097;47.75408503;0.76081892
-14.24030886;6.031167649;12.26512784;-8.236210179;-7.869173268;-8.258728959;-6.408862042;-17.54261218;-82.70324364;-45.22616564;-17.60212813;13.23670309;35.88035805;-28.81664139;21.3753739;25.23311407;16.5292808;27.94692443;3.60908803
-7.236320482;8.944893938;13.02748484;-9.375825988;-4.637348114;-9.343028392;-9.906474411;-21.74632283;-94.70614224;-52.1079976;-20.36178408;11.75170681;33.28137852;-18.24317225;14.58307239;26.43764117;17.16544805;0.584334191;5.610201243
2.19553877;11.3046171;12.76076334;-5.592832935;-1.304234336;-10.44339092;-15.24289523;-27.3512677;-105.789433;-57.46422798;-23.01121936;10.75936567;28.81512226;-9.548769132;14.49897528;27.20142301;17.55421073;-14.71497342;5.690462555
11.59399929;12.89421382;12.1353121;2.936041653;1.179851183;-11.27319779;-19.48039102;-31.5870481;-112.1870277;-59.04865223;-24.90270167;7.991545576;25.78033774;-5.79916629;21.37644785;28.68405695;18.41108333;-7.875299942;3.840787604
18.20265062;14.2174443;12.19283551;12.62993757;1.8822759;-11.96295003;-20.43262096;-32.90548339;-112.8624247;-56.93267059;-25.5568502;2.246301926;26.64306;-6.682956472;32.65844416;30.87869824;19.67718906;14.01956079;1.018366472
19.90897397;15.83406741;13.35857807;17.95053387;0.270883343;-12.78956244;-18.05775337;-31.78692896;-110.442071;-53.74573492;-24.92083949;-5.138354171;31.35912338;-8.877469267;44.10984011;32.88744806;20.42927376;32.35037425;-1.495849754
16.17475682;17.77526354;15.0218589;14.70945595;-3.39293588;-13.87837223;-14.3499663;-30.08750694;-109.48;-53.08457008;-23.54750675;-10.74579121;37.44031029;-8.696476562;51.49365343;33.90803818;19.56148809;31.78292542;-2.75963139
8.439156147;19.50381915;16.05203742;3.111187224;-7.922373835;-15.12387271;-11.93051873;-29.54273966;-113.3409785;-57.13476576;-22.30759289;-11.33052905;41.74547967;-5.385350536;52.39105629;33.96800743;16.70534314;12.60324585;-2.464018833
-0.448620095;20.34409819;15.76247757;-11.78155859;-11.59620661;-16.32230618;-12.39455107;-30.62050185;-122.0060255;-65.17875789;-21.6079204;-6.252758282;42.74840236;-2.341886509;47.44584755;33.75625763;12.60329765;-9.511437199;-0.855798604
-7.661714454;19.90691291;14.45393884;-22.82729569;-13.03253969;-17.31703378;-15.49362627;-32.52592734;-132.3161644;-74.05261846;-20.71819377;1.706844347;41.70366465;-4.653677371;40.2256769;33.78973827;8.594787415;-16.36341007;1.467902364
-11.90328217;18.15629454;13.08870095;-25.12845118;-12.07645846;-17.99326514;-19.51533382;-34.15920927;-140.2625239;-80.2019851;-18.01586223;7.750584392;41.91542033;-14.31191796;35.45098792;33.79782929;5.643022722;-2.370777183;3.718149802
-13.97276657;15.24648961;12.44778716;-18.93997222;-10.0497113;-18.16220578;-22.38678832;-35.07338918;-143.46183;-81.85201815;-12.31440372;7.692382969;46.61522565;-26.97504693;36.37766017;33.00855651;3.741388291;20.5872257;5.07692468
-15.92264569;11.54734516;12.55495473;-9.142493758;-9.030932426;-17.52921746;-22.69479811;-35.598431;-142.0462816;-79.80767737;-4.346427556;0.117613104;56.8493016;-33.71155223;42.87838866;31.14072442;2.205027635;32.9241581;4.993406904
-19.34304682;8.008798718;12.83960311;-1.750360865;-10.51547814;-15.88084703;-20.11015859;-36.1413268;-137.6457379;-76.49608443;3.04384977;-13.01065354;70.69254635;-27.44998749;51.53127742;29.14579568;0.557047809;23.87449294;3.559005526
-24.0057987;6.432605585;12.79133152;-0.056718287;-14.34131919;-13.39398458;-15.2458395;-36.45400569;-131.6598017;-74.15591281;6.652784121;-27.19651866;84.19434131;-9.580138584;57.78584092;28.84045554;-0.827868669;1.027277671;1.662162054
-27.88571528;8.983769085;12.42892376;-3.127491835;-18.68503828;-10.78347578;-9.281431709;-35.6639195;-124.3664161;-73.56370983;5.572707286;-36.94135863;93.3956622;8.970539276;58.85735536;31.51849556;-0.951088632;-15.44337192;0.635332879
-28.56325957;16.80025372;12.1524858;-7.404015082;-21.20701141;-9.059185385;-3.590362004;-33.08916331;-115.4294306;-74.06318609;2.530883964;-37.43724262;96.213814;14.23632066;55.44885154;36.63167599;0.876895921;-9.532989779;1.462696567
-24.97136615;28.51070225;12.19170276;-9.781525377;-20.57110935;-8.953078612;0.638432913;-29.04171901;-105.0295548;-74.5414724;2.309390783;-26.39909793;93.20852186;-0.662494646;51.16339726;41.76111684;4.23512629;16.54850496;4.045813252
-18.20208949;39.96162696;12.25761647;-9.62517524;-17.25492859;-10.37900411;2.841220448;-24.75553028;-94.35556254;-74.33886174;7.917658148;-5.858302437;86.96315409;-29.30330823;50.02458403;44.14069233;7.690937147;42.89087479;7.114040919
-10.82749345;45.8561411;11.77206183;-8.392121971;-13.08148627;-12.34129826;3.42729287;-21.37557272;-84.92279637;-73.37249309;17.391547;17.10193003;80.55520942;-55.00090178;53.77052806;42.67784892;9.795553482;47.00614962;8.955873431
-5.312024014;42.61028489;10.44134615;-7.683823546;-9.866608162;-13.4342096;3.68935281;-18.89725639;-77.38646364;-71.62936628;24.1947623;32.15045205;75.97567996;-61.6693125;60.67824017;38.86634594;10.17203546;21.5219399;8.51820906
-2.706410352;30.63060253;8.579580301;-7.754136013;-8.232127205;-12.65619972;5.08951777;-16.13308987;-71.04583541;-68.78989613;21.68245105;30.4670008;73.27833937;-44.84533258;66.61427412;35.75064862;9.775504744;-19.88444347;6.090230729
-2.469513677;14.39343164;6.83788413;-7.775069869;-7.458330065;-10.01480495;8.22593626;-11.93449407;-64.60280078;-64.53176707;8.683567185;10.47342355;70.81279702;-14.66184096;67.57900752;35.64047001;10.09240567;-53.11526478;3.06517774
-3.314359607;0.147235493;5.603834978;-7.299459518;-6.386650082;-6.517873929;12.20193455;-6.699280104;-57.53972803;-59.27328332;-8.225974472;-19.31894639;66.34174859;11.53331684;62.15943704;38.34135493;11.94238196;-62.1466167;0.96588222
-4.233678232;-7.31308435;4.679972774;-7.156007151;-4.544656863;-3.559537026;15.00601301;-2.740463342;-50.84024245;-54.53230176;-18.17772002;-43.42633691;58.40654242;21.32819651;52.48019218;41.33713389;14.87374224;-50.41032507;0.475654156
-4.902812917;-6.796683356;3.568577624;-8.621824841;-2.537215268;-2.115963052;14.82183303;-2.899865342;-46.3114398;-52.3005118;-13.30349574;-47.83104636;47.19129577;14.98923052;43.19486777;41.83124761;17.62351335;-36.19921589;1.181287522
-5.350417009;-0.686380858;2.055144893;-11.57367996;-1.420826081;-2.27288258;11.41356386;-8.279779873;-45.02060214;-53.71039819;5.334167639;-28.80661451;34.42771281;3.262455087;39.13560803;39.03943601;19.20889654;-36.5290069;2.143657663
-5.455356485;6.831131838;0.446104559;-13.62156234;-1.669566091;-3.346844013;6.533420936;-16.88241342;-46.2041048;-58.01779304;27.85389858;4.122474634;22.45127317;-2.33676833;42.86072517;34.87885294;19.71375683;-53.20222325;2.758859417
-4.881965284;11.88378019;-0.846120164;-11.59673094;-2.687409179;-4.440078125;2.93060048;-24.4234054;-47.65463152;-62.82020162;42.08574628;33.92321154;13.0327409;1.484063631;53.2989224;32.46333331;20.14365589;-72.45707934;3.193210361
-3.516945502;12.23950471;-1.969603;-4.584161682;-3.32887984;-4.997952965;2.58;-26.93903029;-47.32076518;-65.49311513;41.96334886;47.13660807;6.716565933;8.684518725;66.12142101;33.59103646;21.53761883;-77.7893181;4.090135622
-1.887467717;7.647386504;-3.791041809;4.114438538;-2.985404386;-4.999927848;5.387582998;-23.34175774;-44.77209691;-64.81799709;31.55939719;42.57934826;2.999272394;10.9009982;75.67683914;37.25111419;24.11674198;-64.46333197;5.875409843
-0.999474195;-0.353055952;-7.203091779;8.319752701;-2.263844666;-4.731529267;9.327933936;-16.02398886;-41.26296519;-61.56501735;21.65685035;31.17675056;1.054564613;5.916682061;77.61032851;40.37564006;27.13233713;-43.22739883;8.290456864
-1.587565;-8.862936859;-12.09929408;3.290459435;-2.597211631;-4.395656656;11.9232068;-9.067230293;-38.33045963;-57.59631432;21.38452696;26.857657;0.341873638;-0.110104674;70.93625666;40.25599461;29.41887008;-30.41706523;10.53115765
-3.391601714;-14.50624316;-17.0078522;-10.04116628;-5.033493575;-3.896254759;11.9806417;-5.434540555;-36.1553764;-54.23050843;31.25678383;35.34128536;0.627087815;1.288683842;58.53544977;36.69568894;30.08981285;-33.45235323;11.82110723
-5.162341487;-14.96253385;-19.91811091;-24.46816391;-9.180346721;-2.93919819;10.33791077;-5.24223913;-33.16352648;-51.19088281;42.91445068;49.51936865;1.541461839;11.94364033;45.79087795;32.18183407;28.8271515;-44.51128316;11.89921361
-5.521586598;-10.58760028;-19.76721675;-30.64080179;-13.20977503;-1.322356279;9.140395424;-6.260507868;-27.30373042;-46.96988917;45.71723905;55.17576832;2.281241359;23.4511055;38.04042579;29.95105874;25.71716372;-47.80057877;11.03721763
-4.047034884;-4.820029297;-17.34100128;-23.360846;-14.99091032;0.847276244;10.26982352;-5.991561665;-17.97933911;-40.28777125;35.07747642;42.64892405;1.950014648;22.80115604;38.17542723;31.50234394;21.03120445;-33.90747166;9.660019531
-1.692482975;-2.417377969;-14.71458437;-5.50302192;-13.50700412;3.179250495;14.10830189;-3.512727571;-6.981613062;-31.44598446;16.14176793;15.17657176;0.407217679;3.165683881;45.61411501;35.51466673;15.29386664;-8.61536607;7.982664392
-0.150813269;-6.156790758;-13.58781092;13.50321518;-9.479135622;5.223319848;19.4604066;0.332263226;2.465472195;-22.47121925;0.07830651;-12.87137213;-1.137209182;-29.00839567;57.04356718;38.96048245;9.514067075;11.49734181;6.001090175
-0.624070264;-14.2771667;-13.89801409;23.75826388;-4.754244693;6.699170213;24.52;4.273846437;7.90125694;-15.90510867;-4.088691709;-26.65271278;-0.535014549;-56.91631271;68.27989678;39.44654471;5.109508976;12.81920265;3.782815146
-2.962419322;-20.98992419;-13.94996981;21.24832306;-0.989968926;7.570948634;28.02975267;8.055008012;9.372864258;-13.13219744;4.139535347;-22.01152428;3.877465931;-64.70362587;76.04617969;36.89417904;3.259648619;-4.070662308;1.69134159
-5.847031031;-20.3295503;-12.02640168;9.949987394;1.316738592;7.960823691;29.78511761;12.56286227;9.34890569;-13.45559311;16.83139557;-8.263115719;11.77435993;-48.69472338;78.7626735;33.29774794;4.04083949;-25.25321732;0.248351174
-7.854424257;-10.83861433;-8.112495085;-1.659740595;2.759386098;8.023859706;30.28515572;18.54292424;10.84148962;-14.5415175;23.86244948;-0.431279905;20.48453516;-19.94166539;76.30057704;30.89991465;6.117846436;-35.38432333;-0.281677561
-8.542146408;2.565731786;-4.185410439;-6.890105175;4.10636082;7.899207396;30.02596067;25.16086901;15.15573053;-13.87615867;20.41433177;-7.232193825;26.31908541;3.787060892;69.36781438;30.35863263;7.481910962;-30.21779568;-0.184096093
-8.701596852;11.42084836;-2.715579833;-5.195824673;5.417430723;7.73877559;29.10907244;29.89636107;20.94381799;-10.25273774;10.18042079;-24.43241;26.8660963;10.33821334;59.22464213;30.37571496;6.869499581;-19.08791401;-0.132486331
-9.607815661;9.528223531;-4.599150392;-1.581256733;5.982406199;7.720756137;27.42728203;30.11119499;25.21666626;-4.412167732;2.190531602;-38.70437618;22.69895532;0.550657384;47.82539417;28.97432421;4.795317453;-15.70695902;-0.650480374
-11.8866837;-2.536567575;-8.302973866;-1.913108452;5.118006876;7.978517479;25.12537424;25.12649079;25.50569889;1.408148154;3.925539082;-38.52338035;17.23114051;-14.32409893;37.85494377;25.26725005;3.280592596;-25.77484655;-1.648405719
-14.88969933;-17.76448851;-11.01475193;-8.021228601;3.093020936;8.488363503;22.81978037;17.09494169;21.59630529;4.627660682;15.8618294;-23.09241195;14.71358855;-22.27693976;32.09193979;20.24844655;4.346189687;-42.31273695;-2.463855456
-17.03855683;-27.78032804;-10.87400629;-16.34619631;1.32027001;9.039187885;21.34037685;9.861364191;15.68563833;3.533223543;31.18182586;-2.253476627;17.6803839;-19.29940812;32.15949972;16.04652198;8.390325528;-52.43296516;-2.41171449
-16.85670337;-28.77135784;-8.408002517;-20.90916702;1.557824678;9.357127216;21.22360042;6.611968148;11.01349142;-1.962972367;40.48931122;11.97985062;25.51793198;-10.7804225;37.46078281;14.36768215;13.76497687;-49.04576622;-1.392470217
-13.93193526;-23.70504366;-5.962316603;-18.00714666;4.689580512;9.311458494;22.40167974;8.070078125;10.0240023;-10.23956596;37.97769599;14.80337795;35.00237997;-5.47790166;45.22985408;15.43619331;17.96062565;-36.87732087;-0.031953691
-9.170984903;-19.26459231;-5.638089981;-8.901646356;10.02256883;9.024141608;24.33112206;12.51950136;13.25269025;-18.53503849;24.8829065;11.15336593;42.28197708;-7.804119651;51.93024867;18.1904838;19.50329951;-27.62942529;0.786099644
-4.251110826;-20.20596708;-7.528585133;1.408339773;15.65447135;8.761393014;26.4091023;17.45899179;19.45187691;-23.97086173;8.257253009;9.879288426;44.90874351;-14.7957346;55.20514276;21.36893945;19.04680265;-29.04065571;0.612604633
-0.695610394;-25.82897526;-9.764777592;8.084058985;19.65329203;8.674449396;28.31266132;21.46224131;26.59706338;-24.66304428;-3.718212606;15.29278516;42.72439679;-19.59418296;55.06666626;24.42169249;18.75948271;-38.0007341;-0.228643371
0.849857413;-31.29829302;-10.28298903;9.831547097;21.20182698;8.614800894;30.03;24.81736734;32.98781247;-20.44475862;-6.66843874;23.77569149;37.38441205;-17.73976864;53.48696736;27.47733839;20.48262047;-43.93818845;-0.935297999
0.797028124;-32.3464742;-8.722548474;9.271930556;20.9329722;8.217795643;31.66392069;28.65759472;37.83745767;-12.81956128;-2.20157961;28.22567949;31.21297082;-10.69776262;52.70715515;30.54672466;24.14681982;-39.14538005;-0.893360979
0.271807363;-29.06744596;-6.769288784;10.34856642;20.3148667;7.22676221;33.2586267;33.53868092;41.23323878;-4.141572594;3.743697641;25.83341403;26.25971762;-3.973929077;53.52985658;32.87146073;27.7338943;-26.30058736;-0.148393197
0.504746439;-25.4866773;-6.651953237;15.0892542;20.61363791;5.796667017;34.79134437;38.73394996;43.72276322;3.506130919;5.137464546;21.56723939;23.91651268;-2.01112862;54.85884519;33.17748091;28.82434377;-16.06619653;0.704246273
2.245755309;-25.46666802;-9.136755122;22.27676902;22.16844514;4.486824417;36.23336723;42.73875149;45.85688165;9.050551941;0.012911644;23.63782476;24.8547519;-4.54855443;54.78747288;30.72702417;26.50081645;-16.90323588;1.090235421
5.414786962;-28.82031832;-12.80607912;28.7926253;24.37105297;3.883662651;37.50117774;44.38238941;47.8944773;12.37856544;-8.033573702;34.72342721;28.92210842;-7.396979927;52.35853807;26.2663126;22.11750637;-26.63850898;0.983245678
9.106358305;-31.29969784;-15.27301993;32.20040086;26.19133216;4.115590952;38.28649906;43.5131539;49.73806072;13.69735122;-12.03358063;47.13415937;34.99999349;-6.506938001;48.62254266;21.95906984;18.37706766;-33.94607191;0.941961817
11.96362487;-28.57452957;-15.2835985;32.3238107;26.7758929;4.660048828;37.98819613;40.75607156;51.08976651;12.96045841;-6.348241439;47.23699958;41.17706203;-1.484291016;46.16482504;20.19826726;17.48739251;-28.81998426;1.643522245
12.79217686;-20.59747789;-13.88433229;30.67542084;25.75184383;4.654592208;35.97954302;36.76101398;51.7428248;9.914344749;9.024458363;26.52355191;45.4775548;4.44461851;47.41310218;22.11859369;19.81969024;-12.54042887;3.319220299
11.12973677;-12.25427945;-13.64366882;28.53254525;23.20736574;3.532799633;32.15111224;31.7803248;51.82616398;4.718963524;27.52608957;-9.558664696;46.85020595;7.647033624;52.91252468;26.90492598;23.98645159;2.419032346;5.551871766
7.451004192;-9.45372381;-16.58134061;25.55982041;19.55855077;1.52060924;27.31981902;25.98354276;51.78704248;-1.494123389;39.55845299;-42.8912203;45.71087182;7.357537729;60.75354847;32.38632619;28.09169291;3.196590018;7.564323512
2.864526832;-13.9722242;-22.53120639;20.27327818;15.47085988;-0.407010038;23.05460143;20.09895333;52.04054302;-6.796598341;38.51661656;-54.17404907;43.53211442;6.10889768;67.52491434;36.43075744;31.05887785;-11.32730143;8.725049225
-1.518319136;-21.6775967;-29.25064618;11.93070842;11.79787877;-1.121368225;20.86476007;15.58440052;52.49855108;-9.438223951;25.33440666;-36.39646838;41.71400033;7.168499499;70.16482962;38.1019268;33.04903039;-28.41638497;8.864206765
-5.123499516;-25.92497098;-34.10720093;2.11524363;9.389007352;-0.081790436;21.24665181;13.9574955;52.38768417;-8.943096356;8.137288401;-0.111608403;40.62;11.4954218;67.57185863;37.8142787;34.84182689;-32.31298386;8.209930601
-8.001755194;-23.34613735;-35.92137017;-5.532095489;8.73827503;2.302649033;23.30799825;15.75234197;50.64135613;-6.427875696;-3.147616061;33.5535402;39.58656684;16.96771665;61.06933074;36.5456388;36.87773828;-19.22391047;7.089491233
-10.44312453;-16.98579768;-35.54623096;-7.452556469;9.67910784;4.942509739;25.33138696;20.01055704;46.7176968;-3.794390932;-3.600333867;46.92893542;37.89335894;20.40294527;53.5419599;34.85086697;38.79019057;-3.060969175;5.689784392
-12.46741377;-13.88401146;-34.90964966;-2.62320425;11.41688722;6.76043538;25.93149113;24.81687406;41.27194853;-2.351591159;3.462895865;36.58442746;35.79801264;20.36155059;47.79303512;32.45506015;39.69739959;-5.672697154;4.039130722
-13.63228704;-19.00130405;-35.47246373;6.571909373;12.99226668;7.308852858;24.96712156;28.4967883;36.08859199;-1.917366852;9.424172311;13.56414592;34.60044848;18.16402103;45.02936433;28.64856744;38.85491368;-38.55594916;2.130763831
-13.33042734;-30.66370255;-37.34709971;15.77003906;13.91395099;6.906395525;23.51853078;30.51951825;33.15930621;-1.095240432;7.383319617;-5.932668174;35.51780483;16.34113275;44.26755163;23.06848391;36.07612772;-91.08394327;0.007369075
-11.33174015;-41.53569825;-39.5696692;21.33450014;14.4958249;6.266516853;22.94782973;31.42378442;33.45200281;1.515811759;-2.155425711;-11.62855994;38.26313568;16.11923936;42.98310819;16.22913503;31.68587931;-135.8214258;-2.258763833
-8.111435686;-44.43187939;-41.020191;22.38979319;15.59404293;5.951470678;23.77229216;31.95735831;36.22724139;6.165788549;-11.52515502;-4.0310707;40.64599874;16.33333768;38.69959045;9.448287473;26.25015083;-147.7563353;-4.584060393
-4.669915879;-38.09133807;-41.1280996;20.83256659;17.88196648;6.055901785;25.22222307;32.2926646;39.43099779;11.77275356;-12.04821347;9.017291917;39.79031911;14.72420226;30.68258351;4.288726759;20.4447275;-122.6002993;-6.772147245
-1.956753091;-28.01747639;-39.95856172;19.54243742;21.18712966;6.288057029;25.81;32.03750757;40.94067568;16.81857394;-1.237482448;19.64013781;34.21853032;10.32075029;20.72955363;1.903729099;15.12285396;-79.61765941;-8.354441359
-0.322727789;-21.69048567;-37.94879298;20.31332473;24.41957116;6.296280702;24.44628813;30.94854147;39.83265295;20.54432802;14.87281445;24.682751;25.20082953;4.624099556;12.42513507;2.607662786;11.29357691;-46.73328685;-8.609749146
0.60528189;-22.27094337;-35.75064303;23.04422653;26.20632681;5.944765203;21.23675767;29.54789706;36.84073121;23.45745283;26.36780106;25.09232724;16.19343657;0.453887608;9.094179518;5.764755134;9.741697952;-39.86863398;-6.935923938
1.559517902;-26.16953636;-34.24028823;26.5477627;25.81174961;5.357343682;17.38392566;28.92052101;33.77054586;26.77028729;27.42123325;22.31157407;10.63144623;-0.508172979;11.59268134;9.947368086;10.42628438;-52.83500907;-3.430463382
3.060889583;-26.48411231;-34.33256239;29.98833928;23.68079056;4.77871851;14.33698176;29.77638516;32.35074797;31.27910719;21.02366036;16.16098623;9.664958675;0.763551911;17.39612127;13.32545544;12.17901462;-65.15010223;0.767411557
5.038645595;-19.24504746;-36.35801939;33.56480927;21.1943421;4.431616865;12.88617249;31.6419599;33.30296244;36.61841682;16.38789676;6.206225287;11.53715274;1.462092791;21.7954862;14.27049886;13.14687342;-60.43649588;3.791658161
6.864116307;-7.048734487;-39.36661624;37.88113754;19.79537074;4.483268636;12.86057876;33.03558939;36.13322402;41.46806832;20.98156615;-5.540925961;13.06463201;-0.582168692;20.66362499;12.04681394;11.86293789;-39.85204655;4.009437077
7.740308518;3.000888907;-41.13971077;42.73314694;20.10430706;5.075576085;13.54281426;32.63232679;39.5861267;44.49954133;33.74923347;-14.32196827;12.05929486;-4.947965885;13.08535059;7.274181234;8.242666884;-19.8692308;1.078755732
7.205533115;5.178718286;-39.3251573;46.63229413;21.64172158;6.298994038;14.34703821;30.47980649;42.32546508;45.29978548;45.3211981;-15.9590127;8.820991236;-8.894112364;2.059958268;1.803041644;3.735402786;-17.19500648;-3.640564976
5.497643862;-0.24097943;-33.12206962;47.74647741;23.31541781;8.076909628;15.1773321;28.16862891;43.44171383;44.61864741;45.31935926;-10.99032978;5.598058421;-9.61656745;-7.307793504;-2.093472463;0.439138807;-34.20013161;-7.707359683
3.614964897;-7.491753383;-24.21480678;45.6019496;24.26069703;10.07619529;16.24650745;27.69457046;42.67910979;43.87713236;30.90955815;-5.321100618;4.534222974;-6.541723917;-10.98137877;-2.853002361;-0.225420505;-57.19678634;-8.940039063
3.012144368;-10.30352114;-15.99333409;42.03766463;24.3814118;11.79788017;17.6303055;29.88364114;40.48626871;44.40263675;9.536167395;-5.908230365;5.792098484;-1.707845309;-8.387221569;-0.426686964;1.666929516;-68.56611773;-6.644331407
4.979215755;-6.939868231;-11.39655864;40.34668877;24.20523521;12.86071166;19.02401708;33.68349342;37.95289406;46.91441038;-6.551635629;-14.68174773;7.345091772;2.041293198;-2.419640854;3.762134994;4.798577681;-61.98593802;-1.945356386
9.909131363;-1.040124384;-10.93235359;42.99824495;24.22423421;13.2858989;19.92541678;36.9379974;36.54071008;51.42802942;-9.618751875;-26.07139287;6.557978616;3.459541663;2.830912081;7.680664453;7.678023597;-47.72293208;2.960764942
16.8225574;2.1318403;-12.45003906;49.61719061;24.29947585;13.52568546;20.04677689;38.01802152;37.51853495;57.3867262;-2.04269038;-30.86;2.259713946;3.8393601;4.877623982;9.803028493;9.677315055;-43.69879588;6.112221816
23.53123971;0.433758357;-12.91729553;56.87978513;23.64437222;14.14708809;19.55051733;36.9527403;41.25644941;63.78700591;6.306754423;-23.67837981;-4.32522279;5.716509029;4.118131236;9.774857845;11.28087276;-60.06998264;6.801979705
27.54466099;-3.64606822;-10.82381803;60.57851692;21.41940029;15.36750996;18.8799773;35.13695047;46.80498386;69.29596267;6.601453013;-8.006134169;-10.4585856;10.46812832;2.810723027;8.291137364;13.45293297;-90.20093679;5.735060625
27.33825831;-5.80631019;-7.285090252;58.40156648;17.45970624;16.79742372;18.33697869;33.91992806;52.1609216;72.53044974;-1.654100944;5.738117147;-13.81672152;16.8496304;2.775210895;6.426522298;16.70707535;-115.1956169;4.352806263
23.23687173;-4.205088621;-4.968284687;51.36481811;12.53307869;17.62014487;17.78976383;33.34490801;55.21200097;72.54989078;-10.57689779;7.805575339;-13.94455757;21.71810475;3.775338092;4.9813679;20.62007813;-117.8537413;3.86
17.27761637;-1.127842545;-5.762080306;42.86933146;7.89636547;17.10967075;16.77804697;32.16301089;54.83872579;69.32033886;-10.9560355;-3.595520183;-12.19602399;22.38733416;3.86657238;4.25881547;24.10310279;-94.65766512;4.579819166
12.04120559;-0.559816498;-9.143927656;36.22416721;4.488515128;15.11744121;14.93343635;29.11356416;51.467681;63.78136745;-0.315513558;-21.18954241;-10.37772595;18.74326782;1.310906394;4.251227072;26.12935756;-56.85412229;5.952049081
9.179337625;-4.05013482;-12.58359543;32.64368717;2.40140118;12.17426054;12.36544075;24.33070864;46.71717885;57.38988189;14.82982083;-34.49803484;-9.295804385;13.45137269;-3.630603173;4.893703104;26.32508448;-21.10942216;7.055471305
8.637804163;-8.850764908;-13.5918848;31.2245299;1.046210962;9.148087804;9.698887586;19.59545057;42.41123545;51.44280713;24.33187533;-37.79358784;-8.357898916;10.09158761;-8.56988032;6.098979866;25.04017699;1.732509459;7.263195702
9.099652668;-10.18177355;-11.66350528;30.65642392;-0.146258273;6.732533529;7.737115821;17.13287462;39.66113288;46.67972465;22.74016839;-33.73067569;-6.421429032;10.64444191;-10.6524086;7.615288386;22.98371269;11.05445768;6.641701512
9.260078125;-5.605746288;-8.520351351;30.92379189;-1.113142187;5.143579765;7.009028245;17.91016453;38.5897305;43.40496675;13.54486438;-30.06202745;-3.047126707;14.2074243;-8.654949312;8.992496125;20.81568057;12.25447567;5.903291854
8.903523642;2.530286305;-6.555760552;33.3208405;-1.200875322;4.200294868;7.511019727;20.83786732;38.7236701;41.86183947;5.846194804;-32.65146442;0.948638773;17.85022307;-3.858307154;9.844329342;19.0098861;9.576514476;5.969870566
8.923730261;8.924129885;-6.887487769;38.70156719;0.125427537;3.642890027;8.7692755;23.5330903;39.57526341;42.33238137;6.405011916;-40.8297286;4.086967106;18.90367526;0.908614076;10.24404293;17.97592821;3.110787186;7.39320841
10.30489904;9.864832741;-8.658307618;45.62607396;2.495444365;3.375457217;10.11164522;24.01443971;40.88984292;44.72155033;13.84894107;-48.7513956;5.42099802;16.93350286;3.179188615;10.84419453;18.17445213;-8.032042546;9.949863143
12.95721271;6.415897953;-10.04508232;50.36447182;4.502014654;3.44025225;10.94539796;21.96632117;42.44131903;47.98927054;19.85534042;-51.07791578;5.302821306;13.92120903;2.194109288;12.45563523;19.99373383;-20.79288297;12.65991594
15.43692175;3.325472357;-9.945521609;49.20378112;4.474567319;3.809240944;10.92046402;18.63587082;43.71952778;50.13102107;16.1945159;-47.73205763;5.083639038;12.53731232;-1.179626604;15.2862944;23.41504524;-27.54951989;14.26722296
15.84225581;4.592571009;-8.820704682;41.4034599;1.660019531;4.254674296;9.990127217;15.60405651;43.94405824;49.07195412;1.680345955;-43.62292125;6.014121964;13.85067707;-5.530639859;18.43102129;27.73171018;-21.42422716;13.93951451
13.17314713;9.659824213;-8.046337398;30.30468152;-3.09206853;4.473423354;8.423545648;13.56899136;42.49415835;44.0333725;-16.66206943;-43.88647428;8.272009573;16.30792502;-9.824907416;20.136888;31.6012994;-2.966317334;11.7639135
8.031233139;13.68355924;-8.504510789;21.37940583;-7.740556077;4.374780333;6.76410591;12.14424743;39.40269654;36.34994076;-28.95704305;-49.11040306;10.92597716;16.9361221;-13.42422056;18.82672658;33.50284432;18.292271;8.691055901
2.084245761;11.69931341;-9.767820062;18.46735678;-10.34537465;4.250284688;5.673218455;10.68384641;35.4480091;28.94980397;-29.79139087;-54.81724038;12.86218351;14.02746194;-15.53675186;14.2458862;32.40794296;29.72306021;5.928234334
-3.231154558;3.016891206;-10.57864195;21.05909694;-10.32909632;4.615564306;5.65036658;9.21561547;31.7060078;24.67399132;-21.61839733;-55.51999998;13.89636653;9.249684166;-15.07403711;7.906790766;28.33190566;24.65180183;4.183889108
-7.646986949;-8.026637118;-10.07620829;24.81465736;-8.780884854;5.798780159;6.750703889;8.523870178;28.89839449;24.55368118;-11.95348871;-49.58595255;15.11684121;7.239389007;-11.43304923;2.433896852;22.47283136;7.255999816;3.308073189
-11.84917541;-15.58277403;-8.557986336;24.99766788;-7.584392575;7.598543059;8.496990015;9.279126492;27.05708359;27.27836445;-7.205522395;-40.5556107;18.09575227;12.40661845;-5.601853542;0.164701925;16.82545329;-10.72210967;2.599373999
-16.34927249;-16.9393575;-7.071999833;20.16634381;-8.038601273;9.316191118;10.09675616;11.06523583;25.7493731;30.22431258;-8.355372201;-33.8604469;23.50867668;24.88041715;-0.337910317;1.884399301;13.3866574;-18.71941274;1.531076278
-20.51774166;-14.25660297;-6.29558882;13.23072352;-10.0089926;10.18005859;10.86751988;12.32094348;24.62158618;31.24412873;-11.57665255;-32.01075134;30.21887909;38.64452928;1.24471939;6.478453404;13.27279897;-14.46849143;0.295072561
-22.74468527;-12.06679206;-5.842407651;9.084697782;-12.20526329;9.857263492;10.60725163;11.42281536;23.75943042;29.89177221;-12.4790362;-32.59663568;35.6076572;43.87777987;-2.091986372;11.66018334;16.16701809;-4.111671809;-0.312504029
-21.70476329;-13.04289171;-4.704458083;10.74550764;-13.28921428;8.664264908;9.669652986;8.083494965;23.55901885;27.28905843;-9.870880908;-30.81872207;37.0525726;32.72279303;-8.431216355;15.23836148;20.42573183;3.983900878;0.400282044
-17.6804537;-15.98919759;-2.407549849;17.05825609;-12.89107412;7.318580834;8.706391119;3.866115855;24.26573649;24.9565929;-5.96209867;-24.1807973;33.60534946;4.989788161;-13.68059538;16.11734918;23.87176732;5.950669941;2.306035948
-12.74716794;-17.78775218;0.273837984;23.66654212;-11.74697448;6.430773983;8.262948005;1.279902483;25.64203258;23.68642574;-3.462249176;-15.09150146;26.71974747;-30.25373354;-14.37948942;14.51097413;24.90187648;4.134780073;4.375050119
-9.516942558;-17.23626216;1.816966358;26.29642553;-10.92986724;6.127801444;8.489796367;2.077560947;27.09553293;23.3261234;-2.721447416;-9.043610471;19.48643887;-58.89847469;-10.29734222;11.43062204;23.28681968;3.170019531;5.364033946
-9.343021425;-16.87960565;1.288825651;23.66812972;-10.88769374;6.073504913;9.116509717;6.044666617;28.16161277;23.43083427;-1.61932482;-9.974117399;14.83473663;-69.60808185;-4.73393246;7.940682721;20.16764856;4.782897005;4.762086631
-11.38375571;-20.80716134;-0.698921711;17.89888278;-11.11520959;5.825053985;9.646537573;11.18952095;28.89557417;23.97652247;1.961765191;-16.84978118;13.86553614;-60.31693197;-2.127785236;4.694887099;17.24370738;6.365275685;3.227441209
-13.27319936;-30.27416175;-2.358503447;12.47592527;-10.69971211;5.210387694;9.617635899;15.13450957;29.80083495;25.38527853;7.700430053;-24.38702537;15.39411533;-39.09154258;-4.718695627;1.943809229;15.69849948;4.380630988;2.137381252
-12.87536268;-41.302206;-2.179651855;9.779376156;-9.215679434;4.431242831;8.794966243;16.6019086;31.33616574;27.88187363;12.86170266;-27.21107643;16.96003906;-18.74753152;-10.83348459;-0.169261547;15.60315954;-1.05180937;2.597086179
-9.758448804;-46.89455074;-0.221740443;10.14473375;-7.157544124;3.851149467;7.252792707;15.90801933;33.42861744;30.91305089;14.72292952;-23.89300208;16.57153829;-8.882271482;-16.13899872;-1.363929058;16.18423846;-5.134539996;4.701215904
-5.296947853;-42.4031405;1.905317716;12.75970843;-5.527315941;3.687694114;5.354569175;14.25889915;35.42390804;33.32325548;13.03614903;-17.59528214;13.97918399;-10.69616479;-16.88810403;-1.253733844;16.67780171;-2.220668494;7.623241515
-1.44044452;-29.56448444;2.384749732;16.9817626;-4.949437609;3.877217316;3.634257933;12.6024488;36.53052851;34.22568414;10.21260547;-13.07967449;10.64752704;-17.83863004;-12.64785634;0.371117149;17.03177161;8.898431269;10.39998432
0.776325172;-15.58490643;0.711704023;22.5349085;-5.105031857;4.197591029;2.578045102;11.03969499;36.39353704;33.7681111;9.163559203;-12.83757715;8.535817728;-22.11839283;-6.47695337;3.221768059;17.8523413;23.1764094;12.69177025
1.803174754;-7.786103;-1.910209624;28.51511046;-4.997028584;4.499383822;2.366293031;9.187364195;35.33473982;33.00943685;10.94413073;-15.5451307;8.637033043;-19.56703133;-2.576522236;6.390109615;19.63642585;32.85781585;14.84732422
2.895104068;-8.15521642;-3.599681176;32.65540305;-3.826753513;4.81675317;2.724982323;7.002014618;34.08880121;32.92889876;14.40059366;-17.76933434;10.34936591;-12.50693926;-3.359733954;8.556832998;21.96939514;33.44858688;17.24975187
4.89166963;-12.29779209;-3.325173746;32.2563679;-1.724845012;5.26277438;3.039015182;5.199458688;33.27711331;33.44869513;17.9326178;-17.05555814;12.08862146;-6.657843513;-8.141119099;8.481323249;23.45053054;26.96338988;19.5945355
7.51684736;-13.57756011;-1.616675296;26.48291931;0.293301659;5.824170978;2.727205907;4.823109049;33.03586375;33.42551334;21.35093803;-13.65788116;12.59950016;-6.144171089;-14.15791627;5.570868131;22.53473635;19.72146831;20.84242238
9.702333224;-8.846286116;0.071187821;17.98100517;1.099025465;6.263066398;1.653991092;6.317685146;33.03026798;31.71848278;25.76471316;-9.759068913;11.91107256;-10.54238375;-18.76759585;0.249745346;18.70106449;16.81102967;19.9953695
10.52508718;-0.908973266;0.674890882;11.83030488;0.270819729;6.231355081;0.254144201;8.92982255;32.74652037;28.40801634;31.54319633;-7.376402617;11.19643744;-16.01591053;-20.98168471;-6.102016256;13.02657978;18.23026005;17.07376521
9.895070033;4.215392273;0.309080963;11.99297755;-1.738014219;5.508533475;-0.788119413;10.99448214;31.77385046;24.99437054;36.57481832;-7.068059149;11.68899385;-19.05757649;-21.40902287;-11.68116433;7.659546601;20.04528945;13.41777031
8.472058474;2.678502295;-0.1103546;17.88578698;-4.184233206;4.165541625;-1.115962379;10.93129078;29.90248953;23.25137001;37.04433567;-8.382893985;13.57217434;-19.37604878;-21.18557323;-15.04161098;4.533113401;19.21895285;10.95250081
7.040329322;-3.888605652;0.062719603;24.15990709;-6.783787039;2.526632189;-1.085705631;8.210533462;27.10883995;23.65171303;30.57714371;-11.09173958;15.7820579;-19.54491646;-21.14675871;-15.71095523;4.255295354;17.33166192;10.92648372
6.009232233;-9.88719728;0.513580248;24.45905384;-9.887066015;0.975254394;-1.597450751;3.610454849;23.60242543;24.79149874;19.03742254;-15.54491268;16.91335202;-22.04662876;-21.84979765;-14.27535089;5.967259676;19.39036343;13.10765172
5.464636683;-10.55834733;0.303669333;16.55249557;-13.88070413;-0.23277816;-3.417900372;-1.32733789;19.96312271;24.48120077;8.077182568;-21.64426378;16.49334516;-26.58716187;-23.90036593;-11.86845908;8.199447384;28.48872482;16.0744136
5.565096739;-5.793557468;-1.127878006;4.693541639;-18.37242781;-1.021920447;-6.477926904;-5.156366767;17.17024824;21.71825546;3.193895309;-27.64716177;15.54195826;-30.13919754;-27.66234949;-9.392943961;9.998480895;41.15774199;18.34816634
6.706544156;0.255483686;-3.29035146;-3.083901223;-21.99959538;-1.426821859;-9.717036443;-7.096002669;16.29216006;17.8670694;5.328029389;-30.48510632;15.87706538;-29.6006987;-32.26980991;-7.005185913;11.45252335;48.09599956;19.43179671
9.142343702;3.136902482;-4.955965115;-1.009121838;-23.21736534;-1.510126218;-11.67289928;-7.079196846;17.86348105;15.89049557;9.87845102;-27.88796528;18.64485908;-24.59801787;-35.03280226;-4.225693609;13.29453822;40.53528748;19.92819873
12.37989042;1.90776434;-5.173866475;9.681445484;-21.54828367;-1.348218334;-11.43957068;-5.493418038;21.32486629;18.058466;10.38742321;-20.6496343;23.23714037;-17.89905221;-32.47156563;-0.58641946;16.02400527;17.50883179;20.71670215
15.03623533;-0.567155442;-4.039754119;21.21616803;-18.2646428;-1.051898511;-9.29796785;-2.963270167;25.00309697;23.90489539;4.120513583;-12.81991631;27.52458157;-13.10664491;-22.88432756;3.685439251;19.32540834;-11.93807999;21.96824182
15.51759344;-0.837504834;-2.527108489;24.89589517;-15.81237528;-0.726434029;-6.534520461;-0.289303366;26.8106497;30.14298261;-5.146873916;-9.187815094;29.33130302;-11.73442526;-8.626433116;7.49688349;22.23272898;-33.83431277;22.89077585
13.13124274;1.593907494;-1.581003782;17.62971586;-16.25116527;-0.344097755;-4.565831799;1.63125266;25.3324346;32.75805057;-9.761868521;-11.83093149;28.07643145;-12.2457266;4.127098562;9.408892048;23.82150604;-38.20705453;22.42803764
8.734794124;3.795578344;-1.351443799;4.318861306;-19.81157393;0.359849036;-4.012542532;2.088146815;20.63979648;29.76133718;-4.384511972;-18.54015674;25.315094;-11.79161247;8.711156803;8.501195003;23.7930815;-25.33937169;20.27842482
4.28933729;2.431789007;-1.264818387;-5.804363569;-24.66539592;1.802996547;-4.396617147;0.953925828;14.30362622;22.53053447;9.268014428;-24.51987983;23.71083214;-8.943090293;2.389605211;4.967556068;22.48274263;-4.896817673;17.30799677
1.550395461;-2.584928078;-0.79362602;-6.04448811;-28.13455134;4.241918781;-4.646242645;-1.155274095;8.589304134;14.75275715;23.1587336;-26.03696583;25.16725016;-4.894997851;-11.44014539;0.024735223;20.38170491;11.12393711;14.9572492
0.878892388;-7.323419881;-0.11014601;2.99113602;-28.49055314;7.410576532;-3.972113907;-3.213601839;5.333190364;9.840750074;28.77915889;-23.02562116;29.51344482;-2.121719173;-25.22087154;-4.771505548;17.69150125;16.21329123;14.12383362
1.118032493;-6.856812112;0.047860444;14.2790139;-26.05529388;10.41667155;-2.419831835;-4.460153202;5.159127798;8.814743489;23.52481991;-18.55538994;34.74352315;-1.859104115;-32.19779604;-8.290240017;14.35267269;12.39951381;14.47040593
0.650113076;0.468585417;-0.8390116;19.96345374;-22.84231166;12.07691988;-0.699626857;-4.892394768;7.417012203;10.1587828;12.52637086;-15.78122018;38.63904452;-2.854545921;-30.72905601;-10.15233116;10.50056272;7.000220223;14.75060331
-1.205216122;11.25424366;-2.450744631;17.10376805;-21.05677858;11.55385165;0.508512528;-5.121612114;10.7536494;11.52804757;4.529474178;-15.13876881;40.54207212;-2.599313424;-24.68854247;-10.49959726;6.859301905;6.283594743;13.8766569
-3.57042635;19.36399207;-3.842895834;9.218088483;-21.57379464;8.886275175;1.166568984;-5.649397233;13.89540252;11.76861955;5.189514409;-14.23525316;41.90683925;0.108015428;-19.77011826;-9.539506202;4.597711218;11.07127142;11.82260719
-4.660799205;20.4165488;-4.337294738;2.850707109;-23.4575561;5.021913753;1.896701149;-6.17138162;16.20544699;11.63084229;13.0947646;-10.41171584;45.15538444;3.713818375;-18.78869689;-7.333689999;4.633778745;17.16907939;9.607308775
-3.186984521;14.75759802;-4.213738911;2.328428345;-24.76731754;1.290202408;3.400631781;-5.584315612;17.79971268;12.77624388;21.4392675;-3.540068359;51.63276939;5.032771909;-19.82511193;-4.016170524;6.885151044;19.50552397;8.393686873
0.583554473;6.663465252;-4.459971815;6.963092365;-23.97624173;-1.337458248;5.766646103;-2.832537108;19.26449933;16.10261607;23.6447336;3.570354562;60.16121234;2.018717972;-18.59667462;-0.186805217;10.07810709;16.26845827;8.488323216
4.894377085;0.801082696;-5.734641499;12.53586858;-20.9790473;-2.684724367;8.238137189;2.013375752;21.17460391;20.86103565;18.2413003;7.585100572;67.31304769;-4.311022386;-12.81469997;2.981061541;12.34115417;9.922711336;9.092592073
7.593875775;-0.887130454;-7.515846645;15.2355603;-17.06802003;-3.211710923;9.649696598;7.364744349;23.65281778;25.22959873;9.2932926;7.704124672;69.33337433;-10.58248777;-4.614395951;4.164229021;12.23154746;4.846120299;9.002008245
7.414371112;0.521441148;-8.328832183;14.45760994;-14.02962459;-3.423128424;9.221531733;10.88704216;26.18622461;27.72848246;2.537108908;6.544805251;64.48964211;-13.81833437;1.119885055;2.629264828;9.527201416;3.91658994;7.647566854
4.565843257;3.07928782;-6.979949442;12.31531414;-13.06143974;-3.341052222;7.141818602;11.01534146;27.82931835;28.22537981;0.798192572;7.928182304;54.30695593;-13.78553917;1.04723048;-1.241048186;5.289021177;6.780452027;5.602839773
0.385334456;6.081870616;-3.742167552;10.85365796;-14.19532449;-2.485221932;4.535900083;8.143687251;27.75155873;27.7645248;2.427013527;13.42796818;42.86554639;-12.84646745;-3.587433729;-6.055505509;1.201104707;10.7909522;4.150261144
-3.527629738;10.09522841;-0.381067304;9.916073756;-16.45979315;-0.390900895;2.859420734;4.567271619;25.86027822;27.53525189;3.586702967;20.72157414;34.58518962;-13.50321593;-7.984888162;-10.12245723;-1.354142212;13.41789483;4.285844547
-6.031937181;15.21545457;1.107204254;7.735372726;-18.52417908;2.756389251;3.120087891;3.127774357;23.09301055;27.9847422;1.944300429;25.29091775;31.86597122;-15.94228359;-8.100039063;-12.28494527;-1.926839377;14.04295257;5.976217216
-6.674120295;19.76278948;0.015150523;3.551561687;-19.36771076;5.918800543;5.388567639;5.453608877;21.08997804;28.8080715;-1.548862298;24.13911645;34.00075889;-17.88016219;-4.406124247;-12.33664463;-1.032620481;13.9131967;8.228608832
-5.546335216;21.15223283;-2.599265526;-0.487572573;-18.64500523;7.678946552;8.820956323;10.97943552;21.33411342;29.64440624;-4.059253638;18.41888869;37.93484206;-16.85846574;-1.610867036;-10.81380629;0.328081136;14.65651903;9.849613019
-3.090510294;18.34986305;-4.876695294;-0.319869059;-16.6792753;7.112549836;12.09876224;17.35972332;24.25233198;30.64474388;-3.811203237;12.73950741;40.29361398;-12.80940928;-4.33508976;-8.430333997;1.313630495;16.78444531;10.24589901
0.000510732;13.46363998;-5.686561364;6.643655914;-14.1976257;4.454140084;14.0107317;21.91071405;28.88126624;32.25968473;-1.739958075;11.67485111;39.36470034;-8.384303562;-12.45707345;-5.648021776;1.666848874;19.35915384;9.667747293
2.892228043;10.56581197;-5.365792038;18.60230392;-11.96944068;1.061559702;13.91525559;23.06623995;33.36706964;34.42592526;-0.460912327;16.28471821;35.84007813;-6.577349689;-20.39079944;-2.690180519;1.707779517;20.90373335;8.811694752
4.870522852;12.41517589;-5.06946597;29.67385265;-10.48663056;-1.334758882;11.94406013;20.95859534;35.99552295;36.00873364;-1.70649981;23.38877109;31.97963414;-7.755513978;-21.32771931;0.110553569;1.929098023;20.66326431;8.204330784
5.68097199;17.92547667;-5.443568246;33.60117263;-9.799130789;-1.616490808;8.922285589;16.95748178;36.06697165;35.22672042;-4.69100767;28.04698636;29.87995909;-8.926335994;-13.10678372;2.036504533;2.45631873;19.17816427;7.875633032
5.667595368;22.8332092;-5.960382648;28.1588478;-9.577494363;0.136470235;6.047397458;12.70925272;34.05517903;30.92745419;-6.854460737;27.18023971;30.06608806;-6.173940522;-0.685286423;2.126063406;2.742885338;17.78260707;7.494306377
5.514103952;23.2371015;-5.599577696;16.84656049;-9.374598823;2.800745058;4.423228243;9.395727242;31.03690318;23.75014983;-6.181660936;21.55823335;31.3367256;1.701462828;7.208870117;-0.281069171;1.779483536;17.49950196;6.733675999
5.724731546;19;-4.209088582;6.519996756;-8.927417972;4.941890804;4.611063465;7.547484891;27.9133403;16.15996012;-2.910087891;14.89808912;31.89147957;11.5786436;4.812490024;-4.963955102;-1.203780051;18.22930427;5.51937931
6.251108112;13.95551373;-3.121444813;2.746230176;-8.287369547;5.60915571;6.397358848;7.223832231;25.0324841;11.15904409;0.873092454;11.11876422;30.86279665;18.08650981;-5.985115953;-10.64978292;-5.941748856;18.86515698;4.01961664
6.585066233;12.62709937;-4.211571183;6.329182127;-7.680582838;4.709705426;8.916635443;8.175225842;22.40545179;10.51533337;3.236546959;11.96817153;29.09146766;17.8268336;-16.94892839;-15.43992585;-10.8396326;18.2437992;2.509745994
6.236831056;16.31034197;-8.070212922;13.37896745;-7.222533326;2.831435057;11.09529464;9.834929909;20.1644815;13.7529543;4.076124156;16.52889905;28.53274343;12.24847021;-19.88715792;-17.6335525;-13.56568587;16.18527531;1.297997316
5.165776592;21.99528869;-12.96584742;18.50456309;-6.758657611;0.765626664;12.1884875;11.33342141;18.71936586;18.59123946;4.937913715;22.40804206;30.68950532;6.678355205;-12.99981567;-16.50806408;-12.34446126;13.76163112;0.723542826
3.771110702;25.07663551;-15.77007813;18.50049586;-6.015695486;-0.885073495;12.1077308;11.7951825;18.39828999;22.45470847;7.270435636;27.28580822;35.22078153;6.205362873;-2.051752162;-12.65865713;-7.186224938;12.48645387;1.071785117
2.466155274;23.36708046;-14.34751945;13.91709889;-4.965795213;-1.800489272;11.3550521;10.8728833;18.90391541;23.94457599;10.83816127;29.72722845;39.8042241;11.76328689;4.527203258;-7.755874872;-0.169473659;12.98042177;2.318057182
1.267441756;18.7557631;-9.499553254;7.861397087;-4.064252662;-1.821739783;10.62426097;9.106294768;19.1681962;23.3007746;13.82421867;29.20643784;41.45630563;19.5845962;2.541846344;-3.862220776;5.57266691;14.19806208;3.86609336
-0.170611165;15.0692472;-4.713992991;3.48645091;-4.06380077;-0.859259351;10.33649225;7.675621194;17.89473139;21.71914557;14.5350005;25.98455547;38.45130563;24.35492826;-4.714199846;-2.608892406;7.627003233;14.00430634;4.607919522
-2.076740413;14.2846065;-3.693056395;2.230663066;-5.447519232;1.019193932;10.40443472;7.560323286;14.47237038;20.22526997;13.11818736;21.22479517;31.51377239;23.34652729;-9.401742413;-4.54533592;5.701737503;10.8630144;3.462529516
-4.105393315;14.84256835;-7.514695155;3.767386541;-7.894884037;3.409605884;10.35537752;8.67517139;9.55904511;19.01320286;11.68401859;17.00635804;23.45171279;18.14602866;-5.708017887;-8.893607297;1.702173453;5.384889734;0.133334088
-5.403473007;13.81361051;-13.70970777;7.041921773;-10.26380689;5.544468507;9.706926197;9.718394059;4.828030074;17.65279994;12.65761211;15.66236189;17.49698464;12.79920338;5.394842194;-13.81485312;-1.579595803;0.365563499;-4.4748524
-5.237397854;10.8418402;-18.07970984;11.11683818;-11.2234048;6.573047374;8.338291841;9.003902364;2.002022301;15.82778481;16.76079573;18.48354955;15.50829815;10.26468481;16.97246361;-17.13157938;-2.251250985;-0.998630104;-8.595387112
-3.658009814;9.74707765;-17.8965134;15.181088;-10.15;6.037365267;6.619425159;5.76792636;1.851504694;13.88882153;22.3363363;24.67623605;17.21253235;10.32215135;21.62235122;-17.25583522;-0.356053507;2.486255939;-10.57122235
-1.568595274;15.54715301;-14.00210466;18.1609828;-7.626291807;4.211814558;5.21886831;0.971035177;3.847011113;12.73913279;26.56636911;31.57049623;20.82611066;10.53406801;17.02642023;-13.92398462;2.48552018;8.910195192;-9.816644537
-0.051595421;29.00838857;-10.18920541;18.78222638;-5.116293894;2.008396548;4.702314022;-3.104581985;6.632392494;13.16090919;27.57023845;36.16118632;24.38475217;9.030987595;7.207949759;-8.355192969;4.435834109;14.53290756;-7.085965429
0.505415873;43.70218948;-10.37209384;16.34324915;-3.985920405;0.444372988;5.151779206;-4.288112086;8.876902905;15.14130276;25.73088597;36.90256699;26.70976736;6.362518333;-1.09562365;-2.697486842;4.719881395;16.60726204;-3.872783006
0.696119637;49.03581595;-15.72880435;11.55705817;-4.546918657;0.009596091;6.02836509;-1.998907784;9.864934491;17.73648572;23.32427869;34.38685131;27.4230671;4.734812719;-3.602526885;0.990755476;3.911773937;15.50706708;-1.422141349
1.473508772;37.75557814;-23.91272054;6.556539921;-5.820192962;0.383008438;6.380575832;2.306413767;9.512083776;19.58539844;22.86935786;30.47216795;26.32902125;5.533920813;-1.011840884;1.68643698;3.162529729;14.29468371;-0.104286625
3.1163294;12.183059;-30.76058192;3.8202303;-6.208334922;0.719780258;5.321208152;6.064665903;8.016644413;19.70979644;25.43890693;26.76226503;23.01230646;7.668269981;2.648161002;-0.242754474;3.122139768;15.92549936;0.448156772
4.72438188;-16.17418868;-33.07259213;4.733744821;-4.612663594;0.314722941;2.54035949;7.252588061;5.597740902;18.06239643;29.9612911;23.8203597;17.2048649;8.441444482;3.797972999;-3.439548528;3.45396256;20.38512951;0.694960005
4.80860761;-33.94020386;-30.43710032;8.8536204;-1.214530162;-0.844029179;-1.426770038;5.580546317;2.559252725;15.4983715;33.72296692;21.65282356;9.632732767;6.190515641;1.779595204;-6.420270321;3.252114101;24.32225638;0.688167472
2.609258454;-34.75111738;-25.0273562;14.37034572;2.610602992;-2.051452303;-5.354876449;2.445908721;-0.494318554;13.25086261;33.63502169;20.65220132;2.438525334;2.148017762;-1.663607128;-8.347646371;1.895248117;23.74698871;0.169897795
-0.932952061;-22.87455022;-19.8782129;19.31373963;5.164157085;-2.423437294;-7.861156649;-0.189790864;-2.657405012;12.2878001;27.70496454;21.71;-1.517269657;-0.384013403;-4.643001253;-9.28;-0.438231455;17.67108701;-0.884576821
-3.467936802;-8.893395597;-17.07625448;22.55320113;5.473410181;-1.601021125;-8.047693057;-1.073722685;-3.095436505;12.93250432;16.27794301;25.15197515;-0.259544813;1.04029168;-6.539456633;-9.855450519;-2.991749443;9.517549571;-1.885082777
-2.744289004;-1.174323611;-17.00527457;23.98007813;3.832812628;-0.088434721;-5.907501717;-0.168746773;-1.549575492;14.88644754;2.58428674;29.61589799;5.874307544;5.629110608;-7.37256848;-10.73353784;-5.106296585;4.813424252;-1.890191016
1.714746521;-0.129368259;-18.76531729;24.01462251;1.533136792;1.043839614;-2.280976259;1.801843852;1.450693688;17.50635842;-7.973829845;32.42838328;14.11381504;9.809051274;-6.393161534;-12.1974892;-6.696702115;6.836290184;-0.394119807
8.03451457;0.311922631;-21.07797626;23.03675472;0.012680162;0.887566273;1.582616813;4.176451883;4.873470449;20.06953333;-10.0525886;31.74953794;20.69320763;10.28535652;-2.118884387;-14.09946519;-8.115504278;13.82207271;2.034164924
13.00526728;5.844045234;-22.95098631;21.17161276;-0.005844957;-0.671174461;4.580414409;6.747888852;7.753559982;21.8756121;-1.407120527;28.78658654;22.95347571;7.036550864;5.592415499;-16.03608108;-9.588441169;20.24430454;3.90664491
14.01756385;15.90225208;-23.88110971;18.38109303;1.115705881;-2.87441609;6.123027814;9.448951677;9.60298834;22.26;15.00841222;27.67873507;20.70784044;3.493829027;13.43805209;-17.5242057;-10.80149578;21.29761602;3.79089921
10.5898228;24.06245467;-23.81085086;14.58275642;2.219373792;-4.616470347;6.18237306;11.78902629;10.40090025;20.72170252;31.68461383;32.28033116;16.0092216;3.602356431;15.35621681;-18.07493397;-11.0641086;16.89665107;1.414424507
4.504695212;24.33235285;-23.0618198;9.719285152;2.073267426;-5.178236306;5.114785051;12.76891461;10.30600007;17.25866605;40.26129577;41.94282052;11.61675427;8.289456628;6.642559239;-17.26396621;-9.926286085;11.75659062;-1.97791103
-1.403801137;17.57039139;-22.21944963;3.978573215;0.092562214;-4.6433642;3.453713192;11.54494603;9.466458206;12.72694403;36.3618133;49.9963929;9.329567815;14.50435475;-11.32379548;-14.93427286;-7.695268276;11.38847303;-4.357903281
-4.879441513;11.94197119;-21.84764799;-1.744073004;-3.333367633;-3.726788649;1.785492337;8.337948379;8.133965841;8.83646928;22.36705139;47.15454812;9.296809883;17.78597268;-30.03981509;-11.4795529;-5.368076044;17.38119421;-4.243024271
-5.234855304;16.41075714;-22.11373974;-5.526211007;-7.063784274;-3.190370649;0.67;4.7101022;6.894879972;7.516839088;5.971714193;28.23404738;10.548208;16.16634152;-38.4812084;-7.933166876;-3.997653817;26.04072104;-1.653022977
-3.272103812;32.44336081;-22.636661;-4.904626455;-9.835338403;-3.306986735;0.510569943;2.759163821;6.626171283;9.833980533;-4.748361506;-2.616144174;12.06743471;11.94614131;-30.69543656;-5.599226171;-3.991795847;31.59360071;1.989992769
-0.479682946;51.04949458;-22.78529088;1.619582247;-10.93235084;-3.756758316;1.372674999;3.695859771;8.012620275;15.11480159;-6.392094447;-32.66124593;13.4740707;9.690928217;-10.70291615;-5.292597727;-4.889972291;31.15938278;4.894526149
1.811643818;58.21034521;-22.24889899;12.85865559;-10.50687949;-3.980725702;2.889608173;6.893797899;10.93773762;21.01309481;-1.823101586;-47.70558463;14.90003906;12.1499851;9.529721474;-6.667881009;-5.756233155;27.08907572;6.059108979
2.870620932;44.9643687;-21.37577691;24.48134563;-9.357285523;-3.671973656;4.404399501;10.24283831;14.31543931;24.72777776;2.739384001;-41.08089772;16.40682369;17.71906849;18.11087957;-8.225667689;-5.839669527;24.57117868;5.722826413
2.614449868;14.51201193;-20.91699051;30.79385342;-8.312653806;-3.014839775;5.326704646;11.63727885;16.65573748;24.73801741;2.739102562;-18.14017574;17.61760087;21.78234432;11.45849028;-8.189538628;-4.998937986;26.67165911;4.882826756
1.496911792;-19.13270518;-21.35499537;28.11546401;-7.644574691;-2.517468455;5.470290251;10.48794533;17.03557837;21.87760444;-1.533696814;7.153866246;17.91592697;20.83611841;-3.493084336;-5.771243703;-3.652186819;31.39488637;4.382476865
0.347222902;-39.97429109;-22.43145523;17.57114555;-6.932616709;-2.610039063;5.098579366;8.06788748;15.72223545;18.85349948;-5.935539249;21.26623897;16.9623101;15.73861379;-14.81881194;-1.911468181;-2.416398163;33.63693631;4.335672762
0.073254422;-39.86059676;-23.35093841;5.062826901;-5.499779038;-3.336344704;4.623775125;6.403338934;13.89909117;18.35931282;-6.52133084;19.36861838;14.99293972;11.08193969;-14.56322802;1.179131591;-1.777561939;30.42501541;4.282019734
1.177844771;-22.45982946;-23.50517808;-2.050043945;-3.102492116;-4.349039763;4.215330985;6.597218111;12.66288267;21.03413235;-3.083686194;7.149350312;12.62712793;11.08312767;-4.209515081;1.520706581;-1.977686813;24.57229972;3.820743311
3.307617416;0.691316924;-23.03295399;0.397686876;-0.331400187;-5.157450054;3.687811407;7.950445647;12.10082555;24.79313872;0.801855912;-4.631408411;10.42286706;15.59764738;7.371769365;-1.095737083;-3.033898077;22.92589018;3.100414625
5.240958397;18.3320883;-22.65252192;10.55298795;1.636931523;-5.400765449;2.809690364;8.604742659;11.23748647;26.17066043;1.116828402;-8.306755358;8.65405323;19.97612277;11.47123889;-4.704326771;-4.715963282;30.10428287;2.728136436
5.524805874;25.70804452;-22.90774283;21.61101393;1.805010959;-4.958423167;1.767160612;7.174650837;8.932243779;22.8309114;-2.909093577;-4.028070851;7.505735461;19.2371499;6.299241918;-6.343572388;-6.472650258;42.98277762;3.204815383
3.456928286;25.20221942;-23.58211106;26.13607901;0.076754956;-3.893293921;1.297826459;4.002698046;4.987728316;15.43295558;-8.037498647;1.97141511;7.385347005;13.11269067;-2.385760123;-4.105801596;-7.496436424;51.19988669;4.410564685
-0.284367333;22.35610137;-23.91568443;20.70753436;-2.625952622;-2.364831043;2.227969715;0.967720267;0.508164648;7.401228815;-9.854425947;3.408904456;8.858146799;7.36941057;-6.873736162;1.385026363;-7.081418575;44.24274312;5.611902288
-3.922396141;21.27253289;-23.46306731;7.805507042;-4.961958009;-0.623388697;4.677620566;-0.024735592;-2.856058369;2.668945603;-6.679368338;-0.933171551;12.07587128;9.630236957;-4.303997508;7.200823496;-5.138915807;20.00181501;6.008844182
-5.683532035;22.74742596;-22.71922166;-6.090394335;-6.032561923;0.948621535;7.595700699;1.368921626;-4.208902332;3.008059946;-1.078823691;-6.899300764;16.16569928;22.5595646;1.125318932;9.98726787;-2.466643705;-12.08914414;5.381935863
-4.959091572;25.4579852;-22.77247365;-14.57168721;-5.847488081;1.882649096;9.15518612;3.587980254;-4.206658468;6.918054161;2.372273438;-9.073215306;19.27992144;39.90271427;2.26420465;8.219214925;-0.435921021;-36.33813477;4.313923787
-2.660445094;28.09200304;-24.19056402;-14.68272124;-5.06998976;1.827216488;7.897662164;4.373576244;-4.696164782;10.88494444;1.110937303;-5.398534318;19.55710506;49.1399805;-4.231734887;3.236342132;-0.189848462;-40.96277622;3.800711909
-0.486937224;30.30424998;-26.22377034;-7.684774811;-4.319713482;0.80172405;3.851067146;2.540398572;-7.474092135;12.01220969;-3.186519085;1.567154966;16.42808442;39.57029423;-14.34751355;-1.689728307;-1.892915285;-25.68056303;4.541176181
0.340486165;32.20964566;-27.2844558;2.602001663;-3.672017713;-0.719822057;-1.270578436;-1.138864098;-13.14588097;9.984906418;-6.189242702;7.389393789;11.23671171;10.27886354;-19.46169173;-3.591000461;-4.619330801;-1.20270962;6.429664682
-0.078651868;33.65380753;-26.49899602;12.14593802;-2.791162793;-2.031344438;-5.067684426;-4.646498387;-20.94214868;6.889997804;-4.951039945;9.657548011;6.529874992;-27.87921668;-13.22290155;-1.745732208;-7.009836696;18.65808709;8.608007438
-0.513457195;34.33024919;-24.9505157;18.12003906;-1.540277339;-2.620481963;-6.028675876;-6.409625871;-29.53518019;5.137166495;-0.813911892;9.52730547;4.38465609;-58.06549752;3.030301878;2.018808579;-8.211848959;26.08429674;10.02129293
0.384332511;34.46650755;-25.24039993;19.08328845;-0.449068561;-2.500827252;-4.556167197;-6.549454415;-38.09599418;5.225537064;1.503958318;9.82998921;4.97359092;-67.32438539;20.669992;4.783326518;-8.368500275;22.95671175;10.08236583
