Channel 1 - P4;Channel 2 - O2;Channel 3 - P8;Channel 4 - T8;Channel 5 - C4;Channel 6 - Cz;Channel 7 - Fz;Channel 8 - F4;Channel 9 - Fp2;Channel 10 - F8;Channel 11 - Fp1;Channel 12 - F7;Channel 13 - F3;Channel 14 - C3;Channel 15 - T7;Channel 16 - P7;Channel 17 - P3;Channel 18 - O1;Channel 19 - Pz
131.363477;119.8585448;96.9621582;74.85416661;87.6617816;70.35227776;70.00179929;22.13697215;74.53627326;26.67137731;9.721337917;194.4145613;166.9663587;68.11885871;29.84399013;58.95731424;153.7004024;91.61;58.63041939
102.5695341;73.7654313;51.01868583;60.49784115;68.52939417;63.35515634;66.38658145;43.92497874;71.41451986;53.94246835;-24.5933446;143.8660141;104.3694849;19.88757116;40.75195362;53.95150444;120.9583531;45.59678998;67.77318318
42.40680044;19.40943083;-1.924980889;30.62065814;31.4118996;32.51340612;35.08961008;38.65233236;39.86106778;53.12829543;-43.81178702;55.77349743;17.18678586;-27.55307767;33.02481556;31.36771645;54.06777864;-6.339289088;51.72978098
-16.10487538;-19.03233557;-33.24752599;-0.374349148;-2.762425438;-4.151697577;-5.387279322;10.74382256;-0.21179801;27.24154589;-39.82823736;-18.58069271;-49.66241811;-49.80040014;11.51503871;4.090009766;-7.492671548;-33.71305381;20.76595899
-44.31308127;-33.09959818;-31.45436883;-19.89378914;-18.20354927;-27.29809373;-33.45658189;-21.91210031;-26.50415176;-5.625465689;-20.89275385;-41.87460232;-68.69955723;-41.11347951;-10.13916048;-13.42087104;-30.40101763;-23.70980246;-6.903019385
-34.60465642;-29.36786298;-7.052159751;-24.09501751;-12.71663412;-28.27746413;-38.13601303;-41.13201611;-28.41018667;-26.04277955;-3.030917328;-13.43603993;-44.15802403;-14.66602117;-20.0684939;-14.35881972;-8.715858911;11.32409745;-17.44889065
-1.957449531;-19.46642864;17.59853484;-18.1501217;3.680963281;-12.89746759;-24.16929446;-40.12141937;-11.78007813;-26.12462004;2.731902922;34.27490851;-4.33345103;9.134318349;-16.36308436;-2.778299605;33.95428713;43.80843845;-9.555774507
28.84021992;-10.62565954;24.70432282;-10.71386598;17.49111551;4.67806069;-6.086734542;-25.63665111;7.792495067;-12.45519729;-2.915050207;60.96635066;20.23600596;16.64835327;-6.808405371;10.79073589;61.89640379;50.30540862;6.804556521
40.01087273;-3.570068359;11.78243623;-7.395338759;20.81277079;12.51314211;3.216272244;-10.59475276;17.01926027;1.525288446;-10.98614747;46.34797056;16.43495313;7.831089519;-1.281469886;17.29848388;51.56473001;26.39842773;18.86126329
30.12295318;3.256598691;-9.608529948;-7.941070006;14.81430698;8.183601905;0.670301013;-4.073343774;13.21109986;6.359967957;-13.2059376;1.262408456;-6.520664144;-6.997453625;-3.652249988;14.64908836;6.116652674;-12.49974393;19.83683649
11.20345203;9.308810186;-24.27378291;-8.355242522;6.569060402;-1.644778397;-7.17017566;-6.348883722;3.682969012;2.11491714;-8.368554797;-43.57254535;-27.7417689;-16.07795996;-9.726013829;7.305778324;-48.61940546;-43.36064546;11.92196144
-2.191324877;12.04568289;-24.32203497;-5.386982037;2.841333335;-7.745245263;-11.09739794;-11.42328443;-1.751749486;-4.376499761;-1.463111714;-60.80616079;-31.16025119;-13.82917507;-12.15336018;1.433745208;-82.52583468;-51.04525431;2.49253747
-3.204984114;10.5054372;-13.23322731;0.446584024;5.590351094;-5.39385891;-6.776702001;-13.37489641;1.403777579;-6.638625813;2.122711506;-44.31392083;-15.86018165;-2.831359919;-7.401408503;0.009911406;-80.61725578;-36.46913908;-2.348295253
4.395736758;7.550625139;-1.64204471;5.366799323;11.68491083;3.026276973;2.720578926;-10.80520199;9.904405317;-3.541939297;1.247721746;-10.27298753;5.601989432;9.443687188;1.319084952;1.540605383;-50.76988147;-13.23579215;-1.698577466
11.09051113;7.66260209;0.86455882;5.479437308;16.00054015;10.89689169;10.33190761;-6.519090817;16.51834335;1.24385507;-1.33954959;16.90904089;17.78217447;15.85304089;7.259199415;2.607668632;-15.93580329;3.190960675;0.992387711
9.534466094;12.20713328;-8.027042625;-0.113127777;15.18332015;12.74850251;10.83750639;-4.062864238;16.11141078;3.49946886;-2.865250966;22.10689307;13.399576;13.55879415;6.176460488;1.458604188;2.453126558;5.514409933;1.765274714
-0.276587127;17.15830789;-22.60364576;-8.488583725;9.670250049;7.997111613;4.483920162;-4.803518859;9.202388854;1.977787852;-3.327129541;8.12188772;-2.533671653;5.269881888;-0.162417759;-0.47132575;-1.910572208;-2.460722179;-0.618441963
-11.59339158;16.13510713;-33.38883253;-14.75598706;3.130078125;0.752154392;-3.792032884;-7.676792785;0.846110589;-1.505727324;-4.499192201;-9.052781527;-17.33673731;-2.324068264;-5.751998694;-0.05486176;-18.28856706;-10.59725114;-4.31869377
-16.10712698;6.327694298;-33.2677052;-15.19144778;0.009551986;-3.540145527;-8.229897792;-10.78023862;-3.547567147;-4.449900659;-6.84381092;-13.26356104;-20.05213061;-2.295082034;-5.451127447;4.612355341;-28.81017319;-10.50153588;-6.450357286
-9.90141648;-8.262951944;-21.87649495;-9.640132393;2.679593069;-1.916348162;-6.058698921;-12.67082261;-1.978901537;-5.638923332;-8.283277504;0.287371268;-9.030853426;7.998081643;1.058452768;12.36744362;-22.40742768;-1.191360168;-5.366490475
3.735696302;-19.59837225;-5.941822426;-1.750382945;9.78185532;4.352987292;1.180330906;-12.40743476;3.325225865;-5.098645743;-6.56346528;22.47807943;7.210792159;24.03968792;9.448097416;19.5417282;-2.731140689;10.94178135;-1.504877487
16.36662771;-22.06208114;4.654338047;3.150682727;16.86379564;10.9257258;9.135132124;-9.249309744;8.092821661;-2.985164574;-2.671009515;37.34073306;16.27093653;35.51818697;14.30264741;22.31822172;15.30952023;17.18804901;3.28555151
20.02223216;-16.66717507;3.073969245;1.434584744;19.22593769;13.4408379;13.56415033;-3.208460821;9.251429507;0.697423415;-1.090355966;33.2491135;11.00858018;32.38796447;12.79318464;19.12107342;17.50327103;12.89266698;6.938896827
12.77500669;-9.136406117;-9.636714109;-6.15596208;15.38204294;10.43695127;12.81840331;3.885909987;6.970399063;5.155518692;-5.694756826;10.67679608;-4.817581693;12.36853369;5.813320047;11.53161847;1.77322936;0.905688258;8.042822588
0.404571495;-3.891352465;-24.55133505;-14.42536873;8.629571588;4.317036154;8.61948273;8.530844924;4.328459467;8.242750905;-14.95062892;-18.25677733;-18.80086214;-15.76114204;-3.427093813;3.352320915;-19.64432297;-10.16373756;6.281404481
-7.437642019;-0.045210171;-30.58090897;-16.82017501;5.048170159;-0.284151786;4.83993007;7.869949364;4.978224312;7.841342534;-21.75489254;-37.82701038;-19.09681409;-36.8012604;-11.43116797;-1.506397671;-29.30276403;-11.83338516;2.644027455
-4.367536901;6.44;-22.66695321;-10.14269838;8.792193513;0.208154852;4.932505806;2.671483747;10.31859265;4.440796636;-19.32534717;-38.93965208;-4.243573471;-39.56728087;-15.51396244;-1.174096217;-18.36966283;-1.890887037;-0.750241014
7.363927357;16.58639874;-6.488937798;2.338509896;18.11259175;5.490374746;9.413169342;-2.150160022;18.00363374;2.066659075;-8.359324957;-24.78874701;14.19717272;-25.53457027;-14.13279794;3.072611899;5.533191891;13.60415641;-1.603607488
17.83224522;24.94952582;4.785935211;12.21255782;25.75485549;11.15946028;15.06910912;-1.066351573;22.98927682;5.519724047;1.726900851;-8.068127679;19.46861787;-8.205947917;-7.474943874;7.40979059;23.31342241;24.3405366;0.983548385
16.95647614;23.55733797;0.511589909;11.66101129;24.34344152;11.67787594;16.84799865;6.729696569;20.86381358;15.45965502;0.129138232;-1.496199921;3.170756597;-2.494385037;1.643854896;7.708575874;19.38102937;23.37997696;5.419117163
3.369146379;10.57003906;-17.85458856;-0.072837905;13.02248398;4.767771559;11.64709621;15.05705355;11.51458407;25.88346821;-14.88675379;-8.276586911;-25.84939733;-12.01086757;8.014416358;2.370558579;-4.669845822;12.80425905;8.325682081
-12.71399989;-4.799493846;-35.87405388;-14.66587711;-0.343451975;-6.038655871;1.441056069;14.73598046;0.370597864;27.52860047;-32.0641635;-19.68692339;-45.65705602;-25.12494832;6.700356612;-6.046032444;-29.22449539;2.526046863;7.123990667
-16.27319763;-7.633147583;-36.36663019;-19.80400591;-4.351923023;-13.16885609;-7.04381543;1.676413634;-4.456428456;15.70659351;-35.011253;-22.23120428;-37.36515533;-24.42949112;-2.871037071;-11.93816253;-31.05592396;2.228119888;2.682407051
0.026318079;9.564904802;-14.06153916;-8.654982146;6.410674786;-10.53305383;-6.773157034;-17.60568946;2.007987824;-3.772216176;-16.83833118;-9.536472358;-1.867066036;-2.964926532;-14.77964182;-10.40474122;-3.05180314;12.14371641;-0.491643278
27.26039585;36.85975746;17.07931142;13.23587714;25.0132282;1.016303639;3.722243608;-28.85660646;16.72686108;-16.72678329;10.71571993;10.26617474;36.75552453;26.434608;-19.44386779;-1.366497492;36.46558977;20.41677609;2.549659955
43.72741292;50.45097572;31.45572088;29.81683899;35.20648807;12.83941171;17.65562906;-20.67442568;28.93838455;-10.82888936;23.11655733;18.56078898;46.34994056;38.21559145;-10.66139564;9.166974063;54.19629927;10.66434972;12.63448861
29.94976554;29.87730055;10.63881006;25.26635688;23.08933037;13.89035263;23.4891348;4.946643611;26.67377369;13.4134964;1.447045292;0.218517141;11.06193323;14.080396;8.169392061;12.42315857;26.57528278;-24.54882758;24.37575074
-15.04233918;-23.40776904;-40.22555318;-3.527830957;-10.80882302;-0.898160635;13.09608336;31.2647309;5.749578523;40.32201377;-50.38334175;-42.32666657;-53.30165511;-39.41182689;24.37090219;3.173122929;-39.12992926;-74.3411645;29.02971694
-69.10096624;-81.79296291;-92.04199371;-42.38331414;-48.91504706;-25.4510874;-11.13630057;37.35066381;-25.33680489;48.83865828;-104.3086465;-86.36952422;-106.4438292;-90.99901231;24.14210871;-15.39384927;-104.6752922;-112.69;20.92389184
-99.45228897;-107.5928029;-109.8715134;-67.81615779;-66.99477425;-45.20163428;-36.13521939;13.62451789;-49.18658621;28.11803962;-125.8156636;-101.6480616;-110.503921;-105.0409248;3.291783348;-32.37173955;-124.529505;-113.9177923;2.698150944
-84.82942249;-79.40300965;-77.57012196;-62.96252447;-51.01156003;-46.56167696;-46.09914597;-29.51827949;-50.47507249;-13.0133633;-98.56594147;-70.92272541;-58.06112725;-68.01570845;-27.85620759;-35.83854436;-77.98581192;-70.57810025;-15.19171854
-31.43135097;-9.228620262;-10.78805367;-30.11685494;-8.123619004;-26.7398338;-33.47339723;-67.45484424;-26.82253243;-50.8466917;-37.26769634;-3.87189734;20.05995732;-0.750888834;-50.21597137;-21.30025566;13.69095936;-0.799757093;-21.14542788
29.74638874;63.50891819;52.20836506;9.806026154;36.99067804;3.478635233;-4.891859305;-78.02870728;8.559692129;-63.09570456;21.68519945;66.60414572;74.50829639;54.34814053;-49.05235926;4.312785831;98.99116833;61.19477415;-10.71671727
63.3101399;97.86431577;76.1005258;31.27036044;58.5391883;26.55742122;22.78215191;-56.95490308;35.106852;-44.65776521;45.36059314;104.2740015;71.37014649;62.7794564;-24.86474581;26.54798941;129.8759862;85.74023864;9.758155139
53.26173559;78.55675987;52.11484296;21.78699784;47.01789999;30.04878294;33.89862127;-20.28611254;38.64838707;-10.75562416;26.49891797;92.28191069;15.72;22.39233328;6.536124078;32.95722915;93.91546751;65.57358999;27.28110246
12.89817873;24.57689568;2.506600097;-9.657947567;14.84340873;14.88032184;24.69647251;7.866338565;20.83719993;14.93747567;-13.62275486;42.8778758;-52.6956912;-35.73082793;25.2927577;21.55715848;21.72784925;18.69298034;31.25734797
-26.25886599;-26.54242059;-36.89284643;-39.64721305;-13.73709334;-5.988274842;5.308264225;12.79239487;-2.690631676;17.85556698;-42.97090146;-12.32972176;-88.35521438;-70.64312984;21.75473732;2.009866754;-35.60807376;-25.18979024;20.79227164
-37.87048176;-46.11479273;-42.49285744;-47.53302794;-20.5303614;-17.40512113;-8.31341949;-1.520739286;-14.05453069;2.160151982;-42.69883885;-44.01995399;-71.7699101;-61.2561344;2.861956311;-11.42159094;-42.54694289;-44.39122268;4.788170649
-18.85279904;-32.47743044;-17.82202747;-29.92152698;-5.504120648;-12.85424008;-6.291245754;-17.7995896;-5.95205931;-14.56759384;-18.85805501;-42.94860322;-20.81177686;-19.92727024;-14.09859658;-9.959734661;-2.356455155;-37.21796923;-5.051244867
10.9303508;-7.330953649;12.65186686;-1.863752921;15.50545734;1.786223713;8.511637483;-20.38676509;13.96881336;-16.49994215;5.868704705;-21.91559936;25.67083085;19.5901908;-15.20175708;3.981584445;48.38032435;-18.82390809;-2.79776834
25.91455108;4.769790685;24.37070547;15.51662471;24.67264519;13.94449406;23.82787226;-7.282144747;30.09146829;-1.959121388;12.06699563;-2.386728922;37.99150993;29.26282322;-0.170554768;19.47109192;68.42510549;-7.166342774;8.035798875
14.78097369;-3.847803233;11.13710271;11.00642777;16.1091069;14.56410054;28.19745494;9.944992672;31.30079997;16.66240719;-1.614785315;2.569454979;15.9706761;7.266911014;18.58169122;25.70290241;41.48784009;-9.654327177;18.12616262
-12.30502925;-20.48815634;-12.67112529;-9.292838014;-0.931723545;4.678123328;19.74199294;17.25312383;19.08926947;24.46502606;-19.9321449;-4.070725616;-14.9973144;-23.46190617;26.73860593;19.82295981;-14.64995719;-20.06039031;19.89609615
-33.67847023;-25.96679653;-26.15568167;-28.12544472;-11.133346;-6.46033547;6.760595723;10.23733546;5.295758858;16.75482817;-25.81370972;-9.442476964;-26.87060888;-35.79145583;19.52420052;8.157852891;-64.21024908;-26.25603851;12.87505347
-34.13845347;-12.72634311;-19.4703824;-31.13362591;-6.178853375;-9.552424081;0.247568503;-2.888409291;1.900528854;2.25703673;-14.92989915;-3.891138142;-11.26218752;-20.33973791;4.622325716;0.465366985;-80.42716169;-21.02343993;3.009262584
-16.09767386;8.461066106;-0.534424219;-17.47275246;9.051437768;-2.745578599;4.84733143;-9.296381805;11.44311955;-5.250404924;2.009039603;10.53905828;16.34175598;8.776953358;-5.152097671;2.199366677;-62.55904803;-7.020794011;-2.80359075
4.273352884;18.28299528;13.43727829;0.861433066;21.60856206;7.50434056;15.60455724;-3.029778607;25.65746902;0.90512938;9.959763352;22.73590038;32.00963699;27.68913439;-2.687569807;10.91083796;-31.73212927;6.973192385;-2.042926418
11.42255153;6.070849294;11.17761483;9.513558521;21.81682706;12.38003906;22.72717883;10.077442;32.90286661;14.92273872;2.963229226;22.93975802;24.06255298;23.25993222;8.252766731;19.15959767;-11.6786743;13.91259326;2.463100258
2.73889337;-20.53370327;-3.833096263;3.098973625;10.99996397;8.097716909;19.94403803;17.97454723;27.84616378;24.2032244;-11.46631499;11.4392757;1.622315528;2.965224138;17.3589837;20.9862807;-11.09384524;13.21115569;6.067536482
-10.98315265;-41.4137397;-17.74243882;-11.45930097;-0.521729771;-1.407748293;9.404395422;13.20713992;15.40681085;20.66139515;-20.0349167;-1.72726108;-14.95887531;-13.20279066;17.21394765;16.45532563;-20.78299968;8.980959966;6.714952535
-16.15343706;-40.06077122;-19.04082927;-21.4036281;-2.753108642;-8.348616164;-0.635978097;-0.57786673;6.111045226;7.672431989;-15.81437705;-5.238293523;-12.24478692;-10.72790249;9.434913268;10.85368971;-25.3425249;4.647627634;6.299502241
-8.188426725;-16.43355529;-8.165580738;-18.42708613;5.666766278;-7.796950599;-2.929896605;-11.91727867;7.180612633;-3.159904101;-3.864337738;4.422270286;5.520567453;7.383646297;2.483874973;9.771578026;-17.61403253;-0.332816562;8.14126753
5.518056765;13.5726146;3.916449738;-4.424098005;17.03818993;-1.44858993;3.030392963;-11.47654809;16.90623783;-2.212034614;4.205490457;20.66727748;21.5615299;24.35578547;3.61732069;14.50906318;-3.620068359;-8.65455365;13.29459299
13.18552571;30.80501585;6.070637811;11.1811642;21.79852135;4.465171343;11.25916084;0.080846907;26.68943863;10.05481267;1.235493096;32.46782387;22.05478735;25.08831419;12.40337453;21.52905432;4.709608617;-20.5586214;19.24316607
9.392515672;26.84396224;-3.280218174;19.38502935;16.67970425;4.890893098;14.8067402;12.94723194;28.55348463;23.97815523;-9.06051917;32.59379786;7.947217146;9.448755674;21.46182865;25.95231445;1.082195959;-31.52376316;22.11904113
-0.582503777;8.395419118;-15.42667686;17.976028;6.85446446;0.163816209;11.5528565;16.7006007;21.57111224;29.39846207;-15.83019568;21.71220042;-6.826004031;-7.937793932;23.42269738;25.72764622;-9.926773806;-35.02450898;20.27207278
-6.170866405;-10.11031999;-19.66665491;11.67163512;0.742804381;-4.763694298;5.426840726;8.969364939;12.00700096;24.30879921;-11.25392941;6.016198564;-8.329186689;-10.72917199;17.59898906;22.89759605;-17.83003906;-28.08828062;15.84344534
-1.311719332;-18.34307084;-12.8298138;6.988268847;2.522163117;-5.048341801;2.437905382;-3.097338208;7.545338497;15.96636087;2.188249621;-8.263765017;5.103151377;4.833465393;10.34803108;21.21792278;-15.92192761;-14.45226829;12.92391441
10.24552064;-16.44977633;-1.654776328;6.857554939;8.969606672;-0.273600959;5.312002376;-9.432878441;10.84823192;13.85077204;13.80832723;-18.2345217;21.92625536;26.54177243;8.945877525;22.59060411;-6.648552877;-2.106571414;14.03003906
18.58801428;-11.96076159;3.63390023;9.361020988;13.01616726;5.372623228;11.39518412;-5.710346482;17.84142357;20.9786478;14.10174503;-23.4430413;27.97523545;36.23574713;14.67265076;25.55098099;1.684418538;2.89935079;18.10378568
16.59694708;-11.56263378;-1.565837339;10.79988917;10.37634062;6.971977158;15.32852407;3.397452286;21.74963733;31.26106718;2.972734552;-23.12320909;18.77234327;24.40724959;21.45671887;26.93489987;3.071538662;1.027742458;21.75346048
6.082003703;-15.61939048;-12.54697424;9.622885904;3.181975083;3.193376333;13.81403984;8.812831655;19.00417648;35.02709624;-10.3936424;-15.54165362;2.787866762;-2.737306116;21.35259396;24.92529542;-0.999195337;-1.788395616;22.45742582
-4.178441184;-19.63269643;-19.94047835;7.583162316;-2.396330004;-2.735411623;8.228632393;5.134806187;11.89423256;27.63392801;-15.64044833;-0.610977546;-6.652906152;-28.92481811;11.93474095;20.58721158;-3.808096772;0.218555237;20.72023143
-6.402472269;-20.0073397;-18.15821879;7.528245025;-2.031878054;-6.062873446;3.041934373;-4.884253447;6.023304432;13.57245427;-9.998139087;17.15387844;-3.119444989;-40.60618893;-1.078940293;16.59066177;-0.442747514;7.523595405;19.25047384
-0.498859954;-17.93763089;-10.02713932;10.35526753;2.855354395;-4.684049475;1.770121045;-13.07135719;5.218186987;2.65527996;-0.092138338;29.36605642;7.958637855;-36.04906984;-8.447584785;14.4940141;7.295711033;15.24152491;20.05577188
6.337809325;-17.79238978;-3.772530727;14.09043187;6.588888411;-0.746839679;4.16530345;-13.01639223;8.493239153;1.84169526;4.421121437;28.97059843;15.01589389;-24.04883635;-5.314438788;13.23513454;12.65378608;17.99150897;22.28435493
6.443853658;-22.08999422;-5.433133742;15.72752801;4.521582526;1.548761018;6.934952898;-5.328802143;11.50983479;9.847314636;-0.552170036;16.0741015;11.06881521;-14.84618299;4.50584861;10.25519014;10.45359047;15.04468541;22.91082702
-1.394864482;-28.4115789;-13.63091747;13.83607639;-2.813313552;-0.208607675;7.001121739;3.347594309;10.85816164;18.94155426;-10.29894244;-0.929441412;-0.336275473;-11.922566;11.64171631;4.171955381;2.105850808;10.88124635;19.66912327
-11.04422889;-31.47152261;-21.16565026;9.486337564;-10.37026396;-4.643067445;4.174159299;6.261418081;7.137277308;21.93420448;-15.92345201;-10.78740586;-8.937156715;-11.37336172;9.030039063;-3.537274725;-5.562713207;10.57529022;13.48473064
-14.68166556;-28.34916911;-21.65364356;4.931421292;-13.26141044;-8.087244454;0.92378303;2.014880691;4.15390559;18.02867605;-12.36203862;-7.580420368;-7.378593769;-8.044535194;-2.221277956;-9.475606717;-6.466217409;14.31714193;8.047942393
-9.735594419;-21.70441341;-15.08834992;1.68291862;-11.03861039;-8.029924056;-0.261670954;-5.011152112;5.18422892;12.61970782;-2.606522272;4.893753298;2.280418351;-1.690039063;-13.95183907;-11.11670209;-0.634360201;16.36961506;6.761570406
-0.925531949;-17.68100489;-7.490940165;-0.052606038;-7.7335138;-5.315876939;0.710916395;-9.130123256;9.819678103;11.70645471;5.312514067;16.31180175;10.85607404;2.807861588;-17.97796608;-8.974992398;6.069220255;9.844057054;9.731023208
4.173053016;-20.29814828;-5.298118491;-0.319799329;-7.803457363;-3.178091712;1.589253179;-8.368966862;14.23644575;16.25917096;5.492358142;18.14077782;10.62348481;0.896113627;-12.92651667;-6.22;7.427247674;-6.668842182;13.51458628
1.82098029;-27.56653229;-9.73609524;1.647960218;-11.85394796;-4.121452253;0.103207918;-5.60188435;14.566355;21.57607879;-1.049326918;10.28786686;2.131356597;-6.307532622;-5.060048828;-6.056308641;2.373742283;-26.54107961;13.94472363
-4.94971804;-33.06506465;-16.13529898;6.867959021;-16.08791925;-7.572850007;-3.729376431;-5.188312354;10.31610079;21.93021999;-7.962045746;0.641455192;-6.849224983;-12.30815679;-2.545071545;-9.134227535;-4.446735644;-39.25829884;9.61402626
-9.548088531;-31.66279421;-18.48283722;14.68733958;-15.90772974;-10.41086986;-7.502362066;-8.570194364;4.854360874;16.05247104;-9.644750609;-1.967357907;-8.912344648;-11.09068733;-8.228415922;-13.17835536;-7.289757344;-38.1687543;3.019699358
-7.986321402;-24.18145898;-14.85970774;21.62149004;-10.27252472;-9.815760398;-8.578447693;-12.95878789;2.646333993;8.442177827;-6.099556091;4.665951595;-3.867403245;-2.983859033;-17.14370783;-15.04581567;-4.573776118;-25.52611203;-1.591963603
-2.311126546;-16.70256301;-8.890899791;22.83140471;-2.777829676;-5.807876938;-6.457775115;-14.14206402;5.702812501;5.434369721;-2.33838977;14.4253647;1.499911863;5.208672087;-20.80228646;-13.34862338;0.08575678;-10.68535383;-1.772355786
1.661355343;-15.110204;-6.172303321;15.72991711;1.515830237;-1.207894619;-3.177812319;-10.5925211;12.21012483;9.675585636;-3.301231221;18.38175502;0.34252706;6.259475616;-14.52586395;-9.405923485;1.774290603;-2.973087826;1.254602757
-0.000170942;-19.82612021;-9.16461768;2.829627633;0.579725804;0.863033963;-1.441762888;-4.98418412;18.25205613;17.93436492;-9.22550236;12.68616271;-7.326069347;-0.640916454;-1.603433912;-5.8678447;-0.84025096;-5.054173404;3.915061935
-5.600844711;-25.51970534;-15.18952269;-9.009425572;-2.86620277;-0.365549771;-2.259588416;-1.773842815;20.89110368;24.01997292;-15.67088154;2.061409186;-14.33633566;-8.606914975;9.134256293;-4.390487322;-4.342696621;-11.95426543;3.514613632
-9.390058594;-26.02703799;-19.1073371;-12.99743087;-3.957575234;-2.859182539;-4.255133317;-3.181363514;19.96114731;24.00595934;-17.8881162;-4.09056984;-13.07659657;-8.831298485;10.19635572;-4.434022887;-4.09614425;-16.00948823;0.492715733
-6.914270844;-19.96669132;-17.98245471;-7.328580271;-0.224620539;-3.806323607;-5.16951673;-7.30937891;17.35225532;19.08541953;-15.24392284;0.316461684;-2.945787534;1.446986782;1.107248038;-4.087880868;1.110288441;-13.20558671;-2.193473663
0.792584501;-11.93761404;-13.45174462;3.352166845;6.044022111;-2.183365047;-4.046387204;-10.0705469;14.85733636;13.75350961;-11.58788452;12.64658277;8.589006929;15.75416932;-11.52160043;-1.964204528;7.860019531;-5.673045007;-1.851286225
7.987070876;-8.254616222;-9.860403129;11.28682726;9.728425677;0.473161934;-2.025114424;-9.049347705;12.70801641;11.30199933;-11.41058334;23.19168869;12.64685079;22.93171917;-19.19454903;1.645066853;11.48300184;1.175577912;1.56421901
9.223584678;-11.17403387;-10.15616928;11.22037999;7.354793362;1.684988131;-1.061554833;-5.695309785;9.964789357;10.89462523;-15.56729444;22.50604989;7.376866994;15.7786203;-17.5908642;5.294208862;10.63035704;3.740039063;5.540368626
4.073473214;-16.91441374;-13.39513698;3.892320853;0.148914372;0.439739381;-1.881489172;-3.855282016;6.0453829;8.817913647;-20.5953599;8.529451397;0.270614462;-3.294623077;-8.856894947;7.884641664;8.494504481;2.920782482;7.341291076
-2.603935244;-19.26846852;-15.9639878;-5.219484387;-6.968749059;-1.867432722;-3.173104274;-6.050241752;1.698325273;2.553390036;-22.14018883;-11.98394295;1.674465132;-24.065302;1.030544184;9.570929085;9.434067538;2.417364853;6.372782738
-4.945329724;-15.4632366;-15.09519091;-10.59252764;-9.455988662;-2.783397917;-2.810690762;-10.95315126;-1.531915836;-6.249151638;-19.12891004;-28.47690639;14.80066679;-35.98357225;7.055636404;11.20559035;14.36840083;4.776913272;4.45945339
-1.014031246;-8.858985466;-11.28296727;-10.76087776;-6.674214071;-1.124443569;0.051419119;-14.39826911;-2.712946744;-12.7324922;-14.72465688;-33.81061401;31.10751598;-35.15208898;8.148295846;12.98695193;19.66541472;9.12130644;3.916556138
5.932815088;-5.963623598;-7.496813754;-8.572006611;-1.910083008;1.90074681;4.01546387;-13.03712339;-2.334945054;-12.92535815;-13.23486736;-28.22030471;35.73160118;-25.58305267;6.537170697;13.81829871;20.88147568;12.50014341;5.316438471
10.71834453;-10.4357834;-6.222047838;-7.834003131;0.841152264;3.794115968;6.550435693;-7.390039063;-1.736103861;-7.328434671;-15.99385928;-17.63871728;19.13799811;-14.64777813;4.866452212;12.20560116;17.75423904;13.16324345;7.047001524
10.88891692;-19.52;-7.292343067;-9.65801222;0.258786026;3.045964852;6.169624863;-1.615449127;-1.796458711;-0.826364108;-20.15828998;-8.558215773;-14.39653605;-7.243271582;3.953053312;7.952048362;15.17470181;12.25800204;7.016255389
8.527413947;-26.18791406;-8.477047936;-11.79279962;-1.73642265;0.475424911;3.666157141;-0.233185863;-2.276345905;0.989604156;-21.52775008;-3.820087891;-48.60053254;-3.466900906;2.863950287;2.968941893;18.42014736;12.17206135;4.830730618
7.818286839;-25.12740897;-7.979273069;-11.30999035;-2.455888106;-1.575698384;1.281036169;-4.639578966;-2.463241195;-4.052853512;-18.65194946;-2.188040822;-66.21206727;-0.805391518;0.61121335;0.180362665;26.6554482;13.22689372;2.344363401
10.85744182;-17.27438147;-6.190814092;-7.886055417;-1.381628137;-1.409661536;0.615441373;-12.28;-2.380777242;-13.47802457;-14.26557583;-1.063052669;-60.69938789;2.204291823;-2.520360939;1.229705947;31.16543818;12.2704622;2.013307133
15.65853499;-8.90926643;-4.958863716;-4.470687522;-0.709087071;0.519201185;1.267483264;-18.91879573;-3.156168915;-22.51923783;-12.64617582;0.645292915;-39.81681486;4.587560315;-5.232436911;4.926499772;21.20309099;5.062894658;4.555944371
18.09595854;-6.202662597;-5.257372243;-4.675969984;-3.027612063;2.126654509;1.472287158;-21.83547679;-5.953057739;-27.73935683;-15.39352519;1.946498599;-18.80696199;4.715348778;-6.517698283;7.91124754;-6.52176893;-9.333692685;8.094140037
15.81402958;-10.08659401;-5.842279014;-9.356151332;-8.437013257;1.723083259;0.107988487;-21.26317927;-10.40146224;-28.85684899;-19.68107044;1.474547547;-9.150549469;2.837405662;-6.529815093;7.17494883;-42.73495492;-26.20611576;9.621138224
10.38280437;-15.89705658;-4.484764391;-15.64783053;-13.9453963;-0.368921931;-1.897148948;-19.22885599;-14.17167026;-27.68388932;-20.7404348;-0.563743461;-11.66460909;1.394833438;-6.205903247;2.432003812;-70.10460451;-37.51182963;7.528343637
5.737863514;-17.86400994;-0.667041233;-19.45708481;-15.84136553;-2.110953349;-2.192425704;-17.3066435;-14.43513309;-25.74007813;-16.33527053;-2.141590523;-18.48741368;2.680253338;-6.22416168;-3.625331159;-74.85460142;-37.50268463;2.958937178
4.471940106;-14.23122447;3.092654523;-19.1303468;-12.91695714;-1.67360513;0.816732001;-15.50084419;-10.17851183;-23.00749156;-9.024480379;-1.027453333;-21.07095692;6.319705781;-6.497775831;-7.436013021;-56.738189;-27.20807805;-1.190122989
5.524237236;-8.422639204;3.013502884;-16.86455318;-7.569570809;0.809819244;6.249130295;-13.06316472;-3.350802725;-18.80522814;-3.987169019;3.251640886;-17.00071224;9.343516868;-6.672247594;-7.323255792;-29.39656774;-13.98729615;-2.696776176
5.427508482;-5.444071392;-2.367225273;-16.45029627;-3.724362803;3.30021319;11.17457835;-10.04243424;2.345576717;-13.51450008;-4.300630514;8.760111781;-10.44918607;8.999064114;-6.886620762;-4.652487023;-10.57732829;-6.304411906;-1.713764673
1.874105267;-7.073067862;-10.14372432;-19.37414641;-3.427727185;3.683381229;12.94678163;-7.733653125;4.192177992;-9.093822494;-8.010866176;12.22657155;-7.031355401;5.580385141;-7.735267631;-2.518329261;-9.7414265;-7.784677225;-0.300725091
-3.840454654;-10.3476112;-14.80275931;-22.96538472;-5.186233339;1.697238135;11.41710108;-7.466361527;2.47633539;-7.674183566;-9.794441015;10.9004277;-8.376370709;2.355330534;-9.31366366;-3.147298515;-22.5469968;-15.16051768;-0.335754718
-7.880584671;-10.62831612;-12.67082539;-22.54336514;-5.53635259;-0.816278846;9.02449926;-8.998584536;0.067617915;-9.582669818;-5.833150898;3.93149874;-11.20543806;2.470646093;-10.43794631;-6.202496981;-35.97098832;-21.47940706;-1.782132686
-7.49999;-6.169318249;-5.24820029;-15.86863324;-2.383125434;-1.571621387;8.620351651;-10.3;-0.110612542;-12.82945073;2.479195532;-7.300456096;-11.1282706;5.80713722;-9.216061712;-9.302866611;-39.27568065;-21.71113676;-2.878111135
-3.818292494;0.242479373;1.706120803;-5.909292356;2.964648421;0.102930164;10.93579821;-9.173038837;2.452412653;-14.71139128;9.425437681;-19.6777506;-7.129563212;9.020269217;-4.839558243;-10.13975249;-31.76162589;-16.19755103;-1.992686255
-1.03154568;4.16360329;2.849453812;0.83293629;6.940766642;2.690181158;13.96796323;-5.275636755;5.569053746;-14.08994664;9.784053589;-29.2442469;-2.485871286;8.98576374;1.01375006;-8.279730364;-21.576202;-9.492919831;0.649741826
-2.622521434;4.080435433;-2.220673362;-0.613011865;7.019633058;3.915593464;14.87506389;-0.561939475;6.457852585;-12.16640652;3.369583929;-32.39637189;-1.464671592;6.375645474;4.83;-5.161124628;-17.5923839;-6.066093581;3.019703123
-7.97957604;3.137241229;-8.574808527;-9.365002655;4.160767215;2.875537106;12.71216485;2.435861247;4.353224903;-10.97584611;-4.702079116;-27.34946303;-5.077316541;5.586811266;3.919639255;-2.47284595;-21.82642239;-6.706586376;3.07511172
-12.59294812;6.042354315;-10.16831628;-18.84288461;2.143529118;0.911879357;9.534856422;2.97740932;1.304232147;-11.04733279;-8.242002423;-15.42757942;-9.863623727;10.50176355;-0.989632018;-0.520562191;-28.63910632;-8.470019531;0.631414052
-11.8301263;13.82547897;-5.086529324;-21.50106063;4.328130139;0.417723043;8.796045309;2.878973493;0.456233749;-10.57625845;-4.989828162;-1.229436461;-10.77;19.71964476;-5.684322568;1.895967149;-30.6089509;-7.761473051;-2.432264638
-5.036888681;21.46780718;2.746289258;-14.42899637;10.6939397;2.63722254;12.34734683;4.807479396;3.326070846;-7.08722621;1.91311854;9.032623648;-5.47770906;25.98158956;-5.463766817;6.018602548;-25.28873596;-3.601767287;-3.833838697
3.677157073;21.15618828;6.917575822;-1.375659918;17.76847079;6.441849389;18.62526848;9.55728246;8.445605476;-0.155257206;7.052784964;10.56163559;3.62522328;21.17246888;0.974096895;11.48533889;-16.87364195;1.688906991;-2.894053643
8.740204281;8.8918389;4.031755111;10.29090836;21.50053188;9.198815834;23.62580966;14.84720204;12.51967368;7.421166308;7.484461854;2.665225294;11.39692541;3.242166656;10.03683132;16.09865255;-11.83040267;4.684230184;-1.050185775
7.689541093;-11.1142136;-3.429288351;15.06391172;20.55036689;8.981060323;23.89827795;16.92594944;13.04361051;11.34411478;4.855359731;-10.75654268;13.94684551;-20.81898393;15.68688938;17.348026;-12.95288486;3.796612001;-0.423430872
3.07495365;-28.33085234;-9.351404349;12.78564951;17.15454325;6.179776405;19.08737209;13.73719445;10.10919996;9.159450967;3.26193771;-23.45077153;11.25128012;-38.95497058;14.1161926;14.45399916;-17.30949708;0.494548978;-1.787341543
0.093107135;-33.00180806;-9.295056727;7.628148305;14.90815239;3.122671576;11.98030921;6.867950996;5.935530263;2.344029585;5.129584363;-30.3858456;6.440189178;-42.26643256;6.873021425;9.195911534;-19.57638878;-1.963600489;-3.83827772
2.065293648;-22.96817468;-4.153532206;3.915446068;15.50773265;2.067996002;6.156906019;0.445437709;2.71255985;-4.773522315;9.053248767;-30.29115609;2.805767692;-31.10234463;-0.263645543;4.780299025;-17.23532878;-0.978415166;-4.457596048
7.690930172;-4.905957397;1.012699782;2.600087891;17.32657398;3.348942346;3.309115128;-2.196632606;0.780996719;-8.426710702;11.48334824;-25.5919984;1.333418937;-14.25577845;-1.908419968;3.630320006;-12.67103926;3.70301413;-2.79166592
12.38088394;10.7554254;1.7986084;1.279266144;16.9837315;5.253443323;2.420145875;-1.238384049;-1.258554297;-8.250679722;10.42098581;-20.11673256;0.694638519;-2.102918681;2.549879359;5.841338497;-10.42155572;9.998318627;-0.183429855
12.39557212;16.93320086;-1.483433701;-2.67451716;12.41271322;5.652810328;1.260658652;-0.090926609;-4.752803036;-7.12086942;7.436122804;-16.47974825;-0.771691906;0.652925369;8.483231997;9.452984611;-12.48379514;14.70901209;0.981050629
8.144657214;13.47853743;-4.177741317;-8.991053826;4.702249613;3.869660466;-1.335709031;-2.309848929;-9.303788483;-8.213135256;6.04876291;-14.97930456;-3.220971385;-2.996791914;9.963323038;12.18605639;-16.27237065;14.91578859;-0.482485118
3.856172265;5.135757519;-1.728202605;-14.29968782;-2.812584942;1.14334465;-4.475797946;-8.366457979;-12.81589374;-11.96339758;8.114526715;-14.39949031;-5.269596046;-6.508128425;4.90447555;13.16515227;-17.12590399;9.015501166;-3.278626484
4.030009766;-3.386416436;5.870146858;-14.98911548;-7.263443348;-0.62807965;-6.239897683;-15.08984337;-13.26746108;-15.6613951;11.85204247;-13.59699071;-5.52531828;-5.873949711;-2.878587364;13.2924218;-12.85657604;-2.526224456;-4.577863348
9.784333;-10.4958461;13.69491793;-10.51091082;-8.327181169;-0.647236447;-5.628884859;-18.28091251;-10.57589562;-16.01519115;13.58814996;-12.41798518;-4.012618588;-2.295732338;-6.514398496;14.1427422;-5.937426672;-16.73337442;-2.459280416
18.09942242;-16.62402215;16.02270349;-4.174044858;-7.970821281;0.127597809;-3.573256089;-16.24746075;-6.821622694;-12.32760447;11.63110424;-11.41529076;-2.129285861;0.329968375;-1.617881653;16.44786852;-1.24286214;-28.57526891;2.266583721
24.32674173;-20.96033825;11.33590791;-0.745296249;-8.345915897;-0.030856937;-2.127396922;-11.22640085;-4.580671833;-7.361413881;8.435698294;-11.0076276;-1.320303929;0.035054882;9.91617259;19.45286982;-1.516438003;-32.90791935;6.502536169
25.60346739;-20.12261845;3.770611516;-2.930523047;-9.904674989;-1.956448127;-2.677692099;-7.511459377;-4.821013178;-5.047853182;8.662119279;-11.05525058;-1.851347995;-1.201138598;20.95093754;21.5809549;-4.878457272;-27.40365497;7.279857325
22.34436597;-10.80255824;-0.302999133;-9.642128914;-11.41732088;-4.787752681;-4.842567736;-7.943684009;-6.201213832;-7.045187068;14.64282704;-11.1602238;-2.80865959;0.142377287;24.218149;21.73084161;-6.715368208;-14.59627771;4.129140097
16.97178908;5.821919059;2.397757575;-17.2620774;-11.67170856;-6.726330258;-7.011140128;-11.76567413;-6.349693756;-11.21771626;23.49741423;-11.15084158;-3.143893745;4.981612048;17.56302696;20.088909;-4.124752795;-1.041846206;-0.585654375
11.51114542;22.44299768;9.435897303;-22.5303663;-11.05598141;-6.620931311;-7.908548241;-15.56537425;-3.960338403;-13.42441678;28.95;-11.08153334;-2.601627765;10.17110661;5.376783829;17.85306399;1.317546451;6.5871777;-3.6209747
6.387210296;29.30200507;14.88932379;-24.52373472;-11.41116462;-4.929756381;-7.668249382;-16.33053934;0.12174869;-11.08220629;26.66133435;-10.75176715;-1.650971063;11.4735769;-4.68818827;16.20870746;5.088744725;6.053875246;-3.411378794
1.24721377;21.03343972;14.37679551;-24.32184573;-14.2537778;-3.233050155;-7.448033834;-13.89638036;3.682939825;-5.404325676;18.40118464;-9.434040059;-0.693340022;8.149879154;-7.063414635;15.45375748;4.084611387;1.229427186;-1.093888667
-3.474919858;1.278523799;8.483089994;-23.17159125;-19.06194445;-2.805454282;-8.067447204;-10.76082908;4.97942518;-0.384424766;11.01484807;-6.392998153;0.417091894;4.420131278;-1.706607093;14.93927803;-0.333463617;-0.869140254;0.755254893
-6.187648647;-19.02608972;1.777187724;-21.17202889;-23.30041589;-3.5706163;-9.078657152;-9.644985416;3.961648398;0.559594727;10.59983581;-1.909022093;1.921326956;5.774273165;6.567408848;13.76376419;-3.519893239;4.17727681;0.454529115
-5.531634178;-28.8199186;-1.427242138;-17.70312991;-24.2670061;-4.336669812;-9.229286233;-11.1040138;1.895698527;-2.627866699;16.77066797;2.224463089;3.284635138;13.13362707;11.89152605;11.58103875;-1.869739983;14.07598667;-1.434137863
-2.137646152;-24.21477278;-0.666106468;-12.92590655;-21.16955844;-3.994974526;-7.882317521;-13.28036425;-0.08497619;-6.756605945;22.25146836;3.522097162;3.031195112;20.44061078;11.24487351;8.884968916;3.775916879;20.88927805;-2.827748466
1.211858435;-10.41681176;0.808092076;-8.572778792;-15.63131789;-2.507182035;-5.966978112;-13.84371973;-2.027299527;-8.171479058;18.69100718;0.591134697;-0.216723508;18.67242742;5.827699226;6.621403676;8.859086298;16.89817513;-2.145097256
1.545147684;2.91175929;-0.531643298;-6.971899036;-10.24455407;-0.781467571;-5.412457236;-12.201653;-4.816380386;-5.699568299;4.133097719;-5.507796504;-6.288869909;3.541397517;-0.499684838;5.493116036;9.304447698;0.913193326;0.227722859
-1.786205112;8.879038983;-5.086091849;-9.063429743;-6.520483278;0.357054708;-7.440373882;-9.942196693;-8.848150579;-1.272922774;-14.22523749;-11.59211409;-13.03781305;-19.62975408;-4.073783043;5.480546549;5.264510163;-19.9884234;2.294662076
-6.348583697;7.476227106;-9.882249878;-13.28631291;-4.043255071;1.031664076;-11.23916642;-9.202170486;-13.09416843;2.100777137;-24.72357966;-14.34706639;-17.59424298;-38.54012152;-3.491964005;5.866640342;0.913132481;-34.92734494;2.226401901
-8.495416288;3.843428005;-11.53949046;-16.52918286;-1.451031497;2.133630967;-14.31637903;-10.58340864;-15.57741379;3.029478721;-19.9504443;-12.53559272;-18.42542429;-42.55306948;0.115956164;5.685867378;0.506518435;-36.66176621;-0.072920156
-6.387289404;2.899990722;-9.538389876;-16.46075967;1.827318843;4.260129873;-14.37734122;-12.59292746;-14.93662557;2.673457253;-2.548731854;-7.731391564;-16.45482839;-30.57616195;4.19093425;4.288915142;4.435609486;-26.37768163;-2.965051341
-1.565740419;5.235703782;-6.704688985;-13.2408462;4.789947597;6.82854347;-11.19630946;-13.09503012;-11.69376586;3.250599179;16.62256941;-3.037418354;-14.21914019;-11.73081054;6.181257075;1.711512277;8.979549387;-12.2601486;-4.546799671
2.329945125;7.509668554;-6.509786075;-9.115416746;5.775912251;8.304653476;-6.884099859;-11.36360837;-8.048059844;5.672437945;26.56639053;-0.851466568;-13.75286632;1.788364023;4.586343967;-1.324433429;9.946685196;-3.146606394;-4.209202881
2.632959226;6.367051524;-9.779661824;-6.28875675;4.182845332;7.443307373;-4.297926966;-8.781283406;-6.31347077;8.5752589;24.05644797;-1.420461937;-15.03475167;3.815595109;-0.536886612;-3.773058674;6.693142926;-2.309180545;-2.921486828
-0.132468649;1.909062886;-13.918445;-5.018615008;1.325210005;4.451487178;-4.912788343;-7.525204335;-7.313412205;9.612248413;15.22107874;-3.155168786;-16.32049196;-2.088716578;-7.538691722;-4.819922631;2.660500256;-6.050426378;-2.102349262
-2.775434564;-2.467886559;-15.36015796;-3.666589396;-0.440175354;0.983099681;-7.901143439;-8.47990815;-10.06645296;7.732765209;9.862542908;-4.198544679;-15.96926137;-6.998143987;-13.68521212;-4.336064796;1.932097124;-7.749018847;-2.215785628
-2.200439102;-3.472623813;-12.93066259;-0.63684503;0.401989469;-1.10787317;-11.09258156;-10.35327867;-12.94116412;4.275785315;13.36536934;-3.850958353;-14.03360657;-4.846166965;-16.28358545;-2.93273721;5.183904481;-3.667476027;-2.400294939
2.012665459;-1.175858161;-8.95939835;3.616528452;3.281425792;-1.209366902;-12.87587918;-10.86337602;-15.18569184;1.834646709;22.69273753;-2.824554748;-12.16347812;2.727444774;-14.08237457;-1.51568635;9.056048904;4.265446053;-1.410516042
7.390238076;0.995332793;-7.092633816;6.443677729;6.012424413;-0.343047136;-13.37375388;-8.937989864;-17.48026376;1.925304888;29.33073333;-2.430073242;-11.99247675;8.857892133;-8.123714634;-0.582702748;9.67849936;10.65223431;1.084247394
10.76124044;-0.495086228;-8.844697535;5.000253136;6.534328437;-0.175164584;-13.9641061;-5.899859075;-21.103016;3.592479144;26.35139459;-3.593821835;-13.58576278;8.58182344;-1.297643103;0.232731004;6.936723828;11.54274582;4.097744808
10.83986642;-5.865618383;-12.11028249;-1.252211267;4.409694228;-1.526168437;-15.72351403;-4.492732668;-26.5478041;4.229069379;13.74353005;-6.436498202;-15.4040762;3.857777281;3.332130312;1.956174883;5.102537497;7.751123639;6.193508581
8.955482682;-11.63385599;-13.05151457;-9.699562007;0.880111524;-3.681473319;-18.27630213;-6.541988905;-32.86445887;1.877471813;-1.964002097;-10.3986613;-15.73301182;1.778546259;4.377329117;5.451299769;8.808058972;3.908528964;6.784641878
7.453096343;-13.68109969;-9.647191576;-16.17368768;-2.383464168;-5.072462771;-20.07796398;-11.28877617;-38.27500738;-3.039637301;-12.90851238;-14.45118521;-14.12855192;7.544473535;2.832240007;10.55161182;17.98425815;4.334106761;6.622993129
7.36762615;-10.99053184;-3.640361789;-17.76579771;-4.599765353;-4.679759978;-19.81848822;-15.87245834;-41.46790563;-8.074088209;-15.39754614;-17.19866091;-11.50529262;18.63410348;1.126935633;15.84970294;26.84050885;9.398097125;6.99414108
7.509611822;-6.644626445;0.923931141;-14.68070368;-6.136267567;-2.902562625;-17.6385104;-17.5739076;-42.44077448;-10.83652476;-11.53427784;-17.19775081;-8.939211477;25.71979;1.286992821;19.41064057;28.52277325;15.40692867;8.34843855
5.694911057;-5.132908445;1.258013631;-9.834023026;-7.692362082;-1.161304719;-15.07522506;-15.92735566;-42.26859616;-10.9507633;-6.402688005;-13.78591952;-6.585656141;19.9902354;3.628353399;19.95668468;21.65227856;17.9091695;9.645867807
0.873445214;-8.35068193;-1.741270464;-6.734094926;-9.393193813;-0.652163712;-13.83202839;-12.96577703;-42.16442789;-10.2014658;-3.792555812;-8.004460122;-3.933312441;0.832055732;6.897805862;17.65474127;12.57691256;15.47142199;9.075283612
-5.822602694;-13.86551752;-4.385699017;-7.388802756;-10.73248704;-1.399934084;-14.49313727;-11.49443726;-42.72814267;-10.8408496;-4.04072516;-2.587313705;-1.067026462;-22.70045961;9.523790589;13.91074079;10.45140727;10.75300247;5.588838342
-11.98624304;-17.02634527;-3.564873923;-11.62696041;-11.32598607;-2.424771231;-16.27245236;-12.92310888;-43.91829364;-13.61362331;-5.156415736;-0.403612903;0.686782728;-38.0680533;10.77323594;10.35282314;18.6843143;8.126559775;-0.037490069
-15.84204004;-15.08034326;0.490774323;-17.84431639;-11.55520068;-2.789558807;-17.88906054;-16.42679034;-45.48762179;-17.20849545;-5.454176087;-2.149730679;-0.094117829;-38.17047592;10.86652269;7.827963389;30.18175647;9.980652758;-5.514117231
-17.36007813;-9.668077439;4.540376684;-24.12062048;-12.29306379;-2.507231035;-18.6614672;-19.93564515;-47.22864116;-19.49945413;-5.022636683;-5.242396431;-2.794624081;-25.93874564;10.19298991;6.186772894;31.34842635;14.8039663;-8.474493056
-17.66808144;-5.462457868;5.38670152;-28.7779707;-13.89657884;-2.468476146;-18.81765558;-21.88368253;-48.74882269;-19.36982295;-4.963570819;-5.389897962;-4.004874318;-11.260861;8.638931751;4.918704126;12.60689651;18.54244188;-7.91030706
-17.53318585;-6.071130394;2.803867857;-30.40514421;-15.51267647;-3.498267452;-18.85436954;-22.15527135;-49.18099865;-17.50596887;-5.631756572;-0.176567009;0.213908173;-3.196752336;5.860843326;3.947458809;-22.74021931;18.01748244;-4.575887745
-16.53159065;-10.71592185;-0.345343575;-28.03554256;-15.55798523;-5.465143442;-18.70804917;-21.58429716;-47.44301216;-15.57589592;-5.89786062;8.12171769;10.18411783;-3.924794383;2.289726523;3.783538176;-58.86905535;13.61772155;-0.241323292
-13.74462169;-14.58408834;-0.854148765;-21.82510059;-13.10930279;-7.298149959;-17.63654167;-20.73473801;-43.09797006;-14.65641654;-4.193605463;13.26848634;20.17712345;-8.83558707;-0.235785254;4.875226914;-77.52563408;9.162805453;3.454425061
-9.212789696;-12.66821519;1.821575524;-13.64808222;-8.949403528;-7.898118438;-14.95551772;-19.24401381;-37.07933969;-14.33460946;-0.204964652;9.499979555;20.78549021;-11.753987;0.866361204;6.820407026;-70.51116632;9.067586253;5.683815464
-4.537965152;-3.996060106;5.11564651;-6.621826243;-5.171335619;-7.087785198;-10.88285072;-16.31374241;-31.40342163;-13.17318927;4.557988705;-3.501542381;5.539544752;-10.25796116;7.186211417;8.322076324;-45.09229264;14.91264306;6.386722945
-1.808105528;7.183464282;5.879577218;-3.323882238;-3.510240387;-5.715469699;-6.59269919;-11.7443767;-27.79441631;-9.975462643;7.929238729;-19.32698199;-22.83503523;-6.709227903;17.83510624;8.129914316;-18.31764166;23.86159791;5.906446584
-1.707187458;14.23765883;3.505971548;-3.8080948;-3.812418229;-4.827396994;-3.324957768;-6.396529266;-26.23635332;-4.682528486;8.880641406;-28.94062298;-51.89011375;-4.888590999;29.52132214;6.244616567;-4.837981818;30.01380827;4.806461852
-2.629964695;12.81937131;0.675762539;-5.139256988;-4.07049623;-4.697332606;-1.326709811;-1.580164303;-24.77896411;1.754949675;8.240097656;-27.42371256;-66.25057415;-5.965535503;38.31876725;4.262243169;-7.607996718;27.83979521;3.916049642
-1.850424424;3.83564525;0.93766981;-3.239906116;-2.132754054;-4.630383466;0.378004094;2.028021858;-21.01229629;8.171226934;7.713698832;-18.00011093;-57.59060284;-7.612082016;41.89106613;4.347909278;-18.06432245;15.60013504;4.22821826
2.080691534;-7.384153505;5.284920956;4.036754574;2.329446955;-3.723396612;3.119053581;4.855088569;-14.17137829;13.7758469;8.239233998;-9.708103898;-30.59378671;-6.707164891;40.56274064;7.502553703;-24.58788886;-3.270672573;6.386385797
7.792995918;-14.9004162;10.89971431;14.93548929;7.34420363;-1.856663364;7.351064469;7.811498673;-6.124788654;18.08866627;9.297279109;-10.13628578;-0.164729703;-2.648542543;36.57301808;12.51591157;-21.79533717;-21.63857479;10.04868568
11.90435948;-16.04773216;13.33382611;24.65;10.16818891;0.038665845;12.15800472;11.1966725;-0.27430557;20.58819273;9.798286311;-18.95728633;18.4173452;2.040118236;32.27890748;16.58399561;-13.39287738;-32.24173967;13.79256704
11.66875269;-12.69411256;10.2872812;28.58452599;9.583146228;0.726187406;15.94148269;14.24939649;0.905053104;20.76214031;9.56276144;-27.7604912;19.30003906;4.273634164;28.77315051;17.26708362;-7.301313645;-31.42942836;15.91762332
7.282379716;-9.284296811;3.655001886;25.64881424;6.994163682;-0.236621311;17.68235732;15.85511645;-2.242045749;18.72608129;9.7944048;-26.72924573;8.706173051;3.479089873;25.82363621;14.32544402;-8.149176569;-20.97061647;15.69454893
1.852615566;-9.352126014;-1.996857997;19.07282883;5.344211778;-2.054015876;17.65908444;15.76778298;-6.769150559;15.77230629;11.92855402;-12.9422698;-1.147027391;2.10732688;22.82142335;9.971279684;-13.73904155;-6.839816511;14.04194407
-1.023396452;-13.02814436;-3.215352587;14.10279398;6.717916682;-3.329920366;17.01620349;15.11923091;-9.302034969;14.02491263;15.88473598;6.604779534;-1.743673743;3.106786439;19.66783927;7.274162822;-17.93839456;4.357599559;12.91842728
-0.091076491;-17.11376366;-0.414243239;14.33849258;10.62879075;-3.233083558;16.62845836;15.5816482;-8.422812102;15.11735324;19.47097738;20.07494584;6.0328006;6.890682949;16.84099749;7.908245713;-16.68073379;9.135331636;13.75447646
2.653039872;-17.44353651;2.748596686;19.45558015;14.39501897;-2.150537428;16.3299578;17.81523934;-5.391858623;18.83127213;19.74461789;20.09359181;14.20488181;10.82136215;14.8288628;10.95508167;-11.44970902;8.645617695;16.14972236
3.682911438;-11.82214298;2.715736166;25.87224258;15.23817809;-1.251598632;15.20513597;20.59970474;-2.772186027;22.92401821;15.35456237;9.686343562;15.39566092;11.7628374;13.71250228;13.64675421;-7.420573415;7.011571878;17.98076697
0.807553397;-1.606742088;-0.909704332;29.59600444;12.33604984;-1.372167567;12.62635059;21.55571481;-2.265108461;24.52553367;7.898619504;-0.21351246;9.155319161;9.228511123;13.36816326;13.42716182;-8.440732103;7.788002972;16.96912651
-5.186046575;9.041047122;-5.226859239;28.93066284;7.21251613;-2.24273227;9.019614851;18.99323972;-3.612695741;22.16372466;1.055946301;0.132098927;1.780481338;6.016230815;13.93088025;9.739004673;-13.65203245;11.29534868;12.52745835
-11.3410264;15.74836794;-6.776991189;25.10636831;2.345820496;-2.76447314;5.601739292;13.38412168;-5.344768094;16.85108046;-1.913770911;10.95272134;0.26942737;5.617256916;15.76096754;4.254190772;-18.66894425;14.90904798;6.395973294
-14.9289579;16.73778284;-4.580383756;20.73332434;-0.651034469;-2.0776968;3.31368984;7.195268529;-6.46;11.34820668;-0.364541017;22.38815457;5.985581756;8.827850303;18.67902929;-0.461834597;-19.86994348;15.96432049;1.509529667
-15.35859746;14.00364888;-0.766777409;17.65078938;-1.750983105;-0.439381365;1.956006451;3.162001123;-7.360510687;8.176392526;3.51441187;22.32646381;13.56506159;12.84908143;21.19699113;-2.696333725;-17.63281962;14.64443373;-0.045863897
-14.14042773;11.92351098;1.597470647;15.92760779;-1.779579986;0.907981738;0.37274205;2.37395432;-9.170566913;7.942901943;6.508020064;6.409991185;15.83827514;13.85171946;20.8298661;-2.438818711;-15.60194875;14.07597122;1.598123745
-13.23961465;14.00209082;1.326276618;14.51877731;-1.22518802;0.786423545;-2.43721799;3.677046099;-12.1741093;9.225408416;6.723978707;-17.90323;10.290249;10.65846403;15.77197999;-0.900004883;-16.91928352;17.21605225;4.413574416
-13.45771807;19.86633002;-0.05149095;12.63249877;0.131539509;-0.868684284;-6.287739759;4.774779852;-14.9945959;9.936997089;4.733652874;-36.54792834;1.373612289;6.030933606;6.84456347;0.653906644;-21.11691043;23.13480107;6.129769817
-14.21713344;24.80089036;-0.090439697;10.45960047;2.475099432;-2.889764499;-9.830316905;4.031402864;-15.47374541;8.926145394;2.854294679;-39.17091142;-3.278299553;4.227375772;-2.041104314;1.715991609;-24.57661774;26.29581279;5.840414899
-14.66982516;22.62949931;1.996389857;8.746399149;5.031222366;-3.802254492;-11.67453718;1.512669699;-12.58511071;6.536361132;3.33311681;-26.38581671;0.622854119;7.032058304;-5.793760592;2.483931158;-24.01115485;20.23521356;4.3440595
-14.83612339;10.36653933;4.521312596;7.840365867;6.13842873;-3.001576771;-11.63448958;-1.424343611;-7.646581347;3.891886043;6.800754339;-8.462080383;10.39246658;12.0055545;-1.435592239;3.265430128;-19.61100864;3.207455208;3.131807381
-15.59929362;-8.566235073;5.043032554;7.231480447;4.500610701;-1.189850392;-10.97933391;-3.422283892;-3.601394439;1.786023098;11.89365605;3.044430412;18.65419451;14.7165001;9.562599384;4.064395196;-14.90231125;-18.85269279;3.035912133
-17.6237941;-25.22726234;2.908875672;5.997320021;0.537709207;0.25746618;-11.42800303;-4.100871591;-2.818826201;0.237387955;16.02853965;3.727576677;19.42568605;12.9633474;21.80927007;4.719469068;-13.49501741;-35.10976373;3.698925006
-20.37369171;-30.15631672;0.065013739;3.640972141;-3.53201312;0.407740197;-13.74248625;-4.002915388;-5.23;-1.031510322;16.72946137;-1.717621336;12.76651505;8.997725098;29.23859828;5.304632551;-15.78749149;-36.93380439;4.175271299
-22.31144358;-19.45845368;-0.768669143;0.493110341;-5.191697155;-0.58288716;-17.14228874;-3.819990728;-8.412886146;-1.895223661;12.88552241;-4.881134413;4.197379186;7.500979557;28.84598208;6.21145374;-18.67829532;-24.1316885;3.954649744
-22.1776232;2.180329447;1.133293348;-2.633333575;-3.559288388;-1.775379327;-20.04779306;-3.795732017;-9.604747407;-1.771241861;5.51600797;-1.233496027;-0.291308173;11.04899502;22.26362431;7.69341136;-18.50898626;-5.322785269;3.408537514
-20.15543423;23.83854912;3.533225914;-5.092888846;-0.102898523;-2.340753866;-21.49309816;-3.85557989;-7.965386722;-0.323585771;-2.29156942;6.516864536;0.855241758;17.333713;14.15692007;9.287217688;-14.4896612;8.141290763;3.299523237
-17.78544677;34.69876694;3.212464217;-6.701042177;2.529706579;-2.216603461;-21.96345505;-4.157992858;-5.191867541;1.843020526;-6.51496721;11.63491214;4.070029297;20.99665294;8.809148286;9.778331421;-9.465294453;10.17176217;3.907884304
-16.66823795;30.2146006;-0.7843773;-7.49901426;2.601098208;-2.002393838;-22.92327316;-5.296824295;-3.995709916;3.356847329;-4.212336935;9.741677663;4.441181695;18.68125405;7.501576132;7.951548953;-7.358009628;3.673259597;4.663417651
-17.1525837;14.11536272;-5.759748023;-7.438072307;0.510926095;-2.296967149;-25.45069079;-7.777886428;-5.769166599;3.146388715;4.523306025;2.576358004;0.325035335;12.67667925;8.455092916;3.622452659;-9.639751991;-2.787431731;4.647995568
-18.23149249;-4.720713677;-7.483453795;-6.492165459;-1.861347949;-3.152518375;-29.17075968;-11.23770906;-9.418553079;1.468476541;16.04966392;-3.917079415;-5.322402812;9.430362461;8.965097915;-1.924021383;-14.00388278;-2.439962047;3.484849184
-18.7137065;-17.94428184;-4.282717313;-5.131323319;-3.040884329;-4.13053179;-32.41290997;-14.28986917;-12.29518421;-0.145977281;24.89606188;-5.067516718;-7.870945815;13.70306837;7.729614313;-6.568668387;-16.35250221;4.365391963;1.763841776
-18.49666598;-21.9647661;0.513551419;-4.511596173;-3.325121484;-4.826763039;-33.46324002;-15.39161582;-12.35551502;-0.142711454;26.98465752;-1.438138974;-5.339222944;23.32161013;5.511611943;-8.684401082;-14.24630837;11.30837453;0.597279599
-18.64003906;-18.33424324;0.333337286;-5.856180832;-4.381889884;-5.294941234;-31.86642512;-14.13248237;-9.698548034;1.641829419;22.23975463;2.135587485;-0.148893093;29.49163387;3.907962358;-8.16884421;-8.768854045;12.46200846;0.717665514
-20.08894758;-10.9937746;-9.603006418;-9.315979043;-7.458162955;-5.943804146;-28.72847695;-11.80228724;-6.264481479;3.705834241;14.55910215;1.265515264;3.17412144;23.16339066;3.620432953;-6.385511494;-3.315697387;8.080347729;1.941466654
-22.26;-3.144780964;-27.87412069;-13.32915115;-11.8765039;-7.035912586;-25.83657396;-10.58501351;-4.103760098;4.11039451;8.934488003;-3.961136321;2.124836592;2.684441702;3.871864772;-5.056862264;-0.593388539;4.50603507;3.455096515
-22.97097086;3.937973549;-46.81081923;-15.32312542;-15.27217556;-8.321842044;-24.36630813;-11.88897622;-3.78610595;2.219523084;7.772193638;-9.246663581;-1.626546603;-23.5206775;3.401557544;-4.960620449;-0.56190985;8.069691008;4.597544189
-20.03424955;10.02090967;-57.21125862;-13.50375865;-15.46430741;-9.205314602;-24.19052421;-15.14235612;-4.246364491;-0.578239765;9.269889152;-10.21102811;-3.939882745;-41.78920837;1.986873001;-5.407524647;-0.978018827;18.31552686;5.36777335
-13.26143494;14.62859769;-54.41281895;-8.380271061;-12.35598522;-9.29743538;-24.2058267;-18.08943617;-3.99958837;-1.877225462;9.184830941;-6.472633098;-2.094679222;-42.19075736;1.001086869;-4.850538805;0.254819009;26.8430085;6.191758451
-5.08371729;16.9458465;-41.18821688;-2.651134739;-8.172680502;-8.81475026;-23.24598012;-18.41612895;-2.480141394;-0.200670387;4.577241789;-1.936678662;2.76304657;-24.99293718;2.441969334;-2.123865201;3.23910026;23.47252607;7.236983675
0.94212349;16.86789476;-25.4172551;0.686381733;-5.766688439;-8.408118994;-20.7925997;-15.43194292;-0.296512002;3.76421837;-3.577549149;-1.09046986;6.84679448;-0.043706186;7.248229281;2.601571746;6.330543999;5.068927783;8.02643035
2.676788601;15.77237647;-14.52154237;0.616888477;-6.386198927;-8.557494823;-17.046166;-10.48745946;1.682590438;7.721603237;-11.11496857;-4.74946095;7.43866057;19.97373757;14.32346686;7.776232817;7.96720719;-20.36627811;7.819265284
0.961071327;15.82566447;-10.95309634;-1.07427593;-8.76199924;-9.103506013;-12.555478;-5.853653752;3.387738628;9.663386301;-14.12563021;-9.165306707;5.590720868;27.06679239;21.04562735;11.29921249;8.143238922;-38.2757376;6.451138482
-1.09030962;18.21557249;-11.8488668;-1.198305387;-10.22288845;-9.381082135;-7.902786946;-3.033396938;5.663177428;9.499188018;-12.1506669;-9.3392051;5.243350904;21.05319458;24.80694241;11.64447504;8.133902828;-37.76878013;4.806895683
-0.511041227;21.97828679;-12.47098181;2.278278763;-8.840039063;-8.858881521;-3.690124468;-1.869198733;9.325936862;9.039330318;-8.373875748;-3.582130727;9.482962964;7.202829591;24.4029361;8.653880932;8.931239052;-19.66543061;4.359633052
3.310367033;24.70034043;-10.21980733;8.560219282;-4.814372969;-7.697710591;-0.618872722;-1.065210799;14.11645504;10.36301067;-6.704589666;4.772474726;17.34457875;-8.412883847;20.40514231;3.667137624;10.13104469;4.02142307;6.051675891
8.336818612;24.6161855;-6.04293995;14.58151054;-0.086541867;-6.69285678;0.682307425;0.456334571;18.60970391;13.97190622;-8.409152538;10.09068835;24.17929346;-21.7973123;14.57494318;-0.990234902;10.4786812;18.91571641;9.450489247
11.59302643;22.18924997;-2.637122858;17.3150955;3.289169015;-6.624910223;0.097453103;2.564949621;21.24119381;18.28086638;-11.33501635;9.278888514;25.4539687;-30.76695261;9.007562879;-2.941138125;9.511436579;18.64737278;12.95557981
11.39039126;19.63114799;-1.555888368;15.94923801;4.520650538;-7.595114825;-1.679049918;4.073152253;21.53345928;20.83846703;-12.37607985;4.555188332;20.72720886;-33.49574035;5.556706777;-0.807656727;8.524094265;8.821094781;14.95848168
8.32307456;18.74341229;-1.916841224;12.24141831;4.15586338;-8.94715898;-3.42057431;3.784950885;20.40464922;20.23335805;-10.78654664;1.715222586;14.2574444;-28.53211717;5.516911474;5.013292917;9.671747062;1.734855906;15.02627354
4.468286832;19.1491113;-1.607981193;8.945013432;3.118517396;-9.846167318;-4.170410147;1.496907329;19.2934652;17.14779718;-9.074207651;5.270654056;11.56100437;-16.67441976;9.25026734;12.28643206;13.87535891;6.220572536;14.1350761
1.717516464;18.72686359;0.459755522;7.772742933;1.853324192;-9.986743385;-3.958238706;-1.827760035;18.93399898;13.81466508;-10.40983344;14.44583056;14.77728971;-2.38891106;15.75364847;17.83589677;19.5087353;20.59616354;13.77881718
0.693286281;15.97064897;3.294648031;8.572545783;0.418104276;-9.790923705;-3.764905057;-4.715981191;18.91863045;12.44950791;-14.86033424;23.28279905;20.8146238;7.713818246;22.6556974;19.14561164;23.28916512;34.01435521;14.72603536
0.940246948;12.00006104;4.879758196;10.14921453;-0.770438007;-9.936224781;-4.656058953;-6.035674015;18.4098587;13.92625134;-18.17113726;24.76708349;23.9328318;9.086218258;27.11609515;15.82646337;22.81025189;34.83442136;16.46658147
1.853317094;10.03332294;4.208255528;11.66556539;-0.600385269;-10.67520659;-6.756061854;-5.416894154;17.24328115;17.55219496;-14.7955166;15.77743314;20.6360415;2.854451779;27.38361045;9.957883847;18.57532224;19.38225995;17.75805576
3.270585942;12.43;2.308742963;13.17456465;1.992501537;-11.59063732;-8.956974136;-3.143867925;16.27561489;21.79112177;-3.009335047;-0.771559854;12.74939562;-4.620644741;23.96623183;4.881818274;13.7177503;-5.429847456;17.72318785
5.215949622;17.88722455;1.314907414;14.86222914;6.72762694;-12.00616677;-9.691653179;0.13051663;16.56155316;25.13770412;12.31468911;-17.88285747;6.059576084;-6.463138801;19.35184247;3.070574419;11.58293789;-27.1271803;16.51359735
7.268824909;21.625319;2.504823572;15.98254318;11.4526732;-11.64450676;-8.192529663;3.531611796;18.11525516;26.54333734;22.15337922;-28.78839345;5.633524433;-0.64631038;16.23543901;4.463992155;13.2070197;-36.1075495;15.00552546
8.443764894;18.9370864;5.165094016;14.85540795;13.2342889;-10.88977305;-5.198468262;6.031975999;19.5059483;25.45655115;19.60640119;-30.52693963;11.72064338;8.534678352;15.50096248;6.497444466;16.78179011;-31.20762036;13.89293437
7.894164287;9.339588043;7.309905572;10.2565363;10.47958499;-10.39424354;-2.491652697;6.72152161;18.8394016;21.90166054;5.192978798;-24.73730361;19.63793062;14.26916811;15.60112299;5.912787102;19.42068112;-18.92529986;13.06786099
5.811751934;-2.353299426;7.53950378;3.020743966;4.400974923;-10.41034263;-1.611743056;5.324288832;15.38696951;16.72886071;-13.14866543;-15.83003906;23.68569739;13.12473514;13.96771329;1.134547657;19.56757734;-7.821353249;11.86562793
3.555930073;-9.351080837;6.298395666;-3.815039366;-1.540112101;-10.51227672;-2.782311779;2.566990069;10.42792659;11.63855607;-25.53937433;-8.246113994;21.7838516;7.914048986;9.392903095;-6.489851768;17.97806344;-2.802136122;9.914148928
2.702560184;-8.12575742;5.402896729;-6.884298549;-3.980807552;-10.01354564;-4.9001037;-0.102409104;6.455660224;8.51958245;-26.90103144;-4.499519113;16.96422032;5.006089051;3.382236154;-13.51289281;16.63057496;-3.229414509;7.746176986
3.753814218;-1.212596021;6.330078125;-5.100470407;-2.031527619;-8.710511069;-6.540871737;-1.472015499;5.297452345;8.260962374;-19.79342199;-4.661832659;14.53070039;8.467674568;-0.800742856;-16.70530525;16.79418774;-5.285472344;6.545097461
5.676537138;4.93110594;8.873279809;-0.827179175;2.202466263;-7.229245629;-7.101481166;-1.536005928;6.682378444;9.926015793;-11.45149194;-6.991974759;17.33717668;16.29588058;-0.78402775;-15.21067238;18.0726619;-5.844544434;7.198990853
6.77074569;5.342245374;11.37480613;1.603640957;5.366996957;-6.580517644;-7.135300549;-1.60197736;8.467666153;11.18427331;-7.829858201;-9.126561529;23.19969166;22.18505115;2.698556455;-11.01920496;19.12579742;-4.609885089;9.492087758
6.175992042;0.670796727;12.26432057;-0.896491796;5.452319786;-7.260208944;-7.672854403;-3.2610289;8.353370876;9.961833862;-9.6214781;-9.362249945;26.67583806;21.29614636;5.962795614;-7.497839656;19.12326669;-3.347695935;12.1662496
4.696054689;-3.574418624;11.45369786;-7.682177764;3.162481441;-8.697253585;-9.190237285;-6.936643848;5.668792765;6.12708488;-13.13511619;-7.589006428;23.80289291;14.80469046;4.990838726;-7.106861433;18.4125594;-3.589545218;13.82408804
4.172997507;-2.050964603;10.33127671;-14.63063759;1.059548852;-9.596051066;-11.14146994;-11.23187982;1.779359413;1.764025213;-14.5785555;-5.354257805;15.87724358;8.992559908;-1.422860706;-9.922133497;17.84781412;-5.096809674;13.90850096
5.911070791;5.500019531;10.4268407;-17.05970431;1.335318356;-8.943963126;-12.42378522;-13.76623649;-1.145566869;-0.388895955;-13.55284661;-4.785426933;9.019484384;9.548283616;-10.45920154;-13.86894991;17.66498884;-6.261693035;12.94107609
9.50687185;13.83743657;12.02562951;-13.12382639;4.11676435;-6.84538038;-12.3166987;-12.97930208;-1.895432949;0.799346635;-12.70915332;-6.868903843;9.575667836;16.19355585;-17.0211785;-16.29239243;17.21350469;-5.750867712;11.86984907
13.10530721;16.81104279;13.99658331;-5.129267035;7.617554331;-4.461491354;-11.06133291;-9.48815177;-1.034557899;3.755914105;-14.31357765;-10.34226152;18.74239467;22.66894281;-17.19608942;-15.64143904;15.85647558;-3.745148179;11.15491087
14.86039356;13.00331693;14.92949604;2.152220804;9.80288271;-3.094507453;-9.619384314;-5.833760625;-0.194785869;5.300870877;-17.3460699;-12.32192056;30.57205989;22.38932433;-10.89848884;-12.18679594;14.00404154;-1.717550682;10.41383661
14.33875689;7.370745966;14.4685378;4.790949588;10.00578857;-3.190917172;-8.891079754;-4.709072021;-0.595737954;3.159816573;-18.11277305;-10.51057084;35.13319955;14.83667828;-1.839530375;-7.555603631;13.0028931;-1.081591856;8.905440241
12.68337586;7.18711382;13.59661045;2.123258657;9.143725034;-4.097279109;-9.102381469;-7.00972592;-2.126555166;-2.14015851;-13.86508713;-5.321577647;24.87559369;6.751458596;4.987707616;-3.67649771;13.79708626;-1.96187859;6.362241738
11.46757952;15.57323246;13.64732151;-3.350794564;8.542874237;-4.732887185;-9.841739252;-11.23026279;-3.704431709;-7.599604684;-5.907650109;0.040005035;-0.074587908;6.541638749;6.362667966;-1.901539112;15.70339263;-3.108480482;3.386049066
11.30713454;28.16940645;15.01293305;-8.208089752;8.604077378;-4.545459461;-10.60042314;-14.66445262;-4.433166213;-10.09189271;0.992895976;1.999452225;-31.26349399;16.39832714;2.335025625;-2.653441563;16.75575604;-2.945963252;1.044991727
11.4531308;36.00039484;16.7696363;-10.56954111;8.557841376;-3.898926496;-11.24665908;-15.43162773;-4.418617911;-8.819474376;2.658677506;-0.242209608;-56.35051111;29.04164987;-4.533060814;-5.457631264;15.5765028;-0.842897889;0.044123864
10.65542925;32.36535294;17.55189187;-10.98117623;7.431805975;-3.588197539;-12.00702182;-13.73075695;-4.518786596;-5.85980844;-0.596181608;-3.603615735;-65.79033722;32.46785668;-11.18799652;-9.105792281;13.02856469;2.409680616;0.210919517
8.436503992;18.12429189;16.83427628;-11.34054691;5.195576542;-3.978311631;-13.05121625;-11.41253547;-5.358347753;-4.367689813;-3.937120051;-3.401804314;-57.643947;19.35128919;-15.72432212;-11.93187618;11.79821426;5.242813691;0.723743389
5.586075262;1.047497432;15.41798632;-12.99595274;2.932216908;-4.594276754;-14.15165898;-10.34495034;-6.61258893;-5.952241499;-2.199675803;2.533405992;-37.8516658;-6.437489568;-17.7072207;-12.36084243;13.91896711;6.542226687;0.830305468
3.443306163;-10.14801176;14.68291653;-15.55231566;1.874878103;-4.552203644;-14.7696481;-10.96037315;-7.254504257;-9.403270946;5.253636836;11.35951052;-16.27933531;-31.7144817;-17.49444203;-9.707343631;18.43711878;6.51484032;0.39032364
2.653498025;-12.08316486;15.31866155;-17.12893384;2.265998214;-3.430238709;-14.45896484;-12.09491948;-6.49941258;-11.76241612;13.40083956;16.81706758;-1.311940021;-43.08503649;-15.54230988;-4.796478845;21.7110051;6.51805748;-0.205675661
2.54530929;-8.270516716;16.71300705;-15.66728522;3.172153907;-1.758890978;-13.15674116;-12.08307446;-4.51074288;-10.75747529;15.42503161;14.07151498;3.766261851;-36.24193097;-12.32505209;0.18044651;20.60100672;7.943715905;-0.576704965
1.682506372;-5.08914876;17.54246957;-10.30327223;3.458166747;-0.648305096;-11.07318552;-10.07710284;-2.185476246;-6.542476801;8.445205247;3.976152213;0.930717882;-18.30181706;-8.646716943;2.762831805;15.87773759;10.97679807;-0.771225443
-0.923225518;-6.072102949;16.9905783;-2.040244288;2.981248484;-0.855210489;-8.340957167;-6.530498146;-0.256819173;-1.389142403;-3.794609719;-6.995076776;-5.22573156;-1.681485845;-5.675759636;1.715837151;12.37361229;14.23669504;-1.153776583
-5.012058188;-9.554456608;15.46111236;6.469372425;2.809351587;-2.108360146;-4.866411084;-2.633077563;1.365445786;2.224977498;-13.68147111;-11.53322469;-10.74986888;5.271293505;-4.383040384;-2.094548308;14.90383509;15.7527711;-1.911076743
-9.334757188;-11.41366814;14.15430676;11.85185064;4.166645841;-3.290058594;-0.624384831;0.618725232;3.324510336;3.390615226;-15.68116183;-7.380493978;-14.13065079;3.426896949;-4.795124086;-6.16523048;22.93637997;14.70689593;-2.730257877
-12.64161058;-9.918691668;13.94073193;11.38409373;7.039566367;-3.316374044;3.866967862;2.872457292;5.859442441;2.958079427;-10.4820792;0.526787292;-15.99054051;0.221844924;-5.813283289;-7.945377399;28.8649902;12.58877831;-3.036415874
-14.46725414;-7.856354128;14.59790948;4.450875887;9.780793113;-1.953256879;7.449130859;4.164177834;8.147313465;2.228002849;-3.924881238;3.697507716;-17.56010672;2.180538494;-5.930109535;-6.475549879;22.42438178;12.55919051;-2.59940905
-15.07148191;-9.763365889;15.09900189;-6.549540462;10.21042137;0.110837279;8.896157337;4.451575068;8.730039063;1.550335427;-1.822536083;-3.141530684;-19.43351639;9.274947859;-4.378339216;-2.916931686;-1.25938215;17.03616505;-1.897587964
-14.75888768;-16.81258315;14.64;-16.65020641;7.362102694;1.936827768;7.813089046;3.55133402;6.798451256;0.183160548;-5.249429435;-17.493985;-21.48459276;15.70542126;-1.812150086;0.385552655;-36.13600797;25.06977742;-1.797465502
-13.38231712;-24.34210625;13.41274691;-20.45404106;2.37975062;3.104605259;5.098314538;1.55045966;3.204204823;-2.554109313;-10.28608745;-30.49934139;-23.63822096;15.89186167;0.045932061;1.583581902;-67.22104737;31.70744164;-2.75035539
-10.58842459;-24.8480782;12.40060497;-15.19296249;-2.256543276;3.898886458;2.459049531;-0.847634296;0.160053101;-6.097368383;-12.14413683;-33.31851848;-26.4567426;10.03589856;-0.449087977;0.513437748;-79.6014318;30.4776843;-4.22611867
-6.553336231;-14.31055793;12.41588728;-2.891867722;-4.578183695;4.813886611;1.241977947;-2.596088481;-0.328474969;-8.73721167;-9.724787776;-23.55641481;-30.78762743;4.239386047;-3.757442357;-1.409932706;-68.28961071;17.82255856;-4.981071063
-2.391789491;3.595641366;13.31395072;10.11798839;-4.53109017;5.9214489;1.478242733;-3.120735592;1.9007759;-9.065753885;-6.424337236;-6.804674343;-36.71753597;5.087113681;-8.827979455;-2.391894969;-41.63163468;-3.546131563;-4.046964707
0.326148881;19.43368872;14.1378554;16.5753306;-3.799644922;6.748064189;1.946339015;-2.950460994;4.848771271;-7.465830488;-6.544881122;7.664414727;-42.87120354;13.45549966;-13.67486191;-1.58351456;-15.57382211;-25.1502987;-1.644015552
0.669554235;24.97947359;14.05245698;12.70047108;-4.262682565;6.784380787;1.249056779;-3.449234384;5.729998453;-6.154717171;-10.75149022;13.45527587;-46.93228713;22.96487187;-16.3895694;0.402627336;-2.953807646;-37.36198052;0.802997245
-0.869482797;19.66115411;13.17037561;0.722943679;-6.422038152;6.111956785;-0.955919729;-5.69592301;3.028289501;-7.524965591;-14.92802474;10.78854606;-47.22324173;24.53378038;-15.986802;2.011693273;-5.68700724;-35.27387654;1.657668747
-2.632723448;11.0150702;12.46982231;-12.38331531;-9.095414804;5.490415483;-3.592986834;-9.395797133;-2.361457357;-12.08574351;-13.68840015;4.993519588;-44.14054274;13.39877952;-12.76260518;1.771270238;-15.31816216;-21.72220938;0.326866682
-2.947675008;8.513680858;12.86350615;-19.29448029;-10.52854787;5.748455911;-4.99193344;-12.81898574;-7.777061549;-17.77770226;-5.490859972;1.6520353;-40.15740319;-6.993833068;-8.166190832;-0.927324493;-20.85808121;-5.196771603;-2.234970047
-1.258551729;15.64511686;14.28957399;-16.91709279;-9.884326173;6.99994643;-4.228917398;-13.96162267;-10.6640378;-21.34292965;5.310882911;2.643782584;-38.16924065;-27.17243256;-4.290137332;-5.666058343;-17.38982646;5.914970708;-4.204021547
1.64727019;26.71345344;15.69383944;-8.006135114;-7.837570386;8.418688596;-1.88123595;-12.06849396;-10.19190664;-20.70124679;11.5535483;5.972455107;-39.35341354;-37.99871191;-3.055587127;-11.30169745;-8.850078125;8.561722839;-4.225118307
4.407193698;31.08652432;15.95145356;1.200043945;-5.874618846;8.832957986;0.418831681;-8.27682523;-7.429572538;-16.42023591;9.023265922;8.691966193;-42.25366859;-36.27734847;-5.266612932;-16.3718177;-3.473001308;6.011803642;-2.356954753
6.112524701;21.60076222;14.89592164;5.463121638;-5.033522066;7.661440884;1.249942566;-4.81505729;-4.134916008;-11.12384828;-0.030382183;9.769803384;-43.92886142;-25.74235657;-9.9710836;-19.44240838;-6.290407816;4.220009766;0.093594083
6.745632747;0.481741146;13.50413325;3.836876079;-5.215296236;5.383572771;0.44864735;-3.372406649;-1.305802925;-7.403165049;-8.701510039;10.35543529;-42.34967329;-13.43210891;-14.68516335;-19.49989096;-15.03501888;6.778831283;1.658116766
6.811419119;-21.84578103;13.04675931;-0.465164587;-5.567902879;3.133013627;-0.878636953;-3.937837183;1.306036716;-5.988635842;-11.07437935;11.75621154;-38.1394611;-4.811683566;-16.67078359;-16.46171636;-22.48526659;12.52337001;1.806311824
6.699913021;-34.03585362;13.96003906;-3.164191579;-5.44;1.77599399;-1.310772246;-5.004382081;4.463824443;-5.615848796;-6.932072125;13.62379166;-34.19830394;-1.263593785;-14.67997786;-11.56210602;-22.77713816;17.37795529;1.202033953
6.46354399;-31.51032602;15.45917592;-2.338748247;-4.954726832;1.288432563;-0.191698126;-4.897396903;8.311936532;-4.508972983;-1.58646883;14.37217912;-33.43662706;-1.019081449;-9.992586037;-7.147261283;-16.14890591;18.38642889;0.995676523
6.140875166;-18.86912521;16.2495263;0.457049965;-4.720504016;0.964241509;2.030683617;-3.090677105;11.92713548;-2.063025557;-1.101078725;13.30580336;-36.41393669;-1.756341908;-5.815256902;-5.65597718;-8.310313726;16.20580202;1.808830018
6.110078125;-5.712952601;15.70144105;1.978080253;-5.068986038;0.225643884;4.374789252;-0.467315456;13.94993087;0.730666727;-7.083049998;11.9556151;-40.80434906;-2.315283403;-5.212278107;-8.200577513;-5.362596079;14.02542716;3.247527485
6.901674903;0.390246012;14.43494375;0.244376885;-5.637277454;-0.74174049;6.199592369;1.565185041;13.70522084;2.351547034;-15.45947402;12.76947437;-43.14381377;-2.510827482;-8.933123977;-13.67761885;-8.80058933;14.27457423;4.270874545
8.5211354;-1.645445362;13.78966482;-3.825836656;-5.715507928;-1.138276639;7.595627542;2.24342382;11.81557562;2.211954213;-20.11174907;16.05865789;-41.45062851;-2.073673123;-14.76976865;-19.18996244;-14.70206655;16.45171208;4.026665234
9.994707927;-7.359397682;14.65177111;-7.313834765;-4.985068598;-0.359122105;9.024463284;1.898465837;9.791378555;1.15086944;-18.07787028;18.2780487;-36.60918766;-0.339663458;-19.0448297;-21.71801828;-17.41773844;18.14624031;2.45170807
9.818689154;-11.40567451;16.67690613;-7.79134118;-3.872338985;1.292570645;10.64650164;1.417527394;8.968654499;0.56998565;-11.84674348;13.99065285;-31.46035963;2.891799643;-19.20579978;-20.0247857;-14.3347111;18.05478021;0.228826291
7.183780691;-11.72003906;18.58555359;-5.255704618;-3.126668565;2.685872119;12.02906889;1.340265697;9.669185686;1.095176855;-6.964289809;0.581398079;-28.4548202;6.47231505;-15.57971538;-15.48654993;-7.702071304;17.68363904;-1.732861774
2.980757675;-10.09559432;19.25272172;-1.979910693;-3.017591049;2.727326847;12.52441263;1.464462923;11.18926882;2.051234611;-7.259971445;-18.16543194;-27.8690202;8.371552363;-10.94413809;-11.21715401;-2.299492113;19.62688504;-2.795692691
-0.445200198;-9.480712707;18.62580902;-0.546595172;-2.95853511;1.27937386;11.95234166;1.268625284;12.49158794;2.24011387;-11.89328845;-33.23016198;-27.99795602;7.502305342;-8.281170761;-10.04593403;-1.279569928;23.83130224;-2.72326335
-0.855834946;-10.93156232;17.68458365;-1.76630378;-1.98548407;-0.682619097;10.92634356;0.650451382;12.94820037;1.278895304;-16.58965402;-36.18811995;-26.96848612;5.288870682;-8.528417877;-12.72822038;-3.795907723;25.74333987;-1.514759391
2.136845197;-12.93054759;17.5212466;-4.13217275;0.302744502;-1.842282033;10.48548046;0.197768279;12.57313061;0.221693247;-17.66974227;-25.50650262;-24.43165075;5.184365964;-10.1158396;-17.58693381;-6.183504815;19.02861417;0.729429507
6.612284383;-13.30306479;18.38268158;-5.115668755;3.21471392;-1.600043945;11.32613517;0.6954307;11.71779715;0.832837253;-15.16102781;-8.179096718;-21.60497282;9.977813102;-10.57712365;-21.74391656;-5.325507841;1.367111942;3.715573004
9.69411604;-11.62489258;19.51206878;-3.158232428;5.3808853;-0.517515023;13.28831477;2.340397862;10.64961688;4.098520955;-12.35534212;5.047944675;-19.72648108;18.8288223;-8.793530811;-22.99331823;-1.166094357;-21.62805674;6.783224496
9.74114398;-9.805746426;19.88772154;1.193658322;5.788044853;0.222868542;15.52444823;4.445962204;9.42079045;9.258809523;-12.49818477;7.47997789;-18.49333421;26.62281763;-5.927662375;-21.01168347;3.631298457;-38.57;8.969300554
7.626596766;-10.39265572;19.16490053;5.742734283;4.529685905;-0.135806933;17.18406235;5.969059691;8.058462297;14.20444276;-15.79549769;1.281518945;-16.09853345;26.7015825;-4.263696271;-17.19759273;6.276201778;-39.88153237;9.438241548
6.026569939;-14.22263708;17.98109063;8.168213247;2.617738142;-1.279121486;18.0218028;6.412936156;6.781905618;16.92305151;-19.42400489;-4.574163616;-10.9863087;15.40625812;-5.002872432;-13.46427908;6.265820978;-25.15549811;8.0280767
7.252681465;-19.53089321;17.38479333;7.440201042;1.057291756;-2.121976072;18.44087633;6.278377968;5.976693458;16.82319773;-20.3447986;-1.709904114;-3.765778314;-4.742499766;-6.994590714;-10.9741254;5.598573786;-4.072398521;5.468743038
11.37496922;-23.2317573;17.92868299;4.236280061;0.053840059;-1.777755238;18.99621323;6.623092038;5.948019338;14.92730269;-18.17249968;10.66616595;2.587383152;-25.67056216;-7.599458774;-9.668244829;6.819166946;10.49053805;3.0318475
16.15103352;-23.20812902;19.23377767;0.322749396;-0.924526584;-0.352932426;19.83178281;8.092963259;6.702262051;12.90413241;-15.43715668;24.66726805;4.693743487;-38.03968898;-5.033296757;-8.726819804;10.74003906;12.01856518;1.812509532
18.78647811;-19.71786475;20.37509565;-2.487589244;-2.335470668;1.103640587;20.53444625;10.27660035;7.945896682;11.82250828;-15.09919289;29.40044198;1.412771918;-36.52298033;-0.204463576;-7.420455499;15.77221965;4.875980936;2.140407788
18.05776329;-14.93408707;20.70164707;-3.143202378;-3.837339522;1.430787751;20.48795878;11.96162238;9.247897815;11.59842141;-17.73123846;19.05444667;-5.046902066;-22.72623308;3.61181923;-5.668859831;19.2839802;-0.040274191;3.511457935
15.08653773;-11.22639111;20.34942176;-1.65305909;-4.421806028;0.249657897;19.38844607;12.08567176;10.17482211;11.39943537;-21.01559287;-2.665417099;-10.5738837;-4.013251426;3.165972328;-4.005338395;19.71732808;5.037241638;5.023297613
12.23710203;-9.662935988;20.02462854;1.03420518;-3.356863189;-1.804843729;17.49746141;10.58184024;10.32193571;10.46586673;-21.97723189;-24.84740019;-12.05721706;10.8593454;-2.130409635;-3.143343369;17.71257898;17.94414623;5.942764079
11.1735788;-9.768580128;20.30459631;3.401242041;-1.078302665;-3.646488706;15.48386157;8.432927164;9.369648436;8.60477714;-19.80672504;-36.40451014;-9.419981448;16.50842282;-9.422277291;-3.544629441;15.45108005;28.55190062;6.015515665
11.72568257;-10.39655571;21.11246373;3.904024617;0.865614741;-4.563907106;14.04796877;6.941885626;7.309858624;6.084715665;-16.61066717;-32.60907184;-5.204188691;13.30101492;-14.16920174;-5.22577527;14.87746991;27.92957316;5.412966221
12.40171962;-10.75003906;21.82367136;1.614489163;0.895529169;-4.620857069;13.62647149;6.863132552;4.739679989;3.263900963;-15.4010085;-16.88057699;-2.205431701;6.223679747;-13.18305172;-7.767859357;16.23443588;16.73967664;4.507111543
11.92583829;-10.7168081;21.86974754;-3.252072551;-1.354940528;-4.375540065;14.30835201;8.074310065;2.869905639;0.434012322;-17.22777244;2.498950936;-1.254957807;1.27683279;-6.743227398;-10.39869765;17.97341141;5.267860674;3.710230703
10.35944247;-10.44575758;21.26722309;-9.250039063;-4.700641199;-4.266181495;15.87633422;9.925608473;2.984672978;-2.0171369;-20.15376522;17.5494886;-0.989157756;1.75106776;1.659229818;-12.13359986;18.04118467;4.571024649;3.426270489
8.863233618;-9.734772129;20.59643553;-14.23702926;-7.294612852;-4.244783681;17.85216089;11.82103429;5.554168637;-3.464551577;-21.04133282;23.93628822;0.397594982;6.589775365;7.62146095;-12.0757506;15.60452284;16.12429532;3.979329967
8.449449615;-7.838317015;20.47040909;-16.33488915;-8.018820981;-3.941953796;19.56172187;13.48781686;9.656145445;-3.279219976;-18.49097363;21.13454257;3.180486438;11.64350742;8.457551728;-9.886224998;12.00921871;29.16441324;5.424231968
8.968224615;-3.876724788;20.98789479;-14.81133007;-7.223618451;-3.132517382;20.33615579;14.80641271;13.31360326;-1.350004883;-14.18675335;10.82363569;5.78118818;12.84019221;4.425972552;-6.1819167;10.21803262;28.77236375;7.360116859
9.284844535;2.413159973;21.65842033;-10.39490157;-6.239980154;-2.024649891;19.86066922;15.54673204;14.70621351;1.605996059;-11.37087635;-4.267987087;6.354555966;9.145574983;-1.979435649;-2.481580966;12.84581275;8.568107702;9.002432764
8.449146208;10.02563836;21.85007813;-4.890319851;-6.150456956;-1.110949808;18.45609067;15.41003906;13.44;4.360243215;-11.83292728;-20.28868333;4.721512405;3.339621092;-7.849829373;-0.525277496;19.81716909;-22.51473505;9.620668515
6.721615188;16.53740958;21.34888767;-0.363902802;-6.91142398;-0.755809932;16.99454013;14.38164786;10.85906345;5.969948112;-14.19637453;-32.10752135;2.736660741;0.049446935;-11.44282004;-1.262683082;27.17977251;-45.54852904;9.103672402
5.456848646;18.74755888;20.53676249;1.670619759;-7.550665507;-0.925107635;16.37659873;12.98794537;9.036785485;6.399280263;-15.11857579;-34.61391081;2.643203424;2.344516511;-12.67847232;-4.169353876;28.29727648;-45.41985923;8.193389597
5.908136551;14.13906908;20.04551235;0.760674795;-7.179021489;-1.291656957;16.88846625;12.07572269;9.140622726;6.382035242;-12.35100515;-25.48801201;4.900453995;9.301931353;-12.62411026;-7.448180168;17.38782986;-22.36455226;8.091747957
8.019776951;2.695686281;20.20142169;-2.376990391;-5.849515146;-1.56899875;17.9518625;12.19532976;10.44601289;6.597361428;-6.878901549;-7.54870633;7.56215212;16.42497685;-12.60882764;-9.097661071;-6.32189065;8.018131532;9.621770504
10.30315053;-11.9719183;20.74262177;-6.140134582;-4.489676698;-1.71860249;18.53637147;13.1208281;10.83987715;6.886461056;-2.164111271;11.57111362;7.928067957;18.83049193;-13.53849781;-8.180477345;-36.5606392;26.4197943;12.53138693
10.93445761;-23.35279766;21.04215507;-8.689360699;-4.013617363;-1.834017878;17.97003906;13.99778481;8.486785209;6.266412528;-1.131403799;22.94495978;5.076062123;15.00588368;-15.58327791;-5.417804221;-62.08657795;24.00201194;15.49694741
9.142801672;-24.94558284;20.63628712;-8.826891992;-4.467000651;-1.85631863;16.5088749;14.06245192;3.372940423;3.817338355;-3.592146461;21.14151164;0.951162142;8.275976465;-18.14967351;-2.670048828;-72.39520918;8.052825155;16.89236821
5.731183172;-14.12787671;19.61092604;-6.727501697;-4.997287105;-1.460092773;15.17036821;13.31973681;-2.497058943;-0.287936215;-6.422575889;7.222933563;-1.128599933;4.602369155;-20.07998412;-1.647642642;-63.86373942;-4.961876021;15.81231557
2.361619195;5.437283809;18.53125146;-3.98723841;-4.657193223;-0.280692073;14.92761869;12.54929036;-6.41932142;-4.542191723;-6.343340378;-11.96864667;0.624461985;8.050378599;-20.11509056;-2.744440403;-42.24983154;-2.98400359;12.63795236
0.299642074;24.92476236;17.98164823;-2.702665027;-3.282976332;1.702821943;15.90948855;12.59300883;-6.800139036;-6.956751069;-2.813871946;-27.65824627;4.70527807;17.20344285;-17.54869945;-4.787896598;-19.48081599;12.34708552;8.77422277
-0.299769441;34.95894141;18.09443873;-3.961232378;-1.643187995;4.002923961;17.27827617;13.5487746;-4.078041965;-6.388653876;1.538501013;-33.60178152;7.37516648;25.38155364;-12.73927798;-5.832117503;-6.500510922;27.71;5.791609762
-0.072868196;31.10106646;18.4447087;-6.75555858;-0.74746242;5.875137493;17.90600779;14.62105262;-0.14083694;-3.298057653;3.314089196;-28.59696999;5.784692185;24.8572359;-7.055726981;-4.393199209;-6.859801024;29.15366252;4.593489414
0.426441904;16.55882714;18.39217528;-8.304020242;-0.976274929;6.801260882;17.29992761;14.8059265;3.167978142;0.652637636;1.393729434;-16.06616014;0.520547368;12.26756332;-2.145996332;-0.275676508;-15.39933735;12.98815854;5.123480386
1.232885508;0.052071256;17.60087751;-5.862910027;-1.826556579;6.79517688;16.01018273;13.8158612;5.209809375;3.803874061;-2.082225968;-1.587293138;-4.678595557;-8.616368879;1.040486812;5.483996468;-22.79112561;-11.87718768;6.663680892
2.649015006;-9.907305388;16.33045431;1.094929477;-2.460793988;6.27655857;15.18089017;12.39216373;6.546608393;5.535151491;-3.654684463;9.912616978;-5.898805531;-28.81014602;2.756053097;11.35933528;-22.47057843;-31.18320743;8.362642769
4.517899204;-10.41524187;15.26529323;9.997442088;-2.488237357;5.652347565;15.61672186;11.67839953;7.990822314;6.37492736;-1.633091624;15.97661349;-2.236902234;-39.45108892;4.061282255;16.12788542;-14.85159864;-35.67662928;9.584587422
5.943281605;-5.483493564;14.99798218;16.50773307;-2.213910618;5.008411686;17.12646241;12.18531896;9.682991711;7.249331605;2.442943566;17.02680963;3.511836041;-36.90514877;5.82185941;19.18750981;-5.975292933;-26.43126497;9.954122254
5.876658028;-2.446172053;15.55388595;17.37313039;-2.135117543;4.192497724;18.6532799;13.28667574;11.0099783;8.624626804;5.245519098;15.58044968;7.235346294;-24.33028669;7.914059883;20.35962399;-2.115466377;-11.93377968;9.273376027
4.105444249;-6.255304973;16.33226578;12.80007813;-2.216407106;3.177282562;19.04517569;13.74625277;11.32298867;10.27587477;4.666160397;14.7066547;6.876259638;-9.040291894;9.319063104;19.58165301;-4.866242625;-0.574883948;7.533555327
1.697347748;-15.93219653;16.54034126;6.51851629;-1.708714445;2.305362707;17.82861193;12.85540339;10.68286288;11.76206726;1.672197906;16.28210461;3.881110265;2.106805783;9.051901872;16.90564344;-10.51635856;4.839282571;5.034705534
0.368931203;-25.66381343;15.8145833;3.318772056;0.235102044;2.120196523;15.41949303;11.17997173;9.900227643;13.03830427;-0.632465252;19.82793704;1.550378444;6.09709019;7.149929433;12.82760439;-13.78705949;6.771473906;2.418725651
1.201546239;-29.42990234;14.54467067;5.752309311;3.676856481;2.893517418;12.72488593;10.21634036;9.857769622;14.57091191;0.142171269;22.73098229;1.885624376;4.137863776;4.864261539;8.544629497;-12.443448;8.544765182;0.447040922
3.755367695;-25.45712391;13.60489868;12.38302962;7.575792872;4.286797447;10.56537582;11.19627971;10.78862656;16.85180002;3.494887378;22.03506276;3.860947257;-0.368025213;3.842058323;5.681041241;-8.824550621;10.68443221;-0.400161457
6.34310041;-17.18315496;13.65252343;18.85780156;10.39710293;5.50695474;9.376937365;14.0341669;12.19138184;19.79826276;6.476687719;16.84930254;4.7138132;-4.226464537;4.918025827;5.433254787;-7.224530262;11.22924618;-0.20933799
7.25686013;-10.31666181;14.53695558;20.96500646;11.17607725;5.882010543;9.273414134;17.30400518;13.40861679;22.61848871;6.332700188;9.618045167;3.023041493;-5.651677992;7.452364569;7.642066948;-9.701937201;8.92017046;0.44646972
5.94750726;-8.577519302;15.34283411;17.4013694;10.14599125;5.381470687;10.18194957;19.25380237;14.23409247;24.26354065;2.958778871;4.956583167;0.58396345;-4.182947865;9.708508117;10.53324693;-14.13895614;5.445939626;0.915008609
3.230536094;-11.44816567;15.11439244;10.28942331;8.41655566;4.618425866;11.77483238;18.98777598;14.8963731;24.04134846;-1.021267564;6.483066038;1.079124295;-0.263998979;9.955094233;11.51879132;-16.2263758;4.200887538;0.884723645
0.450688566;-15.36587027;13.71552313;3.281290037;7.024622833;4.307895741;13.27540987;16.84603949;15.42096519;21.862506;-2.612720562;13.85342159;6.503312022;4.842712483;7.479167181;8.717463007;-13.49347432;6.780184249;0.493486427
-1.596664708;-16.97736173;12.07417919;-1.109092653;6.207391046;4.638098792;13.51071472;13.76322834;15.06594286;17.99880187;-1.137214347;22.45883258;14.59967916;9.119858544;2.873299699;2.259535584;-7.699616503;10.89973532;0.074068088
-3.069123673;-15.66894108;11.4943064;-2.89335022;5.496798791;5.102377485;11.45784316;10.30376543;12.56022916;12.73284407;1.122516335;26.44630487;20.00303561;10.57478439;-2.424888276;-5.542065866;-3.411879485;12.16435443;-0.208154438
-4.571375868;-13.53520476;12.51469524;-3.873756798;4.452786062;4.945894495;7.043188576;6.321984896;7.157836538;6.354587946;0.872126365;23.07503163;18.62943992;8.733071131;-6.870230992;-11.39105794;-4.020254204;8.330185045;-0.500843442
-6.332128451;-13.21729522;14.29068555;-5.686755503;3.277195448;3.844254;1.559392884;1.559145288;-0.314868475;-0.462746293;-3.364055195;15.06230872;11.74356941;5.674466735;-9.348349402;-12.90267124;-8.725055706;2.054283574;-1.089683763
-7.874403157;-15.64434426;15.16108881;-8.364050021;2.707979463;2.225699637;-2.802039271;-3.444727237;-7.408564257;-6.370237879;-9.964475212;8.821126099;5.899636028;5.211389435;-9.388302685;-10.00627202;-13.16085886;-0.787193678;-2.094133331
-8.445694708;-19.45677523;14.08023563;-10.49824303;3.315720875;0.957409558;-4.165149325;-7.11189553;-11.26447745;-9.642326187;-15.51390838;9.599692343;8.09374296;10.12025258;-7.201936085;-4.934843435;-13.10278901;3.830393187;-3.32349028
-7.725678116;-22.26353755;11.73030991;-10.6430463;4.910786901;0.666225691;-2.153484234;-7.687488304;-10.32699024;-9.071796725;-17.49139333;17.11061516;19.56632111;19.24112193;-3.651805258;-0.779015186;-8.004224598;13.91809311;-4.408580698
-6.095307783;-22.42950174;10.20637007;-8.604047638;6.656359926;1.270653684;1.809902988;-4.618524329;-5.330269882;-4.856477096;-16.05007813;25.12874693;33.30677878;26.9849284;-0.02968793;0.476726734;-1.310157281;22.04556228;-5.061441174
-4.230900251;-19.96113979;11.29032321;-5.544281196;7.782353231;2.101780347;5.335947595;0.687363318;1.1463901;1.25809203;-13.51651088;25.64505051;37.85142407;26.34389852;2.491415353;-0.830952092;2.638591454;20.57093461;-5.219643019
-2.483569183;-16.10437431;14.65588526;-2.972998336;8.191941683;2.474558187;6.463997485;5.453199015;6.190192741;6.800448461;-12.25678214;14.65789304;25.15164945;13.76742475;3.551382222;-2.362174818;2.320534809;7.481440176;-4.98144645
-0.71777934;-12.36156489;17.68670978;-1.627354182;8.347623086;2.199742604;4.663090782;7.150485564;8.037234364;9.837623784;-12.86159153;-4.675863756;-3.112823189;-7.565598742;3.912746149;-1.411915916;0.117966743;-11.80324227;-4.463165715
1.207598657;-9.8268082;17.44372187;-1.20193374;8.547859391;1.618089889;0.83922693;5.00298215;6.602993024;9.829071168;-14.11740604;-23.89424519;-35.59249278;-28.78254621;4.937627317;3.198302577;-0.075060981;-28.05169302;-3.770686456
2.844567675;-9.087661767;13.45;-0.992307926;8.361805102;1.187515568;-3.480664011;0.327498539;2.988546045;7.573885634;-14.52501379;-34.72290628;-57.96689822;-40.35081913;7.40663448;10.19738318;3.517800148;-34.34705278;-3.109967155
3.183423989;-10.28991521;8.927027782;-0.687032322;6.908240584;1.042976675;-7.06926845;-4.439165474;-1.364345232;4.468535684;-13.80142886;-34.19135578;-61.69624208;-37.79237407;10.55;16.50415336;8.954287581;-30.04915846;-2.850988932
1.477587538;-12.99377142;8.993338168;-0.524693644;3.859953491;0.933932197;-9.390465936;-7.233452763;-5.166902552;1.735196832;-13.00128306;-25.80370883;-48.77728592;-24.1506126;12.23596704;19.03342968;12.37775523;-19.99712299;-3.353350251
-1.797751379;-16.00763408;16.69133087;-0.769273578;0.257095664;0.562207538;-10.39219278;-7.337266125;-7.317075429;0.109248561;-13.31027161;-16.29141729;-29.45507413;-7.609637365;10.46224964;16.55748073;11.53913815;-10.25886579;-4.607129959
-4.820689203;-17.71221964;29.74259492;-1.180198856;-1.785746228;-0.037311143;-10.13003906;-5.345625482;-6.918839217;-0.071435868;-14.80524956;-10.72454778;-14.94268364;3.854755912;5.163303701;10.50187193;7.853948809;-4.121298557;-6.011567833
-5.494627024;-16.99356451;40.856102;-1.146665257;-0.496054388;-0.458156421;-8.662208393;-2.450719089;-3.676085349;1.214519623;-16.40468881;-9.664704391;-10.53080157;6.963406659;-1.153507518;4.218015851;5.175809749;-1.143051681;-6.60710768
-3.027536459;-14.14190925;41.98393666;-0.436230444;4.050048828;-0.273045551;-6.244046302;0.266641243;1.54064657;3.508398175;-16.99736074;-10.08659059;-13.67768503;3.916025822;-4.72294194;1.173254404;6.417269673;0.862298871;-5.726747752
1.246113971;-10.80821928;29.83923556;0.204154527;9.612786381;0.555427625;-3.468749743;2.118525119;6.633499136;5.701208184;-16.57071861;-8.733557746;-17.6496196;-0.417622145;-3.072858818;3.092966392;11.03161788;3.309121807;-3.613884725
4.588884891;-8.794637665;8.693288007;-0.6662888;13.08915156;1.594992973;-1.040655615;2.772773345;9.183744533;6.315332977;-16.18366673;-4.897185678;-17.28217628;-2.277756689;3.022154474;9.066866706;15.54280352;5.979287795;-1.461531813
4.713701281;-8.56538257;-11.83481637;-4.060227892;12.55452905;2.279893765;0.718187192;2.241687519;7.957361974;4.348305556;-16.7935571;-0.505244733;-12.40923537;-0.956529662;9.770709992;16.0615283;16.57421846;7.975548202;-0.713732725
1.404345288;-8.815180297;-22.70007813;-9.498601387;8.523087098;2.365367613;2.168622143;1.008529914;3.931014636;0.151033799;-18.109826;2.113600517;-6.888160914;1.951099167;12.81383259;20.51996431;13.65440719;8.956180246;-2.06426795
-3.338024035;-7.635813037;-20.9880795;-14.99507836;3.480529368;2.09816275;4.087945584;0.03434576;-0.106196919;-4.46923722;-18.66942546;2.527377116;-4.739992218;4.61156747;10.22426912;20.18792712;9.37618974;9.279809171;-4.895758715
-6.73962967;-4.365684686;-11.23327569;-18.27338309;0.086173538;1.964540516;6.953547164;0.348198535;-1.314297202;-7.264290805;-17.16771431;2.503283152;-6.852960857;6.305382598;3.879572961;15.23376476;6.915029019;9.210283334;-7.627377561
-7.185018596;-0.425192911;-1.725693054;-18.35925698;-0.554670478;2.257627263;10.34688298;2.320862201;1.241127208;-7.09969229;-13.82891768;4.19696016;-10.71211979;7.235659576;-1.824040719;8.118569954;7.246178232;8.429219352;-8.762534927
-5.192810055;1.813161578;1.329986855;-16.30745824;0.705903154;2.852177474;13.02395745;5.171791601;5.876466801;-4.880039063;-10.46862033;7.998642702;-12.87519217;7.620797678;-3.00318525;2.309201824;8.559951355;6.619198442;-7.882884759
-2.790225804;1.310642324;-2.460698859;-14.45280366;2.104186479;3.363943979;13.68028072;7.257809637;9.401021083;-3.01301353;-9.0598654;12.02793206;-11.79821668;7.403178547;1.110645519;0.499698797;8.283988061;4.441173115;-5.868544244
-1.889580348;-0.235003468;-8.49543733;-14.70889485;2.452862903;3.513774012;11.86138563;7.128613042;9.281062265;-3.673695475;-10.01867379;13.73090797;-8.705843114;6.900383606;7.800454122;3.248293944;5.726473518;3.525797446;-4.215834795
-2.963327541;0.612833813;-11.41361208;-17.16231416;1.855405863;3.349283056;8.334208838;4.648596522;5.308642688;-7.121764618;-11.76343712;12.15246864;-6.119321738;7.384146581;12.85356043;8.728673008;2.831199424;5.049503138;-3.996806843
-4.95111447;6.111659795;-9.221459175;-19.96869954;1.233332987;3.142124947;4.655179591;1.297827361;-0.372430332;-11.37114398;-12.01679812;8.874882732;-5.603705114;10.3914669;13.37998339;13.72492464;2.327593263;8.169941015;-5.226320088
-6.293798024;14.79799332;-4.244351673;-20.5874585;1.291626986;3.099816493;2.281111232;-0.68844092;-4.7921155;-13.51956688;-9.757533021;6.790397459;-6.689937744;15.87194703;9.500596394;15.34708895;5.004517065;10.17720636;-7.025321717
-6.159407725;21.61116386;-0.628130271;-17.47083485;1.913476842;3.192489862;1.858470676;0.200744748;-6.04976427;-11.77950978;-6.106874127;7.75106524;-7.660058594;20.82447749;3.946013778;12.55331916;8.693993753;8.78357503;-8.337672971
-4.927896191;20.98713409;-0.812425283;-11.10246009;2.428715259;3.250453918;3.095153826;3.703753759;-4.268020382;-6.718011919;-3.341640389;11.09250352;-7.230489706;20.22326345;0.137790162;6.664100797;10.02715077;4.705997486;-8.595577811
-3.718989873;10.82126677;-3.8869834;-3.806907214;2.333872145;3.197231866;5.128729313;7.928731677;-1.122841768;-0.827147118;-2.881995088;14.26978558;-5.560937424;10.31750548;0.206234661;0.607014944;7.484743074;1.874829767;-7.889295589
-3.506108378;-5.633475206;-6.850468766;1.459726062;1.685144723;3.145662827;7.004872341;10.5815993;1.481636341;3.197514859;-4.030670506;15.04880846;-3.828848526;-7.87076057;4.117431779;-2.66909637;3.00199848;4.384014763;-6.67469427
-4.551277505;-21.39674639;-7.309044696;2.619372268;0.825625754;3.242146158;7.978509474;10.41360736;2.565049546;4.188259803;-4.597510692;13.39327739;-2.963906687;-27.78413071;10.0849937;-1.7287642;0.569563601;12.36316616;-5.400682679
-6.473008709;-29.78205354;-5.18796297;-0.46888645;-0.149505089;3.433157214;7.651054232;7.926993778;2.383403797;3.068818051;-2.878475143;11.45731453;-2.80072033;-40.54120625;15.6285939;2.681269188;2.894325292;20.48522803;-4.381672238
-8.689117586;-28.01733572;-2.219208291;-5.860997984;-1.509996881;3.442227212;6.096712687;4.956603219;1.971559453;2.012451048;0.758763527;11.68971616;-2.381530328;-40.33706542;18.55396519;8.126427982;8.949508638;21.08377495;-3.899809993
-10.76464635;-18.20070434;-0.0571733;-10.37007813;-3.385114485;3.045128553;3.972210927;3.504311723;2.445795021;2.938272374;4.111922778;14.64289091;-1.018279375;-28.29932536;17.57729154;11.79903133;14.58129987;9.992110043;-4.267123779
-12.44096396;-5.442417672;1.049625595;-11.09567039;-5.175537119;2.398846399;2.380273719;4.592789328;4.511839879;6.393698237;5.041294546;18.35187863;0.940159322;-11.90199701;12.7;11.91903083;15.77960461;-9.482932901;-5.657587531
-13.49898254;5.065592595;1.889457086;-6.981566088;-5.651227893;2.057696364;2.312924066;7.749692666;8.253556089;11.40620989;3.388320254;19.88531547;2.344694922;-0.183387523;5.390226351;8.525582932;11.94;-27.9982973;-7.82910224
-13.73154086;10.06729193;2.842508367;0.440598256;-3.907377361;2.560869362;3.892511641;11.27957453;13.06561017;16.15713733;1.215640384;17.88594076;2.236388224;1.90851691;-1.659886402;3.343004212;6.393138505;-36.34971844;-10.05562155
-13.09445333;8.637883077;3.008865456;7.718502007;-0.439205274;3.898716843;6.000104669;13.09402108;17.70169873;18.91702094;1.093069648;14.0355066;0.674577622;-3.894885386;-5.462559444;-1.132491511;3.717120289;-31.75644931;-11.44982958
-11.84094319;1.659017779;0.916377435;11.39344034;2.737102854;5.35694871;6.781539466;11.71429589;20.59509964;18.76219977;3.843214058;12.1098168;-1.311871631;-11.26786323;-4.168477286;-2.861550018;6.01461473;-19.36743648;-11.4916435
-10.42334781;-8.63857691;-3.823300423;10.09465124;3.314441413;5.971213305;4.884356611;7.056407552;20.53527892;15.89592806;7.661194529;15.10328853;-2.543199434;-14.20875976;1.755112029;-1.257720175;11.21;-7.90666359;-10.34314707
-9.192198052;-18.90993443;-9.578368618;5.399408764;0.48386655;5.290547072;0.582914669;0.648805271;17.42912216;11.57909437;9.400683324;22.44877124;-2.512009379;-11.04120562;9.479843366;2.482252584;14.79124404;-3.106344038;-8.676819729
-8.167045476;-25.3671241;-13.56879921;0.721069464;-4.166203396;3.818098604;-4.151892573;-4.938978232;12.59269708;7.674916909;7.02099562;29.48024688;-1.528151435;-4.754214798;15.1644154;5.894534687;13.61750537;-4.226122416;-7.160812613
-7.12196336;-25.31104813;-13.9587687;-1.117885102;-7.541389516;2.703635391;-6.868003723;-7.348500962;8.189779454;5.84413403;1.226574167;29.85075142;-0.187751569;0.083600782;15.98814689;6.450557301;8.709978622;-6.139923931;-6.049618946
-5.930708563;-18.83065937;-11.37216848;0.122329297;-7.220355578;2.873713366;-6.332253995;-5.787276862;6.037543276;6.653083291;-5.008876303;19.58968386;1.221713958;1.067811517;11.61231369;2.935788658;4.688988109;-4.668151545;-5.224112535
-4.842546766;-9.206945107;-8.444387565;2.109780353;-3.300019531;4.28888025;-3.428218032;-1.633535967;6.560606011;9.118743719;-8.62902736;0.23848664;2.798034727;-0.580234165;4.162513439;-3.702758762;6.121006197;-0.229800549;-4.593762633
-4.393143793;-1.18038637;-7.722384963;2.026810912;1.568507167;5.956458141;-0.505355033;2.276486698;8.662057492;11.15351724;-8.645861113;-21.10064179;4.595892696;-1.654485424;-3.16122169;-10.60712048;13.46893798;3.298313948;-4.417377769
-4.985007371;2.039560817;-9.686602655;-0.906775788;4.06309832;6.718562272;0.366274788;3.412314808;10.62068865;10.83591876;-6.607146467;-35.1414802;6.253435686;0.01728315;-7.845624439;-14.39605625;21.75915031;3.109304409;-5.167123484
-6.49360364;0.834908933;-12.56506285;-4.601384789;2.593350379;6.179897902;-1.111126383;1.254147843;11.32474534;7.746365577;-5.130352046;-35.42191831;7.177703453;3.817445107;-9.091244384;-13.03889473;23.19709884;0.851244364;-7.011816162
-8.259098747;-1.418703148;-14.02685286;-5.804714424;-1.599129281;5.004429375;-3.387814914;-2.309031592;10.89045934;3.373842335;-5.769953938;-22.03959616;7.180563634;7.17643894;-7.690058594;-7.146590349;12.17162949;1.432746015;-9.412715331
-9.495671755;-1.262958648;-13.20238602;-3.072311998;-5.446462697;4.328185947;-4.431980122;-4.301848871;10.23420224;0.156093072;-7.913624482;-1.839879169;6.90063086;8.048320717;-5.193108134;0.176071675;-10.63323206;8.129201475;-11.2939327
-9.789616477;1.950043945;-11.24984068;1.493543073;-6.332281341;4.778290811;-3.391862497;-2.837653595;10.04325398;-0.260122101;-9.476865508;15.18407343;7.441674647;6.750147285;-3.134307397;4.956136571;-37.79732131;18.48239359;-11.75641672
-9.293610534;5.611241396;-10.05366962;3.414599429;-3.868369624;5.92421445;-1.195346545;1.455051624;10.07538764;1.733980393;-8.708632367;21.27332655;9.389579157;5.571785324;-2.713209433;4.553392587;-58.83971763;25.05625241;-10.77796441
-8.50648499;6.259290321;-10.34228481;-0.73267924;0.11991758;6.626390923;0.355055125;5.877902872;9.39669902;3.950629869;-5.611104831;14.96326528;12.07548985;6.565941772;-4.743832352;-0.889475639;-65.85885577;20.91323417;-9.278793387
-7.88267662;2.766611481;-11.00114095;-10.25182341;3.228728127;5.994605472;0.167934082;7.694892008;7.326155815;4.025425374;-1.892502776;1.472174408;13.90770758;9.519864302;-9.457894685;-8.639859022;-57.77277351;5.39673657;-8.435395163
-7.614728729;-2.5082757;-10.20905621;-20.17988353;4.33115227;4.162037957;-1.231877984;6.213083635;4.232308737;1.223030452;0.410391682;-10.73406322;13.71188251;11.96304262;-16.09045525;-15.06489593;-40.67062575;-14.71933417;-8.779138899
-7.705621038;-5.689343289;-7.312868112;-24.42452219;4.212208496;2.242922139;-2.207480798;3.302686123;1.462251091;-2.937978119;0.487184585;-15.0380956;12.01310411;11.32513154;-22.67610686;-17.72505559;-24.15262468;-29.86628182;-9.83621834
-8.142020222;-4.799299933;-3.658277803;-19.94767915;4.633904424;1.521631385;-1.422131127;1.959681019;0.443192498;-5.706335401;-0.72442066;-10.28251047;11.00961264;7.478424393;-26.5687095;-16.57206017;-15.92212156;-34.40649571;-10.62475823
-8.907017242;-1.584982494;-1.551506189;-8.861481316;6.744184305;2.535974246;1.09104332;4.051734209;1.704775814;-4.972075985;-1.400299338;-0.753369038;12.9478837;3.436027468;-25.68507233;-13.60558822;-17.86045131;-30.04580885;-10.58100165
-9.797022194;-0.020475126;-2.254790872;3.121501199;10.15812679;4.761584004;4.086533146;9.003524262;4.609839751;-0.596183007;-0.366370188;7.236174443;18.02728794;3.345114026;-19.7769076;-11.37024189;-25.79989021;-23.41059332;-10.0899939
-10.28568888;-2.671631785;-4.829647009;10.6417952;13.35737007;7.074611237;6.254081959;14.37541088;7.942513904;5.692581964;1.863832913;9.734586815;23.6282037;9.073993872;-10.80502407;-11.35334548;-32.86194674;-20.18644538;-10.11879247
-9.69828737;-8.088781988;-6.89665316;12.03834179;14.93410276;8.544745517;7.260541117;17.74992374;10.77372254;11.56985843;3.314099595;7.527217646;25.84459516;17.96738463;-2.012519412;-13.25703698;-34.03010755;-20.89828792;-11.23848868
-7.669287696;-11.64378909;-6.656819031;9.72092459;14.59556187;8.91496906;7.754435855;18.34787847;12.85130124;15.4684112;1.875399695;4.986089659;22.4777262;23.71102021;3.792291804;-15.42522922;-28.98332632;-21.64044875;-12.89552483
-4.527883035;-9.304023729;-4.387332592;7.654681508;13.17617626;8.47842473;8.412825943;17.14824263;14.26917823;17.05901838;-3.175576117;6.383919354;15.22688321;20.09802771;5.649534137;-15.96492295;-21.53593042;-18.57129161;-13.63332903
-1.233559965;-1.234402774;-2.109251173;8.231269101;11.79534065;7.60681778;9.023039011;15.62598951;14.86454201;16.78182525;-10.49099654;12.44535529;9.070473153;5.345802333;4.681931582;-13.80656736;-16.40176483;-11.81890102;-12.17740941
1.16596017;7.878659748;-1.774665696;10.98354585;10.95664507;6.428406365;8.557255685;14.3670546;14.02814901;15.1345164;-17.25843704;19.69866785;8.805767846;-15.98003906;3.112676119;-9.181315927;-15.77494498;-5.3189871;-8.539268249
2.158062287;12.21426293;-3.628399821;13.7909089;10.30673773;4.917172615;6.239776855;12.79842317;11.18486789;12.44758367;-20.73061028;23.11588025;15.0277116;-34.94483322;2.827478413;-3.447388296;-18.15561605;-3.036123624;-4.220752509
1.974540364;9.245061063;-6.184769114;15.0994239;9.126743471;3.206229572;2.60906519;10.16218478;6.521584258;9.21481032;-19.743066;20.07139225;22.64664265;-43.1070892;4.41354356;1.495745708;-20.03765691;-5.315349299;-1.294860587
1.234370991;1.635378692;-7.746109374;15.06717128;7.029165592;1.719163069;-0.517165291;6.696003574;1.248980461;6.400058594;-15.30802173;12.60824761;23.52666801;-37.30974949;7.117714227;3.930738244;-18.90619794;-8.792871451;-1.035113129
0.356517427;-4.900644709;-7.98451881;14.82563618;4.264718568;0.920171064;-1.321046677;3.810366775;-2.940356738;5.152796347;-9.948970258;6.18353806;11.88792146;-21.41309263;9.491843421;2.993260696;-15.11776608;-9.785324731;-3.123661994
-0.7324276;-6.017088111;-8.101506747;14.91126433;1.475124743;0.898353269;0.505327505;3.01158807;-4.850911975;6.011722479;-6.210321784;5.656991881;-11.12335408;-3.896408553;10.1714605;-0.883378012;-11.28614219;-7.743962804;-6.000193424
-2.363064122;-1.913336304;-9.457665739;14.61453937;-0.787643138;1.208914751;3.350019531;4.521581534;-4.440048828;8.306423854;-5.267712259;11.40694742;-37.06399084;7.13194928;8.40192093;-5.973550051;-9.877405348;-5.356867763;-8.018463508
-4.631466151;3.0986781;-12.0287042;12.93133416;-2.335887057;1.182744109;4.838894865;6.887254444;-2.660450752;10.42486819;-6.471311994;18.51357306;-54.66594309;8.37571099;4.27661978;-9.874759881;-11.12379613;-5.208945376;-8.492025637
-7.161091069;4.042472073;-14.22115141;10.07024618;-3.252718827;0.477223431;3.691916329;8.029140632;-0.682678061;10.88706041;-8.032014787;19.82649326;-56.42682026;2.55322173;-1.205937134;-10.59766942;-12.976128;-6.400630598;-7.886061963
-9.368801635;-1.109800429;-14.29702499;7.787986892;-3.624093501;-0.610982077;0.7605058;6.896352815;0.825769211;9.40396836;-8.313817547;10.92447989;-43.01047367;-4.151048313;-6.299999539;-7.611328893;-13.01249654;-4.790942545;-7.151817629
-10.96892574;-10.30132013;-12.10538515;7.913778317;-3.391909713;-1.368586742;-1.642142091;4.320589423;1.823477482;7.032898;-6.829894111;-6.482660629;-22.55798207;-6.465272222;-9.056398932;-2.190666707;-10.56366554;2.848167106;-6.859966975
-12.17968611;-19.1379617;-9.45975008;10.29685247;-2.433155811;-1.257960516;-1.603290883;2.318477603;2.472978884;5.275061692;-4.309618826;-25.16811567;-5.459452264;-3.254509505;-8.250929765;3.248400551;-7.205086747;14.45012972;-6.84329189
-13.36169341;-23.73183196;-8.702229225;12.25477148;-0.727682373;-0.383550096;0.840815975;2.411264227;2.712872984;4.866925761;-1.910716909;-36.70394919;1.82395499;2.416467901;-4.263626955;6.488837811;-5.254001531;22.50278536;-6.530667688
-14.39625411;-22.48329473;-10.67581559;10.46515884;1.569234992;0.560781999;3.717738616;4.362489114;2.296442606;5.282310856;-0.266822679;-36.58433476;-0.17300445;6.105647578;0.792754446;6.698795442;-5.668050519;19.1534135;-5.552088209
-14.45094113;-16.0728021;-13.93343124;4.004083943;4.174379425;0.81265827;4.65421964;6.362702336;1.236884545;5.336145208;0.879153959;-26.72046426;-5.657856901;5.461148472;4.095340356;4.717958575;-7.227429769;2.809758992;-4.03742139
-12.51161206;-6.560524189;-15.95261266;-4.102684981;6.714585358;0.087967731;2.669227748;6.458129683;0.132420399;4.31311146;2.233965084;-13.74468378;-8.408760984;1.807331036;3.876201455;2.329295847;-7.693612604;-19.36519995;-2.40098281
-8.367407082;3.219909199;-15.32818976;-8.526331805;8.663441215;-1.287501244;-1.192994133;4.006348707;-0.090093689;2.597556059;4.162028248;-4.48102387;-6.020124977;-1.15183431;0.793039298;1.103829012;-5.856674706;-35.67096678;-0.910338881
-3.22739388;9.85340959;-13.00694243;-5.593554166;9.273947754;-2.725159961;-4.803517806;5.88798E-05;1.081604236;1.251890454;6.267961804;-1.804113056;-0.710257731;-0.349703133;-2.208740782;1.629333213;-2.607302646;-37.90470483;0.494419423
0.677492588;10.02162331;-11.45133478;3.455901479;7.717279343;-3.857375376;-6.600760035;-3.878050735;3.137004094;0.950780448;7.721372326;-3.62576714;3.360690117;4.272532542;-1.728903843;3.526266011;-0.082589142;-26.97877632;1.961958485
1.377921661;2.237573824;-12.45610974;12.68270361;3.504669552;-4.738026478;-6.608738001;-6.555337783;4.67298819;1.260904896;8.022566929;-5.361909752;3.746622766;9.808288887;3.62087939;5.994664464;0.302202662;-11.67298972;3.350368368
-1.542888774;-11.27266475;-15.54798944;15.31182864;-3.026056292;-5.63535427;-6.122865269;-8.133229613;4.274257485;0.939479759;7.510573271;-3.752418651;1.403825216;12.71789316;11.80740656;8.299209192;-0.885962428;-1.608276804;4.143659684
-6.60710539;-24.47909277;-18.38689065;8.512117696;-10.55558902;-6.669719343;-6.508746282;-9.399385296;1.497177035;-0.99868196;7.137818645;0.863623983;-0.661277669;11.60327199;18.16457947;9.843373163;-1.705561753;-0.184947206;3.817390768
-11.31945219;-30.34733226;-18.81027604;-4.495930972;-17.20488702;-7.660588447;-8.202786674;-10.92980684;-2.825653873;-4.390048828;7.68513526;5.313038216;-0.323262641;8.297487312;18.08634408;10.01920868;-0.746369127;-3.084396878;2.355016226
-13.63330615;-25.25043316;-16.70968773;-16.62814836;-21.37457375;-8.310225666;-10.66129509;-12.6858856;-7.213859781;-7.995797374;9.094139507;6.488635882;1.769211508;6.458532197;9.991030745;8.288666011;1.452206286;-3.145427967;0.428469523
-12.98669175;-11.82506202;-14.0943223;-21.79465798;-22.50631767;-8.510904783;-13.08292842;-14.39851004;-10.60218021;-10.47263822;10.50291896;3.939282858;2.899795451;8.728822918;-3.360379564;4.663953366;2.83187253;2.899354484;-0.980728755
-10.29679056;2.327964677;-13.31884168;-18.83440047;-21.28818958;-8.44823977;-15.09718775;-16.18851655;-13.00189106;-11.39329798;10.96070785;0.139645338;0.870280523;14.54695115;-16.11219627;0.183534921;1.758535023;11.68713453;-1.259325764
-7.121582129;9.69796186;-15.06951263;-11.75832748;-19.19535498;-8.387454898;-16.79599464;-18.63474581;-15.27860218;-11.45355614;10.20559535;-1.613584707;-3.832372774;20.17644496;-22.43686686;-3.267383319;-1.289719023;16.65845495;-0.60587518
-4.735769529;8.128524707;-17.8762052;-6.410590781;-17.68691637;-8.355758502;-18.22540372;-22.09419643;-18.2901527;-11.74275928;8.840471927;0.144120601;-8.186619702;20.9191142;-19.68944535;-4.011796978;-3.895331298;14.37807775;0.112588621
-3.732656138;2.196292416;-19.52203593;-6.26523769;-17.54467739;-8.050735818;-18.99790911;-25.91311343;-22.10673455;-12.76559204;7.778211721;3.995319281;-9.019562734;14.01247351;-9.779942574;-1.907591155;-3.69309743;7.978835039;-0.029358175
-4.176552734;-0.583228094;-19.03582969;-10.4398542;-18.65674822;-7.094403933;-18.518113;-28.40574279;-25.89236769;-14.06478755;7.467727397;6.951193385;-5.654229828;0.36715716;1.931029208;1.134464655;-0.473215331;4.556486993;-1.413548771
-5.878149094;4.079437344;-17.48519351;-15.04258003;-20.22113701;-5.414363832;-16.63253111;-27.84040783;-28.4407478;-14.7005923;7.586699573;6.940555455;-0.62504957;-15.81941141;9.471122204;2.108999839;3.483497706;8.706640582;-3.708512313
-8.435811598;13.55226647;-16.92157697;-16.40491059;-21.14943066;-3.393054186;-14.01415939;-23.72377776;-28.86589072;-14.07192336;7.445921474;4.394662794;2.150785316;-29.17527143;9.212158179;-1.086854123;5.204154816;17.85813591;-6.178038691
-11.12327013;20.07887057;-18.49952923;-13.60557748;-20.48541804;-1.625006883;-11.7896269;-17.30585145;-26.94675731;-12.3237512;6.701319554;1.673476202;0.29949135;-35.68312785;1.434984188;-7.992653438;3.450676324;23.6283172;-8.156920347
-12.99655087;16.76325276;-21.48495922;-8.638935046;-17.77840979;-0.480516176;-10.6457398;-10.82522695;-23.03587852;-10.0560921;5.704006472;0.911015952;-5.278765159;-34.30820741;-10.1222185;-15.5732;-0.29619053;18.33623043;-9.336827981
-13.39828776;3.076208021;-23.9936186;-4.583450523;-13.37293969;0.142025322;-10.21615249;-6.075236964;-17.82586675;-7.740964028;5.172364463;2.168859647;-11.15604619;-27.08644864;-20.29782837;-20.03784615;-3.116923879;1.409029489;-9.752704921
-12.53702652;-14.42439097;-24.70692331;-3.474866448;-8.473895292;0.658578279;-9.378599933;-3.449278392;-12.26574343;-5.489461248;5.509560507;3.503339709;-13.89823932;-17.85740447;-25.00915788;-19.29454988;-3.058409058;-19.57582531;-9.626885347
-11.55058683;-26.67094816;-23.96830041;-5.377971492;-4.79835004;1.38504482;-7.297441028;-2.18952031;-7.589223905;-3.381888714;6.419780115;2.916115961;-12.3452603;-10.36857724;-23.04521897;-14.30775183;-0.588134316;-34.10273879;-9.267747199
-11.78432171;-28.33515737;-23.30761868;-8.884796959;-3.808332931;2.241760197;-4.334993007;-1.500257806;-5.153507863;-1.92923048;7.1899604;0.520428788;-7.997345773;-6.631012372;-16.4187245;-8.397376913;2.082085163;-36.04241243;-9.044993455
-13.7151021;-20.97931663;-23.92608379;-12.20217858;-5.872158432;2.833809674;-1.996042443;-1.451109101;-5.910767361;-2.039647893;7.36850455;-1.025744468;-3.487284938;-6.243705942;-9.226971109;-5.017591516;3.080312669;-27.40159847;-9.307745844
-16.39505793;-11.00825759;-25.6005835;-13.93673017;-9.921899385;2.813047743;-1.867499814;-2.845362987;-9.757868429;-4.344756347;7.185489709;1.572523026;-0.598942277;-6.992533732;-5.603414425;-5.629681427;2.446243273;-15.88979213;-10.16908518
-17.99613748;-4.484313847;-26.99782431;-13.37825845;-13.97670981;2.173931854;-4.385529166;-6.224427953;-15.30471699;-8.445066497;7.292368646;9.31092402;0.570803383;-6.427158779;-7.713476316;-9.119293635;1.824814099;-8.687319281;-11.29574565
-17.16569306;-3.094225191;-27.01253192;-10.6308483;-16.32561899;1.214135211;-8.436890294;-10.99888956;-20.41391541;-12.85213117;8.047306339;19.21034888;0.898304592;-3.532285608;-14.73078872;-12.98306291;2.678525781;-7.56097771;-11.96074449
-14.16986045;-4.17597759;-25.78723547;-6.792986416;-16.61680881;0.22238418;-12.11602282;-15.58349343;-23.28213248;-15.85830263;9.031540636;25.41960611;0.937874513;0.579173584;-23.30229422;-15.22230516;4.76236477;-8.914015427;-11.4567251
-10.87062048;-4.121362174;-24.43488839;-3.858671003;-16.05577527;-0.779472957;-14.00749039;-18.47364563;-23.34664109;-16.7098516;9.306871535;22.63465046;0.374070853;3.515380725;-29.30825599;-15.51591228;6.317902071;-8.051339371;-9.630788573
-9.46343509;-1.803272428;-23.79597997;-3.876563311;-16.4943676;-1.971715957;-13.96816339;-19.30901242;-21.36852794;-16.09375345;8.249162552;9.644836512;-1.338698943;3.515821207;-30.04774385;-14.98440964;5.808584901;-3.60905804;-7.107571112
-10.89745104;0.916375554;-23.53413292;-7.516852778;-19.00912901;-3.409788947;-12.86834646;-18.96160089;-18.66163066;-15.46851889;6.226415021;-9.3917686;-3.94321814;1.04817321;-25.69315821;-14.99981769;3.553666322;1.602592222;-4.949774737
-14.18011787;1.659137697;-22.54599131;-13.03352752;-22.99277981;-4.778188454;-11.66103577;-18.58079633;-16.10347492;-15.76413383;4.466944592;-26.88607885;-6.148693047;-1.244893662;-19.17837863;-16.10084832;1.678065167;3.696615309;-3.95794519
-17.08439575;0.35692244;-20.32782001;-16.73867623;-26.45085287;-5.521669994;-10.67003906;-18.49996514;-13.71068302;-16.56266203;4.147667397;-35.82836541;-6.5975447;-0.441440489;-14.51491163;-17.75363368;2.333763303;1.674399592;-4.146272215
-17.68635227;-0.350533069;-17.89774607;-15.13265618;-27.32228927;-5.298725908;-9.682070123;-18.04399117;-11.05202201;-16.48939847;5.432300105;-33.44530865;-5.190285355;4.234261552;-14.44341013;-18.87808976;5.761163772;-1.388427935;-4.822769202
-15.55682988;2.434808121;-17.18523233;-7.421011962;-24.88241327;-4.366863157;-8.61395877;-16.42587353;-8.042360751;-14.49191759;7.27713488;-22.3864322;-3.451236346;10.42138502;-18.78323174;-18.51325088;9.963620414;-0.998923891;-5.205988966
-11.78447137;8.82485653;-19.25617168;3.47041909;-20.22317838;-3.515417543;-7.976496933;-13.85941743;-5.343380942;-10.88296827;8.199656597;-8.914126142;-3.40551156;14.1274948;-24.51132626;-16.12875425;12.35510723;4.57643207;-5.047763014
-7.980718194;15.34042335;-22.99151428;12.38988702;-15.48885481;-3.531997484;-8.578356253;-11.74582953;-3.968648044;-7.204320311;7.400517705;0.653388664;-5.81904367;12.84485929;-27.60802655;-11.62628175;11.96911893;12.23920957;-4.724970976
-5.175773573;17.21545184;-25.62879331;15.13344123;-12.45098895;-4.606875581;-10.6944222;-11.61180331;-4.424732615;-5.001322607;5.335187531;3.124443697;-9.35735251;7.902046028;-25.60930543;-5.391901231;10.28173842;15.93681737;-4.742529485
-3.454677161;11.96493019;-24.96800531;11.11109856;-11.45138263;-6.167935027;-13.51766332;-13.67206663;-6.168536037;-4.578478851;3.297127329;-0.446944894;-11.52994993;3.960218467;-19.28876885;1.466735536;9.897786541;11.07990653;-5.136410091
-2.433479499;1.295166384;-21.43653725;3.591147452;-11.41610152;-7.300798557;-15.5409375;-16.35650273;-7.921258474;-4.85126732;2.391421072;-6.067434986;-10.73797021;5.629576243;-12.34184874;7.043942075;12.22418473;-1.931335348;-5.374185573
-1.944055662;-10.12701643;-18.11396912;-2.631961055;-10.83234882;-7.425721224;-15.69337698;-17.39096874;-8.647868277;-4.45180433;2.747788031;-9.527893014;-7.691862918;13.53856433;-9.154257088;9.198485005;16.15169918;-17.73347114;-4.894681044
-2.218038596;-17.91362478;-18.45584731;-4.415604932;-8.913085818;-6.690560313;-14.31460308;-15.65629753;-8.414420132;-3.116748962;3.568346317;-8.864843329;-4.903712149;22.93533294;-11.98182953;6.743994729;18.8972762;-29.45304154;-3.802586119
-3.445509015;-20.55679181;-23.46995272;-2.025591657;-6.124525537;-5.781303658;-13.07889077;-12.27126631;-8.39100453;-2.091323211;3.885248218;-5.185718303;-4.585824372;26.26273743;-19.33234418;0.530304334;18.29500529;-32.95206661;-3.020566105
-5.243183244;-19.53297922;-30.70677815;1.607819198;-3.791991245;-5.337512886;-13.80549695;-9.889803965;-9.940577026;-3.110981282;3.351915866;-1.519010312;-6.71564014;18.21609841;-26.65522057;-6.553718285;14.59514228;-28.88301272;-3.63924913
-6.67287285;-17.28635762;-36.00861031;3.30514569;-3.172016247;-5.471772176;-17.02994561;-10.66578061;-13.47128663;-6.771238021;2.451171971;-0.52609959;-8.970805892;-0.220389203;-28.9915536;-10.9880709;10.28445059;-21.4317748;-5.942122678
-6.912931893;-15.12077713;-36.66731504;1.78584855;-4.684217194;-5.772411007;-21.4615516;-14.49055719;-17.9328654;-11.68;2.055321269;-2.581523376;-8.670817185;-21.73519426;-23.94703978;-10.6738363;8.14129248;-15.0744743;-8.957229337
-6.017561836;-12.74836988;-33.42916466;-1.917878322;-7.772645935;-5.739649031;-24.78530333;-18.94819824;-21.35396691;-15.18291322;2.790278104;-5.494830932;-5.101452073;-36.84971948;-13.10554291;-6.216434846;9.189658759;-11.84525169;-11.01839888
-5.037235903;-9.488106427;-29.72227806;-5.735604706;-11.36003906;-5.248862518;-25.22299919;-21.06360122;-22.04602299;-15.16073174;4.706620362;-6.094807842;-0.197507327;-39.49752258;-1.007573461;-0.462867937;12.19641063;-10.84034666;-10.9732813
-5.289957492;-5.603909882;-28.7912906;-8.229684724;-14.47954396;-4.649124417;-22.6974119;-19.47254103;-19.63939658;-11.51247151;7.383629846;-2.625337098;3.066767932;-30.28502544;7.583047913;3.418208976;14.96293129;-9.823444849;-9.074801638
-7.318671386;-2.360624456;-31.14027971;-9.334690192;-16.65662459;-4.449839371;-18.78444261;-15.31964943;-15.28283576;-6.193005744;10.20761978;3.755209297;3.225243049;-15.44007813;10.30684361;3.919804103;16.16415601;-7.359958938;-6.791165818
-10.38129978;-0.821577248;-34.35701118;-9.850190828;-17.89459327;-4.899487389;-15.57662571;-11.24039072;-10.94228679;-1.835065431;12.53558423;9.580299324;1.571619828;-2.522076917;8.083245428;1.819274278;16.16421804;-3.845373188;-5.646623343
-12.91230967;-0.722969218;-35.33388323;-10.43513833;-18.4155272;-5.814655321;-14.34609826;-9.311001347;-8.300334134;-0.061759779;13.73699823;11.54537262;0.961400538;3.95859658;3.875976674;-0.892417557;16.2727556;-0.901502826;-6.032602015
-13.61193421;-0.661849732;-32.90363731;-11.07389801;-18.40985491;-6.758343065;-14.91921683;-9.597098737;-7.913863537;-0.719656969;13.33072332;9.144507177;3.174117459;4.21378793;0.449516077;-2.782787061;17.29845829;0.108127269;-6.983017157
-12.3234387;0.530026855;-28.66633126;-11.33011576;-17.93823283;-7.357394446;-16.0357279;-10.3391694;-9.026830136;-2.410568928;11.31429847;5.423646556;7.203405309;1.618364201;-1.221816259;-3.985425957;18.77154712;-0.817480956;-7.108034885
-10.05289177;2.600718349;-25.43710925;-10.91511507;-16.96378978;-7.472555362;-16.25086197;-9.454790788;-10.02958669;-3.664592245;8.437306204;4.982237289;10.12319881;-0.316410303;-1.92499496;-5.718134911;19.47023025;-2.374973834;-5.889153327
-8.180317149;4.123497902;-24.79696349;-9.921669364;-15.4213092;-7.131915252;-14.70283942;-6.072426366;-9.279364515;-3.750912682;6.014747133;10.37632399;9.90275893;-0.061109021;-2.933315365;-8.880200903;18.65151241;-2.997933585;-4.209221176
-7.514740351;4.002585469;-25.89888224;-8.57733323;-13.27457672;-6.388127525;-11.37937598;-0.975850894;-5.923275578;-2.662376971;5.182253276;19.48667204;7.667511121;1.849230082;-4.759408412;-13.03397765;16.79111185;-2.007331964;-3.630633543
-7.886460031;2.752458217;-26.45877599;-6.947096264;-10.58091845;-5.30732412;-6.979976137;4.138746976;-0.407934151;-0.638577536;6.055744108;26.04320204;7.164208953;4.095883527;-6.981691427;-16.65528385;15.16676343;-0.012292819;-5.016670147
-8.476804521;2.181308041;-24.9029616;-5.037912684;-7.579902173;-4.1061459;-2.652999996;7.766679926;5.557628809;2.081455962;7.526084034;23.40355578;11.53930081;5.742220795;-9.09533646;-18.37279438;14.72073156;1.673367665;-7.6874259
-8.514915917;3.635813562;-21.70060849;-3.219244245;-4.753677548;-3.234885368;0.281720893;9.165753404;9.665939632;5.012038353;8.028042032;9.263643615;20.05244748;6.450277924;-11.36387166;-18.05209046;15.28003906;2.095349796;-9.880058594
-7.780039063;6.471348106;-18.7585952;-2.379726826;-2.757795342;-3.204961226;0.728571028;8.207337026;10.10825919;7.100697305;6.804469283;-11.97776232;27.7779276;6.122537357;-14.66100972;-16.76361435;15.83978902;1.373350358;-10.17838534
-6.616885161;8.384431793;-17.55650542;-3.382536113;-2.173312363;-4.205483454;-1.623289202;5.0363163;6.601604325;6.969260723;4.646136481;-31.12040061;29.08507713;4.843151482;-19.29495618;-15.70954819;15.61299906;0.533015894;-8.72446258
-5.594193218;7.557797406;-17.79999104;-6.108480947;-3.169449445;-5.815473473;-5.83533716;0.105938186;0.732240126;3.830294585;3.388099783;-39.39281527;22.43306481;3.357434748;-23.9086487;-15.12638604;14.85193538;0.617701671;-7.167399131
-5.144589882;4.715215243;-17.81279584;-8.986042523;-5.284799627;-7.121195163;-9.813622818;-5.456673793;-4.713413253;-1.581146035;4.441370991;-33.69810165;12.49489876;3.344499615;-25.7180236;-14.18440597;14.6673817;1.816150453;-7.345376527
-5.407735015;2.965063905;-16.23916558;-9.711372785;-7.521425547;-7.245312211;-11.19447871;-9.772647648;-7.161193251;-6.974285165;7.521176641;-18.40022268;7.341872265;6.585335814;-22.32306766;-11.98067249;15.98655794;3.341020784;-9.769403057
-6.258655911;5.141342864;-13.42337912;-6.886057403;-8.777437564;-5.932419021;-8.667514446;-10.92804732;-5.605764435;-9.679820383;10.69007813;-2.428709189;12.26580733;13.16280094;-13.8943204;-8.709802289;18.56880602;4.180200308;-13.16935547
-7.391369986;10.73431955;-11.15989279;-1.357619124;-8.416361308;-3.741226175;-2.905100802;-8.228507854;-1.071793582;-8.34381846;11.80312125;6.381526299;24.80084936;20.13593733;-3.932435998;-5.91017723;20.96595458;4.079814047;-15.49757892
