Channel 1 - P4;Channel 2 - O2;Channel 3 - P8;Channel 4 - T8;Channel 5 - C4;Channel 6 - Cz;Channel 7 - Fz;Channel 8 - F4;Channel 9 - Fp2;Channel 10 - F8;Channel 11 - Fp1;Channel 12 - F7;Channel 13 - F3;Channel 14 - C3;Channel 15 - T7;Channel 16 - P7;Channel 17 - P3;Channel 18 - O1;Channel 19 - Pz
-28.83760471;-38.00590661;-43.66425812;-48.06051016;-51.56277406;19.70302227;128.5288793;-3.764048703;-51.72464841;-1.660281522;-37.59468339;39.17138019;72.32055476;-34.74072176;5.597562559;11.57772589;52.39064278;-58.92680824;-2.546069074
-13.41239714;-25.46273631;-29.21663738;-39.24835917;-34.31943652;16.11719262;79.51251288;-3.00177376;-43.25738893;-5.015620539;-35.08120972;23.96406093;46.48465113;-21.79988739;2.416517807;6.828358269;39.04464425;-35.80843051;0.247634279
2.586339166;-8.954519882;-9.187666523;-25.37647195;-9.092147746;6.961965616;14.21122074;-0.120140156;-17.13525904;-5.636466822;-16.95678792;3.716874995;7.221752841;-1.18857688;0.479418155;1.856994405;14.63106836;-2.973960756;1.672978554
12.27743306;3.908703729;6.701665591;-12.83450845;9.875718891;-2.210279655;-33.27749856;3.713059596;10.25091833;-3.085479086;4.204306679;-11.56420622;-22.37565493;14.82048924;-0.163585494;0.32665907;-5.940942064;21.742518;1.148356763
13.07300917;8.148601374;12.02727392;-5.529290369;13.84687654;-6.448480521;-44.090954;6.790762458;24.18475637;0.832915012;16.17088003;-16.02224952;-28.13502866;18.37889987;-0.334605082;2.398036877;-12.22302942;27.16335183;-0.523326453
7.706912534;3.94395387;7.137000573;-3.237815417;4.743093774;-4.611323095;-24.52072176;7.851037279;20.79379281;3.330445206;14.80635212;-11.13128053;-13.49024862;10.76551252;-1.277792464;4.869549561;-4.700670461;15.03836999;-1.88708461
1.739666729;-4.240912002;-2.031392462;-2.881327924;-7.457614015;0.354317359;2.009962091;6.811358877;7.878063743;2.738436357;5.370641518;-3.555075651;5.216457776;0.305325831;-3.801119554;4.058392285;7.088479577;-2.953437935;-1.969299122
-0.410503229;-10.97974212;-8.543863355;-1.466203025;-12.60593329;4.038451471;13.56492401;4.7601572;-2.392011184;-0.179404993;-2.844655831;0.305462119;12.29193421;-4.385397515;-7.397667743;-0.976128445;12.71314282;-14.47375086;-0.924894362
1.963073303;-13.21384991;-8.974064873;1.593598867;-7.403733106;3.907476911;4.478023665;3.230535283;-2.735397222;-2.754406449;-3.827839134;-1.21883935;4.140581343;-0.471835283;-10.08015936;-7.492331577;8.598209395;-14.83007813;0.244463567
6.236111529;-11.47392368;-4.775850538;4.37409107;3.38854953;0.81750714;-13.87822416;3.274031911;5.03533077;-2.385771736;1.541630978;-4.754904205;-9.877121749;8.031971633;-9.38417862;-11.13704847;-0.447471052;-8.557515996;0.586311753
9.037526536;-8.595752646;-0.084816175;4.387835695;11.70528574;-2.216570454;-24.98125029;4.951463324;13.30061403;1.568236585;7.741366558;-5.460827725;-16.71155286;14.33815322;-4.102969042;-9.320863146;-6.391869335;-4.120206682;-0.057072527
8.825906884;-7.252541286;1.880245516;0.915909627;12.5853439;-2.720587777;-20.97470432;7.507787736;15.82947055;7.414252772;10.07243524;-1.267762954;-10.66282622;14.37992848;4.474863499;-3.199014409;-5.007564779;-6.670970809;-1.024770133
6.608594934;-8.161895591;0.967240731;-4.094108297;7.233034966;-0.653268342;-7.533411677;9.992179033;12.68465188;12.47211742;8.497940609;5.603040207;2.767753591;9.403091467;12.93142978;3.243934611;1.065901069;-14.56674413;-1.474427985
4.635874101;-10.00478902;-0.526794312;-7.203079803;0.944848705;1.899264983;2.777436337;11.81727581;9.194058313;15.01347237;6.919275027;10.74338732;12.54710342;4.113858065;17.66962292;6.174368503;5.295836575;-21.66710696;-1.094123748
4.44587848;-10.73445641;-0.26186939;-5.81668378;-1.678733575;2.713886448;1.792947105;12.89814179;10.56291686;15.27243474;9.055636766;11.21325201;11.69889128;2.473307772;17.14368482;4.572300382;3.218400477;-22.71212139;-0.300009766
5.873013642;-9.102994321;2.13499325;0.007018242;-0.058269491;1.291350366;-8.062327035;13.40386418;17.12040476;14.84635574;14.82777478;7.659407643;2.542875916;4.766296835;12.73647701;0.609381589;-3.847243659;-17.11317574;0.190120935
7.577066765;-5.368196742;4.974226703;7.498567344;2.876388987;-0.926907785;-17.1439876;13.44677418;24.18102849;15.12380576;20.37200936;3.375085858;-6.309737049;8.05486085;7.642830416;-2.310043945;-10.25295817;-8.483045416;-0.008857952
8.341115951;-0.935668569;6.088598923;12.82174032;3.93098574;-1.989289997;-17.60904018;13.00275746;26.27218863;16.0907149;21.45715064;1.41590142;-7.872692666;9.135483851;4.661810993;-2.117578439;-11.0106967;-1.055343086;-0.657460823
7.921109852;2.572865135;4.568263198;13.27209958;2.431680491;-1.145784775;-9.909909381;12.07616387;21.81353706;16.44218979;17.16031029;2.335884365;-2.459199752;7.238621448;4.601964877;0.719457676;-5.856857014;3.544463382;-1.155379605
6.856772549;4.138154335;1.244409492;8.654041367;0.233179149;0.629125087;-1.544771985;10.87576649;14.2476921;14.79372827;10.61279653;4.288643715;3.506397415;4.316499553;6.385137417;4.028792651;0.932401184;6.600233161;-1.087444956
5.671156962;3.660969323;-2.241317231;1.136494514;-0.612151789;1.634431926;0.10179433;9.777350298;8.911250498;10.91539829;6.30437311;5.060459491;3.899799422;3.045700589;8.455750219;5.799138162;4.456504588;10.00829625;-0.56294538
4.354126919;1.800367091;-4.773053787;-6.112363769;-0.040636927;0.975383212;-5.85240908;9.083599071;8.578225738;5.989436729;6.392281735;4.034503367;-1.489283935;4.533295151;10.07571426;5.459529346;3.218017051;13.90877032;-0.076278772
2.601978334;-0.441077408;-6.347410991;-10.56686228;0.071720838;-0.724948355;-13.58738035;8.8123626;11.50689214;1.767895865;9.173392233;2.403267032;-7.035146487;7.670201408;11.39563975;3.723900588;-0.140343251;16.46236865;-0.047932547
0.464749558;-2.178024497;-7.600482787;-11.34674628;-1.98651028;-1.976600445;-16.2075564;8.731953804;13.41818567;-0.607494632;10.87186331;1.691601296;-6.645528021;10.40888441;12.49300045;1.490927371;-1.694545767;15.75043076;-0.466238977
-1.356888754;-3.01051652;-8.932420116;-9.202203899;-5.742110458;-1.766826239;-11.84103112;8.626088976;11.40533618;-1.188562005;9.029150131;2.163195769;0.598453937;11.57126789;12.59953542;-1.014843098;0.111208241;11.80520716;-0.931211368
-1.955983755;-3.168973859;-10.11928057;-5.722429564;-8.615643669;-0.38750927;-4.8774968;8.537911504;6.302553959;-0.872566151;4.534114024;2.634019026;9.528574125;11.54359679;10.51061703;-4.128373202;3.274544506;6.813822516;-1.032154207
-1.034859418;-3.323736641;-10.69643823;-2.35938746;-8.105736875;0.922890582;-1.642730353;8.742280159;1.63146899;-0.572292919;0.659680902;1.769848434;13.31715216;11.42774104;5.897497385;-7.969129546;4.343840633;3.36695501;-0.706865416
0.690642669;-4.095222667;-10.6103284;0.171673747;-4.098224136;1.117419572;-4.703498755;9.442677265;0.316652659;-0.646899152;0.10308905;-0.482197904;9.178461798;11.66286822;0.178417223;-11.93049064;1.699772873;2.434169767;-0.271273663
1.944602549;-5.543358527;-10.41510043;1.861286199;0.828661852;0.213158104;-10.88845296;10.46152153;2.183157606;-0.961670933;2.660019531;-2.760294597;0.385502701;11.5071185;-4.149383499;-15.00766277;-3.002557054;2.892051342;-0.116549595
1.868571781;-7.032369753;-10.79456692;2.885651064;3.432230342;-0.83259418;-14.49910578;11.23147414;4.350434409;-1.324616459;5.480923405;-3.59176955;-6.889458384;9.846102076;-5.386914413;-16.63637621;-6.405971998;2.893716884;-0.360756736
0.685841689;-7.666113015;-11.88744475;3.032202475;2.402563942;-1.04872165;-12.52725922;11.14621559;3.983233595;-1.767684749;5.574738307;-2.857726862;-8.844286129;6.512864731;-4.098358458;-17.17130506;-6.449028951;1.669447588;-0.762893703
-0.541049562;-7.044974582;-13.1048821;1.550354453;-0.734379389;-0.301916897;-7.139049399;10.00336026;0.855139937;-2.410092773;2.356934809;-1.953877954;-6.751453733;2.838939978;-2.69439008;-17.4781018;-4.021631653;0.060900023;-0.957833017
-0.867121875;-5.757265688;-13.66239331;-2.357303956;-3.15124569;0.667022686;-3.402167936;8.16475579;-2.495764169;-3.137344137;-1.877956797;-2.413818463;-4.998061914;0.868386778;-3.283127185;-18.00504269;-1.881545654;-0.601010971;-0.785800075
-0.312079647;-5.125517681;-13.35703565;-8.659044954;-3.278493982;0.9856529;-4.568991279;6.28270835;-3.024622735;-3.538550748;-3.841816744;-4.265279516;-6.611671229;1.855185947;-5.620199516;-18.26389322;-1.990058594;-0.061778839;-0.420959723
0.141259659;-6.276606761;-12.85971288;-15.88335422;-2.10679658;0.447721903;-9.261051949;4.81242587;0.217051066;-3.263090783;-1.833428013;-5.740746444;-10.49521903;5.269162277;-7.12210509;-17.30975855;-3.799906446;0.444950882;-0.197926841
-0.593972443;-9.18580921;-13.20785018;-21.41255601;-2.116115273;-0.352186105;-12.96214724;3.724890395;5.364036148;-2.476902534;3.090351074;-4.776609512;-12.76896949;9.086015341;-5.185013448;-14.84672694;-5.025192097;-0.614661595;-0.306717029
-2.721756385;-12.45868214;-14.89743198;-22.78608805;-4.845801456;-0.620644412;-12.25473553;2.667497466;9.386484908;-1.915281066;8.153337076;-1.050576826;-10.72925146;11.09635538;0.106993023;-11.89591515;-4.046769453;-3.403580216;-0.632731777
-5.286359454;-14.10733987;-17.34231649;-19.34019684;-9.316258723;-0.109474678;-7.863895;1.423824737;10.55732455;-2.358433722;11.07705856;3.326114953;-5.581937291;10.23963285;5.417582302;-10.23697029;-1.583878562;-6.17163715;-0.874948312
-6.838390609;-12.81535036;-19.16987847;-13.05286905;-12.73415023;0.683640667;-3.833195089;0.242496151;9.63062032;-3.914993526;11.62211178;5.275514378;-1.365846768;7.082537456;6.599785668;-10.90526;0.013027204;-6.433186658;-0.822654616
-6.489289698;-8.781165949;-19.12952192;-7.780279322;-12.87700964;1.010190529;-3.74696506;-0.302137513;8.885420161;-5.758104855;11.34771643;3.292944687;-1.09026063;3.289777099;2.333789198;-12.97559389;-0.78476742;-2.886507449;-0.537525706
-4.502465578;-3.533141216;-16.90948451;-7.092512757;-10.06681378;0.572203265;-7.52019463;0.152873727;10.04155772;-6.637836584;12.02156091;-1.088837755;-3.721748868;0.606710713;-4.188406639;-13.81093114;-2.832685564;3.56734342;-0.284914274
-1.991926464;1.106768405;-13.27766621;-11.98183216;-6.997608873;-0.222768578;-11.61647789;1.275077465;12.87455832;-5.837166335;14.10807987;-4.289554518;-4.899328905;0.013777698;-7.33373503;-10.84933281;-2.95752555;10.52200094;-0.288113762
-0.049784426;4.100684746;-9.533781547;-20.00432925;-6.541428679;-0.666763197;-12.3598786;2.070936619;15.56176761;-3.816066939;16.49174411;-3.478952694;-0.853761135;1.393771416;-3.549487179;-3.706704104;1.256043067;15.77664416;-0.53220274
0.948286122;5.534855249;-6.764246725;-26.58525929;-9.385493423;-0.416241544;-9.243875898;1.510486345;16.23679969;-1.989378401;17.45436776;1.04468814;7.943875258;3.686962098;5.265613807;5.036500976;8.925127664;18.55258419;-0.788813095
1.343789683;6.095414326;-5.424331692;-27.7603735;-13.4715741;0.205905798;-5.264888639;-0.679522198;14.32591401;-1.764294589;15.96749855;5.886694679;16.71891459;5.378804318;12.55093436;11.12618684;15.92736075;19.31340344;-0.829089167
1.631233676;6.263316208;-5.387178108;-22.57653804;-15.65946989;0.537204;-4.092124489;-3.661862933;10.67090293;-3.557748913;12.31462653;7.082619677;20.10726187;5.191120341;11.83121269;11.24612543;17.77150954;18.66378511;-0.627014332
1.925305985;5.977275582;-6.207150671;-13.55249015;-14.18815691;0.209644262;-6.731538163;-5.89011509;6.644467862;-6.525518696;7.781242256;3.17869767;16.53113613;2.791556036;1.912893999;5.184831042;13.07106908;16.61404745;-0.373269257
1.949704698;5.011859882;-7.298309733;-4.938394146;-9.926640838;-0.50419011;-10.69767753;-6.026312017;3.263130179;-9.162654276;3.891694602;-3.549477673;9.53038273;-0.837018186;-11.61454068;-3.936687093;4.800657401;12.98660753;-0.296117863
1.49372937;3.611764319;-7.996620599;-0.051024461;-5.513937591;-0.947376676;-12.34876343;-3.751877455;1.039289044;-10.26796649;1.817138504;-8.696376045;4.947064279;-3.756081243;-20.00907284;-11.53134645;-1.741335775;8.443512488;-0.456963826
0.821667936;2.655200099;-7.709227822;0.447314165;-3.259844742;-0.690244828;-10.18220536;0.067555437;0.390775008;-9.551962792;2.165655861;-8.906117544;6.351231725;-4.188032996;-17.59106096;-14.24918759;-2.700745915;4.839642448;-0.703006347
0.56758585;3.044720912;-6.26728258;-1.745367978;-3.593898819;0.0709075;-6.108616636;3.925833005;1.831813681;-7.544968159;4.931366573;-4.228152755;12.46806055;-1.800800324;-5.907870416;-11.77240224;1.740029297;4.172969237;-0.81202613
1.153375472;4.777289659;-4.268082683;-4.396366848;-5.211499215;0.690106498;-3.641993136;6.500502983;5.489626651;-5.059351134;9.372370989;2.02107093;18.54190437;1.780573176;7.279905375;-6.66481913;7.835743159;6.828674432;-0.692587493
2.258875879;6.549649983;-2.993671026;-6.513773255;-6.538695889;0.653271148;-4.740812162;7.197489305;10.36282145;-2.748020033;13.93710342;5.609803943;20.24766322;3.810942409;13.39488595;-2.555435667;11.24954577;10.73169887;-0.459858464
2.887993344;6.41181834;-3.718590087;-8.688469919;-7.087652351;0.030283343;-8.170288636;6.149399028;14.2361291;-1.067518914;16.59784901;4.105028235;16.81633657;2.222712043;8.778973701;-1.927235911;10.09975941;12.46111675;-0.325139738
2.079489489;3.133533193;-6.751397091;-11.90484751;-7.552789976;-0.60757597;-10.77642572;3.84571543;14.72183812;-0.47246319;15.72784114;-1.927517191;11.01101307;-2.844977475;-3.343984901;-4.855862252;5.842431664;9.718376487;-0.404685497
-0.269136223;-2.706354746;-10.92533625;-16.01636941;-8.742959447;-0.715876649;-10.39681325;0.799589896;10.86337551;-1.425453305;11.12044199;-9.756938929;6.420684943;-8.974889683;-15.76085871;-9.293234027;1.647224627;3.232002043;-0.620326428
-3.15;-8.789823414;-14.06235499;-19.32282005;-10.48811584;-0.261189047;-7.7215635;-2.493114045;4.067861516;-4.040335079;4.41546572;-16.36281351;4.67438104;-13.02779492;-22.46646614;-12.51602515;-0.138169586;-3.542844514;-0.776072451
-5.027818228;-12.34651626;-14.24460348;-19.7001103;-11.59609566;0.27516608;-5.480915107;-5.39889782;-2.497160582;-7.651558627;-1.538761022;-19.87853867;4.868112852;-13.23975773;-22.20482334;-12.77111139;0.59916767;-6.840952064;-0.73596994
-4.861499492;-11.80922682;-11.0653631;-16.36851714;-10.89971514;0.362606403;-5.820373447;-7.112302416;-5.750892806;-10.83094379;-4.130765553;-19.8569045;5.259252801;-10.30607581;-18.09803011;-10.19695905;2.267936081;-5.282710067;-0.542169276
-2.815082519;-7.711689883;-5.959955202;-10.79471644;-8.411516059;-0.080795908;-8.332662925;-6.946868528;-4.515430234;-12.07837243;-2.360706512;-16.72109688;5.273702482;-6.65234188;-14.30944089;-6.616188298;3.209747384;-0.751023685;-0.371355205
-0.143231334;-2.259024747;-1.344263087;-5.901284536;-5.508917687;-0.613571366;-10.524062;-4.817290621;-0.043444503;-10.80878911;2.728579383;-11.25125189;5.856510617;-4.502582905;-12.75058888;-4.419704575;2.916709077;3.176874379;-0.374109
1.640851608;2.05659283;0.852653965;-4.133169387;-3.949583295;-0.680259254;-10.20741699;-1.524363982;5.00897055;-7.882745506;8.79220565;-4.538089589;8.006005313;-4.28115362;-12.29783797;-5.188367629;1.989291007;3.909219051;-0.543007331
1.698444572;3.818008083;0.25381825;-5.85651287;-4.547749751;-0.125500276;-7.563734779;1.472535536;8.29999637;-5.167163605;13.53906286;1.903305411;11.14683689;-4.569986282;-10.60514002;-8.780019531;1.241347883;1.498705122;-0.724351901
0.267939615;3.191642444;-1.974729019;-9.284462958;-6.615600254;0.653784418;-4.975993364;2.747939478;8.974875671;-4.334089423;15.81204805;6.418744414;13.11183841;-3.553601834;-6.534446868;-13.35416588;0.991909572;-1.868185088;-0.758014812
-1.649993346;1.449995511;-4.073781093;-11.89624372;-8.588375232;1.049379882;-4.824543689;1.656200213;7.654587837;-5.736077275;15.81666566;7.988242459;11.88265006;-0.695054754;-1.098332191;-16.3296771;1.143400327;-3.854449664;-0.618268922
-2.995143579;0.035024312;-4.815874338;-12.17457794;-9.250714872;0.763013614;-7.297951621;-1.349608262;5.568527507;-8.198791094;14.57223602;6.90916455;7.479125211;2.73215144;3.565563814;-15.77784021;1.714404946;-3.636425414;-0.432363733
-3.214009354;-0.164376093;-4.042215042;-10.35554955;-8.53938801;0.044102111;-10.22280396;-5.021002999;3.678757931;-9.903678449;13.12569026;4.68272262;2.169844208;4.625194534;5.920508633;-11.49299051;3.042530088;-1.984992144;-0.364804307
-2.381053227;0.991714888;-2.405757077;-7.805377829;-7.346357482;-0.551761732;-11.04052804;-8.017188496;2.387426635;-9.708204025;12.05786845;3.013751802;-1.297504633;3.669538472;5.837384484;-5.13114107;5.31139694;-0.052708782;-0.472626449
-0.94896722;3.076772398;-0.717091331;-5.771217151;-6.627941446;-0.647774248;-9.104980217;-9.55014321;1.76238643;-7.922171269;11.45096625;2.651021728;-1.910859963;0.272502538;4.014138593;0.675801711;7.886548696;1.738561426;-0.658394722
0.577172416;5.349402705;0.538596949;-4.631811986;-6.650774026;-0.336165681;-6.218288607;-9.614684438;1.809176431;-5.987028563;11.1324376;3.026882658;-1.084627542;-3.840039063;0.946231128;3.722404594;9.289088707;3.627636803;-0.758608977
1.817337442;6.946029984;1.256499043;-4.142715902;-6.964306662;-0.033816458;-4.958665169;-8.769000125;2.467460469;-5.346452718;10.92011579;3.023186398;-1.228693008;-6.883244451;-3.306040953;3.335331711;8.104156205;5.517973525;-0.687026518
2.541424587;7.115886576;1.514298116;-4.175546022;-6.977047067;-0.065864335;-6.356849797;-7.709731071;3.450674487;-6.386408726;10.73542972;2.215461974;-3.512299264;-8.040418028;-8.308189454;0.566566894;4.192930327;6.326388693;-0.507828015
2.669254112;5.57980874;1.444586893;-5.029665544;-6.506010575;-0.374146223;-9.026323722;-6.931218174;4.269758217;-8.216197176;10.61550338;1.496049825;-6.848326888;-7.545531096;-12.40618311;-2.567765056;-0.85600061;4.624711044;-0.377703957
2.31439255;2.842026796;1.286636766;-6.921340399;-5.793099626;-0.608920745;-10.48681476;-6.597645308;4.560868706;-9.379273318;10.68897225;2.47847823;-8.992994087;-6.03168062;-13.07586877;-4.279183995;-4.576323404;0.155189845;-0.409715907
1.799612133;0.111726922;1.434489915;-9.202211002;-5.05858039;-0.494469673;-9.424703409;-6.574126324;4.437228876;-8.887467022;11.11870429;6.129906979;-8.729502862;-3.944819281;-8.614899889;-3.910787396;-5.247461422;-5.273909049;-0.576718306
1.532726271;-1.323416762;2.263394676;-10.28500911;-4.117039727;-0.109029199;-6.827925905;-6.515225459;4.463232555;-6.79946149;11.98982648;11.76660731;-7.131069484;-1.57379911;0.084604397;-2.095979419;-3.076728418;-8.665079283;-0.735435882
1.754923161;-0.962995977;3.78240756;-8.683133055;-2.49797091;0.186691762;-5.011759239;-5.988960617;5.172209586;-3.998806;13.18805978;17.27982727;-6.741965751;0.519470988;9.337472625;-0.20324056;-0.026231523;-8.065841104;-0.748765417
2.334763416;0.444595683;5.438033643;-4.46358654;0.00127586;0.098718643;-5.486091461;-4.68030353;6.515558362;-1.470308441;14.38324913;20.46101591;-9.390261301;1.372411872;14.60037134;0.524279822;1.5819062;-4.349375419;-0.602266634
2.798993537;1.312108733;6.355579947;0.20552671;2.848106538;-0.309427454;-7.629866466;-2.657869154;7.764379578;0.297851216;15.18666513;20.41309043;-14.5597839;0.200686378;13.3672387;-0.347511727;0.625431434;-0.862496421;-0.417665431
2.618477679;0.319365298;5.931181402;2.190545109;4.873460218;-0.663028073;-9.342912752;-0.545054747;8.014485142;1.366376132;15.39345931;17.99716483;-19.73641075;-2.716052632;6.936745988;-2.236055099;-2.210475735;-0.960675866;-0.352633608
1.548600386;-2.571466275;4.313774302;-0.37795364;4.938745816;-0.619649605;-9.014641656;0.618841064;6.89360868;1.943804491;15.10442277;15.06548452;-22.40197332;-5.744119816;-0.326649864;-3.852602602;-5.101939831;-5.309070698;-0.469257672
-0.235997729;-6.005916448;2.326772083;-6.437378581;2.687478209;-0.190742802;-6.975255472;-0.112960434;4.856469608;1.988852694;14.59030268;13.16760841;-21.94712957;-6.742021722;-3.802895638;-3.872820364;-6.402991886;-11.19119092;-0.678546122
-2.30481317;-8.188352281;0.825022604;-12.33504079;-1.176337564;0.258412492;-5.124894039;-2.953999592;2.800146269;1.204902989;13.9901128;12.72126221;-19.92476637;-4.59706957;-1.556209421;-1.684096673;-5.620837487;-14.50774357;-0.807339886
-4.274451306;-8.195631063;-0.004879492;-14.18085764;-5.267204565;0.333053083;-5.137405251;-7.049027773;1.336612377;-0.584020292;13.11777491;13.13266809;-18.56355936;-0.265107997;4.595176581;2.14287531;-3.478872578;-12.91837201;-0.737031929
-5.986302673;-6.616935343;-0.788941398;-10.62023214;-8.258255132;-0.037812145;-6.924654028;-10.77133729;0.366938119;-3.049385522;11.5938217;13.54489339;-18.93015126;3.645003502;10.50328215;5.973915733;-1.239848641;-7.575090285;-0.506083942
-7.431316914;-4.989258952;-2.387003557;-3.986633723;-9.488140669;-0.539363296;-8.76039172;-12.57687607;-0.676828863;-5.358281468;9.2373554;13.48905697;-20.29446092;4.599363005;12.50568379;7.906175638;0.096419982;-2.021924864;-0.293419383
-8.546545985;-4.473920405;-5.05819996;1.093857769;-9.125969559;-0.752472859;-8.905113873;-11.91424939;-2.169172877;-6.623813397;6.389115628;12.98273933;-21.06814681;1.947462224;9.696910396;6.914314942;0.220352794;0.815311756;-0.287934692
-9.134019197;-4.866060559;-8.101263712;0.71728193;-7.929411882;-0.519844746;-7.202778089;-9.579301749;-3.838477047;-6.487582448;3.845477936;12.21421679;-20.29853619;-2.569378015;4.259699977;3.672042744;-0.518444988;1.026883118;-0.535802201
-9.02462479;-4.783057795;-10.32582615;-5.772277777;-6.83419304;-0.067690224;-5.185675151;-7.233152513;-4.954014631;-5.389127325;2.390870134;11.2829068;-18.35150255;-6.029122886;-0.162397083;0.400786872;-1.391977303;1.497951234;-0.879330859
-8.342605139;-2.907822433;-10.99288556;-15.46332087;-6.578817789;0.216569683;-4.62864745;-6.366020517;-4.983153097;-4.300465217;2.270827201;10.27043216;-16.32073712;-6.363718255;-0.86045968;-0.364134993;-1.628132373;5.267196231;-1.041688044
-7.579536731;0.739253427;-10.42400672;-23.855869;-7.439345152;0.136852343;-5.917580272;-7.382734742;-4.106548002;-4.092548389;3.032980638;9.464478401;-14.91845011;-3.705441583;2.290638325;2.574700021;-0.744392037;12.70015239;-0.809938872
-7.323125452;4.593648689;-9.728062449;-27.63461746;-9.104675071;-0.15204389;-7.733676859;-9.413194367;-3.103209725;-4.959284664;3.883383036;9.349664714;-13.97945062;-0.095549068;6.849792266;8.114588332;1.157782958;20.86465485;-0.194082194
-7.806605215;6.644346609;-9.846626836;-26.34056285;-10.77130794;-0.312991853;-8.309880195;-10.95438978;-2.695028945;-6.278713047;4.285245739;10.23605447;-12.96389119;2.129815909;9.394987301;13.3649964;3.306685629;25.64915219;0.553839649
-8.659411539;5.986339856;-10.73107372;-22.03788139;-11.52504395;-0.153241235;-7.064855662;-10.88524906;-2.939828551;-6.995795513;4.323231101;11.84262275;-11.78131755;2.007953208;7.720380958;15.43968867;4.588723087;24.88624416;1.087191615
-9.1265635;3.565115254;-11.38553356;-17.57043569;-10.90026462;0.199410578;-5.101716368;-9.164338142;-3.223801936;-6.282104163;4.546698701;13.30365365;-10.95639346;0.470046387;2.370485586;13.36523737;4.250865477;19.94022396;1.188944769
-8.643412463;1.47818693;-10.77637567;-14.84044658;-9.278169107;0.429336866;-4.140682785;-6.774219547;-2.862783988;-4.070849537;5.431441219;13.71853778;-10.90510198;-0.539155187;-3.438537653;8.74736443;2.542768889;14.52530674;0.919506722
-7.319718912;1.370315393;-8.838099362;-14.20230783;-7.761828557;0.340466829;-4.909997455;-5.011579445;-1.771001163;-1.152804281;6.904604975;12.825082;-11.11684301;0.433958407;-5.614070364;4.655048296;0.724449143;11.80221378;0.576106364
-5.908783889;3.210834481;-6.675856531;-15.00351135;-7.482292969;0.04413073;-6.4977149;-4.647344161;-0.59462811;1.225481968;8.314477548;11.17939505;-10.26820368;3.336834499;-1.780502728;3.472054913;0.24644446;12.14237781;0.478661136
-5.233348312;5.4424252;-5.721601168;-16.46765935;-8.759742735;-0.148388767;-7.246057883;-5.512212823;-0.186478217;2.04388171;8.863113618;9.616590463;-7.41944903;6.700962505;6.899388487;5.262691965;1.602415162;13.28553757;0.72615465
-5.501067112;6.373781592;-6.507532328;-18.11292176;-10.76475308;-0.023350063;-6.327541969;-6.719829255;-0.881505107;1.095785436;8.164637538;8.431389361;-3.266899749;8.62029491;16.00910047;7.857968709;3.769727901;12.58411055;1.102883698
-6.076279909;5.667163258;-8.100152235;-19.56123015;-12.03200444;0.331290637;-4.522542685;-7.300613846;-2.200364411;-0.859972801;6.523075076;7.041067968;-0.125296816;7.885801753;20.39591211;8.600377112;4.830953533;9.36238849;1.218528539
-5.940839341;4.687067586;-8.738352202;-20.2216595;-11.52976084;0.608086114;-3.482439535;-6.792940741;-3.224340351;-2.500569096;4.761566417;4.526121479;-0.315871414;4.617893415;17.49544713;6.434632667;3.452905964;5.462045338;0.797914556
-4.52284276;5.40165678;-7.2289835;-19.37175122;-9.49161003;0.570209151;-4.181611292;-5.441683924;-3.306784644;-2.700928451;3.756963475;0.657656057;-4.126782011;0.174972521;9.225070832;2.759922048;0.110020447;3.654270211;-0.084145381
-2.24616544;8.709355322;-3.993400524;-16.66486792;-7.321274271;0.274604482;-6.009433383;-3.959842592;-2.52645312;-1.226801276;3.989541563;-3.497142119;-9.124756802;-3.491335906;0.920136952;0.390225781;-3.006465018;5.351133298;-1.003985036
-0.336811506;13.53906388;-0.893068505;-12.59565198;-6.568149213;0.016351263;-7.343652884;-3.07795634;-1.551751761;1.071501207;5.336346109;-6.046540245;-11.65196616;-4.7170328;-2.233100956;1.400210158;-3.488115304;9.503897955;-1.44497658
0.011995802;17.46434287;0.080217288;-8.43941657;-7.720983819;0.045388994;-7.060497436;-3.176005011;-1.103945979;2.720237293;7.14702938;-5.605653219;-9.535090516;-2.930786218;1.105260724;5.475311106;-0.560558804;13.4680624;-1.138936345
-1.492375241;18.38065849;-1.742648305;-5.634642503;-9.76327183;0.322762062;-5.570169928;-4.171776249;-1.508594407;2.482643482;8.512489508;-2.493245719;-3.894757403;0.929010442;7.322498908;10.00365608;4.156697476;14.98324649;-0.251612818
-3.992418315;15.97760944;-5.223271566;-5.052559911;-10.88055388;0.549294286;-4.41927429;-5.65641418;-2.666211605;0.083864371;8.619559677;1.204719709;1.482829768;4.67866967;10.35766589;11.85019231;7.663051225;13.63635408;0.724172341
-6.040750405;11.92550135;-8.2505263;-6.659060912;-9.819364539;0.445563335;-4.841379364;-7.147090689;-4.346182853;-3.665318356;7.102175537;2.880307455;2.853419673;5.914597922;6.185908894;9.528974227;7.686063557;10.78957498;1.294182866
-6.557934996;8.699454051;-9.22729773;-9.703742692;-6.873173338;0.024529559;-6.610532427;-8.308740744;-6.430217921;-7.410349305;4.274633422;1.120046387;-0.737281344;3.418431873;-3.966440487;4.237819231;4.330181089;8.296865789;1.274964479
-5.494439446;7.965607917;-8.077265133;-13.15161973;-3.736831483;-0.400301876;-8.258018747;-9.047681974;-8.848022884;-10.06434523;1.099763065;-3.337756098;-6.768854535;-1.873831608;-14.16213068;-0.921752012;0.023542121;7.213239422;0.874027339
-3.749360913;9.688351917;-6.071887946;-15.99502249;-2.325323537;-0.486448871;-8.43459628;-9.453085348;-11.31413861;-11.31924107;-1.188819592;-8.090971581;-11.11215222;-7.121859148;-17.81975363;-2.930873262;-2.197777257;7.461930505;0.49555298
-2.462242265;12.47411429;-4.719362676;-17.36653674;-3.428916371;-0.169239957;-7.137095025;-9.635409224;-13.21589438;-11.5445963;-1.691075095;-10.64111676;-10.95944952;-9.150922882;-12.40951857;-0.668105091;-0.786302487;8.436519864;0.431898845
-2.233307723;14.72338976;-4.639797605;-16.67075439;-6.181513161;0.277408534;-5.660185597;-9.570671415;-13.87834542;-11.25753523;-0.344496481;-9.928393727;-6.593696593;-6.479795305;-1.324917387;4.587776268;3.362788204;9.739466569;0.675057788
-2.823051341;15.66467168;-5.263279192;-13.9155833;-8.695629371;0.484844891;-5.341218298;-9.073606592;-13.0611281;-10.68007813;2.013949848;-6.82072672;-0.805038435;-0.437997926;8.471175822;10.13424607;7.711091085;11.33871518;0.974830012
-3.47714366;15.60125515;-5.468290128;-10.07216536;-9.366799482;0.318059462;-6.30186378;-7.95416243;-11.27852679;-9.785643686;4.113496472;-3.34867193;3.356673149;5.530617852;11.29395434;13.51041201;9.926245735;13.15284917;1.072719063
-3.559079514;15.39586696;-4.552145288;-7.011442527;-7.912460088;-0.009992605;-7.386270479;-6.272143;-9.630058594;-8.758105592;4.961349683;-1.337453797;4.629965543;8.05181634;6.519949901;13.7544041;9.381118882;14.67666384;0.911464669
-3.000433038;15.74184952;-2.758761141;-6.727976968;-5.467771116;-0.141568562;-7.352495744;-4.484997449;-9.205417039;-8.35392026;4.332127641;-1.383122542;3.925982298;6.046885989;-1.383021971;11.59379734;7.298482762;15.16205522;0.657563149
-2.284255803;16.76048976;-1.039227896;-10.13115485;-3.759834879;0.09244692;-6.166438886;-3.302616486;-10.45749521;-9.670469643;2.731300654;-2.732018462;3.075114473;1.434101487;-6.408648074;8.673368898;5.622589322;14.22812087;0.538086933
-2.051102649;18.06007813;-0.345895302;-16.19092606;-3.981697673;0.515752321;-5.121882225;-3.256700886;-12.95223992;-13.32380965;0.927541886;-3.94527062;3.22172742;-2.213639178;-5.349918948;6.466320832;5.589588112;12.2717415;0.64345694
-2.656001049;19.02659358;-1.041989523;-22.16795737;-6.09463078;0.771280876;-5.607570544;-4.244579892;-15.6167415;-18.630357;-0.542773449;-3.787058669;4.191327296;-2.104602496;0.28712171;5.553484654;7.030526756;10.20648858;0.863002974
-3.962207121;19.08429281;-2.787637493;-24.97485536;-8.914612404;0.656102892;-7.650292889;-5.40977132;-17.27932221;-23.54562381;-1.529947106;-1.804147474;5.11030122;1.975556844;5.988971683;5.590237889;8.750676591;8.72443075;0.99640979
-5.432121612;17.88041417;-4.822558028;-22.89096488;-10.82091812;0.316772984;-9.645988269;-5.542309823;-17.17116282;-25.62995149;-2.0481248;1.595378884;5.461018706;7.734484377;7.974098841;5.825014481;9.517862518;7.785108712;0.933111964
-6.383523274;15.49172446;-6.320827164;-16.54041929;-10.61347688;0.120752436;-9.643907212;-3.807414117;-15.17242617;-23.51114445;-1.968966726;5.435315642;5.54710248;12.13807994;5.98722697;5.755987307;8.874015238;6.858605268;0.741654137
-6.251074347;12.63491991;-6.604319994;-8.513631682;-8.067058611;0.316109478;-7.104528915;-0.318411982;-11.77604873;-17.83216727;-0.965442465;8.602349747;6.071772224;13.48295573;3.123271998;5.506550899;7.285561657;5.719981023;0.598264992
-4.781508502;10.63979144;-5.264810457;-1.920073242;-3.970404036;0.789057512;-3.542706485;3.880843781;-7.850537296;-10.94506849;1.22535796;10.24402821;7.405762901;12.27131197;3.059588965;5.70804281;5.706344244;5.002463902;0.62637122
-2.156656554;10.94236158;-2.337570009;1.17730025;0.294571405;1.145481021;-1.40035233;7.455234078;-4.297040865;-5.492715129;4.460362707;10.03995227;9.314565798;10.39296423;6.998191933;6.97808859;4.975176073;5.866058781;0.791521513
0.988196838;14.20915284;1.507754637;0.539382633;3.400793606;1.0516;-2.062033425;9.59803749;-1.706523255;-2.851623257;8.078629563;8.27474254;11.32988846;9.420928438;12.65763337;9.338457443;5.428266101;8.947139742;0.940209452
3.731511834;19.6513108;5.015304111;-2.529661945;4.650255124;0.532738398;-4.723625932;10.42804167;-0.166843306;-2.531260263;11.11599159;5.670650366;13.24631116;9.410676451;15.9519319;11.99276506;6.844725316;13.49997144;0.94117129
5.247003937;25.16794556;6.842234624;-6.104922439;4.208738963;-0.038009806;-7.110814583;10.67149869;0.639910175;-2.911329196;12.67461004;3.043143735;15.12997327;9.071700312;13.98174022;13.69852075;8.636335849;17.60208457;0.800204214
5.256525826;28.45751803;6.355068362;-8.548656288;2.883514231;-0.255447631;-7.433702284;10.90080018;1.069013625;-2.685548055;12.20946874;0.973981756;16.82064061;7.045815339;7.141507073;13.57686576;10.15113277;19.43030724;0.648772385
4.260423465;28.46246437;4.186661033;-9.00432099;1.56583679;-0.026271568;-5.882228189;10.9710477;1.137788453;-1.860043945;9.65836883;-0.287917346;17.5557066;3.199965193;-1.038199085;11.83903057;10.99114202;18.64348783;0.622034943
3.305043565;26.10577927;2.024372543;-7.481653907;0.678259806;0.359741346;-4.377050175;10.14931987;0.504017451;-1.542088933;5.516915308;-0.657096637;16.33365645;-1.079430047;-6.033670344;9.861742875;11.23093132;16.70307737;0.738704972
3.341087445;23.67167986;1.604950955;-4.714895149;-0.00244206;0.491029368;-4.826830754;7.859428533;-1.077826618;-2.745509589;0.920649696;0.02777277;12.90188301;-3.771000539;-4.935799561;9.431714372;11.39007813;15.76846158;0.888995248
4.567674577;23.17180619;3.542357;-1.875645912;-1.011475964;0.195664224;-7.4406267;4.422349889;-3.156545909;-5.24107986;-2.423127735;2.029183714;8.486806829;-3.580974473;2.068165567;11.58612476;12.08727955;16.98572033;0.937181318
6.252978929;24.87281754;6.856652819;-0.103022563;-2.592547112;-0.313442733;-10.56168064;1.12005127;-4.455584037;-7.447499517;-2.722504468;5.421673482;5.386666733;-0.805880702;12.01485299;15.85094374;13.5267063;19.54789207;0.843499972
7.233793669;27.12946956;9.628891498;0.083218816;-4.303084181;-0.631073853;-12.12247701;-0.574074605;-3.582747828;-7.515272588;0.966415661;9.706231713;5.450143496;2.83925911;20.84513071;20.47491838;15.17945974;21.33195399;0.696324294
6.793307747;27.71200334;10.36453824;-0.830875866;-5.185795162;-0.51470349;-11.40221433;-0.065797582;-0.244528789;-4.779099439;7.822369632;13.70939176;8.53083921;5.22302303;25.38135995;23.55334866;15.98254394;20.64710627;0.629014878
5.281041609;25.64325239;9.065633271;-1.554768271;-4.436168479;-0.090649494;-9.54937241;1.821301773;3.97178916;-0.430214749;15.1056187;15.97539655;12.25210361;4.947443184;24.60632431;24.24411398;15.02506623;17.69761962;0.69929708
3.968330429;22.10665715;7.189142493;-0.833074292;-2.079671373;0.260792997;-8.472323644;3.31363949;6.089256318;3.151730952;19.20792707;15.46752393;13.5006724;2.001288239;19.75950212;23.16800615;12.26724321;14.55194389;0.839928289
4.177077797;19.65898284;6.50918258;1.582905336;0.885807122;0.229927506;-9.148500443;2.87830949;3.46706937;3.938854885;17.52123873;12.11544041;10.66815686;-2.330392181;13.36697955;21.70119872;8.720785669;13.58769685;0.922541493
6.285380242;20.29429831;7.755732797;4.611924202;3.049741853;-0.174228423;-10.86418162;0.288370332;-4.321676354;1.545367538;10.00175601;6.833446429;4.942183159;-6.135260221;7.781956013;20.75564999;5.875681518;15.6079196;0.87433234
9.354777871;23.83453146;10.0843807;6.574134299;3.484350705;-0.657029557;-11.99873425;-3.205671894;-14.868192;-2.631938782;-0.682868715;1.025701241;-0.423260414;-7.753918803;4.017390522;20.07739777;4.746513331;19.11210814;0.74179051
11.69904078;27.91622564;11.78012789;6.545677253;2.338752743;-0.903283354;-11.56236178;-5.702540994;-24.18340274;-6.432503843;-10.6456019;-4.045507672;-2.395239355;-6.507530138;1.512010385;18.67397511;5.246539589;21.32393314;0.645907802
12.02112428;29.63845275;11.62591726;5.275242818;0.708285699;-0.83;-10.06254318;-5.854914904;-29.06989642;-8.284596228;-16.97152545;-7.626239192;-0.318650394;-3.003197781;-1.035231223;16.01224294;6.367872773;20.22439006;0.671796335
10.30656999;27.66261841;9.851175968;4.793614716;-0.114295792;-0.613642875;-8.950882307;-3.607079669;-28.95513327;-7.926524013;-19.14172243;-9.4699584;3.669319454;1.123409367;-4.307575966;12.90833301;7.010640049;16.07156626;0.793204524
7.823376649;23.20257402;7.927954179;6.83654861;0.533695159;-0.494043995;-9.227009673;-0.038803365;-25.89105345;-6.133726358;-18.78903357;-9.687608933;6.250124995;3.974281797;-7.467639369;11.21045669;6.78663814;11.28395567;0.898676399
6.230353647;19.18190734;7.410326363;11.24378578;2.331663784;-0.553560264;-10.52261531;3.422390911;-22.80962355;-3.885284703;-18.13142664;-8.702253927;5.316992288;4.352361865;-8.478098475;12.37307373;6.166854015;8.790319407;0.89350422
6.448831862;18.2047791;8.762746845;15.69297132;4.269011111;-0.672827673;-11.49622857;5.760749661;-21.43724766;-1.736704913;-18.36983415;-7.30562896;1.375890171;2.420772328;-5.575487061;16.03843753;5.913870963;10.05691517;0.784379369
8.112751579;20.83128909;11.09685757;17.19450019;5.307762875;-0.684483849;-11.12928257;6.61623688;-21.44576491;0.179251684;-19.22662099;-6.567698923;-2.985336887;-0.371488037;1.099453478;19.89312092;6.344800722;14.18007813;0.671267143
9.963632377;25.34977362;12.97565936;14.36521975;4.955823807;-0.559257617;-9.688601095;6.05086753;-21.32261016;1.750029297;-19.76434029;-7.417370797;-5.013904205;-2.137265722;8.99106029;21.13623144;7.081458709;18.60362351;0.655786903
10.84905215;29.08045894;13.5846022;8.743193822;3.455343436;-0.438487778;-8.46040932;4.259599329;-20.0132017;2.65136526;-19.55978716;-10.07256884;-3.591764184;-1.708056344;14.32147362;18.57392915;7.472608129;20.85291602;0.74995144
10.55589611;30.15185293;13.30919613;3.993787094;1.595644221;-0.484554117;-8.525096297;1.568006127;-17.83644365;2.609338835;-19.11549417;-13.7918982;0.332178358;0.624074941;14.33622142;13.72204189;7.250285467;20.03123278;0.867045079
9.874786178;28.47636687;13.28766442;3.427813373;0.344493539;-0.70077193;-9.734689395;-1.359137601;-15.94167609;1.902694632;-19.1941451;-17.28936625;4.776262834;3.282987798;9.098645384;9.940929855;6.776395086;17.1110191;0.90121246
9.900726537;25.39387091;14.36493316;7.611640722;0.470946212;-0.903179953;-10.85189133;-3.489884881;-14.94959197;1.516146332;-19.80820798;-19.62237163;8.250797923;4.414685123;1.553956753;10.11230905;6.635678713;13.98166478;0.822780038
11.14664842;22.48889624;16.34704851;13.894946;2.234750039;-0.880762225;-10.71468783;-3.847303651;-14.16080071;2.60780946;-19.93075315;-20.87999927;10.60359764;3.075497144;-4.231631627;14.54395347;6.968656614;12.06997018;0.703642635
13.15062572;20.59390601;18.16867755;18.30316861;5.200323228;-0.597739106;-9.33247879;-2.184082112;-12.15931298;5.592968949;-18.3108777;-22.05222712;12.72416889;-0.168112832;-5.483056578;20.69261285;7.216975992;11.53952309;0.651208835
14.84137207;19.64426347;18.80326105;18.45364939;8.297214499;-0.245485713;-7.888206234;0.653836754;-8.294836333;9.591951514;-14.70516184;-24.09944348;15.57027513;-3.594965847;-2.200862433;24.95058487;6.595293847;11.53834517;0.711575074
15.33734711;19.24026433;18.12931698;15.33233575;10.23749946;-0.087206739;-7.644336928;3.11025366;-3.63386158;12.8003681;-10.37022415;-26.9591844;19.37585727;-5.37053657;3.139127568;25.17260123;4.915504564;11.15345858;0.829059632
14.55140273;19.21950054;17.02259993;12.57329287;10.19929023;-0.230312568;-8.771541955;3.905873306;-0.373902561;13.62275307;-7.259817447;-29.36918803;23.55893794;-4.584542589;7.281787402;22.05681325;3.000757006;10.24760858;0.897407516
13.16694846;19.67946172;16.60667897;13.73268185;8.402189487;-0.531267003;-10.18929066;2.933797526;-0.094156433;11.75530059;-6.523236987;-29.75074055;27.19274527;-1.657498943;8.069547904;18.38745474;2.222914639;9.516309459;0.855540235
12.05951904;20.51979451;17.29820905;19.55192831;6.115906639;-0.719992589;-10.56643503;1.344754217;-2.33551892;8.383440381;-7.573068183;-27.47648911;29.52938859;2.055483908;5.399650283;16.79798585;3.453158556;9.752439172;0.741702427
11.64782196;21.08611916;18.44343343;27.2294144;4.943908403;-0.63314683;-9.553858208;0.69101144;-4.818049742;5.329022053;-8.548483961;-23.44835477;30.21281603;5.130275288;0.956220116;17.82404802;6.274631786;10.94397857;0.658241175
11.66479549;20.42037086;18.83973425;32.25294704;5.765149741;-0.348441207;-8.10740037;1.746034339;-5.217894954;3.806443782;-7.806945195;-19.44190567;29.22347108;6.84564791;-2.825886932;19.72313659;9.154300861;11.98496023;0.67955882
11.47094815;18.03025054;17.70172431;31.48723193;8.07379184;-0.103442922;-7.602156714;3.906101837;-3.037207912;3.746060286;-5.183806207;-16.7320946;26.81635029;7.436979356;-3.889447254;20.10047942;10.50295918;11.33021232;0.7859172
10.60612265;14.52681044;15.2769865;25.32899166;10.26942057;-0.077332775;-8.555924786;5.647114949;0.042557403;4.164793259;-1.97019792;-15.18612138;23.56605398;7.762683906;-1.357761496;17.95898613;9.807892765;8.18921901;0.881715468
9.127557122;11.47632082;12.62461745;17.44919176;10.77556021;-0.234937255;-10.13835765;5.686722305;1.657735549;4.20504752;0.302629767;-13.65415038;20.34555546;8.64563333;4.105447106;14.51031422;7.941556644;3.374805628;0.881129782
7.501694145;10.41956759;10.76928094;12.37196072;9.198315275;-0.37102971;-10.91630554;3.95195616;0.837498785;3.938460724;1.136524919;-11.35020744;18.01063025;10.29298944;10.44021682;12.13597585;6.413397189;-0.916721137;0.7844601
6.196872399;11.73827647;9.947462609;12.61651608;6.638290673;-0.308492362;-10.14957797;1.619817711;-1.139896495;4.269811569;1.251206342;-8.967353176;16.85269049;12.11974402;14.94343831;12.39614684;6.187322983;-2.380862047;0.677580242
5.345951713;14.26959325;9.559491649;17.32469855;4.877060041;-0.065953624;-8.452459718;0.237454908;-1.86414796;6.061651137;1.575653681;-8.393685383;16.23996511;13.0728235;15.54615118;14.73010656;7.018415787;-0.116561067;0.655539275
4.746533313;16.05467553;8.830078125;23.15704638;5.031133327;0.157216021;-7.227526993;0.631648516;0.079082587;9.259176496;2.081261305;-11.07381041;14.88336722;12.281865;12.06567399;16.89784799;7.802964256;4.710689857;0.738288901
4.151628356;15.73111828;7.579901107;26.65401102;6.705195051;0.161488304;-7.405864874;2.426044192;3.822062024;12.77545504;1.666481711;-16.32719491;11.71920248;9.667928967;6.567039707;16.78798498;7.589525004;9.605871532;0.852900181
3.5538902;13.53550756;6.422452652;26.35933262;8.305406697;-0.073126811;-8.650502392;4.449585014;6.899125955;15.23461275;-0.685120891;-21.1629373;6.828934857;6.129955182;2.305050202;14.12497138;6.382448239;12.43134387;0.897681075
3.190776137;11.12953602;6.197393567;23.34865805;8.268757253;-0.369605899;-9.732703941;5.617602966;7.317121882;15.94562825;-4.518301913;-22.02117695;1.639275704;3.143784755;1.693576279;10.71405451;5.096943193;12.85092566;0.831715023
3.265219614;10.34241845;7.116183494;20.0393635;6.248337358;-0.509348276;-9.700324228;5.574977622;5.226703692;15.30930956;-7.693433344;-17.27561532;-1.896773652;1.963318867;4.651649862;9.049037286;4.767301319;12.45226264;0.711376576
3.648870094;11.76556626;8.374170896;18.33447519;3.345214615;-0.415905484;-8.737991853;4.697214804;2.768076602;14.36969721;-7.792623106;-8.582080542;-2.647813334;2.895631782;8.6362532;10.40044978;5.716788944;13.41929184;0.641861237
3.871651608;14.27953766;8.629436481;18.46263706;1.247269984;-0.203275655;-7.929597561;3.621404584;2.259010478;13.94571136;-4.110393797;0.05564736;-1.202626409;5.117741953;10.4990686;13.87243397;7.3696121;16.7332822;0.685668216
3.461425305;15.90279477;7.037512699;19.19504558;0.989133559;-0.054680734;-8.172650749;2.803892081;4.313388132;14.08781005;1.477968412;4.885776684;0.404323179;7.172419755;8.829730722;17.10727763;8.791530882;21.28476007;0.807235855
2.377496741;15.33859969;4.035115301;19.04086308;2.295812574;-0.052686113;-9.287196877;2.433789473;7.484439009;14.25328619;5.663695186;4.755425122;0.013092022;7.831175226;4.932243381;18.01520201;9.432383543;24.61758387;0.901889404
1.156580165;13.03669829;1.200599012;17.36739756;3.944616058;-0.119213128;-10.17140529;2.600741876;9.642605288;13.92856504;6.082934939;1.498634199;-3.22210848;6.770078125;1.607446369;16.16131325;9.435613088;24.76652054;0.885068264
0.585600637;10.92554425;0.205741486;14.60249016;4.749244699;-0.114096324;-9.864353666;3.373239522;9.778564455;13.05980889;3.033248804;-1.780838249;-8.30877051;4.656807991;0.747004447;12.807844;9.327057966;21.76718565;0.766173829
1.09674421;10.9718257;1.59274494;11.51829643;4.33407522;0.010034065;-8.513254913;4.620413823;8.620355179;11.90561715;-0.898247127;-3.051559581;-13.15920598;2.676039137;1.829080206;9.731861558;9.459485033;17.63819767;0.643794444
2.345199225;13.63483199;4.298933856;8.366442649;3.150428203;0.149068836;-7.316746846;5.796589419;7.608846197;10.53894619;-3.012059758;-2.470442854;-16.00854555;1.884710374;2.695154338;7.877868549;9.759800873;14.82751599;0.624691082
3.346974689;17.40178746;6.339652636;4.716475925;1.886032358;0.142633364;-7.464082696;6.068413674;7.309006112;8.602122456;-2.674064586;-1.56722824;-16.45057492;2.806723279;1.959168293;6.923360797;9.977871307;14.34819627;0.732834532
3.152691457;19.8034984;6.209508574;0.185151027;0.897697032;-0.067334129;-9.033430889;4.878615011;6.834567367;5.679109412;-1.670170928;-1.443799456;-15.40014584;5.380871311;0.789319032;5.98145206;10.12311094;15.09976345;0.884247137
1.60122088;19.19346407;4.002888042;-4.614881511;0.159445466;-0.366634847;-10.87191319;2.548099916;4.872855642;1.997334368;-2.449611405;-1.686688748;-14.16690205;9.07036818;2.148463452;4.693187864;10.58809192;14.92758077;0.950892745
-0.426390267;15.97021985;1.414805229;-7.896293052;-0.354409682;-0.556984471;-11.59147704;0.318167704;1.331425231;-1.270799678;-5.77149993;-0.939719602;-13.48920456;12.92346426;7.790324055;3.684365025;11.77134497;12.55373971;0.864959292
-1.51798563;12.30543689;0.567265442;-7.725059893;-0.371383238;-0.523505547;-10.79129253;-0.394035736;-2.049524109;-2.596452701;-9.800966462;1.471065487;-13.30331576;15.63164163;15.56385238;3.975637525;13.52754696;8.777055967;0.68093454
-0.717684437;10.54450277;2.458198724;-3.64945027;0.485103731;-0.327960094;-9.40088435;0.936535756;-2.895132945;-1.278807614;-11.49145865;4.445742356;-13.31109895;15.84671037;19.78907647;5.886064126;15.00198369;5.915558717;0.543449717
1.692942678;11.45277617;6.133286952;2.367273585;2.1519429;-0.142906399;-8.831681648;3.414315854;-0.299017942;1.721086399;-9.151662134;5.679148484;-13.69083079;12.87821747;15.14503848;8.438575458;15.11390936;5.909874967;0.580163807
4.222998743;13.62506705;9.205123491;6.69673251;3.816536047;-0.089967107;-9.705060155;5.277033127;4.030438969;4.129640888;-4.067594633;3.525629571;-15.1927311;7.44;1.390129036;9.86620463;13.37989777;8.640569575;0.796747075
5.076870027;14.52991261;9.413054165;6.256110002;4.299019837;-0.134395984;-11.30668469;5.216709086;6.750531721;3.838077966;0.198262562;-1.41808289;-18.45649447;1.777056061;-15.01530676;8.881607912;10.41790482;11.88261432;1.052382446
3.369348566;12.44219906;6.181116931;0.724351386;2.958854186;-0.134802656;-12.25414116;3.453063299;5.35841135;0.479854868;0.313902309;-6.448508564;-23.15322776;-1.275852178;-24.34639769;5.701069846;7.669966997;13.00021513;1.138578885
-0.186567247;7.837733794;1.107968334;-6.935590016;0.390653307;-0.000384742;-11.76424541;1.641596642;0.17411611;-4.140535338;-4.476648612;-8.640495948;-27.79956377;0.019948722;-20.17144787;1.974394971;6.483697848;11.04316926;0.911778035
-3.642968105;3.19900683;-2.967719869;-12.26433022;-1.780149409;0.19546563;-10.36876689;1.591689055;-5.836549563;-7.218859901;-11.9554987;-7.028264872;-30.56730176;4.957744869;-4.320685362;-0.363164437;7.209304105;7.536061602;0.392024716
-5.045138092;1.341404625;-3.727954488;-12.30912129;-1.998108314;0.259524523;-9.43436579;3.76340069;-9.303870224;-6.937145102;-18.65703651;-3.332004707;-30.5414177;10.48678615;13.67994623;-0.440515587;8.9761584;5.282655332;-0.238478042
-3.721344934;3.452495535;-0.816156666;-7.704298487;0.013227911;0.050224257;-9.925691064;6.766038381;-8.945515533;-3.789767318;-22.23607574;-0.635874096;-28.41693764;12.97366757;22.69321132;1.029180357;10.30572114;6.114260999;-0.737435814
-0.75395032;8.241026874;3.964020928;-2.213641534;2.912167353;-0.375814795;-11.5273592;8.330892184;-6.294775446;-0.22381955;-22.64668803;-1.07419357;-26.01047126;10.57159421;17.36429508;2.419661465;10.10243101;9.38107055;-0.940391792
1.709996751;12.77736049;7.786565377;0.055908068;4.625954951;-0.779634089;-12.90947063;7.046063342;-4.152503015;1.159769921;-21.45392251;-4.360459702;-24.91809993;4.524883025;1.502066279;2.475520968;8.31639856;12.40165424;-0.847759664
1.85988819;14.39450133;8.5135727;-2.238620567;3.85561181;-0.915751362;-12.89590688;3.489260176;-4.158063003;-0.50659469;-20.18221148;-8.271160289;-25.38493413;-1.635780696;-14.9406114;1.18140375;5.855377216;12.51954143;-0.608828686
-0.603664299;12.30871166;5.89358096;-6.609560765;1.065446054;-0.72439491;-11.50124097;-0.163948199;-5.560335218;-3.794353909;-19.25110971;-10.59579808;-26.31417912;-4.534032716;-22.92255686;-0.42310265;3.885810339;9.14062742;-0.41800387
-4.299282334;7.904459728;1.560625867;-8.607763417;-1.813150757;-0.379515835;-9.935562311;-1.774168129;-6.168581975;-6.12328174;-18.29249073;-10.91400934;-26.40273626;-3.279055441;-20.15101895;-1.239625168;3.065969355;4.167644397;-0.393968593
-7.084679311;3.640302852;-2.049025089;-5.28406528;-2.754725665;-0.153548528;-9.589909534;-0.835115549;-4.554808962;-5.693537322;-17.26419439;-10.7780721;-25.41550375;0.046804143;-11.61787909;-1.032325511;3.22782338;0.549332603;-0.519776341
-7.413645566;1.47731364;-3.094982104;2.389786949;-1.059377808;-0.212744799;-10.88313283;1.219631724;-1.521716046;-2.731117001;-17.05569926;-12.23278008;-24.44821111;2.113586333;-4.957302384;-0.503136475;3.646779409;0.143605802;-0.677357211
-5.216248439;1.926057013;-1.189279058;10.05522906;2.227967797;-0.50884304;-12.9294626;2.220490905;0.463245675;0.829170606;-18.84867029;-15.94992039;-24.87213659;0.956598274;-4.593248076;-0.50227334;3.628043378;2.561198949;-0.744786056
-1.767417327;4.19261987;2.682328595;13.13142904;5.160297415;-0.843753705;-14.25798105;0.997449342;-0.634598859;2.865585485;-22.78421957;-20.50940648;-26.8316878;-2.538832334;-9.162971429;-1.103035332;2.980628149;5.777898766;-0.684028752
1.267794815;7.041333865;6.933136853;10.23767957;6.302824694;-1.037321914;-13.95445507;-1.728652896;-4.62913347;2.562361238;-27.28058689;-23.37920463;-28.66483764;-5.409052535;-13.7055892;-1.386854862;2.099249977;7.854747017;-0.558510647
2.885940292;9.572853664;10.23873182;4.258430699;5.649748367;-1.052364067;-12.32502224;-3.967998174;-9.204692064;0.77598705;-29.8771594;-22.78576646;-27.93918166;-4.991361333;-14.22504008;-0.17841628;1.666314719;8.291228814;-0.474133267
3.181675089;11.39982227;11.98743444;0.223824675;4.424190665;-0.984667446;-10.6441938;-4.053582027;-11.83701203;-0.859697113;-29.13461404;-19.024261;-23.43189338;-1.009563921;-10.6530062;2.849350806;2.206287818;7.981597785;-0.493787417
2.968399005;12.34577873;12.21459029;1.620176718;4.018285751;-0.950596682;-10.26224027;-1.930004883;-11.9386429;-1.258095637;-26.08488711;-14.27834187;-16.45871662;4.262273212;-6.044765682;6.631106894;3.765212649;8.003170679;-0.592130613
2.980355294;12.19310982;11.27231769;7.931306227;4.934077572;-0.986142537;-11.70970364;0.823652077;-11.45155732;-0.589353706;-23.94323975;-11.19456773;-10.31903279;7.820158058;-3.259987388;9.243009628;5.87938811;8.438495198;-0.682805677
3.29768171;10.83622186;9.555520121;15.21902564;6.49;-1.042477459;-14.27641427;2.158583417;-13.42627278;0.046433181;-26.13450924;-11.31981425;-8.080969414;8.217987104;-2.401676387;9.184647043;7.832910436;8.315337664;-0.692233124
3.385878438;8.672774559;7.416490033;19.18028514;7.412421522;-1.062404939;-16.17065773;0.93541064;-19.77615104;-0.459647529;-34.04357444;-14.44790968;-10.34010558;6.489876778;-1.279636185;6.475973127;9.061218444;6.691896666;-0.618532618
2.635836309;6.723421612;5.180339825;18.25093559;6.784736031;-1.049026095;-15.15781674;-2.506284035;-29.9931806;-2.528178591;-46.14744329;-19.11557097;-14.75290023;5.046954093;1.794155495;2.752350237;9.480496025;3.863951158;-0.528740717
0.933800887;6.161006546;3.122871443;14.41171755;4.655416402;-1.057552844;-9.56621576;-6.861803224;-41.72453032;-5.885748036;-59.12312456;-23.66385566;-17.83283893;5.555673846;5.747613062;0.27520891;9.542271774;1.535203389;-0.499467559
-1.170877825;7.495848577;1.395610331;11.25732732;1.955358242;-1.126247717;0.545237594;-10.87031553;-52.56830413;-10.04003906;-70.03017581;-27.05693806;-17.68893742;7.588426793;7.349690153;0.55191826;9.945778608;1.677093395;-0.552391726
-2.780270143;10.07649617;0.010335002;11.03890554;-0.101847756;-1.225240244;12.58474715;-13.96920385;-61.56825992;-14.65481332;-77.93908752;-29.06113937;-15.54657389;9.121544277;4.264121361;3.495654967;11.1486535;4.94446584;-0.638545892
-3.167926957;12.40778571;-1.032394612;13.07117704;-0.677593231;-1.281344078;21.77070958;-16.21712135;-69.3297879;-19.47480367;-83.94158723;-29.96318215;-14.76948888;8.379569826;-2.253152574;7.618324502;12.98200343;9.940271646;-0.682848214
-2.134087547;13.14601929;-1.55471862;14.64101359;0.34427539;-1.256290581;23.06796281;-17.81204247;-76.9396107;-24.00102765;-89.79665065;-30.25037878;-18.07121896;5.421561517;-7.681935281;11.01566444;14.6609262;13.98054385;-0.649193056
-0.017383359;12.04091429;-1.165856449;13.4747907;2.397164958;-1.19739476;14.12645084;-18.81409562;-84.80722687;-27.42;-96.43906407;-30.48322315;-25.1066037;2.137072194;-7.63524735;12.43068092;15.24630279;14.83538333;-0.570006104
2.543375571;10.0812519;0.486607945;9.639749896;4.518791539;-1.20319593;-2.471140422;-19.33933924;-92.4075938;-29.04326476;-103.4809967;-31.26207892;-32.42281155;0.695961531;-1.561384271;11.76280134;14.28954154;12.16906952;-0.515950527
4.880554127;8.712271207;3.306330738;5.373596182;5.721981724;-1.330399601;-19.48420321;-19.90917989;-98.94497653;-28.94620254;-109.8732852;-33.08062097;-35.92682409;1.792439763;6.483248583;9.868306154;12.21685273;7.655441959;-0.533469663
6.469224859;8.735488146;6.526488628;3.141380214;5.360564054;-1.530461575;-28.32040261;-21.41457627;-104.1203989;-28.17467053;-114.9395449;-36.04213209;-34.01059218;4.157112152;10.8450225;7.954962321;10.14719245;3.761454509;-0.605097967
7.021190191;9.756014141;8.968722332;3.655516139;3.423503337;-1.681717255;-23.78483485;-24.51859617;-108.2093474;-28.1560366;-118.8231132;-39.65424334;-28.88585592;5.704931103;8.693316715;6.999671846;9.224089393;2.147061455;-0.666503037
6.575775978;10.59199735;9.72702369;5.502131635;0.633347153;-1.694326409;-7.349571121;-28.9321378;-111.4346358;-29.63503595;-122.0380218;-42.93911023;-25.02784415;5.306590404;2.194808825;7.42980541;9.903031492;2.807328369;-0.66413159
5.571273276;10.28102944;8.836115465;6.567752048;-1.789493262;-1.59375554;13.34577801;-33.2567154;-113.3586391;-31.94927984;-124.6499797;-44.86472151;-25.87337148;3.681624599;-3.38439018;9.063040855;11.69129515;4.426880567;-0.602054078
4.77495788;8.85782834;7.397221544;5.945224557;-2.692103294;-1.503571669;28.67093126;-35.70129869;-113.0117509;-33.29893384;-125.9096813;-44.84108809;-31.29152712;2.695631585;-4.052316091;11.21518842;13.5250209;5.510039063;-0.537012058
4.983011028;7.305961697;6.972035737;4.684543233;-1.630321172;-1.538808394;32.28173838;-35.24543141;-109.7457724;-31.92259129;-124.7210994;-42.97606544;-37.75378212;3.704251677;-0.248604048;12.9498576;14.51267002;5.391345552;-0.527025756
6.587997245;6.787263358;8.597364009;4.826557559;0.815090729;-1.704112701;24.18016579;-32.37790556;-104.0565961;-27.35482942;-120.5843889;-39.97742563;-41.04252071;6.365250469;3.859080448;13.47957084;14.51678695;4.483520829;-0.579891881
9.289762679;7.822190507;12.0992573;7.625228976;3.314364661;-1.88858402;9.827231755;-28.80420878;-97.56917732;-20.82462038;-114.2440915;-36.8254384;-39.4002261;8.904974793;4.26866951;12.61696182;14.17916088;3.773656819;-0.647275569
12.20291755;10.06717089;16.21269019;12.47069822;4.54811432;-1.962365161;-3.704885236;-26.30035755;-92.07958998;-14.47871079;-107.4998001;-34.41774093;-34.7411106;9.581011055;0.809146793;11.01048275;14.40860264;4.078884913;-0.668888038
14.3571624;12.77454066;19.43968657;17.32850222;3.987666161;-1.887985579;-11.73960699;-25.55616331;-88.37426419;-9.996662646;-102.2656803;-33.29214214;-31.09582927;8.094984481;-2.645840426;9.90173427;15.72580041;5.595376139;-0.626556285
15.27965279;15.44107601;21.03185357;20.20196302;2.185407856;-1.746856543;-13.69046434;-25.84962169;-85.76075725;-7.609097671;-99.48821806;-33.4291589;-31.57668044;5.790723954;-1.64637782;10.41611292;17.92224707;7.923238958;-0.559725718
15.25044284;18.05160992;21.38861873;20.36023348;0.383900022;-1.659528338;-11.96677647;-25.73412974;-82.66720772;-6.196598814;-98.59490354;-34.16442447;-36.182431;4.515392726;4.684012221;12.78012139;20.22162435;10.38601401;-0.529099327
15.04045922;20.75579711;21.60293022;18.44507735;-0.284855349;-1.674890071;-9.567480279;-24.14991693;-77.81247281;-4.314520796;-97.78182791;-34.343876;-41.97996063;5.123768114;12.48883807;16.0185873;21.76467105;12.35552675;-0.561774424
15.32313117;23.35941098;22.52639627;15.63360848;0.526959617;-1.729597038;-8.303296295;-21.10668893;-71.04349365;-1.318771064;-94.95917288;-32.832576;-45.32367888;6.857158317;16.16701488;18.42354153;22.05333295;13.42657432;-0.627417473
16.19530278;25.17112821;24.07310054;12.78492172;2.255387654;-1.711819114;-8.512435774;-17.49855337;-63.28121267;2.23911259;-88.85486363;-29.23941373;-44.31827229;8.061127337;13.08321103;18.54805541;21.0938511;13.45759176;-0.666484107
17.15118109;25.39563644;25.27507814;10.30208603;3.867503995;-1.566619534;-9.730591303;-14.31837245;-55.75814984;5.164505476;-79.73443172;-24.41133034;-39.76323049;7.598035094;5.992891437;16.07182304;19.24321868;12.54583551;-0.644364466
17.49768388;23.74492707;25.01700065;8.583926565;4.52950145;-1.344033442;-11.29353827;-11.9498308;-49.22180194;6.616315905;-69.37708938;-20.21211426;-34.15715496;5.781687388;1.001079706;11.95254179;16.95925905;10.95918201;-0.582268797
16.86818111;20.73235029;22.87530168;8.310019531;4.062561346;-1.147602166;-12.46732609;-10.04397606;-43.65968071;6.769244861;-60.26518547;-18.50548394;-29.81031716;4.106843592;2.617066893;7.790221753;14.64766708;9.021952167;-0.537249911
15.44649915;17.39652422;19.44545908;10.02227758;2.954174836;-1.035851257;-12.51163841;-7.951242242;-38.57742468;6.691419982;-54.31607571;-19.88982162;-27.5719524;4.045819865;9.972449273;4.893587519;12.643968;7.001772084;-0.550061035
13.77371174;14.69869959;15.96130894;13.30766039;2.002864878;-0.972230089;-11.12941702;-5.265911528;-33.44507085;7.602417089;-51.78508663;-23.07789696;-26.91744433;5.900181315;17.38428189;3.704830405;11.23026922;5.089890407;-0.608453105
12.34515803;13.08777766;13.53716678;16.48926129;1.863727351;-0.870437202;-9.039609169;-2.060244635;-27.94486036;10.08828388;-51.0010233;-25.50377976;-26.94617083;8.581650994;18.86259887;3.893678423;10.58480427;3.50598368;-0.658984794
11.33657017;12.51959192;12.58971825;17.43354683;2.74386995;-0.689032228;-7.859552376;1.262557205;-21.97983266;13.79081933;-49.22270017;-24.89741596;-27.23548866;10.41513646;12.86879891;4.882284693;10.67360616;2.611900128;-0.656079942
10.63890295;12.77580068;12.78690401;15.07332617;4.35074526;-0.481035814;-8.92549564;4.252441686;-15.64416646;17.68408851;-44.2361435;-20.79996456;-27.87221616;10.28423052;3.404989038;6.275065948;11.19441624;2.84361945;-0.603341209
10.09715684;13.68765643;13.44316591;10.44155969;6.059131018;-0.347361483;-11.85334443;6.57818486;-9.27846721;20.65862457;-35.74962087;-14.93;-28.85985875;8.272800482;-3.427991131;7.862602307;11.6718328;4.398502701;-0.549663999
9.697439904;15.05307868;13.99334806;6.219479715;7.201908365;-0.33672643;-14.32315711;8.046021267;-3.481791789;22.02435021;-25.64301149;-10.07676897;-29.64476332;5.444875439;-4.472878662;9.33479547;11.68857523;6.880947907;-0.544180129
9.545784259;16.43608252;14.22494178;4.955221519;7.378898676;-0.389364763;-13.78760208;8.619395675;1.129382135;21.71307175;-16.81319813;-8.258448196;-29.28973342;3.077636106;-1.888424043;10.13110281;11.1207351;9.266124799;-0.591499036
9.711977761;17.22439963;14.22214939;7.25919379;6.669228947;-0.383627436;-9.979401026;8.520705119;4.384457583;20.20026934;-11.32440537;-9.43695837;-27.14616752;1.973351991;-0.845661895;9.702632108;10.22232402;10.37919318;-0.648025389
10.13960549;17.06847849;14.19952109;11.40778593;5.633689722;-0.24751471;-5.894845228;8.284630456;6.877996633;18.27981825;-9.118618847;-11.68447408;-23.40587757;2.255951163;-4.531672541;8.011296896;9.492362404;9.668436562;-0.662280757
10.72926263;16.35809079;14.39787465;14.70527534;5.057360794;-0.032536352;-5.783299192;8.557280581;9.740143408;16.79326425;-8.198812287;-12.63783779;-19.05358216;3.592410816;-10.8069523;5.780306897;9.390204103;7.712068521;-0.62198459
11.49044405;16.1950882;15.04586076;15.52919379;5.525084134;0.122205737;-11.23376893;9.64485525;13.85439222;16.3552687;-6.153005094;-11.15565516;-15.29358845;5.498630015;-13.56896985;4.157765419;10.05515146;5.980119865;-0.564838802
12.55485673;17.66624654;16.27423277;14.41699799;7.063865083;0.107968617;-18.59293438;11.13945612;19.05597636;17.12782938;-1.899936693;-7.997373367;-12.94076722;7.480772627;-7.937903657;3.960048828;11.18770954;5.892590455;-0.543525822
13.97242403;20.86758376;17.94427812;13.34655016;9.098330378;-0.058615588;-20.50986232;12.03747777;24.00874437;18.74955367;3.627463595;-5.115670674;-12.19137797;9.048609082;4.952523939;5.07644286;12.16965273;7.795256051;-0.577369097
15.45970034;24.49545172;19.53207942;13.8728636;10.7907077;-0.250067139;-11.25863882;11.43825432;27.014459;20.51208587;8.33444863;-4.175516048;-12.77203038;9.79337945;17.69941088;6.5451892;12.37906242;10.62500726;-0.635001688
16.38763042;26.49451142;20.27467308;15.73925357;11.57059234;-0.339769328;7.970987054;9.383542402;27.2586565;21.74090038;10.6542398;-5.412962474;-14.16007813;9.602698425;21.52854996;7.278353636;11.54592726;12.57651993;-0.663607554
16.13089619;25.42372203;19.60746087;17.1653899;11.49916246;-0.309487589;28.32444739;7.139839619;25.56406935;22.1688334;10.75349627;-7.597651907;-15.65997394;8.843354187;12.79425215;6.864049744;9.947139674;12.33190392;-0.637519415
14.5675722;21.54385937;17.62764586;16.56727404;11.20080762;-0.25516658;38.46743654;6.540585453;24.01393596;22.04741165;10.34121954;-9.001065287;-16.44488751;8.261298676;-3.919600176;5.794991343;8.299108565;9.965358743;-0.581469606
12.31447922;16.74435387;15.18906177;14.20631648;11.39132033;-0.2876876;32.35636581;8.720620185;24.63841291;21.89976671;11.27782735;-8.582756726;-15.81833536;8.548023856;-18.61736498;4.951381489;7.369580041;6.863235325;-0.547415614
10.42992628;13.29155642;13.44805044;12.27277904;12.32543647;-0.423190271;13.75980584;13.13092121;28.07798232;22.08101458;14.10767132;-6.568083825;-13.70248125;9.83909038;-22.66373731;4.802262493;7.520437456;4.741910902;-0.566613946
9.732788081;12.31828194;13.1140925;13.20220521;13.55650199;-0.567612025;-6.192563772;17.62536297;33.17015313;22.4710798;17.66207507;-4.137665407;-10.96252544;11.54331834;-14.56277152;5.029070144;8.479328977;4.514388894;-0.621133976
10.23580805;13.20128149;13.95518364;17.53818595;14.19026566;-0.611510605;-16.8335701;19.67456689;37.72636884;22.54124338;20.01201047;-2.592837562;-9.096944048;12.69554518;-0.603775605;4.899549554;9.524169331;5.822662176;-0.660785305
11.15344013;14.27135533;14.97626684;23.1247809;13.47566863;-0.545414117;-15.23958757;17.92868703;39.91788113;21.76176793;20.00075445;-2.624780341;-9.269437646;12.62533816;9.873802801;4.048884685;9.988811322;7.485448915;-0.649517846
11.51210931;14.23180421;15.18327;26.4189057;11.35;-0.482325717;-7.38347292;13.07115376;39.32121609;20.06200647;18.17787777;-4.09095718;-11.3026024;11.46461034;10.92875404;2.946954659;9.743587775;8.396911967;-0.598416568
10.90021535;13.11091367;14.35777071;25.03460306;8.591753438;-0.55755671;-2.458359011;7.403597497;37.01377135;18.01130564;16.46499184;-6.267923186;-13.48455585;10.1089648;3.522539113;2.590029297;9.280419416;8.137886261;-0.555084474
9.759841415;12.00404598;13.21741275;19.60821566;6.486019757;-0.792143418;-5.181912638;3.491630314;34.8201287;16.58504933;16.86080323;-8.272927202;-13.53494458;9.639242145;-6.0785904;3.640029297;9.299054588;6.915611298;-0.559542271
8.977652468;11.90521681;12.80584846;13.52800369;6.19296781;-1.047278248;-12.44250499;2.802351656;34.31717635;16.66099307;20.16260093;-9.37925538;-10.16283199;10.60003906;-11.29712004;5.749636837;10.07676425;5.075867141;-0.607480859
9.103580287;12.6978577;13.58606262;10.65797632;8.153741362;-1.121840628;-16.88445519;5.156593493;36.19035647;18.5539031;25.57170541;-9.157515605;-4.081752164;12.62803156;-9.691153166;7.693662163;11.10977921;2.762467065;-0.654612984
9.841842731;13.21440778;14.98183233;12.6816621;11.82171673;-0.917614772;-14.07766039;9.158167345;40.13939557;21.8469917;31.32993193;-7.522191752;2.336872426;14.66704252;-3.808612001;8.255922691;11.35029555;0.057793231;-0.657784599
10.24674507;12.32538998;15.77467589;17.96771982;15.83605994;-0.531240978;-6.836152727;13.11069773;45.16167521;25.58294292;35.8115041;-4.745378921;6.580133429;15.60816665;1.583423851;7.161983087;9.921357553;-2.617422948;-0.614702756
9.479044655;10.09937847;15.06883713;22.73863405;18.56491948;-0.189531878;-2.733760037;15.76737744;49.96021589;28.68401372;38.29690022;-1.406101509;7.5833125;14.93522173;3.303167672;5.274741421;6.804750873;-4.388829658;-0.56570528
7.510957799;7.980577283;13.04918105;23.67383183;18.80319961;-0.077459782;-6.86241321;16.5974183;53.35949872;30.38744952;39.03380413;1.777744619;6.245275;12.99626635;1.678863625;3.86266646;2.979501896;-4.400308263;-0.556240158
5.199906791;7.749627738;10.89231748;20.11168931;16.33864768;-0.200279764;-16.24662265;15.70259761;54.70874806;30.51597503;38.75703795;4.198165971;4.573278655;10.78303137;-0.436883773;3.522737523;-0.123247618;-2.574122947;-0.594934415
3.660952635;10.07280024;9.86119808;14.37890099;12.11941875;-0.392257302;-21.19828231;13.67279346;54.17686111;29.49456456;38.1407522;5.552215196;4.210443172;9.38336969;-0.278705582;3.643047114;-1.479184269;0.035224541;-0.645936975
3.435616421;13.82284285;10.28123081;10.12858563;7.892462637;-0.460056152;-13.05730417;11.47594803;52.7292681;28.12156498;37.53849963;5.864968449;5.489827215;9.411427749;2.79500235;2.863202173;-1.045685682;1.760730433;-0.662336004
4.112763566;16.7503757;11.21206192;9.90504002;5.423051938;-0.337607001;7.892236992;10.23471223;51.65528386;27.18858645;37.03457055;5.352824222;7.611709634;10.6848911;7.127711633;0.182312955;0.321336428;1.465081703;-0.629522343
4.680925307;17.00356219;11.08822158;13.57025292;5.652570109;-0.126049574;31.12160585;10.76772385;51.82346674;27.11183494;36.60250476;4.261190749;9.575225547;12.28029628;10.08741011;-4.16183283;1.491309593;-0.552872201;-0.57841998
4.300589522;14.33117297;8.837835222;18.53443576;8.243776695;0.004430798;42.77940353;13.06985343;53.1335633;27.75506832;36.19011569;2.802113652;10.95334973;12.93983548;9.597611702;-8.737862279;1.739410859;-2.677909803;-0.556594324
2.870356677;10.08918611;4.621595152;21.49836479;11.79165183;-0.042070279;35.69676885;16.14867974;54.59175046;28.55;35.71741954;1.191237044;11.90070192;11.66809335;4.940815865;-11.85657771;1.030207298;-3.155382584;-0.584211061
0.970715413;6.138470011;-0.341841817;20.49525816;14.60284413;-0.220613624;14.65050398;18.50198839;55.01037634;28.86205519;35.08181193;-0.324201298;12.57938988;8.264140561;-3.15095634;-12.68300128;-0.184295758;-1.488829578;-0.635617076
-0.693086092;3.560715866;-4.658400377;15.96161388;15.59539989;-0.400664861;-7.260965488;19.04086605;53.84178189;28.39340709;34.22482097;-1.526267182;12.71580387;3.521438882;-12.62484686;-11.71064028;-1.372176078;1.032211493;-0.663374181
-1.82661407;2.168586418;-7.602613419;10.30053516;14.79119362;-0.480302802;-18.21344679;17.83300465;51.52770273;27.38085839;33.21061653;-2.32174038;11.79314011;-1.056791293;-20.32154207;-10.30846059;-2.180808524;2.152535195;-0.64224899
-2.606071582;1.063653373;-9.27370835;6.372399977;13.14062517;-0.454387946;-15.66593209;16.08117088;49.12529442;26.47160111;32.23362742;-2.73270063;9.684666665;-3.941872177;-22.71067691;-9.749055856;-2.430043945;0.269310056;-0.592375022
-3.266838624;-0.35573605;-10.0477774;5.928906736;11.85470039;-0.386498066;-6.757642092;15.29933574;47.55429943;26.37062828;31.54495885;-2.726129857;7.044103706;-4.328790299;-17.47230635;-10.44935226;-2.007564023;-4.341780905;-0.560320557
-3.661331734;-1.820736739;-9.927324158;8.893209764;11.71402265;-0.327960629;-1.386903182;16.28015914;47.09453596;27.48764099;31.37176527;-2.019736551;4.9767189;-2.523248893;-5.329032535;-11.90044723;-0.890745387;-9.61661013;-0.575845089
-3.255035964;-2.482676762;-8.45705853;13.74329725;12.77307425;-0.270456702;-4.061619749;18.62559608;47.49790456;29.77405442;31.8961149;-0.103908494;4.221744419;0.287737198;9.315617924;-13.19924256;0.689452291;-13.05841557;-0.624490778
-1.624699247;-1.745706331;-5.333113111;18.55121911;14.54375077;-0.175336899;-11.15932892;21.16349064;48.50488056;32.77791292;33.26721834;3.417604733;4.592577058;2.767332103;20.07074038;-13.69287545;2.16642731;-13.37550013;-0.66125616
0.960836108;0.095164037;-1.151165982;21.92396054;16.40095342;-0.040626381;-15.31407119;22.86102211;50.1967848;35.80748256;35.55626148;8.36770021;5.222266547;4.213777115;22.11863102;-13.28136376;2.85891922;-11.23427624;-0.652439599
3.430825118;1.929500501;2.478834694;23.3317216;17.86739093;0.071825709;-12.59070802;23.47195198;52.80354929;38.09595024;38.61855561;13.81386225;5.406418665;4.891983339;15.43894595;-12.28170303;2.437573802;-8.644143082;-0.606756411
4.47810925;2.538415479;3.753949911;22.85852154;18.63830034;0.084367638;-6.025995475;23.43408963;56.14841161;38.96553922;41.96268013;18.42721983;5.237107784;5.691306469;5.205678606;-11.09271153;1.278822821;-7.49211805;-0.566996712
3.447726533;1.386750637;1.940746145;20.82698496;18.48714914;-0.01779124;-2.580491594;23.21290821;59.3168194;38.05233966;44.79549998;21.22851367;5.380850054;7.342612298;-1.386163786;-9.959179247;0.338664861;-8.30697027;-0.570188128
0.890694074;-1.041322572;-1.881256392;17.7177702;17.28635393;-0.158703034;-6.391156454;22.7627127;60.98821599;35.56944455;46.3132582;22.19530995;6.170367016;9.738393623;0.051341711;-8.945546313;0.529189325;-10.07617563;-0.613339671
-1.669821789;-3.521448165;-5.270633667;14.38073339;15.20381095;-0.230864836;-14.38459528;21.62778989;60.27641117;32.4224925;46.10216477;22.2261538;6.904399802;11.84333594;8.020138046;-8.0236529;2.018495105;-11.12314545;-0.656459159
-2.645953171;-4.737583681;-5.887305834;12.116538;12.87388271;-0.192027303;-18.20083217;19.57361;57.42029636;29.94597142;44.38038643;22.41796875;6.161344651;12.28766355;16.17528844;-7.141447295;4.009542446;-10.32241013;-0.659831358
-1.358735596;-3.912491598;-3.003257011;12.21396661;11.26283919;-0.10747665;-10.94415948;17.10379028;53.72617501;29.23530154;41.89418533;23.17449212;3.031408682;10.26851276;17.88916224;-6.248461893;5.226737228;-7.79710542;-0.620821179
1.577847716;-1.151063003;1.998588699;15.02765719;11.16754854;-0.091202376;6.792958064;15.2837114;50.76;30.40853721;39.5254229;23.85580872;-1.763176545;6.164665129;11.07188301;-5.342710359;4.788170972;-4.71821374;-0.576098709
4.697413264;2.58705839;6.509398673;19.27384992;12.63761485;-0.194464774;26.54281868;14.9197784;49.40677518;32.33993744;37.87335424;23.29826206;-5.972744553;1.446488161;-0.296153666;-4.558806339;2.817505627;-2.480430711;-0.56741571
6.616307755;5.858179946;8.366843714;22.33049109;14.77948521;-0.345751974;37.49796003;15.77763091;49.50545763;33.20869491;37.06689593;20.84541678;-7.314108564;-2.084715189;-9.044620244;-4.201042913;0.334247596;-1.879301871;-0.60286065
6.83128852;7.354786905;7.178307512;21.70263212;16.19458368;-0.405657427;33.64029095;16.57536568;50.26317947;31.65153242;36.86101902;17.08217952;-5.29109766;-3.267321112;-9.942317607;-4.601555007;-1.483343996;-2.781191481;-0.649543819
5.893777693;6.565807028;4.428553128;16.8344164;15.84041123;-0.295772678;17.24891882;15.87163143;50.99457408;27.78602003;36.86307272;13.6435957;-1.84404194;-2.173997836;-3.27989739;-5.827600699;-2.092391323;-4.363023285;-0.664331587
4.922417025;4.13298033;2.366813822;9.912189208;13.73979477;-0.086691324;-3.211686773;13.19423479;51.5251304;23.32956555;36.70303606;12.17003906;-0.143581851;0.010833338;5.632037563;-7.456455153;-1.853209067;-5.651738353;-0.633923058
4.832269591;1.586268936;2.487594947;4.791858054;11.0102315;0.042049412;-18.50806262;9.498110339;51.99094736;20.60160996;36.10445671;13.16198956;-2.306359001;1.727270056;10.47369084;-8.671139039;-1.631430896;-6.017255764;-0.58703755
5.782393275;0.460722994;4.63154565;4.505149348;9.145085635;-0.052923891;-23.19234828;6.54990139;52.37692983;21.00550305;34.95333254;15.60230787;-7.732665012;1.928261086;8.325481317;-8.715165694;-2.113572286;-5.414866639;-0.567540858
7.145391059;1.271477442;7.238919944;9.008325535;9.022728924;-0.348334348;-16.80326751;5.700436148;52.37038593;24.03369686;33.43399039;17.65461687;-13.362642;0.599877575;1.30080749;-7.42782937;-3.383688573;-4.348418686;-0.593643694
7.959250023;3.071226778;8.485951618;14.91555999;10.33568916;-0.653259197;-2.377758179;7.001205353;51.74378535;27.53894866;32.12962365;17.93547193;-15.70811315;-1.351606445;-5.480058594;-5.442464948;-5.021542436;-3.614459494;-0.641117447
7.556105669;4.026317168;7.491144128;17.66748618;11.84477341;-0.746309624;15.40848635;9.328192818;50.87530713;29.13606063;31.87668168;16.42728394;-13.18079611;-2.720704979;-7.721143205;-3.829400056;-6.524653327;-3.913460594;-0.666000959
5.999936792;2.72549718;4.821599165;14.77281935;12.27720694;-0.542447434;31.131487;11.34581513;50.77599671;27.77775244;33.29469527;14.37577605;-7.054283123;-2.725532806;-4.657283043;-3.38;-7.633680277;-5.456619494;-0.645531003
4.096252919;-0.693126377;2.056329345;7.804291654;11.23278436;-0.15449885;39.25271416;12.4786381;52.39673343;24.40698035;36.22790829;13.28036191;-0.473218383;-1.410197919;1.076547706;-4.031974074;-8.317377482;-7.758263123;-0.599195311
2.969640405;-4.489704851;0.772311184;1.568983395;9.467076287;0.197767833;35.86252591;13.11117954;55.69896598;21.24733263;39.54798594;13.74723361;3.633763561;0.464559823;5.817009315;-4.868313988;-8.54356184;-9.788782178;-0.570433754
3.430547253;-6.481719239;1.62029822;0.878056752;8.371101286;0.35201218;21.34321559;13.93775391;59.32239195;20.26573706;41.6181444;15.04289071;4.196989561;1.919629783;7.390135668;-4.715716695;-8.159607464;-10.49226237;-0.58615721
5.476338451;-5.600553272;4.019826423;7.15168416;9.026264014;0.305950022;1.700731088;15.11555393;61.2878843;21.90381218;41.24434287;15.64014861;2.185140648;2.318468105;6.008104973;-2.930727376;-7.05118847;-9.411815268;-0.631799269
8.22718985;-2.658168705;6.582356943;17.31044367;11.48401036;0.182517776;-13.72771154;16.00811415;60.31944588;24.92418522;38.4967167;14.32681413;-0.508141815;1.675139553;3.363261714;0.169733002;-5.41219484;-7.014832668;-0.665031304
10.37767655;0.299005668;7.954237589;25.79302449;14.73236915;0.101707527;-17.80591046;15.74799762;56.78767911;27.37733247;34.77365403;11.08246148;-2.43330031;0.579822666;1.100452361;3.510574368;-3.791208515;-4.442166431;-0.655239911
10.94;1.570014648;7.579421945;28.27225718;17.32909175;0.078032011;-10.71233529;14.10283026;52.50725572;27.91535902;31.9815833;7.145906378;-3.233971063;-0.162993288;-0.050691992;5.92140126;-2.767537721;-2.784669691;-0.611958199
9.841252385;1.074193482;5.973552623;24.41850273;18.25441152;0.030290143;-0.298676855;11.8520803;49.50977795;26.52567686;31.36117106;4.27976443;-3.368864733;0.041474445;-0.157948453;6.794455005;-2.48847598;-2.35806465;-0.575846043
7.978636308;0.305080737;4.387794633;17.8004244;17.44174579;-0.115275657;3.475232132;10.30570185;48.72614002;24.28154475;32.77998246;3.74562274;-3.427596443;1.30279398;0.407095252;6.326827217;-2.499319704;-2.504739637;-0.580741235
6.65777815;1.002705784;4.065896427;13.13888226;15.70334877;-0.329999361;-3.625679693;10.33920001;49.56259489;22.44851713;34.97550262;5.613529594;-3.679972943;3.217207016;1.164447941;5.257148075;-2.093089962;-2.11078951;-0.622189466
6.748730274;3.621471595;5.50868747;13.0184148;14.1669057;-0.48580945;-16.09836767;11.73409016;50.60505883;21.6738987;36.51869857;8.748232756;-4.065749875;5.063454864;1.419593827;4.336075807;-0.946395975;-0.509202407;-0.661719652
8.114018339;6.838120547;8.15739301;16.41477081;13.60857663;-0.454892264;-22.18781151;13.34993323;50.78278846;21.78622732;36.74402571;11.39938588;-4.375089778;6.124004565;0.388610982;3.889966828;0.498347174;1.873538922;-0.662773578
9.703213882;8.498005599;10.68274922;19.90976258;14.0675586;-0.218247013;-12.81043116;13.95870813;50.02789533;22.18783274;35.9752087;12.04356808;-4.322868609;6.007710739;-2.16103063;3.717201022;1.290317643;3.628786703;-0.624745058
10.25821563;7.235115227;11.72520152;20.45130508;14.9097802;0.110469237;10.72234837;13.05111094;48.99554007;22.40523814;34.9832825;10.08105837;-3.525970616;4.850505722;-5.244193131;3.326650448;0.73044057;3.220292578;-0.583437983
9.146591131;3.478840785;10.66035865;17.51446937;15.24353698;0.363766591;36.35576891;11.00940878;48.25524517;22.3630339;34.22809723;6.109791844;-1.627700968;3.292708395;-6.849698144;2.343262072;-0.960498244;0.038990575;-0.577608182
6.755162078;-0.906183767;7.937734758;13.18945171;14.43089202;0.433253417;49.06356192;8.623105347;47.76866654;22.27733495;33.54840383;1.674603785;1.332324516;2.198342764;-5.282321735;0.841493827;-2.64427643;-5.047176128;-0.612843433
4.201424008;-3.97960556;4.798096533;10.40354426;12.43695301;0.326278292;41.22383355;6.469048973;47.10455802;22.38762789;32.51029632;-1.424515762;4.587026004;2.204467067;-0.779621975;-0.585018923;-3.005577051;-10.03276968;-0.656440361
2.610995208;-4.951437748;2.564137884;10.81003906;9.87037979;0.132200364;17.9394673;4.714575779;46.08782731;22.79738773;31.01981608;-1.992808122;6.800485741;3.319179102;4.083500362;-1.083728074;-1.496818387;-12.80935968;-0.667980454
2.492126187;-4.348417599;1.961521025;13.89452118;7.714867661;-0.057539874;-6.628826645;3.432413664;45.15848204;23.49679626;29.58699805;-0.060301917;6.839948688;4.826121092;5.955445095;-0.02853815;1.23815437;-12.26098043;-0.637030109
3.60865891;-3.149999333;2.876988454;17.71493521;6.875097896;-0.201713663;-19.13011632;2.995321543;45.01953885;24.43540521;28.97377106;3.114571692;4.690372016;5.62462623;3.326524256;2.532445598;3.800186288;-8.771219152;-0.592806561
5.336830243;-1.781971725;4.633644723;20.42965801;7.733795106;-0.299476408;-15.79769541;4.034780302;45.88258855;25.50260528;29.53979715;5.747956305;1.743151034;4.872317805;-1.876719047;5.771504826;5.008579192;-3.887559007;-0.576850312
7.137097338;0.11040755;6.505315397;21.36065487;9.922765784;-0.348178803;-3.920180101;6.880557592;47.06969703;26.43812114;30.88630936;6.59510316;0.056497066;2.55967382;-5.300370424;8.463479212;4.684583757;0.588038555;-0.60425223
8.758065216;2.967310905;8.071807177;20.96118879;12.43692981;-0.324800374;4.562891447;10.94904813;47.4491602;26.83195235;32.13099251;5.725117612;0.99052715;-0.37929156;-3.353278613;9.681726821;3.6820178;3.502236604;-0.649617219
10.09497309;6.429787937;9.214197366;20.04003906;14.07393153;-0.213672956;2.183245769;14.70286554;46.40492943;26.31847882;32.5745014;4.453047596;4.196229412;-2.562682126;3.773303868;9.361402189;3.190172698;4.741321488;-0.670823263
10.95857218;9.187387518;9.884410983;19.08474488;14.0140285;-0.047911832;-8.932625445;16.39172219;44.48387197;24.86476888;32.16721863;4.40029742;7.751292874;-3.007783755;11.76718295;8.301632862;3.868469727;4.976647386;-0.648359176
11.06979017;9.820824367;9.964287383;18.21234676;12.25338709;0.087793932;-19.22486295;15.13549216;43.07520788;22.90616272;31.37803609;6.282318515;9.38827018;-1.80113861;15.10311069;7.549401274;5.447476983;5.037373487;-0.603512728
10.33575176;7.983458381;9.399911618;17.57;9.645219506;0.109151507;-18.97752256;11.57277656;43.30665879;21.15915793;30.62932034;9.286626591;7.932064065;-0.127658828;11.16469327;7.59594746;7.028560423;5.367135159;-0.578452674
9.13357646;4.899487975;8.477651439;17.59518889;7.492549741;-0.00133906;-5.211468131;7.568419791;45.06428904;20.19742015;29.87204893;11.54974088;3.935541683;0.412793559;2.420678298;8.024172406;7.786056724;5.892253414;-0.596829743
8.251204233;2.673918892;7.900193362;18.75971368;6.883896466;-0.174122806;16.4086702;5.14598659;46.99427758;20.08826103;28.74047311;11.46735303;-0.836377929;-1.198213053;-5.135611158;7.941386865;7.530582483;6.303152141;-0.641697295
8.408704711;2.87666156;8.442793266;20.99734163;8.125133657;-0.301223659;35.3504211;5.357695766;47.53273808;20.35917428;27.15314178;8.928665544;-4.548311255;-4.714933674;-6.21026324;6.895170861;6.771029738;6.460613121;-0.671363882
9.684318426;5.466592897;10.35076895;23.38228194;10.58764749;-0.315077457;42.61510157;7.813380166;46.12755556;20.31363426;25.74305405;5.556022774;-6.17373445;-8.702400423;0.06556635;5.506129447;6.315770124;6.578641445;-0.658359134
11.33364399;8.863306269;12.95399486;24.45776926;13.06679377;-0.231536661;35.57866297;11.09020698;43.63892652;19.45725778;25.58073918;3.708490801;-5.617751575;-11.33674196;9.687056711;5.192555535;6.747751088;7.036497831;-0.615106079
12.2358101;11.08153459;14.91220585;23.07629955;14.45051316;-0.123702203;18.75199002;13.64916083;41.59975691;17.74517384;27.27999092;4.902301191;-3.309189278;-11.44564581;16.82366789;7.071244534;8.109649728;7.981602249;-0.582309997
11.7025088;11.05231896;15.05258079;19.18469458;14.31315146;-0.055181543;0.695110608;14.63040562;40.9845871;15.54028871;30.21304141;8.750774165;0.143429703;-9.16926262;17.907735;10.8548122;9.920963878;9.070140081;-0.59090656
10.04941145;9.182236733;13.25090612;14.0102711;13.09267609;-0.034625963;-10.73606787;14.10818813;41.53412958;13.39805176;32.61322824;13.18059789;3.91465769;-5.876329809;13.64943704;14.69435463;11.43394078;9.60457477;-0.633128065
8.455118561;6.849553777;10.67;9.519262627;11.76032165;-0.028094954;-12.2592966;12.81489382;42.16894015;11.86308014;32.68578976;15.77941369;6.804579376;-3.42589482;7.681181877;16.2531737;11.96295762;9.0180901;-0.669745105
8.154297189;5.337195444;9.074027095;7.472117466;11.19783227;-0.008223919;-6.403280343;11.64083121;42.06029062;11.34710612;29.9819947;15.33184786;7.470815093;-3.223113415;3.267876772;14.31821734;11.16740147;7.354683737;-0.666740829
9.532189309;5.028398251;9.621420503;8.582201527;11.6683346;0.014205724;0.361349417;11.21787812;41.36474146;12.01803324;25.9513549;12.49229543;5.186582167;-5.577144537;0.92231562;9.75130878;9.219353933;5.346418614;-0.627145622
11.79221873;5.36093782;11.98487957;12.15764952;12.69626652;0.008208168;1.716813654;11.71291738;40.9641188;13.64255295;23.11777114;9.190019531;0.611422274;-9.642186273;-1.229333667;5.00923931;6.791831712;3.964552173;-0.588245841
13.46014111;5.405367352;14.47583394;16.3490417;13.40784308;-0.032485998;-4.255067821;12.81038545;41.47769489;15.4849573;23.36531374;7.269960206;-4.196168554;-13.88916494;-4.929319677;2.531603597;4.817104422;3.732579805;-0.586730105
13.37249533;4.532956247;15.15146249;18.90581477;13.0975866;-0.070511585;-13.24072987;13.85056635;42.49475584;16.47549411;26.55718623;7.367042085;-6.813140781;-16.81642034;-9.507314972;3.170257213;4.061531483;4.316354116;-0.624339008
11.44338369;2.721931666;13.15592934;18.18526482;11.65987273;-0.058898618;-16.9236842;14.12337248;42.79476392;15.73327803;30.53633526;8.75577928;-5.947039433;-17.5585511;-11.91194316;5.802557124;4.714392953;4.741918494;-0.666171013
8.676970965;0.434615752;9.347178673;14.01946573;9.629814868;0.002983393;-8.531066123;13.26311982;41.42850598;13.2020281;32.56331875;10.14569778;-2.304639964;-16.16068191;-9.074361703;8.344501109;6.255732223;4.125848661;-0.673296099
6.45185368;-1.696621455;5.754829207;7.981636828;7.835269134;0.053211356;11.64597301;11.55176266;38.71865627;9.916871125;31.1820041;10.71732583;1.877580909;-13.45626682;-0.625198254;9.304316556;7.738138411;2.383840843;-0.639215626
5.618878493;-3.125083358;4.249050494;2.760566373;6.898948787;0.019939257;34.86194629;9.877260847;36.23972074;7.554321363;27.18186397;10.60574059;4.34623531;-10.64174669;10.29342947;8.660205107;8.339563181;0.35707873;-0.596032277
6.048370708;-3.520646864;5.358542096;0.812737506;6.900354306;-0.097580703;48.48452944;9.257219113;35.68439197;7.419056974;22.99233505;10.55346579;4.273049247;-8.744746093;18.79328263;7.476789979;7.827305251;-0.780604841;-0.58447019
6.893030336;-2.839681056;8.047469783;2.996743385;7.383945877;-0.199455492;44.12;10.16762403;37.49900353;9.526993896;20.98740318;11.12397548;2.573449561;-8.21737606;21.20775429;6.740370933;6.613832524;-0.406388876;-0.615728449
7.302737053;-1.357221233;10.55227936;8.074851324;7.679044864;-0.151311011;23.7605774;12.14785291;40.42719955;12.50299533;21.93483381;12.16212249;0.95055256;-8.834564409;17.06820079;6.491453163;5.380039063;1.062473406;-0.660887643
7.035608018;0.414927333;11.62529409;13.51145654;7.321428596;0.096009825;-0.857853084;14.03658746;42.39324332;14.48280095;24.65128056;12.91539331;0.506648171;-9.936445324;8.85858356;5.981426941;4.565618764;2.477392978;-0.677889943
6.544522375;1.976063554;11.28585403;17.11125094;6.330210829;0.43537335;-15.86910653;14.74775613;42.06048386;14.44129737;26.99812974;12.6587463;1.034480622;-10.87171533;0.110250955;4.619702002;4.113430734;2.84388132;-0.650935983
6.538500535;3.131902029;10.59652212;18.3635466;5.193984212;0.655588968;-14.73067586;14.04654007;39.82890667;12.9678924;27.39951517;11.27750864;1.460681799;-11.37583664;-6.515749628;2.765562175;3.632137734;2.088392061;-0.605408492
7.390492519;4.088090749;10.71868622;18.49245168;4.582709195;0.59128786;-2.571915393;12.71861171;37.46870304;11.84786578;25.77996514;9.350305402;0.943671903;-11.64824131;-9.906078256;1.578292691;2.797701539;1.084715782;-0.584228818
8.828168184;5.197822532;11.99858668;19.16338947;4.939798786;0.255342412;8.02101609;11.95015523;36.67304197;12.6865793;23.3515982;7.72062403;-0.349128544;-12.08281023;-9.98914664;2.01650691;1.642320292;0.905203828;-0.607656036
10.09661471;6.527746782;13.74501823;20.87262107;6.168056148;-0.158203147;6.820900252;12.35342716;37.66935022;15.57182123;21.56159277;6.953118272;-1.390995481;-12.84430379;-7.053044077;3.883862565;0.514006114;1.900887882;-0.654165469
10.4385022;7.639068799;14.79638784;22.36049845;7.588011641;-0.412115159;-6.014716315;13.39072066;38.97221341;18.79702392;21.06158444;7.109247959;-1.149610324;-13.60383811;-1.697594388;5.825890626;-0.205105376;3.377052815;-0.680449087
9.548714364;7.86650083;14.39227442;21.60657659;8.22802275;-0.399376187;-19.91039097;13.68368899;38.4590192;19.90386075;21.42034478;7.953355209;0.626063769;-13.64938359;4.752576656;6.368517223;-0.340270077;4.160468706;-0.661966916
7.727012589;6.94604949;12.69287101;17.65427249;7.336443281;-0.213419628;-21.9561332;12.02145048;34.93620256;17.31360948;21.66090291;9.325904829;3.294637149;-12.3256374;10.23675667;5.159182447;0.07143908;3.615239387;-0.616096895
5.681392745;5.454977547;10.61345916;11.74328138;4.855804372;-0.058986708;-6.943587279;8.319400398;29.02719146;11.3655887;21.10007813;11.32147432;5.852027665;-9.51193959;12.87770201;3.345408172;0.947969933;2.261320418;-0.586052889
4.144789014;4.575662647;9.168434913;6.692623321;1.56134086;-0.078309815;18.33422623;3.784804679;22.77084093;4.023396502;19.83935664;14.14239842;7.562074199;-5.798176967;12.32115003;2.718324653;2.260600342;1.435843181;-0.600440783
3.533357335;5.221411452;8.83891705;4.871121264;-1.29223382;-0.236607254;39.73912274;0.131873962;18.28854119;-2.494183173;18.62124252;17.82090843;8.200389127;-2.212475395;10.2906188;4.279868432;3.915298097;2.207656155;-0.646284993
3.797444311;7.16069494;9.381926141;6.303519375;-2.685213736;-0.359578562;45.70519687;-1.587247952;16.50499885;-7.120097656;18.2736639;22.10592146;7.891394629;0.338955598;9.580530646;7.386691242;5.537023375;4.394271018;-0.680948361
4.486997973;8.908041002;10.11768831;8.464379399;-2.504963417;-0.287259666;34.84425958;-1.669040593;16.76811062;-10.37200209;19.20887806;26.61111503;6.889018294;1.555809053;11.99400541;10.16351937;6.446517287;6.504205788;-0.672008286
4.96057461;8.622775805;10.3923881;8.03940093;-1.716254261;-0.012238463;15.7923468;-1.454191093;17.49890644;-13.58408473;21.2924886;31.03102055;5.570694282;1.833185745;16.76003906;10.85554319;5.99168589;6.727755273;-0.627815597
4.639497264;5.442566953;9.864320803;3.373123922;-1.830886228;0.313244351;0.078824491;-2.265400315;17.29988023;-17.62218033;24.04577197;35.15428218;4.526762865;1.904612933;20.77118693;9.058163551;4.05495688;4.266011881;-0.589948386
3.221763519;0.244288105;8.487425045;-4.265545299;-3.933829563;0.503479759;-5.984774958;-4.380786954;15.74902419;-22.10239785;26.9132714;38.63398549;4.404407016;2.289444656;20.63044389;5.908382899;1.315010414;-0.013021333;-0.594364281
0.793275094;-4.822589437;6.338085661;-11.58410058;-7.875902444;0.488829659;-4.265875216;-6.798165452;13.45538497;-25.67162633;29.380537;40.79467941;5.400753601;2.925648492;15.06751153;3.181104903;-1.044718692;-4.116148503;-0.637526383
-2.199158963;-7.76945053;3.517970296;-15.64867612;-12.2114553;0.362533706;-1.188800958;-7.952644723;11.50115372;-27.05516592;30.95829651;40.82308655;6.782362989;3.237784905;5.957468942;2.066033717;-2.064033949;-6.283530103;-0.679396288
-5.107877868;-8.138724854;0.224878157;-15.93206059;-15.0066021;0.289347138;-1.458105013;-6.855792991;10.73396056;-26.01480986;31.21121823;38.37302325;7.009160299;2.589236682;-2.771908091;2.54345033;-1.660518252;-6.160898251;-0.680794022
-7.319956008;-7.283586418;-3.126181147;-14.50311711;-15.04627433;0.358077055;-4.648046536;-3.836251022;11.33798888;-23.49809629;29.94733383;34.15644816;4.649081565;0.804205108;-7.489671446;3.690407524;-0.691054039;-4.926846646;-0.640286497
-8.47221945;-7.329644288;-5.925232924;-14.28646858;-12.64858132;0.504454082;-7.014235724;-0.365774845;12.83972223;-20.93213609;27.46958061;29.92751699;-0.447479636;-1.602203823;-6.781010027;4.496727522;-0.323393988;-4.310998245;-0.595894704
-8.554380892;-9.576042152;-7.601351388;-16.76909972;-9.512446261;0.567466945;-6.05932731;1.895614218;14.44081795;-19.26007813;24.64350731;27.63330526;-6.634774474;-3.648343683;-1.749698101;4.485698458;-1.156262204;-5.264911727;-0.589678428
-7.862006424;-13.50287581;-7.929816703;-20.86205417;-7.662256087;0.428774962;-3.210277792;2.177261048;15.45910601;-18.44543254;22.61565726;28.18283516;-11.16797285;-4.420152469;5.16382403;3.772177249;-2.741617643;-7.276879948;-0.628163767
-6.833808382;-17.08289272;-7.175971005;-23.6629554;-8.175326486;0.117974954;-2.166270146;1.086988926;15.67691842;-17.73739424;22.27809645;30.72361767;-11.74659908;-3.566153092;11.70218838;2.747918927;-3.872991423;-8.802164862;-0.675821119
-5.858714482;-18.13151224;-5.944316928;-22.44268874;-10.53745611;-0.200779244;-4.800629182;0.215354421;15.45786748;-16.39361096;23.79913847;33.07890182;-7.844997425;-1.441893806;16.54965425;1.824059176;-3.431900063;-8.43567393;-0.688082437
-5.142366803;-15.71456903;-4.826057488;-16.40540342;-13.04481844;-0.345850997;-8.868240489;1.131550378;15.56608712;-14.26832584;26.53125784;33.17857155;-0.901576368;1.159203211;19.13491801;1.420890297;-1.178357831;-5.934123653;-0.653238563
-4.685116478;-10.67657572;-4.096756095;-7.131493705;-13.95705462;-0.243351666;-10.001237;4.402512798;16.7336446;-11.87065557;29.3593108;30.51706656;6.681271766;3.471875984;19.14808484;2.002400546;2.062213481;-2.366862676;-0.603858009
-4.368416636;-5.051911834;-3.677216306;2.335457373;-12.6131986;0.033265865;-6.244917992;9.210964482;19.17196133;-9.955047643;31.25862239;26.55548547;12.88530454;5.095068864;16.5151772;3.86341873;4.901277267;0.638141025;-0.586616895
-4.097952585;-0.895929029;-3.36564029;8.951251238;-9.787644753;0.328270721;-0.682472498;13.7620808;22.32171044;-9.032152456;31.72056772;23.71588642;16.78377241;6.005089356;11.89149569;6.703117359;6.183563877;1.934311032;-0.618464404
-3.924831939;0.645050849;-3.140350031;10.80092331;-7.114576577;0.51210027;0.825043941;16.21364412;25.06094176;-9.156148123;30.84367004;23.67361803;18.30235804;6.320314946;7.02045656;9.408997273;5.539969949;1.426019369;-0.670258266
-4.069790045;-0.459991121;-3.280880384;7.541724197;-6.031824857;0.550106509;-4.738348286;15.60215759;26.32353926;-10.04850444;29.14297963;26.21142098;17.58777367;6.077614896;4.268671315;10.46685054;3.412594423;-0.158221271;-0.693643139
-4.815476871;-3.532322781;-4.195604394;0.324813978;-6.955363984;0.49349422;-13.55308109;12.28486082;25.77340982;-11.34714561;27.28261053;29.48629357;14.77824809;5.233990186;5.347438937;8.912307677;0.664988952;-1.991820971;-0.66640621
-6.302525612;-7.717080271;-6.06582189;-8.554957696;-9.156471541;0.41925393;-16.72338791;7.712082077;24.07332824;-12.73940973;25.883762;31.47118201;10.39476251;3.868854897;10.04076052;5.166803218;-1.884999452;-3.746095405;-0.613802904
-8.337048914;-12.23908192;-8.556901891;-16.26336022;-11.30414441;0.375638951;-7.122902481;3.704489486;22.51056286;-13.92201628;25.39954405;31.42374899;5.775166374;2.342745034;15.94963117;1.021228217;-3.740723887;-5.604419558;-0.585409712
-10.34327009;-16.33884342;-10.81385318;-20.36332475;-12.24105086;0.368326938;14.00657612;1.642487294;22.17735654;-14.52608233;25.96958456;30.23956824;2.782642076;1.17591272;19.63217046;-1.385318873;-4.764964212;-7.748027328;-0.608692711
-11.53991904;-19.14700677;-11.78506892;-19.88012508;-11.52165533;0.37972993;36.42259046;1.971834991;23.24613432;-14.16977576;27.26281303;29.47299528;2.693280088;0.665778372;18.5486113;-0.932170165;-5.08923831;-9.791828838;-0.662739561
-11.29513435;-19.76800278;-10.72320908;-15.89743213;-9.499676742;0.39143192;47.39473162;4.214533725;24.85528846;-12.65459669;28.47569275;29.90498245;5.10059401;0.555338565;12.64091184;1.774994054;-4.991260582;-10.68194834;-0.697240989
-9.489561206;-17.61884282;-7.610339223;-11.09803666;-7.055739059;0.391389689;40.68468997;7.384339192;25.71602655;-10.15832465;28.66295468;30.89821528;7.928362798;0.114586408;4.582438661;4.896365793;-4.752565503;-9.209605266;-0.679522916
-6.676909416;-12.82805106;-3.287551448;-8.286029891;-5.190141397;0.372198023;21.05103337;10.51262069;25.03869762;-7.251046436;27.34432754;31.09654749;8.837639186;-1.29871474;-1.472988995;6.668000283;-4.493852491;-4.828778074;-0.625702305
-3.918056235;-6.422675999;0.796396452;-8.748476189;-4.651508669;0.334994101;0.699150654;12.99493765;23.13082117;-4.685876231;25.01265111;29.85738243;7.062727501;-3.571717151;-1.983391976;6.522929579;-4.066517487;1.777499047;-0.586300826
-2.339533124;-0.135227722;3.136058064;-11.60113365;-5.668326016;0.29902952;-9.560788604;14.64253068;21.23138528;-3.075751668;23.07615967;28.13404937;4.144043959;-5.640959446;4.110102987;5.214271176;-3.132717933;8.799189877;-0.599118972
-2.627111516;4.152223975;2.803193878;-14.6358973;-7.822726015;0.30041531;-7.548671299;15.52877558;20.67806054;-2.633199372;23.08225443;27.93960069;2.775492806;-6.077944169;14.65540743;3.974645872;-1.468403381;14.07335476;-0.653284059
-4.710712986;5.141068198;-0.110566416;-16.05;-10.14139183;0.368253642;0.095081796;15.8139326;21.97887484;-3.092806293;25.62887473;30.71233981;4.539434601;-4.159307006;25.10637926;3.509819577;0.689768649;16.11752989;-0.698616806
-7.798996845;2.732287774;-4.466105273;-15.71093799;-11.46064476;0.491082258;4.392283036;15.66702937;24.43462657;-3.830273971;29.73471485;35.88860285;8.35957301;-0.644532431;30.61338832;3.666368255;2.563563168;14.84471697;-0.692310185
-10.74017258;-1.789415542;-8.52668525;-14.95827304;-10.98122733;0.605270375;1.500140439;15.2645309;26.57479415;-4.121398644;33.24234852;40.92587974;11.07034652;2.434090211;28.49400296;3.935079245;3.199514268;11.55891008;-0.639546306
-12.52533429;-6.20214491;-10.72210942;-15.14959767;-8.743491729;0.625842028;-4.962412627;14.7671891;27.10010061;-3.462093953;34.11866012;42.91120864;9.81874646;2.99158721;19.84709252;4.186296727;2.117784386;8.236949491;-0.589569598
-12.69489016;-8.341129698;-10.37713546;-16.23326913;-5.703765264;0.504143618;-8.233852349;14.22751511;25.67706367;-1.851343433;31.79813667;40.60847727;4.4360416;0.344436887;9.278754999;4.87011144;-0.213734874;6.502189805;-0.590031738
-11.47309634;-7.205169279;-8.024453458;-16.64446089;-3.283226668;0.268133802;-5.170644418;13.50094964;23.05234379;0.09783435;27.58044864;35.38780979;-2.193032668;-4.165283198;2.579253846;6.480272298;-2.496631625;6.859349864;-0.641888967
-9.592958692;-3.545791382;-5.105071348;-14.69922368;-2.599058038;0.00942538;0.682841073;12.29090005;20.45442628;1.353450357;23.73063645;30.29939528;-6.189649146;-7.922128486;3.421410239;8.8325018;-3.326238101;8.594329292;-0.697462902
-7.912562818;0.505543566;-3.183864833;-10.32340992;-3.830542428;-0.176661606;2.447777181;10.37100191;18.75753719;0.981832341;21.90348634;27.96978576;-5.609212112;-8.718294845;11.00153843;10.93230373;-2.066259914;10.34490498;-0.704461476
-7.007775368;2.665167116;-3.096558153;-5.555128769;-6.119444763;-0.251784148;-3.307683802;7.854925578;18.02215211;-1.222205598;22.06282536;28.88977159;-1.902610725;-6.191032335;20.27320204;11.67785186;0.741681831;10.95675083;-0.655352251
-6.929320108;1.877789158;-4.51088357;-3.207246085;-8.070740235;-0.248494957;-12.46299429;5.282135183;17.69866523;-4.386239516;22.71280736;31.3272163;1.297537182;-1.97772836;24.93474395;10.83597694;3.73790145;10.09517171;-0.595559465
-7.236283453;-1.043657564;-6.163941134;-4.634664838;-8.539175516;-0.230048828;-15.83542431;3.3769069;17.24473309;-6.834648686;22.23397812;32.8189253;1.120155372;1.516238829;21.46208518;9.395896242;5.620078125;8.275017899;-0.581762203
-7.288689882;-3.983438761;-6.645128849;-8.417753048;-7.227461809;-0.234972073;-6.5601665;2.580833265;16.58892064;-6.981857975;20.22791668;32.00373172;-2.237818263;2.806937783;11.55398001;8.887619209;5.909336643;6.368274877;-0.628517445
-6.648758227;-4.948795303;-5.265003495;-11.16547452;-4.778272607;-0.255833651;13.63638992;2.672744011;16.03502632;-4.381575182;17.76287391;29.39049186;-5.712191117;2.220517075;1.213223361;10.15393591;5.088103279;4.979941681;-0.693388284
-5.369919563;-3.392780676;-2.492648913;-9.982652837;-2.37526241;-0.26711252;34.58057552;2.786940705;15.71855982;-0.238889478;16.3255467;26.59804446;-5.922873368;1.368709912;-3.090131344;12.59025441;4.0826615;4.124637107;-0.715619247
-3.996929381;-0.52250806;0.300246046;-4.757404276;-1.133215735;-0.269621129;44.40528192;1.889765395;15.16745943;3.071686378;16.38836941;24.85196531;-2.011276107;1.711442702;1.346073373;14.52642701;3.541123185;3.376034015;-0.673180664
-3.25609533;1.60338496;1.635831045;1.541361045;-1.602240941;-0.303190158;37.79358197;-0.556812508;13.48457971;3.320847164;16.86402079;24.05418871;3.533084587;3.397724062;11.71751952;14.48465287;3.454365682;2.306541498;-0.604721817
-3.604030728;1.522664175;0.79433082;4.884015841;-3.572076091;-0.410576127;19.43280678;-4.181260277;10.13985213;-0.190376179;15.99278696;23.16020392;6.728199292;5.293695859;21.66975137;12.30876913;3.337302388;0.853733936;-0.574701831
-4.90820968;-0.66903884;-1.760024414;3.059444365;-6.190313504;-0.584987092;0.254563469;-7.838437692;5.752750466;-6.074187881;12.96641901;21.43622661;5.157368839;6.093364786;25.55431613;9.261719731;2.732018596;-0.638379059;-0.61307664
-6.471121242;-3.482373751;-4.631325391;-2.728261161;-8.312616857;-0.754276246;-10.34332925;-10.240929;2.102727146;-11.5494096;8.88495945;19.41696853;-0.188915853;5.507276116;21.9930142;7.04511565;1.586437434;-1.670132109;-0.685861213
-7.40395182;-5.129405123;-6.263964161;-8.726055717;-8.973169374;-0.825301596;-10.27011987;-10.70192198;1.132512381;-14.00234657;6.11937222;18.66183343;-5.703306018;4.487227793;14.33714421;6.57196869;0.237613868;-1.885713537;-0.725339345
-7.131415577;-4.71993162;-5.78333912;-11.28732795;-7.828647405;-0.757158663;-4.542780137;-9.527440484;3.54891444;-12.4518204;6.474234168;20.45777516;-7.907549468;4.298625344;7.90986223;7.477191263;-0.906110302;-1.204681345;-0.693166558
-5.717369786;-2.744049151;-3.432243146;-9.332967082;-5.377631974;-0.601611293;-0.111673782;-7.816598502;8.091483892;-8.01027877;9.620349359;24.545421;-5.985943239;5.270660182;6.204496432;8.673807845;-1.662536659;0.227419033;-0.617693939
-3.809733848;-0.616124446;-0.378071946;-4.853874201;-2.77610918;-0.472387977;-0.389936061;-6.796140659;12.16917037;-3.095079999;13.15255141;28.97318759;-2.196466943;6.363706938;8.797812047;9.367287557;-2.111736531;2.116922796;-0.569359731
-2.24473205;0.279626665;1.97090956;-1.216888973;-1.245098544;-0.46371863;-3.724088287;-7.093197389;13.55299596;0.045955794;14.34794499;31.29079694;0.029108904;6.010571457;12.2802352;9.606566197;-2.403191725;4.012263073;-0.595372215
-1.563276834;-0.643884587;2.735099872;-0.6578096;-1.347770948;-0.582037087;-6.250134609;-8.376106714;11.92687743;0.530362404;12.27951514;30.21515265;-1.278404946;3.575145409;13.20941254;9.941863988;-2.563989908;5.278370779;-0.674099935
-1.73533888;-3.006047529;1.988739433;-2.838735063;-2.594282768;-0.745103767;-5.913626906;-9.569301768;9.093244417;-0.942977499;8.576807811;26.51243932;-5.26785542;0.175125948;10.71982484;10.60552336;-2.494251351;5.247097646;-0.733026599
-2.239850351;-5.807470226;0.629133756;-5.415086486;-3.707827299;-0.847929377;-3.958806107;-9.516236684;7.60109909;-2.854049065;6.173501964;22.44087914;-9.082208979;-1.929896584;6.913556156;11.06222837;-2.124479801;3.615438702;-0.715586267
-2.4171646;-7.937778578;-0.195826502;-6.000168473;-3.461723743;-0.841557498;-2.982949749;-7.709189197;8.799413097;-3.964539622;7.014495431;20.19248692;-10.04403839;-1.018282604;4.982718118;10.40991086;-1.550957517;0.870440756;-0.635456858
-1.855098169;-8.553747329;0.25402768;-3.94534808;-1.552695174;-0.76327776;-3.934307836;-4.658638796;11.82296248;-3.998605532;10.56349809;20.4933145;-7.484892219;2.636742154;6.686023684;8.295472092;-1.006146872;-1.666474877;-0.566450083
-0.580659795;-7.283160105;1.945123975;-0.646126219;1.126995412;-0.699120968;-5.199608629;-1.663674135;14.32755501;-3.53976559;14.31230074;22.33603212;-2.953863543;6.72764939;11.0958187;5.488610468;-0.701115832;-2.418081914;-0.575009102
1.020881391;-4.337745778;4.175860571;1.694296686;3.073029148;-0.713690948;-4.630528888;-0.080863509;14.40708693;-3.373171285;15.85340489;23.92405405;1.117790272;8.41423007;15.38748106;3.512708518;-0.704019137;-0.526141205;-0.656837964
2.465248284;-0.535319323;6.043706382;1.763493242;3.234690311;-0.803593668;-2.298720611;-0.500742679;12.15465455;-3.841390709;14.79700315;24.02966874;3.117160149;6.289298993;16.88177861;3.548147184;-0.966660517;3.420561972;-0.737795185
3.427951258;2.89441256;6.961706025;-0.004485402;1.791638798;-0.905433526;-0.913779612;-2.341998504;9.59445259;-4.663861719;12.96444378;22.7626164;3.065656435;1.359267106;14.77147341;5.483089632;-1.443753683;7.519258693;-0.741006558
3.861362933;4.789895208;6.915529941;-1.948339563;0.042989311;-0.943901142;-3.068281915;-4.164556138;9.034021731;-5.249766623;12.74752422;21.29306186;2.158811393;-3.661613765;10.41538526;7.906450072;-2.14920292;9.613904974;-0.659694809
3.937979198;4.641123789;6.342838672;-2.521757843;-0.540592337;-0.879321844;-7.744453539;-4.563506298;11.19447176;-5.167351668;15.05654924;20.87980089;1.633503209;-6.178970447;6.239321833;9.079326301;-3.071326302;8.648342029;-0.56711327
3.887368336;2.886749407;5.760596375;-1.360083008;0.591061;-0.724433876;-9.698665168;-3.093798036;14.67077649;-4.385051121;18.59492438;21.9914436;1.929651722;-5.31584477;4.194509328;8.131100039;-4.045466922;5.37363441;-0.551164167
3.833077662;0.636364619;5.405332999;0.682967899;2.652434677;-0.530550804;-3.095892778;-0.589038987;17.16520229;-3.155475845;21.0373584;24.10768387;2.686701712;-2.198878763;4.803054701;5.567945663;-4.764889632;1.861176322;-0.631755712
3.714439627;-1.063025055;5.109951138;2.406637347;4.101534972;-0.363265878;13.11707484;1.401728892;17.43906327;-1.723783138;21.05521719;26.19964468;3.369205269;1.09583735;7.204564558;2.766087659;-4.990844744;0.116614688;-0.73810554
3.327445462;-1.901224792;4.466682839;3.238066664;3.777246008;-0.28326905;32.68428209;1.721603819;16.31313473;-0.150405482;19.42834732;27.41387296;3.876881588;3.001315879;9.906456622;0.93326933;-4.800500528;0.761835748;-0.770637978
2.465359554;-2.390626665;3.145948321;3.522513201;1.740887566;-0.331337358;45.12540275;0.479766182;15.85959392;1.614301859;18.30244862;27.45257775;4.634549734;3.23864538;11.63233489;0.380217384;-4.613718062;2.722473871;-0.693727411
1.094346993;-3.275417729;1.165477255;3.975278203;-0.790265242;-0.51069811;42.72775598;-0.987486094;17.49182528;3.515685789;19.27049557;26.48561164;6.155500723;2.520590866;11.81731471;0.590948963;-4.897919477;4.122910903;-0.573544802
-0.529815787;-4.739374026;-1.042879663;4.845028146;-2.327595961;-0.771724826;26.28117482;-1.11221175;20.62725938;5.273514519;21.96382904;24.80772556;8.484765239;1.663675138;10.63507167;0.872566502;-5.752007414;3.698415467;-0.522022912
-1.892361957;-6.093636442;-2.79873082;5.548851263;-2.119290623;-1.017296374;4.972441169;0.65154565;23.11335116;6.485265625;24.36417928;22.57377289;10.97211529;0.940648075;8.679038484;0.928422657;-6.737972279;1.666837755;-0.593883163
-2.427162612;-6.265769061;-3.489813887;5.117060139;-0.544509984;-1.141223225;-9.768822701;3.286421286;23.06371387;6.870431032;24.52386057;19.77967442;12.5443703;0.121351836;6.501360663;0.875683191;-7.172262896;-0.561076341;-0.730613276
-1.828916998;-4.751056834;-2.900859434;3.092339011;1.322416786;-1.085650628;-11.95730645;4.882397522;20.49204396;6.444431623;22.15980604;16.41429725;12.29896246;-1.032193802;4.232458525;0.803997318;-6.702118413;-1.558416195;-0.807262571
-0.304926023;-2.265810197;-1.408599864;0.124911329;2.551349726;-0.879511945;-4.529553698;4.099443125;17.28672096;5.481946569;18.74773014;12.60378603;10.05531556;-2.399652669;1.505083258;0.401111273;-5.700251304;-1.012504806;-0.745399861
1.409909312;-0.523677147;0.07269477;-2.284181119;2.921905424;-0.625209369;3.819398229;1.324840819;15.54458338;4.327468957;16.13334823;8.647998413;6.543069209;-3.603400785;-2.190518206;-0.920951424;-5.095365552;0.051147757;-0.591245891
2.345756343;-1.214071559;0.435420933;-2.774161899;2.842761365;-0.436650242;5.68495974;-1.435726704;15.79310823;3.249035411;15.03959236;4.98047455;3.106414862;-4.382136453;-6.854229959;-3.465420916;-5.69;0.089563051;-0.483186721
1.788836224;-4.8787945;-1.077190406;-1.126497238;2.816626341;-0.370470165;0.256927244;-1.972615347;16.79857324;2.477833878;14.93152818;2.12486416;1.052253587;-4.768575126;-11.46253955;-6.758525417;-7.461516727;-1.746649227;-0.52998975
-0.285616553;-10.47377675;-4.365258461;1.512552925;2.982342071;-0.399456693;-7.059421609;0.409247882;17.24875136;2.375293434;15.39122241;0.652855132;0.968010661;-4.848241281;-14.09657623;-9.607851399;-9.415432155;-4.926264312;-0.705383215
-3.101955862;-15.90825285;-8.311810166;3.428327401;3.120634239;-0.444428663;-9.891353791;4.204440966;17.79722487;3.504455338;17.61587381;1.075647354;2.391838535;-4.376986754;-12.86734127;-10.74348471;-10.17101072;-7.853637047;-0.858118292
-5.398546477;-19.17188561;-11.16306364;3.61779418;3.047521496;-0.435146072;-6.359397136;6.690610746;21.39111937;6.418726095;24.31959731;3.627447106;4.067291136;-2.764216365;-7.191673655;-9.591734341;-8.893669936;-8.910860729;-0.839061146
-6.029794514;-19.30650984;-11.35375075;2.60371555;2.964434172;-0.351349721;-0.25696205;5.955857791;31.11678742;11.21508808;37.61469392;8.017843404;4.685210944;0.387344739;1.435733964;-6.620991287;-5.899180938;-7.455713737;-0.640434454
-4.539058562;-16.67354131;-8.36566046;2.120487701;3.39222657;-0.217501487;2.693900894;2.476245396;47.00017809;17.14945795;56.34406097;13.32738003;3.681838138;4.593744649;9.852143403;-3.029130231;-2.476651937;-4.109854102;-0.422071423
-1.387525123;-12.49680415;-3.098283439;3.823132808;4.717220991;-0.067125369;-0.017249891;-1.011892143;64.42467338;22.66259656;75.18194285;18.1898192;1.570004883;8.364283414;14.7635941;-0.017540983;-0.046268265;-0.231220157;-0.389181386
2.287031931;-8.097333686;2.536669576;7.926175264;6.753192581;0.084376579;-5.660646264;-1.370242181;75.90278987;25.94233875;86.75430057;21.24693119;-0.443929489;9.992370183;14.55466701;1.856637798;0.75440575;2.978076862;-0.613589057
5.242819954;-4.303834697;6.611312165;12.79935807;8.738531893;0.235471577;-8.952397801;2.650151486;75.4335841;25.79025186;85.77022296;21.6870216;-1.307838174;8.828393982;10.24620476;2.883488421;0.430889181;5.111891157;-0.946863075
6.717627681;-1.274626188;8.176991603;15.90276455;9.829136173;0.376420018;-6.89773064;9.381588864;62.5383987;22.31973006;72.46729654;19.60960068;-0.830530004;6.046852452;4.964821637;3.924469854;0.230416897;6.604299839;-1.106895133
6.712170058;1.328073096;7.637322671;15.47530045;9.724846745;0.482415743;-1.438513028;15.30291316;43.04972725;17.06489886;52.9397343;16.03464851;0.269139538;4.14434102;2.213030477;5.887523584;1.299012117;8.272429008;-0.880621935
5.850259874;4.001578404;6.281480506;11.80459898;8.93941141;0.537168737;2.390732637;17.49456585;25.94475143;12.39809627;36.00040523;12.53682788;0.983564483;5.32631233;3.957951357;9.235946979;3.972764683;10.72830262;-0.288527694
4.941039671;7.062586081;5.333628515;7.154961186;8.493977458;0.56513288;1.06748529;15.73833801;18.30503695;10.53214604;28.56967879;10.64027461;0.787937929;9.865021441;9.623628443;13.71986355;7.618956513;14.00985627;0.417537995
4.525637571;10.40540332;5.200578344;4.35833235;9.25354354;0.633462853;-4.216524402;12.73539458;21.72939595;12.59082595;32.45810726;11.20125181;-0.074952388;15.67314628;16.4911796;18.41398469;11.04167057;17.56997594;0.92281103
4.668458219;13.45820735;5.427995918;5.017441272;11.38007813;0.808790353;-8.633254534;12.25578804;32.33990264;18.16659079;44.27061912;14.02330879;-1.014217592;19.53544811;21.20567989;22.07352899;13.13594601;20.55475747;1.056465783
5.07762505;15.42392154;5.327552841;8.543388907;14.2616997;1.099199482;-8.110697935;16.50948489;43.91;25.52415242;57.99568359;17.89228036;-1.814098818;19.23595153;21.54371407;23.72121147;13.40826866;22.20736182;0.884663394
5.428414545;15.76445051;4.730068359;12.65623452;16.91496347;1.434094521;-3.083916179;24.56939389;51.64080769;32.32;68.29638867;21.07667085;-2.975874224;15.11836488;17.54506772;23.22120581;12.14310115;22.23082724;0.631918523
5.65108265;14.67284048;4.245086088;14.9568762;18.5481922;1.707804032;1.820360181;32.91243684;54.11753752;36.52681091;72.56548262;22.12625949;-5.311466767;9.970479015;11.4815046;21.48696471;10.21137865;20.96821777;0.50553497
5.993642086;13.16810378;4.820474805;14.47207059;18.93158293;1.856701641;1.971592489;37.66181491;52.72696945;37.21113976;71.08903758;20.60228024;-9.092866972;7.285180566;6.695359293;20.0804835;8.651228389;19.30093214;0.562186644
6.837280622;12.62040679;6.96503533;12.16529967;18.42404292;1.905300861;-2.924226704;36.98731599;49.7211762;34.88545107;65.97902105;17.32665857;-13.50725526;9.07228754;5.866194982;20.32569876;8.192742167;18.26428616;0.706951741
8.409779462;13.91993709;10.26689257;10.17617531;17.7463501;1.939339967;-8.323513443;32.11108482;46.70986138;31.28999196;59.92832354;13.94168511;-16.97481958;14.67169435;9.573143076;22.45757322;8.904611904;18.53441653;0.802469911
10.59989622;16.83924345;13.59927501;10.40506049;17.68217201;2.027242202;-8.847538175;26.39490954;44.43935962;28.65628443;55.33415472;11.96329696;-18.18143414;21.2859829;15.95477931;25.4168017;10.12804064;20.06122724;0.785312197
12.99302932;20.08893657;15.85579043;13.40086419;18.81985867;2.159324073;-3.371754239;23.25777127;43.3539825;28.72063144;53.70356757;11.86040391;-17.04561186;25.777517;21.75460459;27.51643485;10.78342678;22.08607592;0.698398774
15.09224112;22.09962262;16.64843505;18.17661139;21.35218822;2.260751219;3.430970153;24.31010283;43.9;31.91568603;55.16987524;12.74031553;-14.83087063;26.50079562;24.2408609;27.57543779;9.956093108;23.56428354;0.63090481
16.57107842;22.01343646;16.4569723;22.9052017;24.94748898;2.268026881;4.849621626;28.75697394;46.15201764;37.14947798;58.33835222;12.88127012;-13.26993162;24.05182948;22.85247518;25.7205538;7.465465453;23.74417194;0.633495887
17.40190747;20.18438975;16.17327067;25.94839431;28.77401332;2.198490494;-1.689383282;34.18624048;49.31394829;42.32822203;60.89444683;10.81656187;-13.35912066;20.63459466;19.45540326;23.25647296;4.059732228;22.5405519;0.684624236
17.80435248;17.84390906;16.44958748;26.62551223;31.77222364;2.144902586;-11.33766411;38.03296998;51.9210482;45.38596282;60.98067898;6.297989244;-14.75206787;18.63164084;16.94046366;21.68912188;1.060988616;20.48308247;0.726374623
18.07929517;16.21559834;17.35682176;25.42709441;33.14066008;2.194249651;-14.68892918;38.8003169;52.84786707;45.27857357;58.56165779;0.521817033;-16.1992999;19.33259604;17.07749472;21.63421207;-0.365982187;18.31632747;0.724597061
18.44744259;15.75510896;18.53698479;23.71072383;32.80073163;2.342503888;-5.030548084;36.50150288;52.28189706;42.39935341;55.66671428;-4.533036702;-16.63969268;22.48313833;19.19028612;22.42780274;0.123475943;16.5488593;0.694474023
18.97313217;16.03486251;19.6009861;23.07370575;31.51911686;2.487168633;15.64993717;32.35599733;51.65451298;38.2125989;55.0590824;-7.238782136;-16.04312608;26.69639555;20.72289136;22.69861411;1.880798865;15.23189718;0.674311177
19.57367413;16.24245282;20.36321;24.61498974;30.52326492;2.512915716;36.93272605;28.10953636;52.40421536;34.37463198;58.14882789;-7.223425618;-15.33971597;30.29092628;19.36409163;21.41466988;3.680224658;14.03807405;0.681832594
20.06636743;15.79872535;20.73883993;28.32248772;30.77851876;2.398990163;46.75407197;25.33648466;54.58791795;31.90236002;63.76774532;-5.518449657;-15.53842455;32.03950978;15.11335371;18.58924073;4.435764961;12.50765443;0.699303764
20.22114791;14.61013913;20.51371106;32.88159983;32.3659589;2.249571997;39.77476589;24.90553264;56.63662022;30.86061852;68.92795864;-3.912594409;-16.7942449;31.54559218;10.58043612;15.17293129;3.76378142;10.29510021;0.699181483
19.83130761;12.89535248;19.34897911;36.14962748;34.38329152;2.210087891;21.00782609;26.67932361;56.60660461;30.64779107;71.13677162;-3.944157432;-18.19869571;29.24206104;9.11494456;12.34895485;2.094084052;7.358339912;0.67882673
18.82442384;10.93692022;17.14260431;36.23874666;35.4674231;2.333722146;1.988387095;29.53100082;53.90224585;30.56061441;70.47364846;-6.123701006;-18.45776796;26.13631619;12.1156573;10.8822348;0.361364513;4.115905386;0.664901717
17.38567997;9.107126571;14.45377972;32.69799068;34.62451638;2.513755886;-7.490589195;31.76216435;49.91480629;30.20120348;69.66714702;-9.776379581;-16.90690259;23.4130271;17.65653915;10.99755357;-0.460227042;1.532158322;0.681962639
16.00118982;8.117120677;12.5131339;27.03361187;31.8455429;2.549198013;-5.747433704;31.86083954;46.90395857;29.50837409;71.94693093;-13.50698854;-14.06986091;21.98065114;21.65689158;12.68538093;0.270619696;0.957136987;0.719638697
15.3275836;9.06188621;12.61387685;22.07473046;28.12901611;2.299634491;0.931678152;29.28761044;46.02744952;28.54065464;78.2955238;-15.97141808;-11.35644639;22.09093893;20.84755156;15.92416866;2.663058205;3.562104998;0.736843543
15.89036866;12.90745682;15.21735659;20.41899212;24.91911674;1.805469824;4.311510637;24.83738192;46.28094577;27.31465038;86.33682192;-16.53721491;-10.15909742;23.21721707;15.30253384;20.46193809;6.226372449;9.492102934;0.703887099
17.75253824;19.59584497;19.44623129;22.8915382;23.32404994;1.272508611;0.945549295;20.28317048;45.4001731;25.87800133;91.88270184;-15.52845744;-11.01378863;24.32497005;8.552219372;25.36584229;9.927009697;17.23679706;0.641077517
20.36497055;27.4612989;23.4407297;28.04771389;23.57655271;0.92936601;-5.736820658;17.4304844;42.04558258;24.50838301;92.03911824;-13.97422585;-13.36392538;24.4646546;5.133339714;28.95386523;12.45517131;23.83344942;0.609610146
22.73432813;33.62588469;25.42283768;33.08347974;25.00575464;0.870702657;-9.27412588;17.11951376;37.35220769;23.75811692;87.46879658;-13.00744794;-15.98142698;23.37524368;7.413312059;29.50965461;12.74668656;26.11558721;0.654545593
23.85398109;35.37979654;24.74320025;35.53603712;26.46961049;1.00970461;-6.310729363;18.79335761;34.34440225;24.17914539;82.01400369;-13.21781013;-17.6749678;21.70357504;14.05883408;26.46261082;10.58431692;22.47459506;0.750825187
23.16757534;31.74032233;22.15742777;34.60678733;26.96282222;1.170607711;0.327040144;20.90886214;35.51943474;25.87233262;79.94044538;-14.29710793;-17.84043304;20.63248999;21.18388973;21.12257309;6.88394274;14.04966029;0.810266653
20.80360874;24.11048928;19.14696611;31.26010171;26.07956151;1.2359095;4.201811003;21.92085183;40.56627642;28.22743553;82.91813788;-15.19301631;-16.63779964;21.08575316;25.12103644;16.19593246;3.327253566;4.419620932;0.756716723
17.46069795;15.51656848;16.82453363;27.19463949;24.14;1.222435881;1.219739773;21.2002657;46.22118756;30.13379085;89.01889544;-14.72643458;-14.84452617;22.99522841;24.61909146;14.1842573;1.409671842;-2.23184244;0.60923542
14.03706367;8.904422269;15.26213224;23.59381746;21.97164627;1.22852398;-6.177571391;19.31074575;48.55032178;30.58800948;94.38160029;-12.34171159;-13.53049134;25.13970363;20.95204528;15.71278046;1.46845545;-3.440958283;0.492003839
11.23327579;5.641104608;13.70915357;20.60154398;20.47603031;1.309853304;-10.30692693;17.51371771;45.89915287;29.28790899;96.12311446;-8.528135741;-13.64602215;25.74345879;16.25524339;19.04361182;2.412063529;0.197567854;0.5421835
9.33035588;5.17312041;11.43646002;17.7554032;20.17764388;1.402659841;-4.234900165;16.87988755;40.11527714;26.77352627;94.21645734;-4.604083518;-15.58141372;23.54065108;11.78441275;21.23773472;2.46349704;5.570446676;0.776343302
8.199043215;5.901302169;8.453885386;14.78995688;20.9506019;1.367796739;12.22256838;17.60906943;35.02159184;24.00312925;91.03243608;-1.94390026;-18.83675718;18.67683804;7.589893307;20.19999591;0.488528283;9.105369035;1.027168069
7.455442002;6.464299873;5.500335301;12.00476447;22.05529632;1.118817058;31.33261408;18.97203113;33.37215509;21.68393689;89.15815455;-1.113859762;-22.03456619;12.86168732;3.608787103;16.13373382;-3.033449202;8.960861334;1.023999824
6.641360596;6.451569455;3.355341498;9.91968621;22.49107574;0.719713342;42.26128557;19.84903061;34.77125072;19.86531675;89.37505995;-1.487541275;-23.43039011;8.604437712;0.81297052;11.33366301;-6.169441607;5.905076977;0.583174841
5.368638631;6.168174598;2.110078125;8.679389362;21.51264033;0.361077273;38.43330615;19.46294327;36.22325797;18.08897844;90.34351719;-1.625368145;-21.78242264;7.913400987;1.0504018;8.476497532;-6.80320369;2.408227462;-0.222315268
3.436599171;5.891590522;1.064247769;7.905062596;19.04558237;0.226647009;22.06387659;17.82671632;34.79318001;15.94426755;90.01493483;-0.200365939;-17.12236092;11.18658955;5.541806592;8.686300253;-4.149927403;0.73642271;-1.049708475
0.932326197;5.404543164;-0.635918994;7.197693395;15.75815868;0.355871359;2.61755452;15.65760586;30.13563555;13.55639898;87.42075948;3.120947996;-10.91427888;16.94109248;13.38641413;10.79708854;0.585854746;1.464206354;-1.465668706
-1.734864787;4.219551831;-3.158492759;6.758855672;12.72315673;0.612513883;-9.59316773;13.86643439;24.82;11.59805889;83.36380445;7.409637113;-5.413124112;22.55859138;21.57265039;12.31127057;4.919091466;3.39076405;-1.21487082
-3.944535541;2.215455981;-5.681847579;7.36419356;10.84722413;0.782783544;-10.0501816;12.97323418;22.25404689;10.80540912;79.62140671;10.97945191;-2.546310337;25.6386363;26.71604989;11.28602168;6.678211915;4.735194942;-0.399144024
-5.135611913;0.020434417;-6.928217297;9.500403096;10.39970509;0.724055605;-2.348077735;12.80336148;23.97695263;11.37991938;77.52595605;12.33107174;-2.968746738;25.20089369;27.19912653;7.734556929;5.360263884;4.569423142;0.564022688
-5.116035983;-1.278840116;-6.136804807;12.37347298;10.92429441;0.451586707;5.119906236;12.61737028;28.52112289;12.7482883;77.15097718;10.95315066;-5.833221269;22.07352932;23.98042561;3.555550947;2.315245746;3.389876423;1.190293208
-4.206969043;-0.899995676;-3.700438307;13.84497424;11.58250455;0.108011755;5.477132459;11.56880207;32.6416834;13.87055426;77.61265413;7.540942334;-9.353875693;18.28662114;19.46578446;1.12291447;-0.304554365;2.498250547;1.227633005
-3.084897686;1.030166935;-0.950533371;11.7051877;11.70624319;-0.145718148;-1.798862009;9.21445907;33.74729906;13.8659154;77.96047439;3.583046243;-11.7633368;15.8624411;15.49637238;1.612989999;-1.020613072;2.801106496;0.807020185
-2.387032356;3.523776892;0.743807689;5.500495835;11.20656318;-0.228192037;-10.68516757;5.79447862;31.50030627;12.49995816;77.72942055;0.614028932;-12.0995662;15.71529957;12.21416395;4.24885533;0.113577957;4.02054935;0.339324944
-2.335285546;5.376294359;0.858691014;-2.56586262;10.58235642;-0.160918163;-12.9429376;2.136462661;27.43873588;10.20876371;76.7394134;-0.466922407;-10.46693081;17.26437481;8.687321777;6.908065656;1.782237147;4.899563604;0.222372937
-2.649373632;5.881462413;-0.084459364;-8.623247369;10.53159553;-0.023779025;-3.906543609;-0.760152012;23.23392106;7.69920562;74.5695179;0.259166293;-7.781940957;18.91430061;4.527939449;7.574530114;2.473171024;4.176735087;0.554360795
-2.823097999;5.095737629;-1.100273658;-9.533472537;11.42127124;0.103269673;14.07625032;-2.234457189;19.2719855;5.465426767;70.45975188;1.793023424;-5.259585274;19.05825142;0.830465075;5.609837977;1.503125262;1.548155397;1.052810778
-2.565576308;3.557800984;-1.585255018;-5.000386503;12.96255698;0.168073139;32.68441835;-2.289347709;14.76532143;3.577788939;63.90544967;2.623066239;-3.909462428;17.00032688;-0.565488615;2.051916353;-0.677776083;-2.08444129;1.244523619
-2.072802679;1.806031787;-1.742357749;2.239089206;14.31323694;0.144705965;42.42305732;-1.544933685;9.098783233;1.850029297;55.41681822;1.352750486;-4.190855046;13.29873642;1.146149305;-1.144535823;-2.974277802;-5.200545284;0.80664513
