Channel 1 - P4;Channel 2 - O2;Channel 3 - P8;Channel 4 - T8;Channel 5 - C4;Channel 6 - Cz;Channel 7 - Fz;Channel 8 - F4;Channel 9 - Fp2;Channel 10 - F8;Channel 11 - Fp1;Channel 12 - F7;Channel 13 - F3;Channel 14 - C3;Channel 15 - T7;Channel 16 - P7;Channel 17 - P3;Channel 18 - O1;Channel 19 - Pz
-4.551960315;1.628828947;12.40791061;8.305831434;12.15025547;-24.57253919;-99.13134726;-3.205284356;50.01515574;-16.16038927;42.93556796;-22.49697882;-103.3729716;23.42072109;-15.98361047;-12.36058252;-53.36112074;25.97287992;-9.203947228
-8.564950561;0.73716162;9.232482677;6.964702474;0.230822487;-19.38872425;-46.52583573;-6.15435024;28.06327196;-11.98685489;25.44790166;-10.64017275;-55.34373783;8.496915106;-14.49810964;-1.684804646;-35.56453395;11.81528458;-11.3307532
-10.78969556;0.19106172;3.528607427;5.465607816;-12.98323898;-7.566564462;18.87809736;-6.369226544;4.774176899;-3.395716696;7.581785288;5.868299753;7.591686376;-10.75017823;-11.54187924;4.795696914;-9.713011676;-2.90735228;-8.638194245
-9.69763137;0.709883599;-0.860429034;4.48459464;-18.4936336;3.703687545;58.65640374;-4.341272692;-7.205025689;3.726176992;-0.939849235;16.52055443;51.12417191;-23.37512831;-9.91913084;2.252871983;7.840222209;-9.569536306;-2.884557381
-6.127633837;2.3563596;-1.414006851;3.747706944;-13.31053777;8.366786357;55.59799155;-1.617599567;-4.005643538;5.370552521;2.50683099;16.33642679;56.99450326;-23.25533156;-9.62947035;-7.259488444;8.372872701;-5.809485436;2.366827102
-2.615474316;4.440808805;1.382677455;2.359121671;-2.154962813;5.40901776;23.16166212;0.252884897;7.813926486;1.81158564;12.33949177;8.747375466;33.33067749;-12.82283677;-8.371612811;-16.32785342;-3.917328814;3.63066875;4.258430294
-1.463618075;5.925666117;4.746541218;-0.135473404;6.62392948;-1.091400928;-7.969763371;0.63228981;17.17942203;-3.27198471;19.64145557;2.144070105;5.563886735;-0.560426987;-4.010627852;-17.73385323;-16.49203697;11.18123075;2.498030469
-3.082370665;6.085651941;5.987015409;-2.882159479;7.448419245;-5.509720273;-14.31213874;-0.045636715;16.99406246;-5.975246693;18.96503344;3.072043418;-3.822630013;5.471117354;3.089492356;-9.7798951;-18.78775103;12.20457554;-0.755540839
-5.86552494;4.981164092;4.5685179;-3.978330057;1.200468068;-4.889051013;4.38830563;-0.87745076;8.665218264;-5.02791643;11.83368544;11.42440223;9.261751826;3.030490814;9.855607714;2.636493534;-9.963671346;7.809715746;-2.747001412
-7.599226808;3.416352997;2.230189931;-1.915504549;-6.357843229;-0.639320499;28.75594739;-1.313402056;-0.320025635;-2.247572905;4.620143256;21.10730368;30.78769331;-3.77173526;12.69713073;11.86192256;1.666287512;2.971938294;-2.190707368
-7.19419145;2.412657808;1.245214874;2.841526769;-9.674738365;3.258663846;37.98308143;-1.563499853;-3.14829997;-0.593715964;2.977436772;25.2180269;42.44965649;-8.564123112;10.41897433;13.13422363;6.336938312;2.002140608;0.017407315
-5.351226525;2.571570894;2.432232215;7.561101171;-7.655749224;3.748506926;26.66393994;-2.332035024;0.973645535;-1.687825257;7.469016141;21.38712;36.71425432;-7.739955712;5.515750268;7.711009809;0.946576886;5.23800233;1.830936218
-3.718177309;3.767143847;4.62144258;8.831345162;-3.799044466;0.97462695;7.056325782;-4.158888596;6.953930865;-4.817041622;13.68586045;13.17392081;21.16210924;-2.508162182;2.68731167;1.316499518;-8.94459047;9.409709912;1.831527286
-3.349719538;5.348949363;5.920441988;5.106551144;-2.577786506;-2.29789376;-3.337827333;-6.916321595;8.742441226;-7.950654296;16.30609564;6.818687302;10.06188046;3.085340871;5.536746026;-0.568968067;-14.33963556;10.90095188;0.2764004
-3.803405826;6.654613362;5.542994703;-1.709102889;-5.455015897;-3.302717618;2.966257012;-9.845145326;4.545947175;-9.580881171;13.4734142;6.311929266;11.60912092;5.899301759;13.84160657;3.213770196;-10.43618946;8.865668936;-1.331045842
-3.60425207;7.425692032;4.527785609;-7.108212846;-9.9043966;-1.561913817;18.28756571;-12.07943631;-2.023430848;-9.712380521;7.938191772;10.74075004;21.83795221;5.879885147;23.42812992;9.050889304;-0.25973552;5.626124139;-1.632351343
-1.632262339;7.84244617;4.720195393;-6.978660361;-11.99497258;0.996476111;27.99173944;-13.24753638;-5.516141279;-9.333385932;4.316302208;15.66727771;29.49581207;5.172461885;28.79817861;11.72296931;8.357652609;4.32673914;-0.525531016
1.772771156;8.225242298;6.961361945;-0.713048429;-10.030203;1.95092845;23.78655185;-13.70176819;-3.599540585;-9.152318546;5.012553977;16.94854793;26.56475625;5.481497485;26.67481728;8.482256006;9.466426717;6.134711998;0.88966913
4.930029297;8.710176515;10.13654588;7.948440455;-6.005321651;0.512778851;10.29307766;-14.21556151;0.891399155;-8.93803839;8.239243032;13.70630969;14.88779792;6.332413616;18.01090902;0.951879276;3.597810709;9.437715646;1.36787647
6.070310901;9.184249546;11.9727996;13.20641386;-3.723536394;-1.951026699;-0.127047796;-15.36937905;2.433962875;-8.044642857;9.610864273;8.28258962;3.596264854;5.738819307;7.163552857;-6.272797896;-3.313539515;11.54462236;0.59130427
4.707856702;9.498328243;10.93;11.16458306;-5.357676782;-3.290484807;1.196653547;-17.06025158;-2.413236007;-6.449993424;5.812826275;3.73637066;0.423662805;2.404836792;-1.029981866;-8.907398543;-5.306242744;11.18254024;-0.648019247
2.041436329;9.710565259;7.558018858;2.650482185;-9.503856209;-2.495057233;11.98514884;-18.48465958;-12.00178493;-5.118348987;-2.696254979;1.340728086;5.02872448;-2.773023285;-4.137706263;-5.612191798;-1.260503687;9.525039118;-1.23104
0.088878136;10.08755238;4.136114937;-7.197394791;-12.36673968;-0.468237;21.91385854;-18.63066017;-20.7710907;-5.192441117;-11.98315518;0.156257694;10.06011763;-7.337648901;-3.043757947;1.65944528;4.7196517;8.941607584;-0.706395788
0.248719552;10.82772557;2.877520038;-12.33503281;-10.97825648;0.916091682;22.36072294;-16.97649117;-23.5124364;-6.737165826;-17.46512323;-1.317253905;8.483227011;-9.377213504;-0.506759828;9.346253048;7.317978927;10.72357081;0.374901476
2.379904424;11.75754295;4.197693879;-9.77996435;-5.674123088;0.519358132;13.93241832;-13.93895995;-19.18862546;-8.304454245;-16.91303128;-3.217588654;0.251299669;-9.067932216;1.30979972;14.46172848;4.662521406;13.87861901;1.020143037
5.031202792;12.3215104;6.480412656;-1.338669467;0.203514431;-1.13337635;5.28254211;-10.74521234;-11.34775645;-7.905241023;-11.44695481;-3.955556338;-7.630508067;-8.209703793;2.401410392;15.85424077;-0.337357627;16.0383974;0.695737126
6.558222967;11.96012559;7.503595508;7.986459288;3.004785724;-2.449679562;4.840068359;-8.751584666;-5.072488506;-4.663838249;-4.156004839;-1.65045563;-7.455158897;-8.260354134;4.492625515;14.17594117;-2.810230781;15.61111946;-0.240220415
6.25373778;10.62377328;6.308477815;13.53406828;1.548501641;-2.255540054;13.23279975;-8.601879721;-3.130564237;0.287944126;2.20486385;4.042473832;2.270531391;-8.817037921;9.108852261;11.10571155;-0.170856865;13.24511395;-0.916822744
4.710598344;9.000061035;3.967229859;13.79190658;-2.247906727;-0.805032105;23.10692831;-9.768980311;-4.367614221;4.538531508;6.59432881;11.37602078;15.43989943;-8.065901349;15.76259819;8.505732372;5.889092188;11.33065691;-0.752534494
3.275475491;8.200648662;2.66200661;10.59912953;-5.189731399;0.539647831;26.09085748;-10.82961359;-5.316800372;6.204289143;9.40514455;17.6563603;23.49658186;-4.818909015;21.7303331;7.776317539;11.12234187;11.99679501;0.051391693
3.091401348;9.050792936;3.885256057;7.00887508;-5.379080033;0.586844126;20.30949076;-10.3652972;-3.37444739;5.299637643;11.25590824;21.02202007;22.42326725;-0.163047068;23.6723982;9.366671489;12.36277815;15.31976485;0.73980327
4.41013179;11.45055847;7.235525381;4.802496973;-3.421890624;-0.636892423;11.71503943;-7.941638585;1.141700955;3.501904093;12.14751628;21.3702266;15.54676108;3.014212451;19.97404429;12.51673546;9.863539576;19.20968314;0.707368889
6.5430159;14.27186311;10.71579699;3.631289497;-1.506036716;-1.980910504;8.359805559;-4.505815464;5.523774453;2.538892157;11.6374832;19.86230075;10.08798809;2.438702494;12.14791508;15.53537709;6.570697559;20.99256361;0.026561938
8.340817864;15.91394915;12.19175453;2.169464411;-1.412231189;-2.253963453;13.07989928;-1.881538327;7.036758324;2.640174771;9.608736047;17.72993506;10.86394493;-1.265868055;4.275943161;16.75964313;5.357454565;19.35062109;-0.656793078
8.81809079;15.19994809;10.80450922;-0.070239042;-3.232893534;-1.280683801;21.21236468;-1.641885209;5.011707148;2.435648307;6.716035694;15.55996875;16.70578491;-4.589503538;0.784960286;15.7454891;6.834024846;15.12794535;-0.731305532
7.584889167;12.06773858;7.315404442;-2.027289509;-5.707852165;0.001008186;25.1518074;-4.095024275;1.071900871;0.388515992;4.031939964;13.53397506;22.34793532;-3.733472692;3.922973476;13.77552324;9.480604096;10.54986531;-0.163230316
4.963885446;7.637101185;3.323789051;-2.110389176;-7.57291936;0.431278106;21.34497593;-8.080762415;-2.405519947;-3.545255968;2.249421353;12.03526101;23.56999349;2.187977696;12.44803074;13.05389202;11.55;7.653600298;0.504527977
1.836377347;3.620210648;0.160677911;0.067189473;-8.548261257;-0.337283406;13.33453927;-11.73563814;-4.125943687;-7.585028351;1.205805203;11.69694964;20.74825879;10.00253747;22.24558344;14.96319075;12.66287277;7.154701547;0.667971899
-0.698635292;1.424688546;-1.668959024;2.90367205;-9.1530524;-1.584418358;8.287642804;-13.70560925;-4.559646847;-9.525384019;0.142395589;12.6677534;17.83501022;14.48745161;28.4408629;18.6838638;13.59164389;8.381019999;0.205797838
-1.767352697;1.45035757;-2.277030053;3.794989245;-9.758639163;-2.223775847;10.40464667;-13.96134374;-5.176556204;-8.714639112;-1.586334359;13.87343037;18.15064185;12.08828313;27.79838831;21.41921884;14.69157479;9.977277948;-0.435734074
-1.127798688;2.943500885;-1.894341098;1.13291838;-9.982167152;-1.781020529;17.26646139;-13.65401604;-7.111518851;-6.863047759;-4.003283738;13.28715873;21.16150438;3.508118606;20.1880188;20.29552106;14.82802939;10.65598983;-0.670459918
0.668671821;4.457926596;-0.674328585;-4.352355629;-9.074579938;-0.764546828;22.29175284;-14.14452267;-10.37404991;-6.852229509;-6.575930476;9.358564674;23.21179201;-6.781966928;8.515967081;14.59849624;12.13557996;9.571110143;-0.305326447
2.526359996;4.663109048;1.092775242;-10.03730078;-6.882320997;-0.139120366;20.85303571;-15.93558297;-14.01696283;-10.40003906;-8.661062781;2.54975775;21.31479659;-13.64364191;-2.683716126;6.573957191;6.050700297;6.433400795;0.303915646
3.409322045;3.07964924;2.768395012;-13.2788654;-4.341061031;-0.430072021;14.40130413;-18.29032764;-16.83186855;-16.45672238;-9.834502759;-4.442687206;16.26656436;-14.56954558;-9.252452827;0.035639081;-1.367753423;1.653117052;0.597156182
2.968929292;0.365112404;3.584802804;-13.20436025;-2.895906919;-1.283733904;8.95443859;-19.79593919;-17.9;-21.68948362;-9.855257982;-8.264533705;12.09705418;-10.81394982;-9.127148817;-2.258564555;-6.358925771;-3.523090953;0.323251962
1.767887332;-2.009891028;3.225250362;-11.04577848;-3.30497314;-1.850748393;9.514929996;-19.42652413;-16.74674221;-22.76842331;-8.485663747;-7.242769146;12.392426;-5.851286959;-3.106421036;-0.477779804;-6.154366169;-7.250837373;-0.24653384
0.897524543;-2.552858784;2.210886434;-8.901323221;-4.937058673;-1.596027364;15.59171912;-17.30397752;-13.35043288;-18.73730909;-5.56481974;-2.667250748;16.96524264;-2.696556999;5.613562826;2.599034887;-1.254221483;-7.923037927;-0.584655643
1.209573972;-0.60585997;1.601968451;-8.062648347;-6.271497565;-0.775131822;21.82069651;-14.60226322;-8.289671196;-11.69290304;-1.40996561;2.091789207;22.00440474;-2.207275306;12.94539303;3.816739183;4.742775553;-5.225477045;-0.393868389
2.693111473;3.212693599;2.130773495;-8.2602943;-6.204015724;-0.159816834;22.94482984;-12.6842045;-2.906025027;-5.314046761;2.865613239;4.045634272;23.58462172;-3.338814254;15.83054555;2.035039613;7.787137468;-0.586466682;0.133110375
4.458485145;7.277639096;3.48366128;-8.264861371;-4.986118306;-0.300253049;18.51678577;-12.11088071;0.951245477;-2.391522459;5.636643382;2.756652037;21.300323;-4.617505526;13.6843812;-1.150771334;6.41861319;3.545450016;0.506441572
5.36302649;9.844325326;4.436331974;-7.116531322;-3.92066738;-1.021704621;13.10371891;-12.22888759;1.797242832;-3.153368746;5.700526157;0.541127331;18.67223951;-5.318465778;8.592811994;-2.816054502;2.729490311;5.268111083;0.393424137
4.838304602;10.06676155;3.854358361;-4.855949914;-4.061059779;-1.609306788;11.97600478;-11.60729453;-0.441012851;-5.445522293;3.246112958;0.566186678;19.92778235;-5.488787908;4.057541509;-1.035695758;0.490676667;4.520350074;-0.085880946
3.319504515;8.521263355;1.776709575;-2.251432766;-5.097055118;-1.485950714;16.32888854;-9.008320754;-4.054599357;-6.404399428;0.016946838;4.327793554;26.05330784;-5.229910395;2.899950344;3.685604558;2.024580953;3.060321306;-0.483348543
1.961919195;6.862657804;-0.373358076;0.007920845;-5.487922697;-0.742880695;22.35817552;-4.249055182;-6.385037984;-4.288722712;-1.655459589;10.41823526;33.66611545;-4.28538884;5.515557518;8.860058594;6.396952756;3.064193639;-0.440354785
1.845381623;6.770797866;-0.744210769;1.778939577;-3.802917214;-0.039527081;24.8780318;1.570805309;-5.467918214;0.729696779;-0.379004233;15.42866957;37.71171057;-2.453802501;9.573251526;11.80515286;10.32711015;5.397945224;-0.01015784
3.229500188;8.826370874;1.503265599;3.198810123;-0.12122921;0.01650989;22.04660502;6.578426866;-1.345006092;7.070225461;3.310266406;16.20184328;35.59560402;-0.303341849;11.42257774;11.31274965;10.93012121;8.913626776;0.403871353
5.37144961;12.04985895;5.414025247;4.120087891;3.773564265;-0.575137461;16.89161586;9.059372989;3.982632569;12.89201871;7.27635461;11.75090375;29.1567527;0.782461338;8.384188383;8.057863246;7.958332567;11.31513822;0.425767952
7.010288033;14.44449168;8.788500894;4.001134765;5.665605223;-1.224696695;14.37756783;8.315250171;8.004608213;17.02406191;9.24273941;3.601280167;22.88665929;-0.43255674;0.48586802;3.744112976;3.768478447;10.88419912;0.047812833
7.168077322;14.23605907;9.691944363;2.503495986;4.642449976;-1.310078125;16.83440763;5.041789072;9.505024151;19.26048622;8.342796838;-5.407915968;20.11768272;-3.822241036;-9.466789905;-0.097188961;1.227388174;7.701112924;-0.373574488
5.73583917;11.02811228;7.788864895;0.228985747;1.864245697;-0.748578551;21.94878288;1.067368911;9.367058796;20.16550321;5.654200577;-12.79531427;20.56063984;-7.636321138;-17.51505731;-2.737860738;1.438325752;3.466829698;-0.452832751
3.496950566;6.121544818;4.508886594;-1.260873332;-0.281056556;-0.057036374;25.04551945;-1.439141083;9.786074465;20.72515874;3.378018455;-17.45686495;21.17765848;-9.671489902;-20.80216342;-4.131369094;3.149228353;0.1947893;-0.127060337
1.62538922;1.777495056;1.969049264;-0.409636003;0.039098302;0.141899461;23.43194691;-0.965439357;12.52682027;21.99910118;3.313610204;-19.66106661;19.31955912;-9.049751578;-19.04667401;-4.533837744;4.13660098;-1.109523217;0.295725253
1.00610585;-0.116342136;1.516575809;3.078185523;2.799195444;-0.300014038;18.77978522;2.587335327;17.57395934;24.7244213;5.734214618;-20.43628208;15.14411106;-7.094525263;-14.434122;-4.378620496;3.185234186;-0.806321689;0.427354824
1.780254998;0.862614335;2.971141769;7.792743683;6.273845768;-0.926203426;15.44106108;7.790486532;23.17017438;28.89022634;9.384521397;-20.96594453;11.20747225;-6.431735943;-10.20678045;-4.390462911;0.928779586;0.038875013;0.155497254
3.333891863;3.490247707;5.016271997;11.49014237;8.427371719;-1.10637426;16.3692483;12.36100849;27.12892181;33.53750522;12.45992868;-22.24453145;9.839923413;-8.920682101;-8.980933265;-5.50599856;-1.028538696;0.56167051;-0.261014639
4.679593333;5.698661055;6.282494577;12.65275121;8.359333674;-0.62283803;20.45045372;14.34946742;28.35251811;37.0913544;13.77079453;-24.84744733;10.91098258;-14.06700628;-11.76054081;-8.338248775;-1.74128699;0.452464613;-0.437694556
4.989164767;5.82326817;6.22295423;11.46434519;6.704082343;0.129445086;23.64717238;13.20976947;27.41719975;38.20814091;13.29321863;-28.66386466;12.07139457;-19.24555254;-17.92891932;-12.511192;-1.766483106;-0.344858983;-0.218474705
3.99782707;3.514605619;5.199827774;9.392232222;4.83249663;0.507287421;22.80095146;10.0895626;25.89437005;36.64294143;11.86438539;-32.75199433;11.12449217;-21.60017428;-25.82047304;-16.54583972;-2.513031231;-2.011593608;0.187179376
2.096502074;-0.19982648;3.920599399;7.781819354;3.670585128;0.206736189;18.5368016;7.095301465;25.06181102;33.47746158;10.40450545;-35.64693556;8.167457531;-20.11789035;-33.32200832;-18.6423331;-4.783394391;-4.737674967;0.40410012
0.091862791;-3.656085721;2.840707159;6.751546401;3.134993804;-0.466088273;14.62552917;5.941175303;25.04141166;30.44401793;9.285767068;-36.1768153;5.423608665;-16.25244572;-38.30853251;-17.90329061;-7.886685716;-8.184520062;0.238091036
-1.228080937;-5.56905931;2.022635259;5.40144593;2.524086547;-0.882682864;14.46941357;6.848127624;24.94814037;28.77894629;8.235531271;-34.32450514;4.940362541;-12.68359714;-39.10475815;-15.02729161;-10.12561982;-11.19514056;-0.150393935
-1.493754052;-5.689291629;1.414954059;3.119436464;1.35169361;-0.66749894;17.99671576;8.451612086;23.79342827;28.45581669;6.724077549;-31.44289203;6.394127184;-11.3;-35.13689098;-11.82594799;-10.20010545;-12.30449285;-0.400519014
-0.909658553;-4.762600246;1.119157231;0.68410831;-0.183369463;-0.033148791;21.80261779;8.816488443;21.35303094;28.39017227;4.489338738;-29.51684634;7.169555371;-12.03020308;-27.52698454;-9.884041822;-8.279024409;-10.8288236;-0.285451911
-0.0898931;-3.919335249;1.300202274;-0.049855597;-1.451836035;0.424876897;22.33990145;6.879323641;18.35417728;27.44535074;1.843561555;-29.91321116;4.738768221;-13.32618261;-19.05759246;-9.455630799;-5.837342101;-7.618368519;0.082530421
0.317416931;-3.947374006;1.836980692;2.169779602;-2.029279809;0.278850437;19.17519633;3.307179737;15.94847555;25.42527359;-0.397439324;-32.52625303;-0.832034021;-13.69539478;-13.1479773;-9.539770343;-4.466241644;-4.67613767;0.361339793
-0.017603011;-4.906042738;2.141088897;6.366000255;-2.068172971;-0.339273479;15.32856199;0.146146429;14.96996467;23.25823056;-1.300304299;-35.95863362;-6.6113507;-12.89611015;-12.18763392;-9.072389622;-4.72013885;-3.773573019;0.296850548
-0.987309131;-6.257026643;1.456349836;9.372837905;-2.090138147;-0.855855331;14.44267771;-0.521210345;15.53415995;22.24515646;-0.314894801;-38.56256555;-9.115242948;-11.85952071;-16.20328056;-8.160338486;-5.937675113;-5.133117548;-0.045583806
-2.202925865;-7.336402893;-0.512444299;7.892094353;-2.465961684;-0.768856992;17.43126066;2.011534599;17.15973923;23.00574623;2.355566679;-39.49209878;-7.185480993;-11.59287567;-22.79138676;-8.182021274;-7.048842562;-7.308403802;-0.346463233
-3.276975418;-7.801589325;-3.164365298;1.171243851;-3.117157956;-0.090596085;21.67908275;6.561720444;19.17025576;24.97676386;5.724933875;-38.97016498;-2.876458795;-12.16692058;-28.45617645;-10.53438847;-7.531824589;-8.432577761;-0.329520002
-4.010115537;-7.760692541;-5.195340083;-7.829660155;-3.695572653;0.669999217;23.47498753;10.78025022;21.00754632;26.83719163;8.416264242;-37.69877425;0.413187651;-12.69659751;-30.52615229;-15.03068369;-7.655289297;-7.818184663;-0.014792993
-4.364660263;-7.550373618;-5.356645419;-13.92593049;-3.989523621;0.954082092;21.39659057;12.59737799;22.29509198;27.48131876;9.339014489;-36.08283887;0.846197687;-12.24905546;-28.44088752;-19.38041333;-7.895217124;-6.535292504;0.304092235
-4.299701187;-7.379458384;-3.236967064;-12.98829629;-4.086850823;0.619368599;17.54573462;11.42273164;22.77375098;26.76286501;8.302573839;-34.03133123;-0.530676741;-10.78272734;-23.70216157;-20.39254353;-8.210097656;-6.435105292;0.333639137
-3.660689902;-7.12848817;0.51417893;-4.717062288;-4.110145427;0.01982233;15.55804776;8.360222936;22.31908357;25.48285791;6.175576512;-31.47424488;-1.174199617;-9.258981226;-18.74502714;-16.14815618;-7.959373722;-8.432030708;0.050464924
-2.257723846;-6.45353099;4.664818001;7.082289373;-3.830321616;-0.343868751;17.27017459;5.400660646;21.08963647;24.7264954;4.4271272;-28.98510682;0.237569744;-8.869272128;-15.62860693;-7.536399851;-6.590997125;-11.53436306;-0.280434078
-0.08236448;-5.100594337;8.178660287;16.88997509;-2.6511142;-0.263117961;21.10569294;4.203731575;19.63910561;25.11885519;4.281009335;-27.74327784;2.353630022;-10.10784155;-15.31901161;2.044730895;-4.439731006;-13.50206866;-0.352952626
2.533808186;-3.175339501;10.69522513;20.78406614;-0.120619608;0.045813907;23.60324497;5.247098506;18.78132987;26.5208262;6.004137084;-28.68171665;2.371747259;-12.48836061;-17.67634745;8.666232583;-2.805534895;-12.61384972;-0.102379281
4.989715891;-1.148149494;12.41185887;18.39458869;3.43242987;0.20577553;22.61559683;7.765946707;19.18043402;28.25210587;8.79306123;-31.49771926;-1.161124683;-15.05203644;-21.73087675;10.14203006;-3.091496031;-9.054139264;0.237169539
6.701473357;0.423259136;13.58101059;12.39223124;6.772930722;0.061154889;19.22414399;10.35636389;20.89095715;29.53508444;11.32299285;-34.47265959;-6.580306203;-17.09849643;-25.88880249;7.065039665;-5.634820567;-4.740935688;0.351239461
7.406778892;1.256367994;14.12338902;6.261921426;8.414322013;-0.190543402;16.659155;11.7672222;23.17331131;29.8144673;12.56593268;-35.44762526;-10.10378392;-18.45314571;-28.16292201;2.05221455;-9.204580006;-1.748799866;0.135977234
7.263420813;1.528673646;13.69734888;2.181920354;7.642953244;-0.228978465;17.28985627;11.43112136;24.76489791;28.86;12.31651603;-33.31235209;-8.848774627;-19.12493998;-26.77710713;-2.068055638;-11.65661638;-0.679748843;-0.20716467
6.678998758;1.754310965;12.12920269;0.395009783;5.107379164;0.038278063;20.48226806;9.561642465;24.49891998;26.78519872;11.11359159;-28.84695095;-3.255580652;-18.84202796;-21.16678746;-3.791412244;-11.32609328;-0.35514747;-0.359194812
6.019438821;2.448916683;9.788880641;0.064644266;2.44617936;0.357244613;23.25869054;6.915065783;21.93571913;24.08504736;9.707942339;-24.19973091;3.225251861;-17.05627481;-12.76698197;-3.301884903;-8.150300528;0.965236948;-0.17925385
5.425149449;3.825254396;7.551533264;0.495541851;1.179820277;0.364049683;23.08307179;4.41665578;17.65331803;21.60344609;8.533766508;-21.35960002;6.941706304;-13.49569174;-4.752544957;-1.763629154;-3.71397479;3.953632006;0.165244059
4.850861925;5.717915537;6.340546359;1.610922585;1.693626353;-0.048378197;20.16912533;2.807453728;13.03326963;20.25987717;7.567536344;-20.79962195;6.925281538;-8.733971839;-0.499839948;-0.338799617;-0.213014131;7.610373311;0.35401509
4.243766086;7.744536724;6.582498036;3.512846089;3.078119644;-0.59109441;17.21038965;2.398328923;9.649256004;20.5592516;6.597753816;-21.33682422;5.395254232;-4.148956888;-1.604727298;0.334621683;0.904734995;10.17545244;0.211062449
3.664896386;9.534143541;7.953030293;5.849367139;3.915563885;-0.815467443;16.84640571;2.994107975;8.566329041;22.20275679;5.600308683;-21.27030811;5.544930105;-1.170368167;-6.878223279;0.076304273;-0.29638998;10.69046711;-0.131300174
3.234506581;10.83487478;9.554673326;7.775200686;3.370152507;-0.517429;19.24900174;4.034557211;9.894321445;24.18064158;4.8760797;-19.83540166;8.647446839;-0.380274603;-13.18113131;-1.099610608;-2.490522143;9.791243745;-0.353996554
2.967258714;11.45953339;10.37163848;8.572637373;1.747306969;0.064647494;22.04570522;4.922070972;12.80531179;25.40611312;4.852033831;-17.78662754;13.046804;-1.20050451;-17.56107835;-3.044133055;-4.055513895;9.03791456;-0.247139855
2.681888448;11.19946511;9.721250838;8.269155482;0.159601997;0.450448938;22.59538376;5.379148922;15.99206563;25.4748059;5.735860352;-16.66677778;15.85132113;-2.411427237;-19.06043329;-5.323117354;-4.044391836;9.427902106;0.092994821
2.108222182;9.871532892;7.506112001;7.571018621;-0.352234193;0.342905276;20.46147277;5.610323054;18.32328154;24.9452837;7.307988825;-17.40444609;15.71826277;-3.044054652;-18.7841776;-7.177892851;-2.581464005;10.4751167;0.350013428
1.124790703;7.518376633;4.226772491;7.125938722;0.469222052;-0.106628086;17.78736073;6.134956124;19.35317355;24.86668825;8.995042027;-19.41726307;14.17811631;-2.911601915;-18.27870228;-7.835603717;-0.572276825;10.70991203;0.280121487
-0.082442778;4.586520835;0.797426262;6.835331564;2.036405046;-0.436735464;17.25899599;7.382706916;19.42701523;25.89929843;10.15451586;-20.96642875;14.29883562;-2.42915747;-17.76297174;-7.016603466;0.951714855;9.139253995;-0.057673374
-1.106192906;1.852996373;-1.791155678;5.946647742;3.42642552;-0.29497853;19.57888016;9.33758691;19.35490963;27.75064258;10.39157701;-20.48775228;17.8885465;-2.027820872;-15.9227721;-5.201332699;1.402488696;6.301418926;-0.349642021
-1.610224874;0.043243039;-2.896851267;3.925885518;3.989616008;0.241831559;22.80321466;11.50639709;19.8733738;29.41979175;9.763621837;-17.84818778;23.73276713;-1.780180642;-11.56916295;-3.352655074;0.833356916;3.890490194;-0.315481453
-1.598023569;-0.636749099;-2.580961299;1.314493372;3.638378368;0.73675317;24.14157791;13.25216776;21.22443252;30.06296235;8.809670441;-14.54572392;28.43230396;-1.550427666;-5.647438935;-2.246514337;-0.245035372;3.22855768;0.025639533
-1.422891017;-0.684068799;-1.654622801;-0.318409972;2.755348722;0.788077091;22.5325651;14.24506385;23.0822057;29.74075987;8.380473063;-12.69338455;29.11592916;-1.398570238;-1.520419188;-1.931827798;-1.242715663;3.96198153;0.360367185
-1.504954134;-0.978519551;-1.26822877;0.533386751;1.944047181;0.391644629;19.60555963;14.67710882;24.81741958;29.38062292;9.266730928;-13.53943331;25.69077658;-1.702294254;-2.801412325;-1.774352135;-1.825207487;4.239235604;0.363640907
-1.967267447;-2.113944277;-2.185202744;3.998840987;1.82606652;-0.058156402;18.14936714;15.06345198;25.8803098;29.95378552;11.71396452;-16.59003906;20.75229793;-2.782727726;-10.24114045;-1.075775108;-2.03981861;2.346310503;0.007647341
-2.489484553;-3.856092588;-4.184367436;8.414274713;2.879878104;-0.128078639;19.51712602;15.78238586;26.04549393;31.56086829;15.07062472;-19.93073698;17.33917575;-4.402215179;-20.32854282;0.216605565;-2.199857035;-1.566356151;-0.389095463
-2.522151823;-5.185118578;-6.066229071;11.26858049;5.21347082;0.261049909;22.36905729;16.72560038;25.40643769;33.23120068;17.8867683;-21.48623846;16.53689268;-5.731413079;-27.16720599;1.287775933;-2.626879101;-5.234661876;-0.434402414
-1.722514718;-4.987103214;-6.379000217;10.87351618;8.308937775;0.7638744;23.90809737;17.35514311;24.20346478;33.64986788;18.59235684;-20.34723579;16.94290596;-5.976158631;-26.56186853;0.936443131;-3.428047244;-5.902675345;-0.028921722
-0.284691828;-2.951886551;-4.439689578;7.511571212;10.99776189;0.924485584;22.46445679;17.14369616;22.66307796;32.23;16.46823711;-17.30655252;16.28537447;-5.167168383;-19.24453642;-1.550810147;-4.455685181;-2.610178354;0.498513317
1.105801815;-0.004189787;-0.923593072;3.207053359;11.91022061;0.589224294;19.05355648;16.05911894;20.96337575;29.63569412;12.27885502;-14.31021507;13.61784715;-4.331413803;-10.58080741;-5.735490985;-5.461173756;2.725014882;0.623973745
1.69775341;2.141252083;2.474538858;0.338883014;10.2909839;0.04589271;16.48564048;14.69509106;19.30037952;27.30942438;8.016807793;-13.21581553;10.12654183;-4.734334077;-6.762837724;-10.03993895;-6.301686807;6.430438018;0.052680611
1.20499926;2.098166945;4.151910598;0.179763294;6.65572433;-0.233603582;16.84887714;13.90281391;17.9435681;26.39374401;5.777991901;-14.63687876;7.936678811;-6.742277906;-10.31267767;-12.46672804;-7.012353613;5.674969914;-1.013054312
0.075620752;-0.131394323;3.72415337;2.414529868;2.70537633;-0.01308067;19.65726544;14.15848837;17.19842986;26.93346874;6.467869799;-17.5543018;8.109889482;-9.311620945;-18.34646386;-11.6259786;-7.675453868;0.605952265;-1.987386927
-0.705938168;-2.929817247;2.339631952;5.833875954;0.382509596;0.502007407;22.32146223;15.1231153;17.29010928;27.99241157;9.269370324;-19.9048723;9.676183116;-10.67195082;-24.89764058;-7.503843908;-8.214984582;-5.597707339;-2.310136488
-0.187746973;-3.92462976;1.910977647;9.463101074;0.637875973;0.852172131;22.47384556;15.74578395;18.24765608;28.53495866;12.30767185;-19.79564098;10.53260861;-9.745023249;-25.39201344;-1.555545394;-8.340873063;-8.816541979;-1.829754463
1.94752182;-1.450303757;3.780621812;13.13484748;2.801708691;0.731213262;20.01871333;14.89725533;19.85641774;28.29405756;14.04420097;-16.63698321;9.346801603;-7.12173744;-19.74139292;3.939665457;-7.751398107;-6.701448961;-0.872185758
5.115561803;4.322780511;7.762013214;17.10224715;5.082190669;0.24863828;17.08374796;12.14872156;21.69486433;27.9018979;14.33569195;-11.52097109;6.752954544;-4.697364679;-11.79698506;6.948397332;-6.454717137;-0.090491216;0.027332946
8.073759517;11.34904946;12.23245165;21.16553163;5.872276238;-0.179181075;15.99868221;8.185477122;23.24463849;28.22515363;14.33322066;-6.593843792;4.820373927;-4.174604309;-5.959321543;6.636069842;-4.914625276;7.745458937;0.488633747
9.554090943;16.81722055;15.19474962;24.20047768;4.895111361;-0.200256553;17.2080902;4.552860855;24.06680905;29.52616023;15.32891016;-3.77315461;5.318027466;-5.651114128;-3.973744819;3.69628668;-3.831483818;13.31438799;0.462293702
8.937522333;18.71949473;15.54328848;24.61197955;3.310770941;0.175722126;19.01789211;2.841159203;24.02047823;31.18043915;17.53329579;-3.595038867;8.298756821;-7.50882023;-4.49750643;-0.131705765;-3.676786209;14.93569073;0.126363031
6.589978935;16.90061531;13.66404707;21.4345999;2.707359047;0.610978882;19.33104183;3.771693552;23.42880199;32.15650152;19.83290586;-4.94297088;12.15467036;-7.757544284;-5.396201323;-3.076966234;-4.344971552;13.3042141;-0.340340136
3.662330597;12.96390007;11.01750367;15.24153621;3.781002448;0.756604909;17.68866385;6.729391709;23.03142137;31.79775576;20.74353476;-5.867944594;14.97206604;-5.737683349;-6.293633027;-4.255970995;-5.228783399;10.4976699;-0.874705578
1.45756728;9.162163208;9.082257901;8.141127167;5.756733371;0.556512648;15.69322442;10.04383778;23.61830421;30.22841277;19.72992646;-4.975939835;15.95304551;-2.738203461;-8.822839756;-3.914730042;-5.68213228;8.399436491;-1.446902827
0.72261537;7.03429912;8.435781316;2.804980548;7.00657453;0.269365411;15.43945775;11.88879087;25.45925385;28.09693802;17.71556299;-2.43529138;15.75542404;-0.971534525;-14.33425256;-2.881297272;-5.494458553;7.687518938;-1.908483424
1.278958774;6.652233212;8.564917389;1.143538592;6.361475333;0.206840825;17.45252201;11.29906548;27.89157937;25.981008;16.29172818;0.117127431;15.64330817;-1.735253341;-21.374504;-1.710058594;-4.975917303;7.87806841;-1.979658981
2.215522843;6.881742715;8.428432794;3.435664372;4.066644285;0.442736405;20.08895792;8.715100474;29.4632786;24.04078134;16.28725672;0.729910486;16.33884505;-4.297232821;-25.6663834;-0.250653535;-4.58901526;8.069099644;-1.44697183
2.526019571;6.3759549;7.287112654;8.354897793;1.630024414;0.760802153;20.98525102;5.724908588;28.71759627;22.20287206;16.9713409;-1.455179142;17.56821041;-6.449949572;-23.11899;1.974821517;-4.47223408;7.666806907;-0.416535451
1.786306457;4.577370932;5.215849461;13.74765388;0.70222443;0.877387218;19.22628398;4.141594284;25.20399537;20.60177266;16.65830743;-5.54367505;18.53272437;-6.284129697;-13.49910837;4.925674376;-4.307921058;6.638185166;0.629526413
0.428632009;2.071671157;3.017998396;17.63164343;1.875940838;0.71921404;16.22688788;4.956936165;20.00055104;19.74168887;14.26065973;-9.4384848;18.7004827;-3.716162901;-1.454243578;7.565060487;-3.672040746;5.34224212;1.087946821
-0.575053628;0.12372521;1.691226923;18.89273866;4.313917052;0.49256728;14.49734168;7.794851289;15.25335487;20.12617622;10.45297103;-11.18102241;18.1602802;-0.524376661;6.40114248;8.369910508;-2.538249803;4.268960608;0.647698682
-0.412993725;-0.224323135;1.836199234;17.45307312;6.426241688;0.482045074;15.40551299;11.18621702;12.91406442;21.66399918;7.37198265;-10.11152836;17.34267013;1.097215129;6.2676885;6.598757323;-1.426643011;3.903304227;-0.45567989
0.960479718;1.13611575;3.345968155;14.00374933;7.006526392;0.771747789;17.96618169;13.47771047;13.50796322;23.45158952;7.011344269;-7.064325159;16.55577213;0.248235035;-0.03637495;3.291215604;-0.986909589;4.660699529;-1.56872591
2.737425428;3.308869911;5.483892926;9.556270754;5.948321866;1.152455333;19.74678045;13.79616963;15.84328361;24.24960415;9.624118188;-3.574208225;15.87114424;-2.081728739;-6.642483317;0.976679719;-1.343661857;6.736770908;-2.064190183
3.759976694;4.961935347;7.246133921;5.047975569;4.08031816;1.303063501;19.05273192;12.47423414;17.92983333;23.34529225;13.49629216;-0.792094609;15.40816394;-3.921764986;-8.379008727;2.014810657;-1.816984874;9.870575168;-1.777354909
3.278158525;5.135369959;7.816092474;1.125305894;2.38544834;1.079451827;16.40987861;10.71262961;18.45317038;21.09451565;16.31091063;1.064501186;15.56901422;-3.881150605;-4.818124899;6.687586735;-1.364886115;13.23525023;-1.103580102
1.446715016;3.777146315;6.928499966;-1.887325152;1.298334514;0.645604193;14.02786331;9.755991818;17.68041591;18.65640401;16.95115634;2.422940465;16.81432607;-2.063627674;-0.27872564;12.59084969;0.534376488;15.67739378;-0.68047798
-0.772755221;1.709558074;5.003867996;-3.904191388;0.601070245;0.328295548;13.77331144;10.14991915;17.08284404;17.10812344;16.19628753;3.62929996;19.10566219;0.298802499;0.179214962;16.04172767;3.289779702;16.27392226;-0.895667283
-2.228205956;0.095320295;2.974482466;-4.979246743;-0.125914529;0.329659399;15.51023239;11.53905244;17.97653134;16.67046669;15.72729309;4.486492206;21.60139125;1.997737234;-4.650813935;14.66670515;5.463863964;14.87794397;-1.591942791
-2.290377212;-0.244760399;1.834042783;-5.259910036;-0.985700706;0.558154331;17.28376205;13.05884832;20.30076945;16.69353518;16.36519052;4.445954882;23.05619125;2.705932999;-10.86299429;9.284444216;5.784083592;12.26200104;-2.186068599
-1.197442356;0.737177078;2.101459514;-4.988747066;-1.643172496;0.725355142;17.11853106;13.97321107;22.57774337;16.39523447;17.18386036;3.227991334;22.71890772;2.875300444;-12.61425806;3.57176277;4.138697457;9.719434433;-2.101661291
0.16343635;2.355061202;3.501174018;-4.485913761;-1.652990337;0.612279057;14.75606439;14.09577067;23.13834959;15.67939298;16.39130892;1.272276264;20.97607275;2.964690025;-7.065528184;1.615351597;1.749879034;8.361813453;-1.187169063
0.854335098;3.636572788;5.100364841;-4.056469373;-0.890982452;0.259899371;11.77433659;13.75367476;21.61813306;15.27675856;13.26419031;-0.412458839;19.11948776;2.870505174;3.082736407;5.082589766;0.343090522;8.557055971;0.183422454
0.459149486;3.899074016;5.880238794;-3.854893158;0.305556252;-0.083028679;10.0622856;13.40984854;19.43365476;16.04297481;9.360078125;-0.901046535;18.36274117;2.133753999;11.60052303;12.08626562;0.930009766;9.838262805;1.380716727
-0.713984561;3.120958999;5.40286661;-3.82180527;1.382525173;-0.194539055;10.12170517;13.27672981;18.73739305;18.01057126;7.716238115;0.01041804;18.92127256;0.652729261;13.59568529;18.55857159;3.131538456;11.28252077;1.942999257
-1.879447424;1.902596501;4.110424447;-3.783261958;1.948274166;-0.072942942;10.76352121;13.19542928;20.61263982;20.05789421;10.44755762;1.664405115;19.94536951;-0.91640914;9.18313215;21.06247707;5.5302921;12.06720315;1.842900079
-2.277111263;1.045725071;3.002990142;-3.662659749;1.957547649;0.085879578;10.40952388;12.80961774;23.96872453;20.5731159;16.65366571;2.962728095;20.34637184;-1.597308059;2.97707281;18.94016343;6.72610838;11.85268937;1.429257172
-1.622988514;1.002195296;2.877543896;-3.622121033;1.593316349;0.094223253;8.700840523;11.84929393;26.11489623;18.64822448;22.50082549;2.992829326;19.75812099;-1.038707355;-0.016194021;14.31783984;6.250328626;10.81466998;1.125314994
-0.270559532;1.532675345;3.663093068;-3.975657065;1.026358105;-0.041938321;6.861805709;10.3092068;24.67331471;14.84901263;23.68750787;1.425848575;18.76858367;-0.047139877;1.455116452;10.20525088;4.682339432;9.397275193;1.129601838
0.978258096;1.810185005;4.367139663;-4.916991337;0.31018708;-0.135378826;6.484797907;8.438985891;19.39232256;10.90102562;18.54243964;-1.477964878;18.24805045;-0.070837021;4.164453583;8.331875117;3.006127158;8.00616333;1.334178029
1.301369453;0.94068202;3.731900966;-6.308002685;-0.51370166;-0.012812213;7.921474122;6.610969226;12.44784454;8.484595422;9.371809165;-5.096768987;18.44931436;-1.948926136;3.553294824;8.354779605;1.833584328;6.83947142;1.488917003
0.310234745;-1.404256807;1.170508562;-7.759848693;-1.26675751;0.298053118;9.848882932;5.174483177;6.976654319;8.050753807;0.94794816;-8.661721681;18.76277765;-4.997243571;-2.098939071;8.771781963;1.123943916;5.916641146;1.451402253
-1.698056332;-4.659313129;-2.689666887;-8.970848317;-1.659379953;0.573407173;10.46324083;4.346026167;4.951056466;8.565998741;-2.770221141;-11.38697265;18.37151867;-7.331137473;-10.09586966;8.455794347;0.502906402;5.218882844;1.309916331
-3.838881895;-7.602104663;-6.284023729;-9.993707965;-1.521508725;0.591720902;9.19199431;4.124623848;5.986724307;8.369571269;-1.233906281;-12.63721507;17.16484896;-7.305343327;-15.61588357;7.387869638;-0.254924683;4.789641932;1.280888763
-5.075738178;-9.057287948;-8.060699269;-11.10341334;-1.026712013;0.342023243;7.285541922;4.237892772;7.90352079;6.466108359;2.668582983;-12.22788106;15.9830759;-4.942649011;-15.80253673;6.100803418;-1.084166102;4.690773783;1.468597582
-4.788471792;-8.635904736;-7.466984116;-12.30486134;-0.655315576;0.04507993;6.672473796;4.18547567;8.482664887;3.262185849;5.026967074;-10.71828895;15.88074211;-2.127231789;-12.1031983;4.624661451;-1.906371737;4.839265827;1.692595546
-3.151792734;-7.010019531;-5.295249249;-12.95630395;-0.860108702;-0.037583725;8.099789997;3.448908465;7.002083218;0.218574211;3.80420753;-9.377843723;17.05681725;-1.293072918;-8.90333508;2.165528893;-2.933779978;4.877363888;1.549401063
-1.066734732;-5.504982769;-3.15551988;-12.03479416;-1.687313596;0.165596022;10.30158054;1.825944679;4.444060084;-1.258757078;0.031357945;-9.629918141;18.49611899;-3.571371792;-9.716526872;-2.028642345;-4.562263167;4.254166901;0.703771178
0.356343598;-5.255466331;-2.449008909;-9.059816498;-2.690984025;0.477128074;11.04379798;-0.303301258;2.426747658;-0.804515146;-3.397465626;-12.17785391;18.77758252;-7.841160049;-14.22667178;-7.405921896;-6.855808919;2.564327363;-0.780127856
0.460425311;-6.493884047;-3.548147962;-4.983313069;-3.257170779;0.63776108;9.171500888;-2.010130035;1.909379261;0.779049229;-4.129203129;-16.37160462;17.42486564;-11.44267656;-18.64721533;-11.77270244;-9.119267466;-0.040586137;-2.322389379
-0.583648643;-8.466042649;-5.713030771;-2.11366973;-3.099998344;0.547008007;5.813474123;-2.225950265;2.748880976;2.284524573;-1.970599208;-20.33970907;15.5886518;-12.02162625;-18.97583072;-12.48110675;-10.09754026;-2.706674188;-3.066297343
-1.952091337;-10.0294459;-7.7347357;-2.746934117;-2.515157146;0.356360348;3.592748342;-0.333097944;4.300392547;3.093107116;1.401963932;-21.94176142;15.34057959;-9.123177886;-14.31143731;-8.378413052;-8.826881823;-4.241419046;-2.37917938
-2.770229171;-10.49091305;-8.794321061;-7.28343577;-2.14999356;0.329878259;4.455544478;3.427212184;6.293025007;3.599518437;4.105127837;-20.01203538;18.04818185;-4.404956885;-7.483424322;-0.96231618;-5.526669632;-3.876510995;-0.318150061
-2.70248699;-10.06022047;-8.919602135;-13.30575721;-2.447761703;0.600078125;7.986349836;8.012621604;9.033901921;4.750937193;5.515406829;-15.11067963;23.15369135;-0.4300354;-2.630271496;6.295790364;-1.748679354;-1.937051204;2.262903595
-2.096790347;-9.585754528;-8.763568369;-16.65033399;-3.217623811;1.042397877;11.68608952;12.0850056;12.72380019;7.090584341;6.352815767;-9.285838919;28.41704856;0.977383411;-1.919878893;10.06706121;0.48890267;0.155286976;4.095300745
-1.594464533;-9.789205527;-8.943079074;-14.06721713;-3.713747897;1.382182079;12.98925356;14.64400242;16.6050062;10.08084059;7.525653891;-4.98312905;31.48834046;-0.344266498;-4.160599364;9.185388338;0.044594205;0.732131858;4.187763817
-1.538741121;-10.6069688;-9.478311349;-5.687026879;-3.211606571;1.43542605;11.29219021;15.39650903;18.91828162;12.26441332;8.942131901;-3.771299309;31.55718047;-3.152647611;-6.264001829;5.13504148;-2.503667351;-0.877237091;2.424021078
-1.672725312;-11.16551295;-9.755267489;4.620925253;-1.65624848;1.263568345;8.28354043;14.67828327;17.95062406;12.18632957;9.400887968;-5.629235524;29.74974357;-5.803015763;-6.057479998;0.800332744;-5.171449254;-3.588049801;-0.317742735
-1.372759039;-10.42089031;-9.010367625;11.5193214;0.138424597;1.103141241;6.370220522;13.06485604;13.41102469;9.423911026;7.607311991;-9.1456285;27.98394097;-7.170736071;-3.9471343;-1.422195258;-5.842109772;-4.968602287;-2.628614447
-0.210254004;-7.967426191;-6.94181982;11.65557715;0.947592098;1.137612706;6.629634635;10.99400799;6.929343523;4.972968592;3.338704801;-12.41932682;27.26905;-6.988813986;-2.144035493;-0.73519292;-3.601845935;-2.716390044;-3.353395009
1.647115196;-4.386117536;-3.979666186;5.847338096;-0.032793564;1.321758903;8.054931401;8.645506911;1.08869244;0.679491041;-2.300257257;-14.08260164;26.87316481;-5.677609229;-2.383697432;2.295044893;0.77882646;3.720613249;-2.220413017
3.549695182;-0.868886054;-1.029624087;-1.611999526;-2.562821695;1.418970579;8.647849567;6.076966903;-2.393472984;-1.929180542;-7.721653086;-13.88289462;25.03071051;-4.033677776;-4.296708164;6.720801912;5.470347268;12.52153412;0.06562946
4.904639782;1.574226899;1.09068971;-6.027231735;-5.404604674;1.216932991;7.27970466;3.414815063;-3.94024456;-2.634240914;-12.00313827;-12.57407721;20.57819261;-2.979378621;-5.830270011;11.88091105;8.779488471;20.39253689;2.305636536
5.669736751;2.704300733;2.094103809;-5.48522236;-7.042157148;0.726107966;4.640924894;0.900125645;-5.791840834;-2.662538638;-15.33069557;-11.2623225;14.16490723;-3.2785954;-5.183500763;17.25989364;10.06294215;24.45664022;3.535192028
6.355553504;3.01279518;2.246043115;-1.849035025;-6.617463495;0.183498713;2.511623217;-1.240348016;-10.26;-3.863601556;-18.42377009;-10.6186776;8.065671757;-5.108411746;-2.398684251;21.99454915;9.840923262;23.88744361;3.533252869
7.508860754;3.155295897;2.015397819;1.008050021;-4.478828814;-0.138657846;2.1228119;-2.956818056;-17.86929845;-7.466008445;-21.56427128;-10.41137051;4.754002345;-7.682802889;0.814168186;24.86257025;9.227001106;20.21778905;2.817035654
9.114732784;3.381911075;1.682185459;0.200466808;-1.996582422;-0.14679399;3.136490192;-4.409044918;-26.80435777;-13.24198498;-24.1648656;-9.630265731;5.324684337;-9.370431896;2.743607203;25.03373918;9.199739658;16.19483854;2.185326908
10.45773373;3.442841167;1.224031522;-4.269892944;-0.773746709;0.023173031;4.114560207;-5.8325098;-34.07434109;-19.63868402;-25.25847274;-7.152160421;8.876444854;-8.538677831;3.199371665;22.94699375;10.17368325;14.04444224;2.157395945
10.61624262;2.993955302;0.534441916;-9.975661003;-1.745530361;0.15089563;3.940780791;-7.350019531;-37.4935277;-24.77918503;-24.41955102;-2.570166578;13.16518002;-4.740873899;3.463031939;20.34293808;11.96393877;14.31741367;2.681468052
9.22382587;2.070862602;-0.270837903;-14.18617929;-4.697900504;0.130279963;2.822393815;-8.878472729;-37.00217367;-27.64110905;-22.2489977;3.336520029;15.93490686;0.625105133;4.767464846;19.13960609;13.96151307;15.94410844;3.26231226
6.875173809;1.149936224;-0.776442937;-15.74429852;-8.449803669;0.041326635;1.96683238;-10.1902664;-34.43579843;-28.60319974;-19.98955187;8.852664623;16.01385886;4.877721212;6.816302727;19.93705803;15.3499883;17.21626493;3.362929038
4.812014908;0.718351071;-0.527292568;-15.27967752;-11.54191031;0.041769302;2.312796596;-11.06691703;-32.07371972;-29.00313661;-18.64786375;12.22213451;13.63487466;5.668171331;7.841457165;21.44031623;15.36736373;16.86946588;2.779427221
4.096540318;0.766505936;0.575789862;-13.96118805;-13.00686418;0.1940451;3.570233628;-11.43320886;-31.16165612;-30.05891355;-18.41887409;12.6591265;10.05336407;2.594893207;6.270947943;21.44371868;13.67140324;14.60294619;1.755130459
4.896731071;0.733374074;2.08885343;-12.2437425;-12.79820562;0.396599754;4.488475031;-11.40441032;-31.46478384;-31.95968282;-18.8686278;10.80494003;6.87459386;-2.397552347;2.537657651;18.70138599;10.69797141;10.97073184;0.806168144
6.424008633;0.039099423;3.236737529;-9.860039063;-11.68876805;0.481738333;4.076192832;-11.24807109;-31.97337644;-33.79177472;-19.58815934;8.289986703;5.43012054;-6.237525695;-0.692605787;14.1571769;7.703851018;7.019489235;0.411734063
7.548344743;-1.238287743;3.389089893;-6.924287391;-10.75365103;0.380770726;2.586874941;-11.28856946;-31.97930091;-34.32948431;-20.60742353;6.675801522;6.323726849;-6.761251603;-0.299721918;10.42384602;6.250895495;3.990307775;0.765674176
7.59424768;-2.210766895;2.442365051;-4.810717201;-10.75623585;0.194610562;1.313697;-11.7706326;-31.58943046;-33.06503313;-22.15312137;6.50897445;9.195591883;-4.113523996;4.81401943;9.808512223;7.279535114;3.039037886;1.702046782
6.714281814;-1.834993908;0.823067734;-5.617589919;-11.76858659;0.101088726;1.377217299;-12.70517132;-31.3732853;-30.67880607;-24.04534145;7.148764552;12.83065151;-0.513826486;12.53610859;12.42077125;10.34672271;4.757078418;2.789810933
5.612480235;0.065472762;-0.859990072;-10.41792852;-13.20115964;0.187875604;2.654003953;-13.77249194;-31.63473705;-28.5940952;-25.44544643;7.453496109;15.71618423;1.397508678;18.66921198;15.90942124;13.65337279;8.552076271;3.524039748
4.916958278;2.287669543;-2.201178532;-17.82791816;-14.1901446;0.371259517;3.872031215;-14.3963057;-32.057973;-27.97334319;-25.35887008;6.760517653;16.8819888;0.387397297;19.59500341;17.1087219;15.01176249;12.39966495;3.534504771
4.741138284;2.839668798;-3.0987514;-24.38353408;-14.11055647;0.478734973;3.803368443;-14.03827932;-32.03883211;-28.93413896;-23.53327204;5.386998873;16.52131202;-2.66885639;14.5429561;14.36045861;13.20885435;13.53512143;2.74618086
4.752285728;0.370171727;-3.527167774;-26.73007813;-12.93043237;0.416408771;2.444657062;-12.59116014;-31.33279495;-30.56492087;-20.91069929;4.287545756;15.87475349;-5.597158473;5.907112964;8.747860544;8.851927195;10.04540667;1.431236492
4.606308908;-4.589291691;-3.258763135;-23.9810542;-11.21395855;0.260381472;1.069124495;-10.59590705;-30.36449464;-31.6739831;-19.09752827;4.198773886;16.32832912;-6.504285304;-2.424487207;3.342399702;4.073649038;2.439942485;0.106771715
4.315618973;-9.604435214;-1.879675319;-18.30697047;-9.772224985;0.182947676;1.07427855;-9.044504168;-29.88660229;-31.64199073;-19.1822384;5.007858942;18.32458376;-4.930206268;-7.366372361;1.091768332;1.248999121;-6.071858464;-0.708277639
4.225906499;-11.73809852;0.824371184;-13.22747147;-9.157483316;0.282375997;2.67351098;-8.797792876;-30.3;-30.71968968;-20.87613193;5.866592658;20.9416638;-1.86240508;-7.97710471;2.935088024;1.566428329;-11.1818978;-0.769157891
4.659049246;-9.484856765;4.42023272;-11.01521196;-9.298522336;0.479353596;4.642413262;-9.975066262;-31.26472921;-29.61771423;-22.74823474;5.925640792;22.5472879;1.161631984;-5.231297029;7.419478814;4.38513592;-10.17386381;-0.24712126
5.576830819;-3.872766267;7.772348872;-11.36689236;-9.515448275;0.583013048;5.374566233;-11.78046772;-31.9576099;-28.82816978;-23.40043083;5.042373976;22.07755543;3.038324864;-0.837418187;11.87275689;7.745661775;-3.894109585;0.378455049
6.576538135;2.101306935;9.573924212;-12.3556286;-8.943442707;0.469470017;4.303535896;-12.97275364;-31.73657459;-28.29302738;-22.58861273;3.862934957;19.93362363;3.489382581;3.786140993;14.09971578;9.619363249;3.544264505;0.633891257
7.207878101;5.352964356;9.166977041;-12.6359402;-7.138102752;0.206173077;2.408256734;-12.70822037;-30.60750709;-27.66314021;-21.31306288;3.24074168;17.74665212;2.814866227;7.747964179;13.41906876;9.051553028;7.349915766;0.366853189
7.309505806;4.610506775;7.041572375;-12.76149426;-4.482264446;0.001199837;1.348634478;-11.15776056;-29.09152444;-26.82660155;-20.80121063;3.528388844;17.16630439;1.463367875;10.37391162;10.58996703;6.53264684;5.247460232;-0.165835374
7.065872967;1.040289909;4.569152128;-14.33466289;-2.085239083;0.018176133;2.015767635;-9.413035762;-27.66016134;-26.14359295;-21.30697118;4.364067076;18.63434;-0.152708446;11.02759229;7.043203293;3.512520598;-0.978341517;-0.513278823
6.762261873;-2.753533779;3.084596364;-17.79912671;-1.157305252;0.225262324;3.797458818;-8.710727432;-26.30929605;-26.12505336;-21.84431081;5.105536797;21.12056377;-1.581961757;9.428121772;4.125393363;1.496584042;-6.740662595;-0.392139594
6.496764156;-4.548722537;2.958882475;-21.10397352;-2.199779006;0.419926607;5.193641896;-9.534790632;-24.69958626;-26.85441;-21.14666265;5.47506851;22.99996149;-2.304325585;6.172091917;2.71557485;1.298209361;-7.848436165;0.086234534
6.129228816;-3.831127288;3.360131167;-20.83274163;-4.538146959;0.41153789;5.189516239;-11.27441469;-22.73;-27.74548556;-19.00733494;5.800867437;23.31762047;-1.958462375;2.826505704;3.096238675;2.785079333;-3.362732854;0.508559966
5.498105118;-1.79156869;2.904313393;-15.15376638;-6.57745668;0.197139144;4.129570125;-12.70160054;-20.95498352;-27.95784858;-16.73528367;6.630181085;22.41542926;-0.666812225;1.261888409;4.864557622;5.109921309;3.905702169;0.504008503
4.663009869;-0.191807562;0.716149736;-6.077004789;-6.718292905;-0.031446998;3.325238896;-12.8990646;-20.34593636;-27.17283486;-16.18237119;8.086439659;21.49111931;0.919593762;2.559377966;6.951375628;7.204676365;9.52443859;0.0616448
3.900974589;-0.073701398;-2.905943549;1.228051834;-4.402109358;-0.058732692;3.801435805;-11.92003906;-21.48515341;-26.02897761;-18.07577367;9.598922007;21.57495553;2.029304658;6.259187243;8.019353539;8.291045676;10.55414781;-0.446160097
3.431206187;-1.252409668;-6.726002504;1.937965368;-0.589257157;0.159067085;5.357475131;-10.68062319;-23.84919405;-25.72812717;-21.10198378;10.30913187;22.83456132;2.350170769;10.54318614;7.267966077;8.217240426;7.379375525;-0.566072167
3.131893607;-2.809407083;-9.509409529;-4.716613926;2.722317517;0.45261179;6.791592004;-10.19562862;-25.86459623;-27.0203351;-22.65988541;9.840394008;24.71608763;2.25610563;13.29710999;5.149182415;7.486675932;3.047474869;-0.151572889
2.558481246;-4.017932166;-10.91566632;-14.59591677;3.708731033;0.591110654;7.041360947;-10.78;-25.83280754;-29.37186143;-20.81850342;8.761311614;26.62053556;2.414007244;13.37739338;3.278257865;6.926545785;0.790967618;0.485895486
1.31203015;-4.899096531;-11.64024038;-21.53781073;1.903721151;0.489875431;6.152827992;-11.83693771;-23.0962036;-31.07390463;-15.93881289;8.303550222;28.36743475;3.071386944;11.26201197;3.309504646;7.112712477;1.666252612;0.799760309
-0.53415561;-6.028713066;-12.70701257;-21.82335578;-1.450144529;0.284299963;5.179529286;-12.36399283;-18.56695035;-30.34232913;-10.59443758;9.513659572;30.01108946;3.678904991;8.671972976;5.460828231;7.872263948;3.989753128;0.436598032
-2.343635247;-7.87239074;-14.49653988;-16.690672;-4.168287175;0.201719806;5.134212762;-11.74169101;-14.19462154;-26.6435359;-7.75923416;12.49007813;31.30683553;3.27052571;7.412875015;7.905173772;8.246432737;4.80147762;-0.473823343
-3.302658348;-10.2671084;-16.308474;-10.90905134;-4.537429843;0.347340556;6.005762086;-10.18106996;-11.74864939;-21.23422206;-8.637819033;16.28160583;31.53235312;1.360780592;8.176181007;7.780142056;7.066164675;2.111722153;-1.405555495
-3.017176239;-12.46510689;-16.82978308;-8.652577567;-2.435942673;0.600405191;6.781180417;-8.526959747;-11.79173486;-16.45378626;-11.82800484;19.48590443;30.02408438;-1.400024414;10.07110826;3.313103104;3.850247178;-3.732484388;-1.835743453
-1.847239509;-13.65088028;-15.15731122;-10.13167972;0.604247484;0.717992096;6.453113676;-7.638193528;-13.5293258;-14.23932755;-14.45260585;21.06087458;27.00564948;-3.453201728;11.2197551;-4.493314292;-0.599020275;-10.40735501;-1.637311321
-0.688157124;-13.48361298;-11.57940666;-11.76652975;2.441182261;0.55505043;5.051952003;-7.856192492;-15.52221673;-14.91429367;-14.34352676;20.77286054;23.84131754;-3.376999842;10.08313106;-12.05864149;-4.433050949;-15.23942036;-1.151722857
-0.342105983;-12.26760812;-7.502440066;-9.6683596;1.755366426;0.201902961;3.704330668;-8.921221269;-16.63078246;-17.08557449;-11.57111371;19.07496701;22.24405898;-0.97539314;6.671562087;-15.4089515;-5.811619126;-16.84769417;-0.889678772
-0.951402198;-10.69959594;-4.561128095;-3.382396571;-1.107174782;-0.087182333;3.627451453;-10.28487744;-16.50324087;-18.65987798;-8.201750714;16.6616002;22.91832411;2.460603053;2.768187821;-12.87813785;-4.126733975;-15.74491949;-1.109034325
-1.915602608;-9.450884674;-3.56111856;3.371166238;-4.431198362;-0.113058536;4.976974203;-11.47779264;-15.40821347;-18.2105667;-6.606023051;14.09471593;24.76426612;4.962335893;0.8602689;-6.331185153;-0.52859408;-13.71100664;-1.61318562
-2.335271347;-8.878113202;-4.00715782;5.655014584;-6.312983166;0.096672203;6.630666917;-12.2487382;-13.77220407;-15.76506682;-7.728493627;11.68652128;25.45589034;5.165199021;2.358090581;0.060327824;2.690392077;-12.56132269;-1.925689676
-1.631480397;-8.964322654;-4.517864121;1.499700715;-5.874221313;0.317383034;7.144747029;-12.48198435;-11.92712373;-12.59318987;-10.61846968;9.536476448;23.1093343;3.106143702;6.312863678;2.634900598;3.499439527;-13.15257919;-1.68722898
0.106543959;-9.40347722;-3.789255242;-6.230277188;-3.688920712;0.332791256;6.037159013;-12.10996662;-10.22607213;-10.29871303;-13.39446478;7.559795155;17.79076943;-0.005327781;9.690737089;0.597058476;1.382169844;-15.11197843;-0.946111594
2.24341006;-9.72272831;-1.422929552;-11.90445948;-1.208493455;0.133149245;4.232558314;-11.16990111;-9.228346726;-9.897345466;-14.6785646;5.51901584;11.63991984;-2.762268351;9.265702535;-3.761423584;-2.41642901;-17.24547641;-0.112833703
4.02489317;-9.438336241;1.902076164;-11.45194093;0.319112766;-0.070688168;3.252160127;-9.910963928;-9.554123865;-11.4022537;-14.32131385;3.208066419;7.444080996;-4.461425438;3.963944231;-7.004279015;-5.795993215;-18.26340244;0.368102485
4.96981086;-8.284761187;4.940502863;-5.402745419;0.640637082;-0.031118565;3.870516461;-8.732368762;-11.37524793;-13.98317784;-13.01993377;0.808293553;6.732614615;-5.275410011;-4.043861644;-7.087075346;-7.198355425;-17.44508496;0.349512705
5.00081484;-6.452242978;6.666016712;1.782184031;0.492890136;0.315363382;5.449226215;-7.890192653;-13.98391544;-16.43021176;-11.43361593;-0.864289026;8.841358644;-5.715763309;-10.49376938;-4.597383198;-6.522074976;-14.99524791;0.050588856
4.343476976;-4.63048061;6.825967251;5.40993839;0.908412084;0.78310798;6.544322326;-7.209622056;-15.97029523;-17.63883628;-9.72218172;-0.609476053;11.60175183;-5.980327655;-11.81972373;-1.940657944;-4.97245988;-11.97180317;-0.169738176
3.373657886;-3.689033996;5.996637419;4.145191453;2.399300004;1.083708997;6.226198639;-6.150536447;-16.08307986;-17.00327284;-7.861015651;2.347612695;13.01271522;-5.775364772;-7.652197184;-1.315744949;-4.044527069;-9.784321201;-0.12241163
2.532852071;-4.088965805;5.203052904;0.588640237;4.59042553;1.056580874;4.905125704;-4.314858969;-14.20312809;-14.69773534;-6.230097656;7.493435886;12.53611882;-4.688692136;-1.130657813;-3.119230057;-4.417440116;-9.441165101;0.085308211
2.271251704;-5.41975417;5.368136976;-1.413536486;6.483764871;0.788077901;3.912426468;-2.036789917;-11.61854073;-11.74963557;-5.68159431;12.88580055;11.08174778;-2.675312192;3.330854223;-5.877238647;-5.527829185;-10.92273097;0.19772943
2.91475805;-6.488026258;6.861339311;-0.245594985;7.091608424;0.525402992;4.230575291;-0.484692166;-10.24090533;-9.732050799;-6.840730147;16.10673231;9.895300757;-0.169348746;3.240078125;-7.506100291;-6.053013328;-13.09978498;0.080235719
4.459998179;-6.032247438;9.315330656;2.221993001;5.994395699;0.46903353;5.549483627;-1.001479163;-11.241994;-10.03980583;-9.252110666;15.80288132;9.426718301;2.243524065;-0.230054932;-6.760980941;-4.902400944;-14.35365987;-0.142589963
6.458548111;-3.627872434;11.77284277;2.550887857;3.522328757;0.623946144;6.530926558;-4.047834175;-14.1312159;-13.05032482;-11.29693444;12.68176352;9.131739368;4.211720215;-3.32838026;-3.825810162;-2.023768937;-13.58445238;-0.207629494
8.165789316;-0.104823844;13.13032635;-0.993709057;0.546135516;0.826750337;6.052780223;-8.561381975;-17.03980608;-17.71747003;-11.21146598;9.086683646;8.23553527;5.65212833;-2.832076672;0.126906688;1.479909703;-10.9516707;0.01671656
8.941820095;2.915744962;12.72468893;-6.736357843;-1.938532969;0.907207592;4.291391876;-12.36014216;-18.06920407;-21.99775;-8.519993595;7.334102247;6.631283158;6.435002379;1.271059821;3.777803457;3.956544894;-7.797829797;0.359789002
8.652806867;4.108782908;10.78226436;-10.9074047;-3.223323819;0.83218854;2.624642158;-13.45886043;-16.70375471;-23.96862183;-4.680549413;8.042397625;5.046677936;6.145387746;5.698019969;6.19602021;4.146872032;-5.753925395;0.446032383
7.761778785;3.383671317;8.426351312;-10.77328478;-3.15791238;0.710435544;2.402346885;-11.40648305;-14.19003906;-22.95210411;-2.259046688;9.791276486;4.361935443;4.327478796;6.522771578;6.903203218;1.927576393;-5.631747255;-0.001602375
7.006875377;1.955230972;7.127243419;-6.842292355;-2.201275972;0.670452089;3.679122175;-7.634625176;-12.56418466;-19.87097268;-3.127337863;10.43207681;4.770284774;1.123862229;2.494334482;5.816669651;-1.538081491;-6.89217358;-0.898430448
6.88813475;1.455871279;7.831353866;-2.295140017;-1.210448213;0.735410531;5.082011669;-4.491512953;-13.06547612;-16.57309642;-7.037525819;9.00406096;5.592220253;-2.289911437;-3.649527663;3.390593968;-4.328565636;-8.068281776;-1.800975131
7.347147122;2.728025293;10.29465374;-0.243865543;-1.001735317;0.810636182;4.9978875;-3.626524451;-15.16618909;-14.60299731;-11.70116864;6.655618312;5.909378756;-4.068292617;-7.007046615;0.80322862;-4.730048828;-7.818494204;-2.192310207
7.877000969;5.195499939;13.11173092;-1.261997416;-1.866270866;0.787126744;3.076188992;-4.906290585;-16.96602903;-14.29575546;-14.33915912;5.755399446;5.403728867;-2.83010174;-4.136530869;-0.282768913;-2.168936161;-5.833100962;-1.83936745
7.957847657;7.284869221;14.51999527;-3.278306634;-3.336290619;0.656895438;0.708360769;-6.65453219;-16.62607126;-14.79526457;-13.5115922;7.900838381;4.60667556;1.204546538;4.296024871;1.412181284;2.394810545;-2.962763457;-0.952855327
7.462261983;7.579846251;13.51686868;-3.768376829;-4.424675545;0.529953244;-0.016933527;-7.002744946;-13.70916985;-14.87731686;-9.844616927;12.50470154;4.335565334;6.033617856;13.87305471;5.765533092;6.8960715;-0.545244092;-0.034071089
6.722120786;5.853150751;10.55497387;-2.161493631;-4.264033903;0.537825159;1.919259878;-5.305082949;-9.399263117;-13.87376277;-5.199232876;17.19200341;4.868616222;8.984854873;19.48711591;10.9632534;9.264363794;0.516462577;0.468198087
6.242949821;3.237981863;7.317039321;-0.273374389;-2.738548661;0.71269014;5.43189161;-2.560449277;-5.493322771;-12.00557467;-1.093904744;19.70214523;5.651725873;8.453686573;18.76794;14.43943439;8.610124421;0.261857827;0.433468018
6.331561401;1.459938603;5.685886108;-0.421329953;-0.62325634;0.950080566;7.926923988;-0.587483353;-3.038531575;-9.989071974;2.258810359;19.66870466;5.817796213;5.02742994;13.36734035;14.57134094;5.77231416;-0.506399668;0.089650235
6.933910778;1.723857719;6.582405396;-2.997827885;0.941275399;1.085092206;7.119875673;-0.658384407;-1.728164869;-8.379730633;5.551535788;18.71332444;5.019088176;1.123490146;7.352726913;11.90298947;2.826751612;-0.836192174;-0.206177455
7.760019531;4.034616904;9.435021435;-5.780398964;1.294686478;1.013310901;2.703952066;-2.657811239;-0.493165693;-7.255720396;9.092822964;18.73897417;3.764536323;-0.655826872;4.168668128;8.863918299;1.804866139;-0.182227969;-0.237120506
8.5207914;7.33672922;12.59920947;-5.706310233;0.770572174;0.756998181;-3.368380176;-5.34593677;1.28958718;-6.443323441;11.89074817;19.91665824;2.913919841;0.711688311;4.536320918;8.049797215;3.427143102;1.411695815;-0.0447797
9.046791281;10.24415148;14.39545193;-1.622932231;0.424983477;0.434106268;-8.141563864;-7.408548525;3.057290565;-5.949106617;12.04760263;20.20936854;2.784935022;4.040583325;6.667727977;10.29071647;6.692980034;3.463765183;0.163857687
9.229509359;11.78241266;14.05129723;4.397393042;1.133170055;0.172300147;-9.476544247;-8.406749594;3.456251806;-6.088650071;8.251257909;16.99889339;2.72410499;6.85564466;8.228271586;13.9808684;9.608111303;5.29684087;0.21375969
8.930386374;11.69375007;11.97082089;8.400418777;2.754420364;0.043855798;-7.16041701;-8.915307181;1.557416635;-7.134463487;1.149511726;9.526214924;1.595747901;7.132996496;8.216920245;16.21946409;10.54302832;6.214721348;0.094460961
8.028774927;10.27364268;9.268035425;7.507966802;4.078964343;0.058672408;-2.695319963;-9.851662641;-2.13771278;-8.816501082;-6.599707587;0.030959123;-1.196277825;4.594003481;7.28641154;14.9228027;9.274901098;5.654769721;-0.063130565
6.600960613;8.032967342;6.986589257;2.070154161;3.687344079;0.190633751;1.847024608;-11.62589275;-5.779682944;-10.20473734;-11.78824823;-7.544332297;-5.055467392;0.696587419;6.530802198;10.32059761;7.009112902;3.418518903;-0.119598676
5.030282171;5.481904296;5.551799855;-4.719130237;1.109006632;0.39203803;4.982433273;-13.79475928;-7.330435411;-10.18679972;-12.61150732;-10.39750231;-8.519797994;-2.528909516;6.064072715;4.743291512;5.427522686;-0.074280316;-0.043788741
3.861019133;3.094780879;4.737704615;-9.33342481;-2.628195816;0.586216819;6.292490517;-15.40930361;-5.902115027;-8.206114737;-9.69268505;-9.002764545;-10.33121359;-3.856173267;4.743688601;0.933777478;5.501539069;-3.745875189;0.07903798
3.44486829;1.31249614;4.03931934;-10.4020053;-5.538392754;0.672508742;6.187432515;-15.67697264;-2.233881384;-4.652156202;-5.459947446;-6.76500051;-10.35697906;-3.485754973;1.255104324;0.209503457;6.923820735;-6.233314565;0.13709643
3.669649155;0.454958052;3.117415433;-9.161259975;-5.952252131;0.57455997;5.391882001;-14.38996258;2.024587603;-0.559838257;-2.397358824;-7.397947739;-9.59977814;-2.621792297;-4.464595962;1.815968625;8.494136262;-6.572057482;0.090347246
4.048903535;0.586410849;2.035738224;-7.698323371;-3.591547652;0.309954997;4.574777471;-11.87794724;5.58877453;3.14144267;-1.480533217;-12.08457792;-9.32453542;-2.486554652;-10.76400525;3.804025133;9.073999624;-4.772164675;-0.006180218
4.152418106;1.485950337;1.215891191;-6.733916629;0.335909209;0.013482543;4.213749831;-8.685760739;8.322934;6.202342302;-1.867265151;-18.65956104;-10.07769285;-3.547574784;-15.22900314;4.593515307;8.361433363;-1.84916046;-0.062732784
4.02184892;2.792714313;1.199909799;-5.018443822;4.033472565;-0.133526307;4.540048828;-5.343859784;10.94546228;8.983528578;-1.896845224;-23.40869629;-11.42160479;-5.409578465;-16.31613397;3.980242827;6.97041521;0.773844058;-0.036123112
4.169085599;4.209731997;2.351121883;-0.892449902;6.263712546;-0.034284087;5.459824825;-2.384424139;14.00717503;11.84213275;-0.496181389;-23.97557316;-12.53347422;-7.251582346;-14.40705899;2.94024802;5.881153531;2.108440977;0.039752507
5.090608823;5.574857151;4.600279219;5.456982293;6.877645471;0.234807019;6.542907868;-0.423302546;17.10277834;14.55490881;2.085379135;-21.03708876;-13.04875431;-8.355694247;-11.52127157;2.600712747;5.764565077;2.110873444;0.093213487
6.686825408;6.746758052;7.341999229;11.24392084;6.436038537;0.464377007;7.222836997;-0.033989926;19.04493618;16.32354929;4.639725881;-17.50412117;-13.35542132;-8.374944158;-9.958836261;3.324719617;6.663132605;1.53843475;0.081162169
8.137009325;7.4787255;9.594221879;12.80440066;5.409806573;0.465638744;7.164770543;-1.382914175;18.86675164;16.38746211;6.007509152;-16.05962063;-14.10226285;-7.321250525;-10.86831677;4.595859355;8.131121978;1.328361412;0.022340067
8.451316913;7.513193909;10.45438399;8.584199788;3.750229066;0.218685618;6.531433761;-3.925438136;16.76861283;14.71971728;5.867569095;-17.13545675;-15.43826665;-5.469906971;-13.6609762;5.621272276;9.577222334;2.002188358;-0.026674722
7.331773955;6.91344023;9.680675089;0.921425241;1.204960058;-0.110731316;5.885526694;-6.526410467;14.13869644;12.18500371;4.761116147;-18.92498231;-16.74989528;-3.312787881;-16.51260256;6.004445754;10.50554483;3.497133207;-0.024857388
5.622620024;6.329892202;8.021664697;-5.077670414;-1.98953864;-0.307251578;5.755620639;-8.058369457;12.55240295;9.981760641;3.488921481;-19.24003906;-17.18329381;-1.495004264;-17.49918029;5.913880738;10.57954271;5.415566687;0.019969755
4.865196298;6.80792187;6.93781177;-5.015217106;-4.803527427;-0.284107368;6.207004388;-8.098189144;12.54140329;8.794616109;2.479974413;-17.50653547;-16.48140881;-0.603782985;-15.65552594;5.724724787;9.650039063;7.345025618;0.063966682
6.166115958;9.056612474;7.709347781;1.473471554;-5.93462459;-0.150999335;6.787584427;-7.184815917;13.16208949;8.334221544;1.634240994;-15.2012909;-15.33986193;-0.840148814;-11.44760053;5.582431883;7.862707182;8.928645272;0.06943432
9.199691129;12.61924781;10.4245449;10.11129552;-4.816155785;-0.110381957;6.907251734;-6.393227314;12.76679687;7.632372444;0.656854475;-14.46790915;-14.90146176;-1.820211702;-6.528827612;5.320959965;5.74773786;9.702604378;0.036437864
12.17068192;15.66394803;13.59629216;14.71822364;-2.247000387;-0.270014648;6.330078125;-6.507243911;10.39611822;5.856673089;-0.512920371;-16.21226279;-15.79469008;-2.759084581;-2.954833795;4.74844682;4.070658202;9.016808572;-0.001944243
12.89655988;15.81547386;14.86565402;11.4545444;0.001719242;-0.53592236;5.361713132;-7.403785799;6.680838525;3.009902752;-1.582534567;-19.33757773;-17.55908894;-3.011154376;-2.203834665;3.93931499;3.381564101;6.310142526;-0.012116127
10.31282853;11.69692714;12.51635096;1.577662561;0.418084655;-0.682980177;4.590525023;-8.113978323;3.51165119;-0.006688354;-2.157671958;-21.70157242;-18.98278294;-2.594364289;-4.433436305;3.202502829;3.534855595;1.646339015;0.011169725
5.327370248;4.189205433;6.844256427;-9.248493579;-1.111606265;-0.545757991;4.435591384;-7.515047344;2.709531097;-1.981656674;-2.077545352;-21.87389476;-19.07991787;-2.24471104;-8.368102328;2.767594767;3.622726896;-3.927863635;0.04388326
0.369781104;-3.586361929;0.357515816;-14.62162716;-3.190019531;-0.165261661;4.900019531;-5.139345759;4.720595381;-2.173145669;-1.503032107;-20.15662275;-17.87071848;-2.863781132;-11.95870311;2.54618281;2.533468355;-8.617120543;0.056973327
-2.094829371;-7.789152819;-3.517129364;-11.51995032;-3.968124796;0.236667506;5.703971535;-1.523528811;8.332564594;-0.729927253;-0.692757171;-18.07595631;-16.30140452;-4.719323466;-13.51197442;2.256365634;-0.167331123;-10.70064662;0.041809785
-1.078674354;-6.064762852;-2.508534941;-2.102073924;-2.571258254;0.434572559;6.603321893;2.114742254;11.60032159;1.483807206;0.290877703;-16.92698128;-15.40096888;-7.02573066;-12.61848709;1.808461552;-3.700058594;-9.459719086;0.014896334
2.404851097;0.949082139;2.98575403;7.916278528;0.236095115;0.376352019;7.548502999;4.602305547;13.23695395;3.469540708;1.639467323;-16.72242003;-15.43925511;-8.309328512;-10.25586152;1.533996016;-6.395322995;-5.590810523;0.000549064
6.105910348;9.829003832;10.00153758;13.07679241;2.682078049;0.210132998;8.540670311;5.433831675;13.41111263;4.668950996;3.540207219;-16.42959548;-15.83195053;-7.383925262;-7.987663491;1.936757171;-6.772300479;-0.823922631;0.009241522
7.998891569;16.2101433;14.723607;11.568541;3.409967465;0.143707518;9.38626126;4.934632497;13.40920668;5.205998498;5.825482508;-15.16690101;-15.85257867;-4.264079952;-6.856303702;3.099934309;-4.638314622;2.990284103;0.030623667
7.427244696;17.14003906;14.72051577;6.01670299;2.545813527;0.264108045;9.679698196;3.957941469;14.51853683;5.724879348;7.864293059;-13.18983182;-15.47311837;-0.328756928;-6.817511682;4.281478112;-1.373174894;4.738921119;0.045110126
5.237037218;12.52539065;10.25787416;1.34323613;1.552171399;0.474499921;9.115192443;3.38187154;17.03867384;6.964978034;8.849116175;-11.7531081;-15.52447838;2.445372515;-7.118800888;4.172127865;0.885993079;4.389347214;0.041611572
2.963701365;4.90187034;3.899806528;1.313786428;1.990504584;0.59634755;7.861128745;3.700169925;20.13225592;9.290742425;8.312724634;-12.00092006;-16.96819641;2.699125539;-7.216613481;1.77311286;0.635280168;2.77166693;0.025571684
1.75684763;-2.149129915;-1.221646261;6.131847356;4.19337764;0.537074043;6.599262632;4.85440065;22.50669517;12.37792763;6.510306675;-13.91628063;-19.87819807;0.543603163;-7.354359092;-2.707866608;-1.994733024;1.099654422;0.012003162
1.791061593;-5.849171779;-3.242643626;12.58200322;6.915196842;0.369710823;6.09760033;6.305270654;23.29556506;15.21243791;4.375870756;-16.27288109;-23.03725829;-2.516079005;-8.236951957;-7.656673261;-5.317982908;0.548153882;0.011641455
2.449989362;-5.278788279;-2.337266828;16.42833673;8.243828506;0.256722612;6.624311382;7.283013673;22.46397275;16.47362402;3.04646611;-17.6020935;-24.57979326;-4.519896552;-10.09327698;-10.80135167;-7.168508718;1.976055752;0.022814087
2.989941115;-1.275957714;-0.101016509;15.28819289;7.058232216;0.29431713;7.705173316;7.147413288;20.557157;15.2034818;3.233866371;-17.28917278;-23.25221031;-4.22439603;-12.04745721;-10.47344675;-6.207968653;5.694396618;0.03480116
3.115917514;4.414880166;1.796009369;10.00322781;3.903557518;0.424120109;8.468086868;5.743939502;18.16778621;11.44467663;4.820591839;-15.85321285;-19.3341105;-1.764519597;-12.51123494;-6.567260616;-2.608919497;11.23078579;0.037971155
3.076844131;10.02364324;2.639468542;3.693755061;0.630083008;0.493498796;8.314323202;3.573659858;15.6405191;6.428462657;6.919520403;-14.25807629;-14.50473061;1.553462043;-10.39830225;-0.595698638;2.229079513;17.25011069;0.031255242
3.305348244;14.20595499;2.745915858;-0.644779434;-0.90032849;0.406524123;7.359644835;1.612787826;13.19598775;2.073589799;8.366632755;-12.98533606;-10.74598206;4.110444487;-6.155334387;5.139899528;6.595033307;21.87874167;0.021455988
3.951458905;16.1;2.752639624;-2.151474472;-0.058356158;0.223395587;6.279322542;0.801585206;11.20372538;-0.010578066;8.376315211;-11.76117075;-9.091681025;4.895372478;-1.668696609;8.701797845;9.343494343;23.46546365;0.016541523
4.680376431;15.30301449;2.847734299;-2.249680581;2.240779566;0.1138862;5.709267097;1.484372333;10.2009346;0.579179281;6.999993107;-10.14609948;-9.106535186;3.945800779;0.96192483;9.32028467;10.24756934;21.42577642;0.019394184
4.864398261;11.96376081;2.5821227;-2.940849291;4.297928017;0.205189798;5.737277264;3.199040964;10.54997873;2.86716431;5.126503871;-8.333748172;-9.390258027;2.137903251;0.804536788;7.509842762;9.801969334;16.60767064;0.026680206
4.009029575;6.876885822;1.332166617;-4.703363524;4.830202098;0.462280053;5.919094439;5.023333783;12.04690718;5.222455114;3.997890796;-7.28306846;-8.647434687;0.566119271;-1.486126976;4.603916451;8.782988897;10.84058084;0.032486933
2.112016971;1.31133456;-1.067143639;-5.78371823;3.746281033;0.710204836;5.767183944;6.272714013;13.91271297;6.504761243;4.479713316;-7.942814717;-6.520658569;-0.059879706;-4.468080434;2.061402074;7.874435548;5.881005887;0.03294536
-0.277762166;-3.509947214;-4.087555624;-3.573721272;2.043608233;0.779475626;5.234240424;7.026140749;15.27788715;6.809454024;6.487468282;-10.23070184;-3.658793804;0.323003322;-7.107239785;0.86693309;7.46038393;2.433458894;0.028422149
-2.334987387;-7.009762056;-6.851028867;2.940868565;1.037663868;0.645271095;4.738023832;8.027483161;15.79195285;7.248315571;8.924322324;-12.75361291;-1.103121692;1.268154639;-9.254001026;1.193736699;7.532975028;-0.086646997;0.022530164
-3.401406436;-9.489595684;-8.7321037;11.66;1.532490117;0.438537034;4.719573659;9.973433527;15.80832369;8.914439967;10.21982903;-13.66746747;0.469237968;2.181717353;-11.06635519;2.394217749;7.69449024;-2.898081264;0.019398972
-3.340470008;-11.75654575;-9.712623613;18.19535213;3.445323658;0.323885687;5.172418692;12.71400851;15.91944204;11.81032633;9.200550078;-12.07094052;1.104501951;2.667880175;-12.14877008;3.341647932;7.331524084;-6.797253488;0.021092055
-2.595411566;-14.36488846;-10.23047328;18.67276963;5.98585619;0.357820855;5.607355294;15.03151326;16.19859392;14.5697013;5.789027211;-8.793114039;1.368482697;2.696455889;-11.50509934;3.054679627;6.003989607;-11.46575047;0.02641026
-1.908013897;-17.03223202;-10.70156437;12.50961739;8.1331237;0.453815171;5.500841998;15.27197307;15.83266729;15.22051103;1.093230787;-5.863934451;1.830112058;2.568049343;-8.567248641;1.34829742;3.884461671;-15.61384785;0.031588844
-1.853920423;-18.7058426;-11.14183099;3.019072106;9.083297494;0.478919712;4.808126494;12.45206205;13.57621721;12.46197022;-3.191547951;-5.009607403;2.64402111;2.745248391;-4.321764283;-0.89263497;1.902498982;-17.80934762;0.032690163
-2.473171071;-18.27867968;-11.1870783;-4.749245453;8.504475888;0.385660757;4.047823912;7.059185751;8.782809699;6.55444908;-5.709827547;-6.315818355;3.497244143;3.638078657;-1.172572851;-2.112672366;1.341218101;-17.3707123;0.028500229
-3.235120897;-15.44586729;-10.44746782;-7.412484146;6.608707271;0.254269683;3.858641887;0.936420839;2.220274258;-0.781719375;-6.127169513;-8.087635028;3.896642855;5.411146244;-1.195276511;-1.041234031;3.021605205;-14.71919719;0.021893954
-3.376302334;-11.05591258;-8.86493264;-5.378823867;4.088342601;0.208169696;4.425489413;-3.716986778;-4.062678041;-7.346352947;-5.156323822;-8.010797874;3.55993227;7.864388872;-4.056811945;2.376382387;6.609163668;-11.02636026;0.01812293
-2.403435444;-6.670831345;-6.781499023;-2.122889952;1.907742683;0.286391313;5.30425688;-5.574167987;-7.872359161;-11.6249825;-3.960467343;-4.743372206;2.646071164;10.44007813;-6.565823398;6.77120258;10.61525326;-7.489811544;0.020714264
-0.431974949;-3.639765002;-4.707261707;-1.251367479;0.93849698;0.39712437;5.812504692;-4.837446643;-8.27094832;-13.4057943;-3.372563413;1.200252826;1.692910198;12.39520988;-4.725964028;10.14085523;13.22483771;-4.757940695;0.02810844
1.865025142;-2.35811292;-3.030389484;-3.718452824;1.539936816;0.399554764;5.630467641;-2.945106218;-6.229243399;-13.57500122;-3.45537961;7.819969461;1.317588511;13.116788;2.981408351;11.18453584;13.45402747;-2.822856877;0.034290973
3.65357003;-2.241424198;-1.917942936;-7.383885134;3.315371464;0.23899793;5.060974648;-1.60037429;-4.007495913;-13.37862652;-3.643965249;12.88105543;1.873292292;12.45817172;13.71981626;10.2442138;11.82174167;-1.328014529;0.033606694
4.398594193;-2.396641943;-1.434271363;-9.162194547;5.253691461;0.007715501;4.713845464;-1.793394736;-3.651417488;-13.69254848;-3.287096963;15.13807955;3.277438754;10.90427683;21.67256688;9.10405151;10.00599825;0.009666801;0.02597184
4.080830139;-2.443168166;-1.679679902;-7.867002835;6.247817828;-0.12930818;4.916606002;-3.388552414;-5.643528811;-14.6882233;-2.154834176;14.80045931;5.117215982;9.41226719;21.99987655;9.697828217;9.672946863;1.148775922;0.017633959
3.070898682;-2.831834542;-2.743946943;-5.285685854;5.708948283;-0.079184597;5.407583344;-5.400961888;-8.650793323;-15.9384223;-0.56950235;13.13399172;6.952304354;8.942846156;14.47392245;12.60924555;11.28362596;1.743100863;0.016120169
1.824637941;-4.411571044;-4.484630829;-4.528306182;3.891852577;0.095323017;5.599449141;-6.658368342;-10.52710571;-16.76883071;0.859760899;11.6296347;8.587554816;9.91264082;3.893704065;16.4709342;13.7236469;1.357041184;0.023390413
0.665156761;-7.589834113;-6.368581794;-7.049257637;1.717292213;0.231545033;5.160347468;-6.415584688;-9.840503247;-16.63976368;1.63577594;11.27915286;10.09915804;11.90865406;-3.202492558;18.76360968;15.02478587;-0.259235582;0.033461998
-0.218677707;-11.76099448;-7.621742731;-10.96163969;0.209114701;0.213139688;4.354803152;-4.651946736;-6.845512495;-15.43214066;1.607133009;12.24971608;11.58850586;13.89640277;-3.07455726;17.50997322;13.68339003;-2.948999664;0.037249426
-0.661472172;-15.48106599;-7.678909001;-12.27166172;-0.089186115;0.074227076;3.809454161;-2.024329174;-3.246909003;-13.56379516;0.935433451;13.95559493;12.87987187;14.85174678;2.907904901;12.69655178;9.686866908;-6.068652721;0.030774968
-0.505710091;-17.29677497;-6.620078125;-8.211665589;0.633863558;-0.034378869;3.915614319;0.421170503;-0.971014904;-11.85947009;-0.078480353;15.39782506;13.46428188;14.43737564;9.866613934;6.437257868;4.59591729;-8.615667037;0.019299794
0.242317125;-16.63176874;-5.206435791;0.033847;1.647568381;0.012180864;4.437305666;1.668419295;-0.840337541;-11.14952825;-1.121907598;15.64569944;12.81117019;13.25902831;13.4641574;1.77562432;0.683046377;-9.573120477;0.013109994
1.245763188;-14.08314214;-4.392844077;7.61017619;2.141511894;0.189934135;4.715200799;1.172024464;-2.069823251;-11.74408116;-1.888874653;14.31685383;10.83667513;12.476728;13.04271823;0.94777292;-0.289679855;-8.354323949;0.01825609
1.91300203;-10.92625877;-4.61379462;9.339759754;1.666743768;0.335352845;4.298500041;-0.846109533;-2.88970857;-13.11150077;-2.085386269;11.84061359;8.117230477;12.98346971;11.41663999;4.230322042;2.06677793;-5.115205577;0.030605904
1.785147471;-8.22164883;-5.374362671;3.667896553;0.335064177;0.281407076;3.417274958;-3.445292414;-1.81343049;-14.07085355;-1.536166394;9.296229948;5.587554049;14.69945074;11.7947169;10.0089609;6.66841234;-0.721230786;0.039061969
0.979366195;-6.204495656;-5.509422219;-5.890677291;-1.27381892;0.00204082;2.830293754;-5.439986091;1.340770092;-13.49759388;-0.366426813;7.827415998;3.891596575;16.50310833;14.69515939;15.84669378;11.54669847;3.647801186;0.035526923
0.273827597;-4.395145812;-3.994722038;-13.05627685;-2.409686703;-0.360188642;3.152262968;-6.098759491;5.347324664;-11.12539947;0.921122805;7.957827954;2.912471699;16.91261918;17.55899088;19.75137988;14.74042438;7.019937999;0.022652201
0.631708742;-2.290200302;-0.757428095;-13.19194422;-2.511822673;-0.60456446;4.261496623;-5.624069149;8.40899696;-7.854451514;1.642482108;9.288293863;1.942443966;15.10709557;17.27715651;20.9006456;15.07801845;8.946853479;0.011938348
2.424866966;-0.033053529;3.114583788;-6.51280274;-1.487600654;-0.621968449;5.346181342;-5.015284697;9.330140078;-5.25855051;1.364524458;10.83608642;0.447581112;11.60680224;13.25277766;19.61560889;12.58810622;9.442921819;0.013429206
4.952112401;1.516703499;5.964593848;2.289005186;0.217838006;-0.456395519;5.584260173;-5.312408958;8.247585836;-4.56272033;0.29752635;11.79003906;-1.178365068;8.124164979;8.197173041;16.89421326;8.442242734;8.685287418;0.026245004
6.722282804;1.407761611;6.591104489;7.63;1.833073343;-0.235793006;4.870616206;-6.708837086;6.480876122;-5.796264746;-0.677885234;12.0956511;-1.586410209;6.63428229;5.930822754;13.9386321;4.45562298;6.801893624;0.038897784
6.41767962;-0.564398876;5.014737678;7.036950731;2.695572364;-0.048004836;3.938731179;-8.209005154;5.659818005;-7.742215235;-0.455544178;12.39230066;0.629180113;8.228460194;8.145976058;11.85694288;2.294477588;3.964368452;0.039564617
3.881058275;-3.488615812;2.464398056;2.568660185;2.68439888;0.119476351;3.747292214;-8.178717249;6.731616595;-8.734173;1.619251912;13.35542441;5.689623097;12.45553843;12.99306831;11.42621278;2.688906904;0.675874798;0.027127224
0.360851568;-5.788180581;0.591917827;-1.228448531;2.346461707;0.325997816;4.654962063;-5.485044645;9.471656453;-7.731397927;5.285392227;15.0126162;12.03466343;17.53878715;16.70454818;12.78492946;5.040769257;-2.103188966;0.012649024
-2.251643106;-6.217259583;0.441077825;-1.031193441;2.549065228;0.57342406;6.103619539;-0.435465959;12.74752665;-4.921237781;9.449044522;16.64377559;16.98238663;21.31233243;16.77753451;15.17081913;7.707002636;-3.263979676;0.009505669
-2.701023332;-4.698077018;1.838356166;2.834081364;3.815456169;0.763713466;7.090349506;5.194964076;15.29224239;-1.486809596;12.78690166;17.37692135;18.3276397;22.3155386;13.91536126;17.03074403;8.896651365;-2.183262935;0.020973077
-1.241750423;-2.384908878;3.562485023;7.000586453;5.793345811;0.770809372;7.019537316;9.135054094;16.45584082;1.195800472;14.48708882;16.97301001;15.78857484;20.45177115;11.12265415;16.7049618;7.718737742;0.782660341;0.036810315
0.552237456;-0.891436537;4.131020312;7.982302374;7.305872589;0.565783705;6.19860543;9.957661624;16.48484001;2.310276465;14.65382669;16.10322195;11.2383379;16.92310597;10.92647498;13.44532242;4.747932676;4.399294647;0.042365692
0.92471022;-1.214962916;2.67895463;4.950550895;7.065007485;0.275129594;5.559485132;7.890356163;16.23271249;1.844104885;14.13577796;15.84670307;7.513055702;13.55761597;13.30269824;8.121939329;1.713129008;7.281937852;0.032113787
-0.801887979;-3.09427933;-0.585876809;0.221153348;4.617306917;0.105605971;5.862489447;4.578763055;16.56973537;0.340676104;13.92376949;16.8164681;6.626433393;11.91105592;16.09665007;3.00711959;0.451428303;8.765761133;0.015098527
-3.756233526;-5.212644748;-4.545868899;-2.731730499;0.836060749;0.18891828;7.071614877;2.01904201;17.89811805;-1.479451716;14.53036257;18.65770228;8.638406411;12.56043737;17.33070039;0.580091553;1.756594156;9.263900818;0.006929744
-6.162586493;-6.062751377;-7.776556826;-1.979432884;-2.477304763;0.476661973;8.41235364;1.412782515;20.03135584;-2.924003296;15.74165248;20.35048528;11.90152244;14.87430739;17.04763398;2.013237484;4.843600895;9.81567633;0.015406943
-6.607530643;-4.866400015;-9.220730177;1.589300139;-3.695287958;0.778052134;9.016457417;2.664933771;22.41117136;-3.379943185;16.86060289;21.05542528;14.37211039;17.34599512;16.87709914;6.331877941;7.772035072;11.15280412;0.033025832
-5.010714717;-1.970024414;-8.618786693;5.251982429;-2.433584373;0.911308399;8.573144923;4.723868763;24.43388719;-2.437924764;17.24110148;20.77495619;14.94333485;18.36666119;17.81380812;10.87855509;8.571198772;13.00635235;0.04356815
-2.641230484;1.45212606;-6.56509071;6.677279472;0.184377333;0.841685802;7.457481062;6.385916687;25.66792558;-0.181093088;16.75030737;20.27450357;13.87401436;17.11693135;18.55826648;12.86169002;6.384930778;14.20771519;0.03700133
-1.232072126;4.097669645;-4.225688063;5.532549308;2.293985329;0.692027449;6.309598605;6.972749644;25.91087943;2.59967833;15.87432173;20.36037455;12.18836865;14.1318155;16.35671061;11.01811313;1.965871909;13.52283132;0.018986719
-1.855703394;5.164667864;-2.837832441;3.332552372;2.569971386;0.623541521;5.511677704;6.522580598;25.185187;4.630834849;15.42241771;21.16468082;10.71375787;11.15988139;9.869448662;6.316108895;-2.741049154;10.58589511;0.005979052
-4.309395107;4.595420598;-3.153931628;1.922584138;1.118675066;0.695644512;5.031946317;5.54915574;23.77097651;4.892642021;16.02748717;22.05776923;9.58054387;10.26276878;1.416324767;1.260792681;-5.658218688;6.223553553;0.010140243
-7.326870112;2.934434903;-5.035751185;2.014048796;-0.647672451;0.82653541;4.696320636;4.668298549;22.24379296;3.426827438;17.74715104;22.237389;8.480980623;12.57369715;-3.857555925;-1.705641888;-5.678104697;1.93707848;0.027909566
-9.362815795;1.00591299;-7.417019451;2.933665993;-1.050549329;0.882058711;4.526830273;4.336361939;21.37683482;1.536896885;19.99640516;21.45137865;7.291656046;17.45660753;-1.741655903;-1.642932912;-3.227321074;-1.04987593;0.042980433
-9.403655368;-0.394567745;-8.749298045;3.572731928;0.655376032;0.805818021;4.756601435;4.736918359;21.82203017;1.051490813;21.84427397;20.21986585;6.408525081;22.68674744;7.301311058;0.504748574;-0.021358507;-2.472508277;0.041224013
-7.376010159;-0.730949585;-7.801997383;3.51561894;3.767225589;0.670765884;5.502041142;5.733261299;23.6875042;3.054003861;22.49881827;19.39226826;6.491288401;25.68030931;17.7569313;2.718769904;1.844467967;-2.98592356;0.023893537
-4.063482099;0.103235448;-4.420491921;3.316895769;6.631033764;0.608094541;6.460112427;6.864564174;26.30581559;6.997163868;21.70176109;19.46133885;7.892411564;25.07749023;22.79597648;3.257264106;1.000556387;-3.528723104;0.006759599
-0.708164931;1.700607862;0.234169501;3.783329671;7.756433208;0.682022458;7.006636583;7.473593105;28.44822558;10.93021627;19.81396431;20.2344837;10.31791877;21.64963522;19.39609657;1.626627268;-2.457258894;-4.629762754;0.00570182
1.475851544;3.239122479;4.202902607;5.040212488;6.755508941;0.826537167;6.680580367;7.02728867;28.95997335;12.7519603;17.56338052;21.09913953;13.01836015;17.86574888;10.73915915;-1.365655279;-6.985734356;-6.156375806;0.021926581
1.732613998;3.825579614;5.780866572;6.304819365;4.49494921;0.901369626;5.628176278;5.50255471;27.46059432;11.59989312;15.63403026;21.57741387;15.31181216;16.33180448;3.81806237;-4.325505306;-10.3889173;-7.589918457;0.040581196
0.051736455;2.971155825;4.494569216;6.58377713;2.434311995;0.815252961;4.562995087;3.542687287;24.64111602;8.362267962;14.36444713;21.64815118;16.96948587;18.10925646;4.047701109;-6.133383184;-10.99474831;-8.506849045;0.044299209
-2.789068396;0.915529219;1.380117627;5.639023509;1.662536878;0.604708291;4.21810818;2.162739042;21.92104888;4.978172883;13.73205942;21.59414261;18.17470315;22.03861228;11.13675109;-6.386500214;-8.581398137;-8.862581875;0.029320014
-5.520646747;-1.466697375;-1.643668481;4.318773589;2.278306186;0.399008898;4.74375637;2.108801381;20.65933471;3.121308838;13.58583636;21.60689364;19.18748148;25.51923387;19.45471788;-5.305809021;-4.523349712;-8.928941521;0.009211166
-6.974869041;-3.189063998;-2.924746282;3.923811271;3.455000756;0.305924884;5.584926672;3.307393697;21.42742344;3.282090717;13.90746518;21.58418524;20.09085581;26.19631996;22.47190635;-3.415900387;-1.053371307;-9.050126586;0.002520831
-6.705385183;-3.790774506;-2.015887328;5.139641021;4.056750065;0.323132576;5.962337884;4.862395605;23.80445756;4.844831618;14.87041825;21.30831053;20.84399321;23.40288445;17.62373932;-1.362530224;-0.055339751;-9.473398253;0.015599429
-5.251239045;-3.638574878;0.189414814;7.445601351;3.361080434;0.354158128;5.541667086;5.681793853;26.77348004;6.892470338;16.63856677;20.76846437;21.50290637;18.42904163;7.809972732;0.067080908;-2.087769034;-10.34061524;0.036508887
-3.81253925;-3.642060224;2.169196881;9.495158182;1.455340975;0.3109871;4.702921507;5.30580948;29.37328722;8.918401287;19.06730193;20.23262333;22.27812029;13.55282486;-1.321072791;-0.020740655;-6.18905474;-11.71036998;0.045858358
-3.487114681;-4.547883697;2.816763628;10.13363015;-0.869741823;0.206672667;4.179080236;4.284118163;31.11664956;10.84003906;21.56167188;19.94902505;23.28150446;10.60882617;-5.72540583;-2.273661063;-10.52062948;-13.45852608;0.034731365
-4.553908895;-6.307167232;2.109776741;9.205211761;-2.607528479;0.151037534;4.397971197;3.743038787;31.92215776;12.45121193;23.23168755;19.78299039;24.18698251;10.08431721;-5.343292476;-6.510760184;-13.39569133;-15.10207502;0.01312256
-6.300164378;-7.992038824;0.996430081;7.523176831;-3.106221438;0.250678037;5.118787404;4.409614532;31.7224067;13.01237533;23.25909552;19.21852439;24.20227566;11.2207659;-2.953242437;-11.37806162;-14.05979689;-15.79019981;0.00090031
-7.526812929;-8.365263991;0.641182229;6.108077622;-2.421079035;0.501109472;5.672964526;5.835296235;30.16837371;11.53435679;21.24027728;17.81380611;22.51479239;12.82134284;-1.097548467;-14.72;-12.83261726;-14.66202562;0.009464922
-7.383011741;-6.741861892;1.58201601;5.389387447;-1.274619885;0.767430405;5.564105603;6.483897333;26.7483587;7.599941271;17.31513488;15.71140313;18.92818119;14.03928717;-0.101053922;-14.67278412;-10.67586267;-11.46196697;0.031041943
-5.942572001;-3.55755417;3.358162552;5.024830106;-0.645674273;0.874441835;4.8680228;4.73126927;21.27235162;1.966729688;12.07626767;13.67179201;14.16998598;14.62198536;1.217802725;-10.85883368;-8.577789082;-6.984587215;0.04566869
-4.127311314;-0.236485437;4.812692115;4.398239485;-1.199144949;0.735061357;4.085449147;0.115361465;14.34091312;-3.705179397;6.398450006;12.50960537;9.573923364;14.65257884;3.311796317;-4.812710558;-7.138445532;-2.908136965;0.039599732
-3.057509898;1.59446938;4.834658637;3.261760489;-2.875266572;0.415839323;3.626407826;-6.079163456;7.385204331;-7.905371034;1.303410618;12.41075641;6.346151067;14.23560497;4.76190916;0.810953278;-6.482473279;-0.956293668;0.018155607
-3.306493367;1.074523819;3.067709568;1.911075559;-4.902052024;0.092054773;3.443948987;-11.39842862;2.152723583;-10.27517367;-2.17586779;12.80166904;4.96236495;13.48759377;3.627448613;3.839937936;-6.377000691;-1.84718392;0.001000376
-4.568881009;-1.328920483;0.181443365;0.76107347;-6.264405794;-0.067840407;3.167355626;-13.64856271;-0.101173842;-11.70163022;-3.258827045;12.97330737;5.105102156;12.76076;0.016749614;3.930551647;-6.385270841;-4.735867894;0.004032484
-5.925719155;-4.011877085;-2.423874951;-0.23099007;-6.36634201;-0.001183631;2.578850989;-12.2527497;0.748106989;-13.39688251;-1.828098284;12.9137075;6.069986807;12.70478727;-2.904674717;2.678524663;-6.011230137;-7.596540018;0.024571037
-6.473803524;-5.087659434;-3.316381923;-1.695885762;-5.456318367;0.22892605;1.928082124;-8.635653517;3.588056027;-15.74784419;1.236941955;13.49014992;7.197992832;13.89564646;-1.02304286;2.359224149;-4.893323265;-8.37423927;0.043644925
-5.882558418;-3.440126816;-1.795526844;-4.346457805;-4.501180703;0.488800701;1.732807685;-5.376472987;6.548785086;-17.95276296;4.161663498;15.63031505;7.972319433;16.23109414;6.913759569;4.169292469;-3.046835852;-6.200257378;0.043444158
-4.554106964;0.595640205;1.647686413;-8.244195355;-4.554667276;0.65247086;2.23284425;-4.677068573;7.821430074;-18.79288135;4.987843072;19.11044442;7.854083531;18.65483627;17.17343475;7.249089131;-0.99829551;-1.903494864;0.023876189
-3.35345444;5.305048666;5.430923644;-12.4955868;-6.033448115;0.653831926;3.043732297;-7.110465086;6.434968672;-17.87767185;2.628280984;22.10151718;6.264626676;19.63045451;22.966737;9.2292098;0.390636373;2.490504924;0.002831714
-3.117613952;8.413438885;7.574285821;-15.7024815;-8.407740095;0.499531121;3.407787681;-11.39173794;2.667011901;-16.23874924;-2.374359063;22.15489801;2.982854247;18.18771887;19.41474278;7.935399638;0.42332666;4.929753666;-0.000253592
-4.214888229;8.259184447;6.724025231;-16.85673234;-10.5379079;0.257324466;2.874226865;-15.239252;-2.069899602;-15.66690535;-7.971102428;18.1;-1.288418276;14.79398326;7.688824578;3.028155878;-0.900125004;4.441089511;0.01756527
-6.34118377;4.718658183;2.994423008;-15.98215978;-11.42918244;0.032514771;1.785717388;-16.73786211;-5.830280575;-17.27111846;-11.66856931;11.37832487;-4.811415766;11.28870293;-5.268688628;-3.604201471;-2.748235977;1.5462815;0.03985061
-8.617981426;-0.629257243;-1.903897181;-14.02570949;-10.87598125;-0.07030908;1.063078546;-15.38199363;-7.006149405;-20.45791743;-11.92255627;5.548010107;-5.573090746;9.759466318;-11.61979262;-8.968096183;-3.924491607;-2.150215472;0.045865566
-9.95842732;-5.23888549;-5.46122432;-12.12028236;-9.556873138;-0.001198098;1.402189462;-12.25253588;-5.106330139;-23.242581;-8.97134092;4.037096141;-2.608456294;11.07647775;-8.464808389;-10.7819927;-3.673240558;-4.846104969;0.029790271
-9.579545269;-6.884465815;-5.750337354;-10.85402796;-8.551066683;0.189402298;2.573754282;-9.328967896;-1.058582089;-23.72231106;-4.56909584;7.677624825;3.054251895;14.16578558;-0.011453718;-8.715750914;-2.232439608;-5.355292424;0.006259341
-7.444826777;-4.809021285;-2.598732616;-10.14244225;-8.656905188;0.35560029;3.495629701;-8.398455682;3.187172535;-21.56442455;-0.838588636;13.90332534;8.690893075;16.64605384;5.753997386;-4.275875454;-0.663603951;-3.481354201;-0.003045874
-4.380305653;-0.081840696;2.232191269;-9.73890419;-9.989696644;0.333548387;3.09958599;-10.15981331;5.632710777;-18.31445377;0.940908697;18.35431816;11.43343895;16.47079333;3.358227796;0.416040922;-0.028615424;0.084251155;0.010534521
-1.715299088;5.05336639;6.078323278;-9.821664366;-12.06853735;0.056519316;1.291924103;-13.92957444;5.300954344;-16.25981232;0.816569035;17.83196942;10.08954639;13.43698153;-5.830649261;3.953978771;-0.528167703;4.136383443;0.034489394
-0.568362855;8.45656753;7.027411297;-10.99666151;-14.2122747;-0.373784459;-0.834228307;-18.01233811;2.78968302;-16.72928133;-0.270668862;12.4922058;5.92659329;9.452054413;-14.61946823;6.153140123;-1.30439898;7.376171278;0.046574808
-1.178721078;9.223307133;5.127368775;-13.57908372;-15.87734888;-0.726912097;-1.775358275;-20.49799627;-0.05468056;-19.13490738;-1.331172944;5.704740176;1.809896579;7.305580707;-15.51528794;7.549145828;-1.123260935;8.762448597;0.035382556
-2.739883536;7.992196162;2.313970481;-16.74232592;-16.71489377;-0.784330207;-0.778512736;-20.10771217;-1.187438056;-21.44765165;-1.864770826;1.728475527;0.290394319;8.759176742;-6.441847116;8.501418286;0.550500078;7.77301292;0.011016074
-3.910798208;6.287435054;1.073899149;-18.41303902;-16.43722493;-0.48771158;1.567987598;-16.7359276;0.481018734;-21.67324252;-1.770969264;2.920311394;2.01323327;13.27097963;7.680268901;8.720058594;2.92674846;4.549561306;-0.004117792
-3.710550037;5.385524413;2.744941516;-16.32014908;-14.76521392;0.015784376;3.804682074;-11.47804602;4.530327177;-19.1756939;-0.933558791;8.421400886;5.547251025;18.24457663;18.48747175;7.561029446;4.250630892;-0.143599643;0.003990395
-2.189090448;5.487948653;6.626459665;-9.668061562;-11.61520166;0.470240828;4.734686133;-6.137117963;9.391789771;-14.91673043;0.942869734;15.0573503;8.637778305;20.64749529;19.96341231;4.73827263;2.947945045;-5.190058594;0.027887107
-0.382441188;5.736954481;10.50661521;-0.228959452;-7.393914194;0.680715781;4.27834712;-2.414772285;13.35061026;-10.58574535;3.984637243;19.56376911;9.841234455;18.92479802;12.15799261;0.782356455;-1.25094318;-9.535919183;0.045412318
0.436840393;5.007903539;12.2060656;8.156903188;-3.087216822;0.630230536;3.371101325;-1.144417858;15.51898776;-7.412666161;7.630180879;20.45990248;9.3197997;13.9668121;0.475303001;-3.141839878;-7.008548344;-12.53224329;0.040155328
-0.322104553;2.878310704;11.0279027;11.64367432;0.05703619;0.461151412;3.059465425;-1.939169881;16.18157558;-5.562658436;10.57580857;18.42490444;8.341727194;8.551665402;-8.35741102;-5.865465471;-12.09743971;-13.99699777;0.016724555
-2.153909121;0.078121771;8.11;8.790945562;1.122961094;0.346222523;3.616565384;-3.45672774;16.37644496;-4.421428267;11.47811406;15.29225581;8.069105288;5.679697629;-10.3661983;-6.756565669;-14.61825333;-13.97680584;-0.003378696
-3.843241947;-1.887460448;5.503044871;1.676976294;0.010073013;0.358361116;4.426561631;-4.173963671;17.08003906;-3.357356052;9.986544283;12.69513883;8.676084649;6.870551245;-5.792874171;-5.801390004;-13.9110847;-12.43246712;-0.001591798
-4.344869691;-1.676387072;4.711660655;-5.196328884;-2.535191661;0.439594139;4.668202843;-3.265990466;18.56559713;-2.27716946;7.238255006;11.33884078;9.420058594;11.4194573;2.255877039;-3.328588626;-10.6652213;-9.16121882;0.020466033
-3.489608669;1.017403223;5.761479958;-7.642134867;-5.358528494;0.479519892;4.120905954;-1.085232089;20.30354722;-1.602806482;5.250423649;11.10638847;9.428397094;16.93777625;10.13721405;0.217393703;-6.337176853;-4.090253062;0.042358395
-2.010130101;5.208945906;7.386714146;-4.412575777;-7.492599646;0.422347901;3.349087785;1.064650453;21.36927417;-1.826333502;5.520316349;11.51559106;8.423608643;20.7278834;15.08695408;4.199598866;-2.388865707;2.263410911;0.043665062
-0.924047302;9.120078125;8.077009523;2.072169599;-8.519261445;0.306659247;3.126964439;1.749597969;21.02033043;-3.079250623;7.872729253;11.99987815;6.799695881;21.14622837;15.36560638;7.592740911;0.202776426;8.599307612;0.022926227
-0.793499367;11.10822984;7.143709933;7.428458724;-8.537760416;0.211515346;3.673684219;0.324631319;19.08474317;-5.020019531;10.51212228;11.94838293;5.123434931;18.255726;10.17404601;9.110992695;1.075275295;13.22677566;-0.000879271
-1.42336562;10.48829928;5.065010322;8.310019531;-7.889836592;0.169978135;4.429023237;-2.636052653;16.00311375;-7.019218138;11.33;10.81689037;3.629392779;13.56504944;0.26843851;7.866798356;0.43893421;14.9385449;-0.005807694
-2.159893802;7.820606586;2.993424993;4.642521467;-6.921213209;0.137060086;4.579497807;-5.690257214;12.59710743;-8.432111708;9.493817096;8.49480961;2.184075974;9.143724132;-11.14452862;4.201219582;-0.980939506;13.81736315;0.01271319
-2.464345289;4.556568314;1.92186496;-0.455079617;-5.922673485;0.042707753;3.836820417;-7.437917529;9.740078125;-8.807333223;6.064104469;5.659333198;0.666193657;6.630039063;-18.69326886;-0.045152019;-2.08909127;11.34410131;0.03753373
-2.266159042;2.261633548;2.146035598;-2.985216875;-5.161258757;-0.123464306;2.733242414;-7.380615534;8.072479529;-8.028068661;3.132301989;3.624673506;-0.711237256;6.578227214;-17.21634424;-2.303913415;-1.819334688;9.58660239;0.045554584
-1.857930662;1.819223734;3.300451136;-0.962433992;-4.828330539;-0.281306633;2.148149819;-6.146350283;7.827012123;-6.412867031;2.163225326;3.541926938;-1.523210496;8.354473827;-5.25234986;-0.805286241;0.254219953;9.908551101;0.029115254
-1.521346545;3.006803631;4.754337875;4.180150508;-4.87675785;-0.319183324;2.497569562;-4.939704592;8.785039203;-4.702584787;2.881942861;5.457600891;-1.597995186;10.54697012;12.87455852;4.12848357;3.469598095;12.05977021;0.003192778
-1.284091519;4.65021988;5.950988746;8.647134309;-4.929404189;-0.193393839;3.337811899;-4.634706571;10.37114883;-3.810019531;3.599951655;8.04677082;-1.333850331;11.68214441;28.49950312;10.01925569;6.251763374;14.32773979;-0.008353044
-1.032765173;5.279446982;6.471562868;8.998901766;-4.466592039;0.023451742;3.75946048;-5.185633336;11.8641262;-4.354120182;2.68315362;9.403807885;-1.481605562;10.94782014;33.35429335;13.60707807;7.001372495;14.71207778;0.005144767
-0.829876011;3.944089916;5.950596974;4.552554925;-3.263715854;0.194395641;3.221976814;-5.781907264;12.64827006;-6.246910325;-0.081215479;8.392278344;-2.522859281;8.61039254;24.74189365;12.83290677;5.196910468;12.32852153;0.031190366
-1.063467639;0.739505943;4.115042212;-2.233224402;-1.748764486;0.230068359;2.069288433;-5.592384907;12.3996654;-8.679549176;-3.357555529;5.498082306;-4.205206425;5.904764805;7.552532531;8.107903844;1.898443832;8.036695819;0.045578828
-2.202787116;-3.262785749;1.038374726;-7.576911574;-0.892946729;0.163763482;1.250313811;-4.478917143;11.14395515;-10.60313475;-5.443233163;2.451611746;-5.710888932;4.391396043;-8.54661052;2.007872818;-0.839211173;3.822891025;0.03477515
-4.313235778;-6.638049356;-2.603373937;-8.98092099;-1.56327711;0.121633064;1.487792004;-3.08739366;9.209792715;-11.38576441;-5.704282536;0.87827141;-6.378061165;5.058566797;-15.09581582;-2.375151623;-1.344643014;1.389052951;0.008526301
-6.752495661;-8.391010768;-5.597493064;-6.708789289;-3.741390086;0.210303699;2.638408357;-2.242812583;7.148907653;-11.12984998;-5.007911065;1.064522931;-6.362136409;7.650824433;-10.05291983;-3.277075746;0.463925532;1.008378082;-0.009045699
-8.37477891;-8.39993111;-6.690743297;-3.158083761;-6.240677407;0.417056164;3.813572443;-2.173536551;5.646211763;-10.39011627;-4.794536796;1.848536569;-6.619254798;10.66275827;1.26731113;-1.087488674;2.974686241;1.514679666;-0.001730975
-8.176653611;-7.267572653;-5.259574465;-0.785087775;-7.278346397;0.608990408;4.144554897;-2.265597723;5.35795798;-9.562822376;-5.656609381;1.69611934;-8.153538106;12.10483875;10.10178236;2.264259281;4.034444373;1.415211055;0.02369385
-5.951190194;-5.757410217;-1.707178292;-0.29021253;-5.628950263;0.634461613;3.50308262;-1.621151277;6.618423606;-8.539064598;-6.756230634;0.01617348;-11.11901517;10.67718011;10.26059876;4.763532679;2.553599273;0.22558697;0.043622712
-2.481707227;-4.286075815;2.701117685;-0.456218208;-1.577476801;0.444181148;2.544999687;0.011056609;9.102235716;-6.985843705;-6.677325851;-2.410311168;-14.53148144;6.669251879;2.15263749;5.519023195;-0.627189882;-1.066066533;0.039415747
0.869758454;-2.85432555;6.468188832;0.365441049;3.063585937;0.133685995;2.068783695;1.758762601;11.70778256;-4.995795157;-4.985714189;-4.204897441;-16.86404036;1.984655786;-7.817306623;4.982523939;-3.283712086;-0.811159465;0.014708506
2.901984425;-1.393637187;8.563396553;2.470004883;5.984998708;-0.125168621;2.296289026;2.131802215;12.92372874;-3.402997778;-3.031155684;-4.609857183;-17.07467305;-0.820766022;-11.88975937;4.255453727;-3.394144604;1.845083931;-0.007839107
3.166446674;-0.127398486;8.793705083;4.28616318;5.81;-0.206310762;2.730813183;0.235462385;11.64918318;-3.27596252;-3.081202177;-4.014428809;-15.26200992;0.021536049;-6.338776168;4.178694516;-0.607745813;6.05659022;-0.007449948
2.083260706;0.464369888;7.718076985;3.631578692;2.951484649;-0.109332401;2.695673346;-3.254232211;8.02;-4.866521634;-6.32622184;-3.325727473;-12.46212255;4.431158687;6.051002055;4.892591315;3.473611475;9.7049609;0.015497844
0.594085955;0.099924245;6.263597735;-0.259465122;-0.693146658;0.057859829;2.022865894;-6.243096187;3.606438436;-6.946285878;-11.41341269;-2.832813367;-9.806857563;10.46201878;17.96360712;6.031722674;6.386068532;10.88863398;0.039710091
-0.36993745;-0.854863259;5.30184123;-5.638072109;-2.986594999;0.168254486;1.231856668;-6.568469503;0.649394562;-7.33258511;-14.93140879;-1.736374891;-7.760757212;15.36158405;22.47541901;7.189062234;6.451090309;9.322177293;0.042608149
-0.297799164;-1.449340132;5.347726404;-9.102954774;-2.867147612;0.160356292;1.027189372;-3.634154851;0.677213813;-4.46810301;-13.7585773;1.065630118;-6.034554846;17.05885456;17.50768518;8.176133869;3.800987692;6.531211483;0.021253504
0.765007044;-0.816880663;6.408637452;-7.917234116;-0.856982426;0.057772262;1.591404367;0.926074345;3.405378976;1.091434654;-7.593283725;5.547393006;-4.168089114;15.17121643;6.868697804;8.927665668;0.119146181;4.671541494;-0.004826613
2.328624441;1.036930514;7.976748219;-2.081282106;1.502188431;-0.075524575;2.351853432;4.178901039;6.773147523;6.591031285;0.354720286;9.823314137;-2.214721194;10.95836316;-2.62265851;9.286774156;-2.609513678;4.89981034;-0.011625348
3.715730163;3.032562252;9.200146127;5.433227831;2.791880894;-0.193809027;2.46553506;3.854681986;8.236757392;8.736594575;5.243284199;10.9990674;-0.906952357;6.357526838;-5.780450186;8.989308809;-3.378000084;6.581327066;0.0071129
4.361613798;3.702854599;9.253824837;10.53904402;2.594387067;-0.292430559;1.594871083;-0.046962204;6.506283367;6.039913083;3.815640408;7.157404745;-1.151047557;2.813609316;-2.239074177;7.90194897;-2.597592458;7.937459199;0.03400334
4.061436475;2.321807566;7.790975657;10.67103972;1.542029764;-0.386921896;0.261434223;-5.201103934;2.501545981;0.092486703;-3.364231791;-1.047009211;-3.267390174;0.670744053;3.852193195;6.25401952;-1.530719335;7.564885451;0.044015471
3.05513727;-0.428003888;5.198073064;6.318603763;0.626102434;-0.479925995;-0.565466698;-8.526884201;-1.20712321;-5.310747337;-12.30294358;-10.55651842;-6.592505158;-0.591124323;7.130969903;4.568147085;-1.27417389;5.564134209;0.027635701
1.869905212;-2.873144501;2.404457792;0.401788811;0.367389474;-0.55061204;-0.295003203;-8.260331737;-2.123159111;-6.674390468;-18.29526685;-17.87725642;-9.758579094;-1.624613775;4.774024344;3.28352617;-2.068085793;3.367211;-0.000236358
0.967271384;-3.61674503;0.280835282;-3.957247761;0.469900748;-0.572242807;0.778677408;-5.046316866;0.509303651;-3.130612109;-18.96085623;-21.42274488;-11.44951869;-2.640578422;-1.971207897;2.39502826;-3.332024747;2.454482082;-0.013975552
0.408829111;-2.672239668;-0.982528854;-5.568003778;0.148308091;-0.535345842;1.74473879;-1.314144937;5.293436647;3.117126;-15.43701916;-22.4531781;-11.11731484;-3.410166602;-9.334259092;1.465713411;-4.237267798;3.075002421;-0.000928564
-0.193767765;-1.504764155;-2.018621233;-5.665053942;-1.19414247;-0.453232852;1.880116933;0.524076361;9.792103105;8.518959882;-11.03782173;-23.89346734;-9.229930623;-3.720383018;-14.16999022;0.047563775;-4.292709897;4.058371694;0.026793672
-1.347869432;-1.866593588;-3.754157688;-6.511671841;-3.4735777;-0.349130717;1.27117937;-0.306762296;12.30528051;10.71944372;-8.599511803;-27.95808563;-6.973828009;-3.775193272;-16.14719987;-1.849266134;-3.548300855;3.860338731;0.043417471
-3.176710652;-4.318560116;-6.549256384;-9.28897625;-5.954561749;-0.242916732;0.701447913;-2.630954276;12.99081297;10.00931201;-8.592091878;-34.41470017;-5.649095197;-4.123387194;-17.37417631;-3.687488417;-2.40940043;1.928115077;0.033325901
-5.147534301;-7.648088928;-9.67970981;-12.92932697;-7.723600565;-0.150770586;0.917560392;-4.387471721;13.55392441;8.724810425;-9.291609605;-40.77253781;-6.082837551;-5.16310163;-20.03184027;-4.851503106;-1.342151727;-0.794962645;0.005582833
-6.312419804;-9.711778935;-11.64220903;-14.77533944;-8.233350007;-0.090866914;1.943643422;-4.137663454;15.836844;9.263098218;-8.60213737;-44.15800316;-8.285127339;-6.696387955;-24.19258247;-5.253068152;-0.724906099;-2.658616638;-0.014345083
-5.949895103;-9.069189378;-11.14043104;-12.54361878;-7.553361459;-0.077933245;3.063797699;-1.876173851;20.43154723;12.37254667;-5.890990223;-43.3762841;-11.43547218;-7.996787959;-27.7348317;-5.540336351;-0.860575819;-2.705252335;-0.008108857
-4.134199876;-6.092955833;-8.039167087;-6.113121995;-6.220019531;-0.103210081;3.482727273;1.309838685;26.32586525;16.97547128;-2.378101889;-39.62601662;-14.20094511;-8.399356209;-28.36885598;-6.653884254;-1.978999771;-1.469952538;0.018482838
-1.754647188;-2.633669584;-3.540792648;2.174789973;-4.859000043;-0.120085754;3.05967853;4.246254406;31.72588911;21.41434528;0.061334312;-35.47436365;-15.30799283;-7.918949281;-25.89433755;-9.033251519;-4.103355503;-0.485413833;0.040727511
0.088014694;-0.494104098;0.587415327;8.906374131;-3.860678798;-0.060927481;2.445898354;6.431215355;35.3072056;24.87473461;0.519031764;-33.031983;-14.16285196;-7.31270877;-22.56827924;-12.12014409;-6.861952586;-0.909067171;0.037827801
0.871248909;0.038001797;3.164932699;11.67897875;-3.288596013;0.114675793;2.496221059;8.010118756;36.92598136;27.75341444;-0.295609983;-32.74290239;-11.20113182;-7.448878805;-21.12963518;-14.61082118;-9.468741362;-2.445607096;0.01218363
1.002324681;0.375596241;4.253989079;10.45472652;-3.006056372;0.375177541;3.481112115;9.192628312;37.36848113;30.79978254;-0.837273883;-33.55018382;-7.699114585;-8.472450033;-22.1874117;-15.31391492;-11.01142968;-3.493210561;-0.012717323
1.431167244;2.359632746;4.841556853;7.34778679;-2.871505187;0.619504419;4.806787442;9.797037194;37.51196848;33.97224936;-0.161610514;-34.0604531;-5.069021998;-9.516596596;-23.40938559;-13.96254597;-10.93311389;-2.412324982;-0.013960853
2.818352189;6.559093963;5.851267474;5.114532918;-2.85067492;0.736979422;5.498834237;9.391476476;37.64975879;36.14566359;1.252185627;-33.65761773;-4.035229858;-9.321705994;-21.49510256;-11.34776109;-9.394404063;1.115728796;0.009557407
4.929190826;11.53931127;7.314466126;5.43347184;-2.991320442;0.684352578;5.027916459;7.864255908;37.45539083;35.96658742;1.955451364;-32.76068839;-4.244375951;-7.359844943;-15.43220985;-8.685308606;-7.242822963;5.724651216;0.036000824
6.754967664;14.71020075;8.364491123;8.070378059;-3.315050648;0.517640701;3.758136441;5.812196481;36.45559199;33.08032589;0.805570902;-32.23656117;-4.607188179;-4.549153625;-8.176097019;-6.750183779;-5.577144911;9.234687491;0.040712604
7.269243684;14.08805552;8.009148245;11.31796087;-3.728721648;0.348459559;2.63681235;4.295372687;34.50545558;28.61520267;-2.048388293;-32.61577294;-4.140009766;-2.854351065;-4.973094177;-5.487401245;-5.173195995;10.00831908;0.019049062
6.200927305;9.594156557;5.988342666;13.24348854;-4.029148681;0.257483338;2.4084441;4.110451788;31.88884336;24.48017084;-5.26165705;-33.74337391;-2.675501706;-3.907986615;-9.318921281;-4.381212108;-6.120841042;7.736894471;-0.009218188
4.193792801;2.942277115;2.984578526;12.8548981;-4.001767424;0.237158121;3.035646097;5.214088172;29.09235947;22.07827954;-7.31054445;-34.98360356;-0.894179673;-7.617136072;-19.71637177;-3.199541449;-7.859960914;3.199549165;-0.01810082
2.241362933;-3.658348675;0.043787555;10.50861226;-3.546440852;0.213889847;3.805282185;6.828688463;26.57649078;21.51852289;-7.532504897;-35.63325986;0.335647301;-11.85911011;-30.04014398;-2.399680802;-9.537481977;-2.555416579;0.00055722
0.897920185;-8.844789689;-2.240365114;7.47883393;-2.742225875;0.131755691;3.989859774;8.161476436;24.75455234;21.92106859;-6.370660929;-35.17550373;0.755077563;-13.64565166;-33.56047273;-2.781001834;-10.43841213;-8.756733779;0.02943354
-0.0536821;-12.44521095;-4.034677158;5.130896703;-1.801124448;0.023600274;3.468204185;9.104468566;24.06704614;22.4317914;-4.757072107;-33.32809425;0.972313878;-11.0563826;-27.70549765;-4.654965792;-10.26637795;-14.76197793;0.041649554
-1.206276187;-14.75314706;-5.801877072;4.270482034;-0.937538745;0.002265665;2.78231534;10.276153;24.88927679;22.98413848;-3.291539942;-30.09256324;1.949121429;-4.622766306;-15.92178937;-7.28166368;-9.196841318;-19.59082179;0.025626247
-2.780408857;-15.61018115;-7.51955773;4.980009766;-0.245497338;0.171980225;2.625299474;12.34159167;27.21468504;24.16221644;-1.945455327;-25.91526231;4.134763791;2.827998685;-5.187938547;-9.1604704;-7.757074626;-21.88975249;-0.004110519
-4.220855116;-14.27333063;-8.356319881;6.86272999;0.321865248;0.530943072;3.241380451;15.20687249;30.3993449;26.39423168;-0.442233032;-21.76817169;6.973705881;7.806920386;-1.102757892;-9.062528659;-6.61846671;-20.64832878;-0.020256179
-4.542792936;-10.22917234;-7.195409351;9.383465779;0.850080566;0.948633087;4.253691609;17.83718659;33.33675907;29.31445002;1.187308017;-18.84321756;9.210821883;8.202133511;-4.280340654;-7.028422127;-6.352698753;-16.15186372;-0.007960005
-3.172419614;-4.153785506;-3.632187175;12.04262226;1.321120692;1.242469313;5.022663095;18.93843714;35.09526076;31.92819263;2.50064534;-17.84607374;9.757239111;4.405965699;-10.6053802;-4.499334876;-7.191513133;-10.23437919;0.021352512
-0.567374144;2.001555455;1.40517375;14.35;1.562902912;1.29714355;5.173777924;17.9929839;35.57104719;33.42140957;3.124092899;-18.34751549;8.421841567;-1.121924017;-14.78034457;-3.390103131;-8.873061152;-5.361992169;0.040430471
1.950538375;6.074597849;6.016771092;15.76989857;1.362877554;1.135115877;4.829110703;15.79420844;35.57;33.83690511;3.329441599;-18.81526432;5.9441165;-5.451668519;-14.13947835;-4.753360813;-10.69281814;-3.08448314;0.031362904
3.076170941;7.128901292;8.492304985;15.8301724;0.680897101;0.887387977;4.390870696;13.99175442;36.14536857;33.97304337;4.064071551;-17.53483521;3.361240701;-6.845802552;-9.857200964;-8.042381452;-11.81350057;-3.047659448;0.002220508
2.443389306;6.074704489;8.417127856;14.42016497;-0.210335932;0.694056461;4.137314566;13.94692224;37.67428323;34.60695579;6.266180697;-13.89291024;1.284565462;-5.492558929;-5.112440303;-11.54508825;-11.72045874;-3.416013918;-0.020286436
0.868300586;4.913206332;6.877360902;12.08379577;-0.804125276;0.615914228;4.02141233;15.75783275;39.46324949;35.78537167;9.975558003;-9.062280672;-0.315045798;-3.033676677;-2.268783733;-13.66052408;-10.55364886;-2.430394115;-0.015455738
-0.265403353;5.189420306;5.614392466;10.02513483;-0.645195592;0.620307281;3.820679363;18.18975644;40.28376183;36.85099504;14.01206978;-5.441118784;-1.708600113;-1.37815658;-1.581418841;-14.03434045;-9.05828338;0.143327524;0.012196528
0.019523761;6.910532123;5.791564482;9.678183072;0.368677027;0.63700166;3.434133267;19.54805955;39.44265807;37.15511503;16.58060388;-5.102705077;-2.853023716;-1.607335081;-2.162623902;-13.68602992;-8.119984663;2.87270565;0.036986739
1.711500823;8.791191543;7.30480188;11.98507911;1.903220213;0.624294283;3.003298182;18.83025156;37.47269313;36.73821132;16.41164619;-8.31500493;-3.257716214;-3.540597463;-3.726882408;-14.05785272;-8.154136812;3.951083366;0.035744403
4.007727887;9.556670844;9.094544226;16.78246309;3.41030167;0.588342585;2.744771983;16.33547288;35.79531781;36.29070467;13.59910467;-13.22304477;-2.436518302;-6.032933426;-7.062220287;-15.7593438;-8.771572964;2.838211536;0.009290103
6.031538872;9.143629686;10.11209458;22.7142954;4.507989143;0.551015737;2.692732244;13.37478071;35.58190995;36.42048791;9.529610776;-16.97150889;-0.532271671;-7.688920285;-12.67732422;-18.00350579;-8.994933759;0.847744977;-0.01819593
7.42762016;8.754453036;10.12234822;27.81291904;5.232213282;0.510988104;2.643227568;11.39764904;36.77332883;36.96885673;6.004861228;-17.48784051;1.508073283;-7.577330306;-19.11446111;-19.16495762;-7.92368133;0.152651225;-0.021447092
8.377837031;9.736991274;9.741261764;30.46915405;5.960236041;0.443374093;2.376649644;11.19530204;38.13349405;37.11964045;4.242705027;-14.66657308;2.471796332;-5.643878339;-22.96112635;-17.99962782;-5.403967219;2.01468227;0.002489994
9.133673968;12.28943878;9.78114241;30.22803731;7.060839319;0.337817715;1.9316736;12.65033976;38.33265548;36.28789761;4.439069708;-10.16484245;1.773122243;-2.689936449;-21.04581442;-14.56232179;-2.217671332;5.708849918;0.031397616
9.581140176;15.13908698;10.52317644;27.92069968;8.548950237;0.230670443;1.625995865;15.01897571;37.12989443;34.95202227;6.040531943;-6.062155854;-0.006324931;0.060496651;-13.0992659;-10.1295023;0.378705334;9.039478879;0.038329052
9.281364863;16.49430853;11.52161078;25.05979494;10.02724611;0.188900185;1.758964296;17.39158478;35.59212926;34.52175134;8.316302144;-3.440905205;-1.399799726;1.626033418;-2.43719278;-6.239759874;1.471220129;10.01869493;0.016543371
7.954962169;15.46922535;12.03664227;22.91432038;10.97105541;0.251243479;2.262590359;19.01130336;35.11579243;36.16640445;10.7045765;-1.908972153;-0.998648169;1.835910876;6.210205333;-3.645817261;1.094266178;8.327439486;-0.014137565
5.942844188;12.7841097;11.664778;21.88849256;11.13461304;0.379660071;2.659125076;19.40229227;36.10573186;39.55224046;12.77478902;-0.290094604;1.616495945;1.440361374;10.06745872;-1.993347608;0.187162361;5.399522443;-0.025540398
4.173575411;10.17961256;10.62777841;21.59013618;10.75403006;0.473157466;2.422268987;18.44703602;37.5299558;42.68825124;14.08615458;2.188067636;5.613375321;1.611844717;10.05385399;-0.414721298;-0.081823969;3.148227203;-0.007189338
3.596273488;9.077763936;9.534790926;21.44946676;10.38190824;0.442951644;1.45276662;16.48172957;37.8260766;43.22635626;14.29105382;5.181594248;9.46268462;3.08839039;9.410247985;1.519711605;0.848648525;2.468686006;0.023889287
4.514438648;9.622485678;8.891374276;21.33354056;10.48144419;0.289358301;0.233201164;14.28210061;36.39600333;40.27740196;13.47772362;7.496870669;11.87759553;5.538526086;10.46394312;3.31061617;2.533018506;2.757325911;0.038779445
6.360393432;10.83999076;8.789596812;21.6261736;11.09561421;0.111859832;-0.519157926;12.76734159;34.30224779;35.22597505;12.35688387;8.029324087;12.49535324;7.671268372;12.45371849;3.903949437;3.843441561;2.742560774;0.02338988
8.095142021;11.65726795;8.980212329;22.70513864;11.84007813;0.036755622;-0.437662024;12.47389174;33.40300917;30.75117573;11.91673999;6.578306782;11.92410872;8.11683913;12.3845278;2.610928557;3.787814787;1.778900581;-0.00840718
8.915764938;11.80607358;9.165406775;24.28880161;12.20899945;0.117743409;0.170248069;13.15138827;34.56739757;28.75645545;12.65308301;3.923402676;11.25239495;6.488322518;8.11334387;-0.186330777;2.234091019;0.417582298;-0.027459836
8.728623641;11.83088223;9.204558588;25.29443322;11.94656704;0.291296427;0.561105457;13.878497;36.57048837;28.91343222;13.99471301;1.190716703;11.42234467;3.801641224;0.785791222;-3.119847357;0.021946763;-0.208788866;-0.016246711
8.071884773;12.29860701;9.095436426;24.47469508;11.21163526;0.425553215;0.177507006;13.75011691;36.84796825;29.10857156;14.55227829;-0.909878119;12.82895379;1.842313045;-5.716781406;-4.65639109;-1.613805476;0.45282939;0.014824618
7.626603233;13.05085137;8.862554216;21.44233815;10.44690171;0.424026152;-0.863385884;12.68669116;33.72455344;27.50810375;13.1985542;-2.363291001;15.25521846;1.871104309;-7.932809831;-4.041843375;-1.888431157;1.790737749;0.036887914
7.745871163;13.26680631;8.55840171;17.27993791;10.09196906;0.299652092;-1.833213903;11.70204752;28.31069022;24.51709816;10.21083525;-3.494575191;18.0417392;3.635278074;-5.747883131;-1.70387661;-0.974342397;2.580207639;0.029241223
8.33578218;12.2980407;8.392737413;14.13493053;10.36066278;0.159631151;-1.966727156;12.29379046;24.27904421;22.86150221;7.471789987;-4.374435633;20.35384064;5.494942682;-2.382235379;1.104495094;0.183471598;2.159269537;-0.001428804
9.071547131;10.45735233;8.774844418;13.92421121;11.19733153;0.115590818;-1.080019531;15.29531043;25.33318063;25.50118461;7.344290036;-4.551406686;21.47841078;5.6451412;-1.376598183;3.084146331;0.594019607;1.116280727;-0.027069305
9.664765448;8.934851548;10.06842037;16.99;12.35831274;0.193922395;0.265853884;20.02292144;32.14286166;32.92364825;10.89607374;-3.364361568;21.10853063;3.539879947;-3.308377163;3.531831139;-0.044187227;0.806379519;-0.024108595
9.938595615;8.811570993;12.15649539;21.69109197;13.4962699;0.317935079;1.174048062;24.42896797;41.19924046;42.03890254;16.79724711;-0.573165887;19.51455462;0.414891535;-5.304100209;2.510519451;-1.121354703;2.091326717;0.004684111
9.733395677;10.02528031;14.2143395;25.31810751;14.20214793;0.372057153;1.051465127;26.26878289;46.74946984;47.77038258;21.84963228;3.241664294;17.46152516;-1.532603672;-3.883581506;0.62887244;-1.547015264;4.445966952;0.032594472
8.865771552;11.28309761;15.04771816;25.78955458;14.07420596;0.29226243;-0.020603245;24.52133165;44.61757564;46.35143641;22.92816173;6.888165725;15.83364126;-0.714719189;1.468277325;-1.260130491;-0.505736588;6.298930749;0.033549353
7.291074417;11.12847972;13.91603546;22.99205603;12.89022191;0.110516121;-1.430718445;20.06866955;35.15466776;37.94165285;19.01102128;9.273971573;15.13943024;2.705373206;7.432060208;-2.241585662;1.998156584;6.391731281;0.006268427
5.35031984;9.317719046;11.26510278;18.83322142;10.8285294;-0.076221396;-2.520939588;15.14017901;23.08639525;26.60364215;11.83674893;10.10337347;15.21632648;6.946262379;9.735200947;-1.470599995;5.159606996;4.998773883;-0.024386139
3.803280679;7.285694267;8.710204885;15.95034576;8.545632909;-0.180054321;-3.003750788;11.8997725;14.30403463;17.62131256;4.70861044;10.03472937;15.36539297;9.872655037;7.306845153;1.566923816;7.891779716;3.899238788;-0.030260542
3.474043427;7.169911561;8.102977334;15.94635183;6.941733968;-0.17792991;-3.027836976;11.14809779;11.93135682;14.09361812;0.331889178;10.17007813;14.85325558;10.40072533;3.805445383;6.665570786;9.449546502;5.022886107;-0.005960904
4.685698126;10.07735675;10.24919404;18.34461833;6.664973078;-0.111104069;-2.931099006;11.99635543;14.51366371;15.20972109;-0.741728864;11.24844354;13.4425824;9.015492108;4.769737649;12.67101863;9.74567631;8.834951688;0.025996068
6.920726866;14.99076938;14.21818289;20.94857948;7.658784998;-0.039972599;-2.94616017;12.6547162;17.52873521;17.29035161;-0.009910758;13.13474618;11.58541354;7.135576236;12.60584925;17.7597555;9.222637867;13.79551372;0.035843389
9.044331536;19.27819749;17.83494633;21.33269396;9.110181501;0.002147757;-3.086573933;11.71286741;16.91800114;16.63884911;0.493292011;14.97146357;10.16331156;5.967994321;23.84396888;20.26774268;8.469827127;17.37885111;0.014080419
10.00780806;20.50567828;19.08680286;18.45431568;9.914688834;0.021512778;-3.229437098;9.020712538;11.92559282;12.0480805;-0.174938284;15.8607078;9.97943318;5.801458837;31.40618798;19.6337544;7.904093346;17.8738359;-0.019585736
9.544230617;18.18475918;17.4638704;13.34678438;9.390208641;0.042761675;-3.247625606;5.646965586;5.24694213;5.278219628;-1.387235441;15.55069521;11.34423883;6.188472248;30.30161321;16.79940498;7.694963634;15.56124401;-0.03428239
8.331150898;14.10141025;14.26471011;8.501648625;7.747766331;0.080833394;-3.066110511;3.072656345;0.663297186;-0.543824174;-1.847131246;14.60991856;13.96740968;6.652259014;21.96191882;13.69307751;7.868992465;12.38557602;-0.016481327
7.482295339;10.97367392;11.65232883;6.390185298;5.964390347;0.130681806;-2.652098595;2.254380234;0.205087165;-3.180144631;-0.950460299;13.97542935;17.12419621;7.153672798;13.31109064;12.06364407;8.396542322;10.45282702;0.017346487
7.742199736;10.48541402;11.16610662;8.053510948;5.124851631;0.177068925;-2.025617661;3.169400196;3.023299129;-2.527466504;0.631082948;14.24479887;19.92728314;7.890517745;11.07865627;12.43995768;9.149677446;10.58061723;0.035762685
8.981931692;12.20024868;12.76983837;12.55629406;5.691034668;0.208861002;-1.314121589;5.030068359;6.586634932;-0.189910752;1.634527202;15.26752283;21.5842203;8.723432399;16.07593316;13.94688894;9.816841262;11.99565667;0.021363627
10.35108143;14.12808802;15.0680222;17.52589715;7.214916233;0.224179901;-0.763807944;6.890871395;8.93639564;1.965172454;1.5;16.3356354;21.63352542;8.931414945;22.41994657;15.10125366;9.961174266;13.28301957;-0.012996709
10.93305941;14.41249405;16.42603107;20.3955385;8.684033029;0.227239611;-0.616998081;8.187581454;10.04820058;3.015993002;1.060562297;16.78241936;20.16027686;7.697158755;22.5949905;14.98799482;9.297858719;13.69896499;-0.035878694
10.38742013;12.77950388;16.09526233;19.67168373;9.22743745;0.226195289;-0.904969806;8.904323388;11.31071031;3.162054528;1.92927041;16.47349063;17.87873939;4.978006597;14.1969519;13.93714304;8.02860409;13.76193304;-0.026227738
9.119915256;10.66068719;14.54046623;15.6295582;8.666909927;0.23525288;-1.347891982;9.371724717;13.80891753;3.036859878;5.034633369;15.78731502;15.90462275;1.935494687;2.57869248;13.20966609;6.93033814;14.72250657;0.007046799
7.921264972;9.995806437;12.85950726;10.16479834;7.546060137;0.273437103;-1.518789967;9.918800184;17.05034633;2.955984734;9.551623352;15.1417765;15.19046126;0.370518442;-3.06752002;13.95916185;7.012179188;17.44534657;0.033084158
