Channel 1 - P4;Channel 2 - O2;Channel 3 - P8;Channel 4 - T8;Channel 5 - C4;Channel 6 - Cz;Channel 7 - Fz;Channel 8 - F4;Channel 9 - Fp2;Channel 10 - F8;Channel 11 - Fp1;Channel 12 - F7;Channel 13 - F3;Channel 14 - C3;Channel 15 - T7;Channel 16 - P7;Channel 17 - P3;Channel 18 - O1;Channel 19 - Pz
-10.10710734;-11.66742881;-24.87707078;-9.904635482;-39.68288884;18.98810568;83.66950556;8.40478189;-44.82740622;33.83716145;-36.69391202;42.00532029;146.5831804;-30.45797693;25.78475221;21.69505362;67.77563479;-43.24218706;2.077755777
-5.263772138;-9.889405883;-19.70687892;-5.329152588;-29.12821761;17.40509059;41.10877794;7.703555172;-25.53684954;29.8596904;-23.61030656;26.9132194;121.0541703;-16.40727469;19.05683676;9.522124334;53.87323074;-32.87679064;4.548169347
-0.931568876;-7.568266122;-10.70325832;-1.275589848;-9.656389391;9.241116386;-7.303607269;6.62868198;5.586040021;19.69733992;2.042845147;6.19161427;63.82415357;4.202572949;4.142529422;-6.406208997;20.43434439;-13.23981221;4.463286118
0.376883649;-6.955779892;-3.126894778;-0.783794144;7.594460058;-0.363025075;-36.09483905;6.018027256;32.21240791;10.06964527;25.61589134;-10.65399569;7.888560561;19.32605478;-13.35712008;-20.1951662;-13.8499939;2.762768999;1.924050644
-1.453337364;-8.300078125;-0.210594092;-4.391049035;14.16086063;-5.881898407;-34.53896934;6.210830641;42.26399362;6.832431784;35.31689368;-17.73162587;-18.53805648;21.11120386;-25.76195348;-27.01068042;-31.69493564;6.340810456;-1.326326758
-4.412678483;-10.04074359;-1.405253477;-9.88438715;9.380553424;-5.131733677;-12.26036482;6.727195494;35.35502712;11.18422132;29.73525017;-15.72726689;-9.296185711;11.18713844;-27.8182171;-25.40377471;-28.0823403;-1.566537862;-3.220893611
-6.114622521;-10.40432897;-3.494658689;-13.61416382;-0.239404148;-0.350475307;9.750811821;6.688089264;21.59584113;19.42219499;17.57574527;-9.910223313;19.05834771;-1.05298482;-19.61208336;-17.57023979;-11.78089952;-12.19481809;-2.850550234
-5.532058679;-8.941206737;-3.418478727;-12.54545243;-6.449870622;3.967519981;15.18965041;5.622057912;13.23317851;26.11402152;10.28578696;-5.37531596;41.98701362;-5.714063443;-6.20951834;-7.598795874;2.718483959;-16.3496075;-0.987855106
-3.426677243;-6.746068612;-0.518762735;-5.949138127;-5.126204075;4.604046588;3.210615039;3.961368961;15.81479939;28.02280767;13.50922965;-3.588178549;44.87639279;0.393568193;5.397076422;0.926271252;6.03624847;-11.2407444;0.674939926
-1.361283747;-5.319737306;3.364975729;4.091128504;1.659283417;1.754342516;-13.52471505;2.779339505;25.39335611;25.83537226;23.77745477;-2.708149837;30.95083015;11.95695457;9.952353632;6.374049483;-0.680472564;-1.635882522;0.891844248
-0.318200011;-5.180206482;5.705182368;13.57519559;8.317981787;-1.684730216;-20.67015333;2.954624437;33.15547179;22.75054745;32.4068223;-0.697973064;14.9835685;19.81094886;6.233878074;8.919653755;-8.969456789;4.927998562;-0.264970724
-0.112879474;-5.466552335;5.33674764;18.44752821;10.489253;-2.796957397;-13.71067945;4.436530639;33.07834399;21.50538373;32.9239572;2.04223774;9.722465813;18.15428327;-2.796526989;9.430897304;-11.15533162;4.462385831;-1.650332188
0.045709503;-4.850078125;3.127215031;16.53127754;7.979232703;-0.97740933;-0.232653006;6.22043044;26.34249179;22.40354616;25.95408644;2.992406214;16.47395002;8.735254409;-11.608353;8.579285528;-6.317890274;-0.814877422;-2.099162998
0.533854608;-2.9119959;0.948459405;8.591387898;3.970466329;1.888744679;7.792523587;7.077089191;19.43431882;23.72901784;18.02442082;0.298927008;26.42787592;-0.94746142;-14.65374551;6.834119502;0.264552929;-5.216595507;-1.366949726
0.851140473;-0.748833013;0.023258413;-2.006391927;1.774451561;3.290500891;4.386924519;6.477306522;18.19687603;23.77337915;15.81953244;-4.82452558;29.91649448;-3.662228566;-9.028696518;4.966524852;2.734431273;-4.888360573;-0.215509626
0.138863247;-0.232881037;0.082295724;-10.86570959;2.15932316;2.24961675;-6.148621854;4.999360233;23.09460677;22.46382728;20.86670647;-8.583564235;24.84408365;2.144615175;3.663786168;4.156953873;-0.108018818;-0.983930327;0.334565455
-1.840318242;-2.495449604;-0.075078159;-14.54918222;3.355043722;-0.036457748;-13.95879711;3.914255512;29.425575;21.1992827;28.8266288;-7.760989765;17.39543551;11.55059343;17.33013832;5.26343186;-4.397081254;1.805966762;-0.11571686
-4.211028712;-6.861708654;-1.255462223;-11.9899291;3.290087891;-1.445479699;-12.55212756;4.274706967;31.78662716;21.26542674;33.508286;-2.746208672;15.43923615;17.20534428;23.99;7.811267163;-5.405175295;-0.222999449;-1.074234662
-5.492249964;-11.11920603;-2.997412066;-4.701034473;1.751540969;-0.838395076;-4.02553011;6.189023775;28.65526693;22.46439553;31.94237485;2.430513907;21.18227009;14.83699893;18.29992232;9.807941588;-2.111189806;-6.29820912;-1.665375267
-4.719425298;-12.9542962;-3.879508681;4.158647854;0.493599967;1.051401037;3.505653995;8.784847264;23.25330335;23.28024674;26.35683375;3.347240237;29.59540831;6.070845278;1.569713885;8.950383214;2.075661348;-11.68445652;-1.414171463
-2.244076676;-11.49080277;-2.693131672;11.25455393;1.357006453;2.415270775;3.429422632;10.83265265;20.33147386;22.39326876;21.80456645;-0.954425301;33.52323396;-3.200196952;-17.74780416;4.548447361;2.869971311;-11.61925253;-0.616559891
0.470340026;-7.805646896;0.537927754;14.3607237;4.286729801;2.030479416;-3.729691455;11.53742569;21.98626266;20.08142349;21.82826221;-6.882760646;30.44821298;-7.246290311;-28.40419655;-1.369023827;-0.567454484;-5.222129161;-0.015654306
1.909692268;-4.083578839;4.521166864;13.01529446;7.152406502;0.289762956;-11.27316138;10.95134276;26.16354844;18.15585103;25.8792618;-9.083844805;24.72586241;-4.294616246;-23.46636297;-4.907724355;-4.63569961;3.876272739;-0.120010071
1.591954253;-2.071445546;7.627571434;8.479270905;7.567762439;-1.241080631;-12.57992021;9.797681578;28.89;18.43210627;30.3654846;-4.883403639;23.4215458;2.831239601;-5.488668509;-2.797102587;-4.566609636;10.53679196;-0.780648102
0.346186541;-1.95300863;9.014009108;3.146888747;5.064993736;-1.25148041;-6.866024217;8.922344743;27.97478314;21.08617683;32.01387411;3.344459495;29.62736521;9.179560643;14.39993565;5.202287545;1.045536044;12.08028374;-1.372919131
-0.374905455;-2.393532145;9.075515193;-0.395675328;1.648318725;0.199686974;0.512269779;8.784755177;24.82224988;24.36934634;30.47295474;9.948387445;39.28272791;11.09819216;23.65503425;15.82;8.635934056;9.949599987;-1.379554795
0.43117926;-1.631823215;8.962635027;-0.420042725;0.184453459;1.822406595;3.11589975;9.276958398;22.88942071;25.96317305;28.07908292;10.5206789;44.3605995;8.240353054;17.1086341;24.22266723;12.54312306;7.936104546;-0.837082255
2.669864131;1.216845305;9.633996315;3.158108574;1.990606738;2.280308583;-0.910073242;9.885053482;24.3702335;24.82353508;27.35403134;5.451469006;39.71351686;3.186698446;0.976486264;27.05861163;9.901818693;8.752181314;-0.264548073
5.33850427;5.559105707;11.20406695;8.692880779;5.684220044;1.3284361;-7.540557006;10.01493729;28.16772335;21.95615429;28.68670376;-0.4176766;27.72647549;-0.559114654;-11.31322842;24.41172119;3.253725339;11.92718213;-0.172362789
7.303504026;9.781182104;13.02332795;13.62724377;8.276636703;-0.071219539;-10.79699357;9.293754009;30.92077114;19.51548459;30.23254945;-1.740994008;16.7961185;-0.663105437;-8.881512383;19.28721589;-1.464421843;14.6262885;-0.611200116
8.039626984;12.37537422;14.31917808;15.88762903;7.589051695;-0.678575261;-8.123747301;7.750687825;30.06380048;19.05723948;29.90724728;3.044183725;14.83768894;3.000507582;8.30338416;15.11758003;0.117149559;14.40378803;-1.156381757
7.84296246;12.92165851;14.83113511;15.03762677;3.980349027;-0.065954779;-2.39956872;5.846289596;26.1323928;20.43864702;27.48259076;10.57339137;23.1096199;8.589652549;28.93411803;13.24046759;7.1128662;11.37395804;-1.314596335
7.485514981;12.26600228;14.95935827;12.40136192;-0.00393406;1.086732162;0.980216854;4.324352818;22.28690599;22.211892;24.83493418;15.38739623;35.30709845;13.37179159;38.3493799;12.23462183;14.08756295;8.005673526;-0.967169137
7.655866269;11.82304985;15.37656819;10.03262734;-1.701521588;1.685062452;-0.927741943;3.881387967;21.53787374;23.02520511;24.18472892;14.31550058;42.53622375;15.03905489;29.22537704;9.496678888;15.52439654;6.915571347;-0.454159653
8.576844803;12.53217067;16.45947074;9.270582769;-0.380320611;1.21673621;-6.125279103;4.754241721;24.15463329;22.72757733;26.00673695;8.824926342;40.09625492;12.77180791;7.005708112;3.710669926;10.27925618;8.692088006;-0.244797659
9.96765357;14.21218783;17.98389211;9.973296799;2.368687461;0.152444245;-9.740409982;6.460337876;27.50138829;22.2502251;28.54059154;3.566962507;30.73363288;7.664898426;-14.00887302;-3.75793079;2.362411591;11.57463066;-0.510670392
11.26709538;15.75816808;19.28289015;10.9881711;4.090718477;-0.556139575;-8.562531401;7.933113295;28.36817853;22.50320277;29.33779058;2.518664612;22.03158088;2.255675496;-20.930481;-9.603421673;-2.441183909;13.08417767;-0.987804645
11.93525335;16.01556512;19.71285888;11.37995851;3.473990409;-0.365623126;-3.860246774;8.084171333;25.71237135;23.39434241;27.44076328;5.970486262;20.27959165;-0.769040603;-11.17274614;-10.85829861;-1.162217395;12.0568637;-1.235920553
11.69450493;14.67409071;19.07164836;11.27225057;1.259001493;0.407206468;-0.038070879;6.497476553;21.45564189;23.88767;24.24708437;10.69829357;25.76735381;-0.08760994;6.5493874;-7.000834357;4.31893395;9.354654537;-1.042711275
10.64149332;12.50103724;17.6811885;11.50026076;-0.577530762;0.947777874;-0.530467825;3.779382422;18.74145169;22.99932579;22.30471905;12.90158716;33.05848085;3.440364007;19.42059291;-0.404808197;9.216451803;6.822814917;-0.603634242
9.194457894;10.71912593;16.10558079;12.39197231;-0.548623374;0.73843567;-4.745654552;1.253090621;19.24475885;20.75324329;23.11072949;11.27967104;35.73195845;7.284108081;20.01446761;5.085205832;9.8313021;5.584510737;-0.32660042
7.87414083;9.993580719;14.73275836;12.91290714;1.182157391;0.032294451;-8.76150655;0.135054126;21.84917263;18.18890702;25.83121467;7.737882905;31.63443599;8.843700495;10.77124474;6.377157814;6.171187958;5.19423217;-0.454553509
7.003565558;9.832805046;13.53322407;11.22643183;3.084677594;-0.416130003;-8.989425824;0.740758155;23.72823758;16.43303361;28.02242642;5.391416999;24.48226498;7.084908352;0.523733537;2.682445178;1.256752167;4.264659163;-0.853734542
6.509068693;8.932820564;12.17215254;6.465280929;3.615695801;-0.086158956;-5.386775525;2.296473276;22.78637467;15.73393815;27.69301398;5.796184897;20.67200741;3.063512114;-3.451221733;-4.429765504;-1.866862775;1.856956572;-1.15097446
5.991636598;6.268432576;10.38409671;0.225304155;2.43549783;0.803599095;-1.34526481;3.514910333;19.34244478;15.37690466;24.9309965;7.792008653;23.93839881;-0.994135714;-1.107321496;-12.22921901;-2.588198946;-1.641172707;-1.081186376
5.057618241;2.0965361;8.306115174;-3.804199192;0.513564532;1.483819254;-0.491396386;3.522436135;15.71491577;14.53970645;21.75232677;8.764485881;32.13314963;-3.29358868;1.373021487;-18.33435595;-2.625206136;-4.840019531;-0.722656142
3.666784553;-1.980499946;6.469346374;-2.279625297;-0.846125742;1.333892234;-3.407700863;2.448327348;14.20870507;13.22715557;20.3737661;7.022609505;38.7226714;-3.515914711;-2.124460431;-21.65103972;-3.80487541;-6.470555105;-0.412228941
2.191354438;-4.059890426;5.397618794;4.918287051;-1.148176013;0.446809813;-7.236408765;1.237282155;15.28209341;12.32391711;21.41315095;3.178634244;37.95514817;-2.595681293;-11.76203071;-22.42488317;-6.025364687;-6.294397071;-0.429876234
1.092457824;-3.365057869;5.09574608;13.71954668;-1.055726888;-0.450422366;-8.410242509;0.844325347;17.36172904;12.64383889;23.49790214;-0.525167702;29.77208415;-1.611378599;-21.35236784;-21.66303271;-7.331645337;-5.118418894;-0.747031238
0.466266319;-0.937542859;4.868533366;17.98628326;-1.726401036;-0.638417957;-5.919124571;1.449803738;18.27583837;13.86082048;24.51467381;-2.147553765;20.56103558;-0.857990149;-23.6526642;-20.40735287;-5.932376637;-4.070048828;-1.064131467
-0.119726965;1.032924693;3.722174529;13.56709694;-3.761504032;-0.025147494;-2.132389926;2.310480261;16.9592592;14.42118571;23.37449126;-1.46220804;18.78175746;0.114939187;-16.67647999;-19.23149493;-2.154309485;-3.840418306;-1.09259023
-1.286874818;0.819593084;1.148349666;1.4635284;-6.652177764;0.803323816;-0.518135131;2.35669464;14.03456984;12.70414035;20.82862067;0.265480046;28.2881362;1.68331634;-5.559202289;-18.10878397;1.57226625;-4.448511693;-0.816626475
-3.238300381;-1.503029137;-2.290144099;-12.310384;-9.126847712;1.124214662;-2.438945193;1.0589108;10.99229693;8.528012778;18.75175484;1.697370661;44.12294745;3.469655679;1.623714249;-16.6252042;2.739367014;-5.503649755;-0.498068855
-5.422284681;-4.075346487;-5.118994008;-20.3007191;-10.0555072;0.709480498;-5.968775613;-1.114828737;8.894455645;3.660372957;18.58922424;2.59010225;54.20823136;4.554128732;0.521632002;-14.40446526;0.965338778;-6.554800975;-0.428664998
-6.844195511;-4.686581423;-5.89390872;-18.25536222;-9.17585623;-0.012125065;-7.743850619;-2.994817251;7.771776287;0.737045917;20.26721331;3.660608885;46.46388087;4.407407435;-6.000252902;-11.52523464;-1.633700193;-7.228864889;-0.663491672
-6.861370069;-2.558146449;-4.315029622;-7.684993462;-7.136607666;-0.37932734;-6.070566442;-3.51257645;7.083031776;1.337356101;22.36967707;5.421928501;17.02339477;3.596091186;-10.5039613;-8.673716969;-2.267198795;-7.234706263;-0.978480845
-5.817643452;0.923140615;-1.646935124;5.30216679;-4.937845155;-0.099770671;-2.424836979;-2.391560925;6.592558209;4.748276078;23.3095965;7.232680616;-25.93905357;3.439461966;-7.546385939;-6.879239519;0.108036753;-6.472653387;-1.083489389
-4.914419178;3.145128301;0.006914002;13.91447114;-3.277956004;0.516510385;-0.026116236;-0.232801913;6.732574919;8.465792695;22.49334355;7.549719934;-65.72599736;4.767409178;1.339520839;-6.937474429;3.878495566;-5.262712163;-0.888922769
-5.3084239;2.204649969;-0.826421303;14.59452125;-2.282572996;0.878622715;-0.868460098;2.001853417;8.134052537;10.09247449;20.6265992;5.195006294;-86.22058642;6.865592469;8.473124119;-8.877658517;6.136490878;-4.388878482;-0.581422647
-7.108699277;-1.639962947;-3.82559456;8.494212014;-1.701334602;0.670223901;-3.952946729;3.656864863;10.86940595;9.146395762;19.08957801;0.479450737;-81.02163531;7.690767284;6.121366134;-11.85299383;5.096862166;-4.685615838;-0.445357454
-9.119628628;-6.116588584;-6.949779085;-0.00261396;-1.284668833;0.123380235;-6.29168142;4.694102445;14.2182849;7.358248273;19.00110933;-4.843541787;-56.82146651;5.408233237;-6.984574262;-14.55755907;1.495027077;-6.333353116;-0.600304811
-9.63493263;-8.565655652;-7.809577684;-6.241401652;-0.987626774;-0.224006385;-5.685620814;5.486593624;17.22386542;7.252255348;20.66890649;-8.755618964;-28.88653987;0.099565316;-23.92235451;-15.89296519;-2.143312171;-8.459625906;-0.896404941
-7.732082805;-7.787551041;-5.388653611;-7.662344001;-0.882169077;-0.041415557;-2.694238101;6.359812458;19.51109134;10.16988618;23.6551022;-10.25573193;-11.65803707;-5.816580014;-34.07786528;-15.43958381;-3.610809742;-9.554315469;-1.058710535
-4.056699477;-4.723308607;-0.836347938;-4.409994883;-0.943283248;0.492562011;-0.029236604;7.299099137;21.56531758;15.28824353;27.17452495;-9.710422986;-10.63852753;-8.977059978;-30.50206331;-13.47984994;-2.654522432;-8.556658438;-0.941972961
-0.44145366;-1.539303584;3.29751641;1.535772488;-0.962761994;0.869278349;-0.006881891;8.029819451;24.17415639;20.32231388;30.41969238;-8.157006814;-20.67172343;-7.363466036;-14.70706905;-10.69990299;-0.846956851;-5.800058594;-0.660181867
1.378760073;0.061299966;4.839214595;7.655797535;-0.695737063;0.728557436;-2.447704463;8.322074666;27.53078586;23.2380942;32.66995904;-6.389566611;-31.19913525;-1.803285724;4.386102838;-7.908657834;-0.015987884;-2.969169182;-0.475684266
0.957595113;-0.058486383;3.445031356;11.81398108;-0.118776692;0.187036938;-4.933633774;8.196004417;30.83244184;23.57091788;33.34098385;-4.735686071;-34.3116656;4.449867285;16.23474482;-5.96637624;-0.745348548;-1.96696529;-0.55529709
-0.698153425;-0.737293019;0.639776298;12.70475299;0.42845524;-0.280687899;-5.118037617;7.841868798;32.77197754;22.3895067;32.15141071;-3.61;-29.79190989;7.760536572;14.90474856;-5.775174101;-2.212669242;-3.5227611;-0.819759897
-2.090638006;-0.780414429;-1.548303265;10.08120542;0.361234235;-0.285361602;-2.905961594;7.365800959;32.51851542;21.11908585;29.34887323;-4.048125845;-23.92661079;6.320967681;1.710510638;-8.032976834;-3.293344147;-6.663687184;-1.022084566
-2.503155812;-0.080958839;-2.244197261;4.820499983;-0.820570405;0.125816338;-0.494103468;6.640673007;30.34783782;20.32062111;25.74278909;-7.378197037;-23.61687065;1.052437501;-16.72441296;-12.70318684;-3.719297612;-9.510603669;-0.977787506
-2.526314209;0.318537866;-2.348438147;-1.406853069;-3.189240059;0.529478988;-0.277638684;5.43032799;27.39827789;19.42173666;22.37977906;-14.06359732;-30.639895;-5.223286821;-32.80859691;-18.59693447;-4.165531205;-10.76610383;-0.732734849
-3.42168082;-0.823303529;-3.648652129;-6.953501971;-6.245310441;0.529412785;-2.600344482;3.679584684;24.79257047;17.4874965;20.00741721;-22.71993302;-40.41751844;-9.553335865;-41.58624803;-23.62718445;-5.281293797;-10.67767516;-0.516177299
-5.889717296;-3.876735393;-7.173603973;-11.06640352;-9.074220179;0.120958849;-5.435364319;1.687853185;22.88942565;14.24015356;18.70141491;-30.39831195;-45.89973589;-10.32543526;-41.91348739;-25.88638985;-6.746726228;-10.70583157;-0.526559351
-9.310558993;-8.069498065;-12.1571599;-14.09596013;-10.74311308;-0.31887516;-6.268618904;-0.022142934;21.263279;10.41811409;17.94042016;-34.24413484;-43.20137231;-7.703901286;-35.66689718;-24.96400067;-7.400493361;-12.23014458;-0.749913798
-12.12668686;-12.17428064;-16.48145219;-16.76252639;-10.75088236;-0.396424361;-4.418979984;-1.052257851;19.34018776;7.225577773;17.06242624;-33.40457587;-34.49511745;-3.15267875;-26.41352245;-22.49619215;-6.399856582;-15.42632313;-0.976763072
-13.07377011;-15.47954605;-18.26587839;-19.09429494;-9.307902365;-0.073848316;-1.64806124;-1.401211892;17.0603702;5.421810152;15.73525603;-29.68568434;-26.08075819;1.359776264;-18.35066482;-21.31534209;-4.294325762;-19.24918315;-0.998215489
-12.24751394;-18.182714;-17.33866671;-20.12879993;-7.290679136;0.298732199;-0.514163844;-1.42746494;14.97320152;4.83931379;14.08704037;-26.35568345;-23.43264707;4.033982707;-15.25993139;-23.58196479;-2.872108456;-22.44989923;-0.797962564
-11.11644115;-20.92707055;-15.41769908;-18.89554802;-5.866295657;0.317600194;-2.008632299;-1.538239449;13.72361839;4.662859;12.45080564;-25.94882063;-27.25341728;3.749628084;-19.06456316;-29.16718934;-3.738792242;-24.64809209;-0.563979543
-11.44343032;-23.98954817;-14.85056926;-15.92202565;-5.948025202;-0.088394169;-4.656672718;-1.876206891;13.43400274;4.125695358;10.99938288;-28.71965257;-33.48860894;0.494404873;-28.48119943;-35.53220407;-6.812386175;-26.47779755;-0.5122796
-13.95182401;-26.90118209;-16.88595759;-13.70696798;-7.741592985;-0.579973446;-5.895632608;-2.265259117;13.54437953;2.99991023;9.604482314;-32.85204872;-36.94489016;-4.447245411;-39.05760523;-39.32367706;-10.12060519;-28.71378316;-0.68772819
-17.75685815;-28.82533201;-20.77919175;-15.22879586;-10.60955173;-0.710532906;-4.443932242;-2.434549311;13.23553834;1.563998393;8.019459402;-36.10208909;-35.37327311;-8.903374384;-45.37280578;-38.61106899;-11.22436347;-31.24015836;-0.925312492
-20.95744341;-29.28420469;-24.34656121;-21.30463877;-13.32740229;-0.331678262;-1.478473481;-2.291669813;12.05225811;0.258359321;6.190019531;-37.45110819;-30.79251199;-10.91667429;-44.44037985;-34.15636926;-9.170349065;-32.87251095;-1.005041416
-21.88587633;-28.50593181;-25.46607122;-29.00185672;-14.61273834;0.26903911;0.446934007;-1.989538708;10.21465511;-0.538665044;4.404438987;-37.46673574;-27.29904018;-9.998397703;-37.90550009;-28.79559264;-5.349620895;-32.25597581;-0.855274252
-20.07016844;-27.05483895;-23.37248104;-32.89866199;-13.68408551;0.620596269;-0.269059833;-1.745473373;8.422184994;-0.443041345;3.162577632;-37.25567419;-27.4624947;-7.587527818;-31.03523476;-25.41760189;-2.49844347;-29.06145844;-0.616829649
-16.28549849;-25.13112307;-18.87769331;-28.80662529;-10.60692686;0.478156619;-2.837568567;-1.616515966;7.384171822;1.042349215;2.891580703;-37.09031935;-30.32562834;-6.141667631;-28.82725634;-25.05380777;-2.608729148;-24.40824726;-0.510705549
-11.8287672;-22.28864624;-13.5553856;-17.29171143;-6.289050518;0.019862007;-4.831597232;-1.473380614;7.46489678;4.317282058;3.735159945;-35.99063336;-32.44642914;-7.316810188;-32.04063179;-26.44335991;-5.421034166;-20.12175707;-0.633506178
-7.69577056;-17.95270229;-8.684318162;-4.012060238;-2.128564319;-0.337666917;-4.411751904;-1.205584928;8.627224472;9.157256776;5.529865132;-32.63232496;-30.84322669;-10.56723062;-36.39018393;-27.26079083;-8.693472522;-17.46629493;-0.869657103
-4.268091181;-12.33419075;-4.76941505;3.881264932;0.558293617;-0.324519384;-1.977504679;-0.935323402;10.55660544;14.3437609;7.898381091;-26.7707185;-25.30967117;-13.37445838;-35.87492542;-25.94765324;-9.993507748;-16.43423394;-0.999967957
-1.574011973;-6.857240399;-1.827548071;2.856162154;1.114275186;-0.04777959;0.247563808;-0.976991864;12.75812332;17.99235839;10.32714823;-19.93482063;-18.3640933;-13.1275887;-27.86721866;-22.74795258;-8.560124645;-16.13242305;-0.904679085
0.304909375;-3.529063185;0.057574573;-4.306675424;-0.131769775;0.134668763;0.280656897;-1.51735631;14.59038722;18.60955517;12.19774812;-14.77692635;-13.19748151;-9.30772545;-15.90921167;-19.30342705;-5.796138976;-15.79706896;-0.673196399
1.139649353;-3.571514888;0.555356285;-10.54873265;-1.993351245;-0.034950353;-1.817533551;-2.2980188;15.38952793;16.2125329;12.87179043;-13.55761593;-11.51378257;-4.231826297;-7.708767137;-17.32282426;-4.099796249;-15.42951271;-0.520219082
0.835464314;-6.349480839;-0.529186042;-9.948619377;-3.034927441;-0.472618824;-4.041315873;-2.652747109;14.78865543;12.59958916;11.91994086;-16.86685789;-12.92121234;-1.619751772;-9.555551139;-17.44390772;-5.038230951;-15.47067885;-0.586892367
-0.25445547;-9.522048599;-2.721556698;-2.370486061;-2.406872044;-0.842116843;-4.314419573;-1.976424802;13.07079255;10.37440695;9.420058594;-23.38322925;-15.96030974;-3.935630388;-21.34929978;-19.05152377;-8.268930627;-15.90861556;-0.81084784
-1.364901184;-10.43987822;-4.790422574;6.366536946;-0.432972298;-0.882543901;-2.395258234;-0.292597857;11.19842187;11.26675816;6.089433346;-30.62733772;-19.46680731;-10.47507902;-36.17015554;-20.92978252;-11.90130524;-15.80543021;-0.984472048
-1.741182057;-7.828804236;-5.321683951;9.044773;1.484202363;-0.658147739;-0.069217177;1.584415193;10.30997184;14.91007813;3.048441817;-36.04423291;-22.95829091;-17.66618372;-44.89872618;-22.02887872;-13.84574222;-13.85462386;-0.94693055
-1.103691479;-2.54201701;-3.572817551;2.807283786;1.703763365;-0.491507249;0.521354956;2.528198556;10.90939678;18.99417175;1.258557872;-37.79858883;-25.94450486;-21.39131816;-42.47315606;-21.77375707;-13.06665945;-9.566832593;-0.732647711
0.245289773;3.144925303;0.049071389;-8.409207408;-0.52269695;-0.642345825;-1.146587259;1.925553029;12.32753349;20.74595282;0.951097676;-35.15609621;-27.23363047;-19.63039227;-31.089409;-19.96036704;-9.942316614;-3.985234083;-0.539577902
1.754824201;7.129380193;4.259129246;-16.67848168;-4.38344275;-1.037231159;-3.507152326;0.204223581;12.94244782;18.72923977;1.428222661;-28.66529395;-25.3045109;-13.55505804;-18.05963033;-16.69609335;-5.745497041;0.852697261;-0.546656595
3.091779002;8.773494594;7.701017548;-15.89768844;-7.844119076;-1.312570169;-4.352494577;-1.417751979;11.11517907;13.73107846;1.396665194;-20.22436102;-19.66789563;-6.453374581;-10.21563477;-12.63798557;-1.852087711;3.392774608;-0.748476445
4.332079277;9.010593366;9.679537447;-6.075492557;-8.874477582;-1.143007431;-2.851126124;-1.845486154;6.233652472;8.17747126;-0.356612355;-12.77363353;-11.97925039;-1.484503583;-9.327228012;-9.222575895;0.757506817;3.767300067;-0.959407181
5.738936056;9.342519991;10.32759225;7.07894154;-6.782324992;-0.557897509;-0.291838593;-1.003978158;-0.867081124;4.561722178;-4.357763857;-9.327684925;-5.646539224;0.03207126;-11.95485726;-8.317782958;1.608325051;3.658641146;-0.983862153
7.374139797;10.62121317;10.20671345;16.61618327;-2.717188908;0.049735841;1.102943317;0.011461281;-8.403592455;3.992294463;-10.25546123;-11.55487643;-3.896290187;-1.243175639;-13.40748123;-11.14487175;0.715626188;4.880170204;-0.796804257
8.930374981;12.55777882;9.770526274;19.10502692;1.057250143;0.242800513;0.184660654;-0.288630671;-14.7033181;5.758754737;-17.11367909;-18.72219517;-7.656879985;-3.782534041;-12.15581221;-17.10640648;-1.359802764;7.858653723;-0.568588474
9.949116714;14.2157364;9.141779972;16.04730369;2.643946502;-0.089099639;-2.126045153;-2.641866123;-19.11127616;8.015202048;-23.9729544;-27.88295307;-14.92128964;-6.376543229;-10.88153206;-23.55034229;-3.512144531;11.32038259;-0.510154679
10.21598368;14.93665638;8.295685484;11.35628735;1.702155631;-0.635683121;-3.731523199;-6.404839134;-22.22422426;8.940462163;-30.35762866;-35.43926586;-22.13554535;-8.475135734;-13.39343174;-26.99471207;-4.419400362;13.45238427;-0.67905582
9.952518359;14.87319946;7.356807389;7.58492316;-0.495824368;-0.932500937;-3.279599971;-9.958751752;-25.45894104;7.570621636;-36.49320949;-39.15866649;-26.54509915;-9.758166885;-20.28880822;-25.21583206;-3.22393055;13.51681501;-0.923802243
9.609304456;14.73026058;6.647269715;4.324121846;-2.13825999;-0.752623588;-1.345706626;-11.86819032;-30.36417318;3.920750707;-43.17;-39.25526791;-27.68961988;-9.736128985;-27.37630282;-18.77402948;-0.167658943;12.4857068;-1.019285294
9.43653651;15.0201785;6.406587622;-0.091842088;-2.230737531;-0.280769597;0.176179647;-11.91019746;-38.08064389;-1.410818137;-51.33318666;-37.75645566;-26.99240021;-7.995136425;-28.52487848;-10.78525637;3.35979042;12.11789933;-0.872250472
9.222188823;15.51681054;6.455536735;-5.579830698;-1.204097217;0.07481796;-0.135241961;-11.17582012;-49.05749409;-7.692507631;-61.56032682;-36.66390153;-25.98739753;-4.862891029;-20.74051325;-4.973556104;5.551138496;13.28430306;-0.610409593
8.448058809;15.36804715;6.166563228;-9.182625549;-0.361668408;0.054938718;-1.927537209;-11.16376527;-62.90453058;-14.26238598;-73.63281763;-36.35557529;-24.80516034;-1.668737437;-7.182644198;-3.336149437;5.280931266;15.04186805;-0.471770216
6.745826462;13.7444239;4.848326438;-7.196428947;-0.680609271;-0.2288675;-3.444509915;-12.57400335;-78.31977504;-20.52669248;-86.40992411;-35.46797454;-22.20994194;-0.04618443;4.650624201;-5.078308593;2.824989255;15.33279258;-0.590392472
4.268741831;10.47817965;2.281386573;1.199170423;-1.971666447;-0.414769808;-3.186455806;-14.74505661;-93.24856607;-25.97851683;-98.13457719;-32.28455174;-17.07199449;-0.662018528;8.39937612;-7.536051165;-0.316787139;12.77093994;-0.870021973
1.664171873;6.210812119;-1.015772894;12.15929852;-3.070166273;-0.234582581;-1.302489771;-16.17623288;-105.4707398;-30.35239255;-107.102119;-26.42833206;-9.9028747;-2.46045585;3.697903945;-8.320661434;-2.37099615;8.00165677;-1.061835986
-0.32963496;2.006462089;-4.018627223;19.18222358;-2.866635358;0.232922205;0.564443624;-15.73267155;-113.5155093;-33.79541392;-112.3882627;-19.43137144;-3.03944327;-3.249193443;-3.534488451;-7.047895883;-2.350855039;3.441043695;-0.982525367
-1.333563996;-1.205470993;-5.775950798;17.61435629;-1.304500245;0.623666683;0.80971797;-13.60661347;-117.3959655;-36.83660652;-114.228439;-13.71039944;0.767716419;-1.359184106;-5.718907027;-5.415144078;-0.532873207;1.550226803;-0.683012725
-1.482319529;-2.94977842;-5.934272729;8.108082709;0.476676862;0.602905058;-0.659174976;-11.30088664;-118.5701741;-40.07862634;-113.7969749;-10.80464855;0.249166144;2.889868849;0.444590262;-5.702590875;1.877644933;3.024026617;-0.417351746
-1.212938936;-3.171274575;-4.871259353;-3.791408588;0.95829755;0.149258378;-2.363757381;-10.64273967;-118.9858588;-43.78353489;-112.4971178;-10.31889314;-3.515735014;7.173343686;11.41600954;-8.942213386;3.55869149;6.333993999;-0.432176832
-0.916743219;-2.051579672;-3.406556329;-11.64092549;-0.644871124;-0.437614499;-2.641025549;-12.54622669;-119.7725179;-47.64493934;-111.2011948;-10.39613956;-7.912381196;8.749292677;19.63780139;-14.13683536;3.78996112;8.93539313;-0.751428345
-0.752076696;0.063731431;-2.341134334;-12.51254254;-3.83999052;-0.798063602;-1.174569422;-16.39205195;-120.5193274;-50.92097847;-109.9191977;-9.275115851;-10.59037506;6.492837882;19.45697223;-18.99798984;2.697470856;9.109739391;-1.136902577
-0.715677887;2.591178432;-2.126915693;-8.436841997;-7.241562045;-0.800276886;0.74102535;-20.4122729;-119.72741;-52.84634084;-108.0708023;-6.643838895;-10.84201139;1.798672435;11.43808839;-21.50191171;1.026545116;6.990628568;-1.259453695
-0.813218492;4.697355451;-2.794512727;-4.036721054;-9.506167253;-0.605585657;1.423050044;-22.75637443;-116.1472949;-53.05468903;-105.1066247;-3.753487997;-9.615081787;-2.376716174;1.731126863;-21.05702438;-0.302072124;4.106208887;-0.943789065
-1.101456512;5.55785913;-4.055988554;-2.616629216;-10.07277273;-0.476584058;0.357524123;-22.50627189;-109.9881418;-51.75845055;-100.996007;-2.327651962;-8.382504319;-3.613439861;-2.836138557;-18.5405966;-0.599946816;2.022187016;-0.294862813
-1.548222676;4.829657764;-5.433680157;-4.018038852;-9.237515942;-0.52542088;-1.351373506;-20.047713;-103.0314045;-49.61308661;-96.24334051;-3.248903161;-7.947500054;-1.673730874;0.088100991;-15.41258683;0.334173791;1.297219362;0.38444817
-1.887623279;2.993463803;-6.362490919;-5.770504439;-7.69816732;-0.638026469;-2.034954455;-16.70832499;-97.51158671;-47.38773994;-91.48643557;-6.059296779;-8.133943184;1.506002164;7.032297233;-12.74866623;2.138720378;1.498929547;0.807963766
-1.695923687;1.208993572;-6.330396903;-6.124763728;-6.086679479;-0.629656162;-1.018122877;-14.02279015;-94.5999056;-45.64710481;-87.04758565;-9.517427258;-8.407697224;3.367042801;11.98086999;-10.90765066;4.018633459;1.991806279;0.883431378
-0.714543339;0.650136088;-5.112926869;-6.030690908;-4.864468466;-0.464587643;0.767758512;-13.09003906;-93.65657642;-44.60108956;-82.80328249;-12.56793994;-8.648517295;2.561976039;11.34181429;-9.883674536;5.09103353;2.578488728;0.730452352
0.820786931;1.712384881;-3.017930233;-8.258951672;-4.486420676;-0.317153919;1.672089455;-14.27379284;-92.8242083;-44.16402847;-78.44057926;-14.86059422;-9.2608387;-0.292346641;6.461096272;-9.812323322;4.843740219;3.385647498;0.552996473
2.161649127;3.65888696;-0.933348903;-14.54361007;-5.436663878;-0.409906557;0.871601842;-17.22121998;-90.48826755;-44.1561872;-73.84475829;-16.51083017;-10.5428549;-3.353686169;1.790957928;-11.0669472;3.457288734;4.258570335;0.486000458
2.442082271;5.018484967;-0.020351427;-23.42881106;-7.906125814;-0.78350819;-0.86488159;-21.06058495;-86.46987825;-44.51380538;-69.28307755;-17.53737734;-12.01222661;-5.03191534;0.543267579;-13.84749865;1.739150769;4.473498187;0.5317857
1.248248846;4.526487196;-1.127894606;-30.87180613;-11.34754969;-1.223915413;-1.895183326;-24.69175976;-82.06114838;-45.36543986;-65.25538012;-17.64866359;-12.47926974;-5.007652074;1.712944848;-17.6757261;0.644631816;3.24852104;0.609302686
-1.055553862;1.98775827;-4.255276748;-33.20641054;-14.42457966;-1.428289715;-1.227802319;-27.15197566;-78.94423351;-46.89835027;-62.17084302;-16.60893376;-10.96876289;-4.133935856;1.064213738;-21.32977186;0.673773765;0.653384567;0.647360896
-3.513062546;-1.541469005;-8.439576412;-29.99445967;-15.63676402;-1.266620716;0.564922909;-27.99290175;-77.8895349;-49.07590897;-60.12691995;-14.77107715;-7.742929085;-3.529241287;-4.805267772;-23.4051462;1.568659975;-2.031066863;0.636405227
-5.169358073;-4.4035068;-12.21211009;-24.38717858;-14.30724136;-0.901165827;1.88246932;-27.49397203;-78.23565088;-51.40993052;-58.93259855;-13.15401642;-4.457106487;-3.728893618;-14.89385345;-23.17928528;2.539688105;-3.071706496;0.610565628
-5.660788808;-5.394691781;-14.38896369;-20.74200411;-11.19289314;-0.650285884;1.573040015;-26.52452996;-78.47412704;-53.02105011;-58.28399168;-12.86379706;-3.135110404;-4.522624593;-23.91427902;-21.18068742;2.85456142;-1.696106495;0.598673314
-5.391990732;-4.509994382;-14.70417468;-21.5045511;-8.148211484;-0.714023962;-0.017874352;-26.04803455;-77.38532585;-53.05644632;-57.89048347;-14.29591912;-4.659318449;-5.397981875;-26.18733692;-19.01255189;2.351388703;1.043975206;0.599240822
-5.192117238;-2.868041048;-13.86338481;-25.83864411;-6.968643584;-1.004755509;-1.385654552;-26.53097399;-74.80372479;-51.24662725;-57.45089962;-16.79892301;-7.968615121;-6.015877544;-20.18240834;-18.44233127;1.51595598;2.859041629;0.596259031
-5.709133987;-1.874398401;-12.96929116;-30.8668543;-8.206652007;-1.232460134;-1.260095215;-27.64511822;-71.47774627;-48.1893191;-56.57034119;-19.0963054;-10.68052522;-6.267891736;-9.958667854;-20.24676762;1.118518593;1.97522465;0.587131717
-6.963731506;-2.212270286;-12.70316343;-34.17842836;-10.8279154;-1.166248452;0.24415967;-28.48722885;-68.25489239;-45.05723004;-54.78922369;-20.11624923;-10.74713935;-5.999351856;-2.258844304;-23.51462577;1.726039014;-1.301881668;0.587098267
-8.346143764;-3.371838911;-12.83525186;-35.38962458;-12.96475166;-0.83824952;1.774695772;-28.17949451;-65.32474009;-42.83133767;-51.78470095;-19.56440458;-7.907901364;-4.859602807;-1.542702459;-25.92442277;3.429866612;-4.560901543;0.606949331
-9.027447642;-4.051248678;-12.43182406;-35.64260456;-13.2050957;-0.511491716;2.025674004;-26.43516581;-62.12170737;-41.58197258;-47.61315149;-17.86266418;-3.82201109;-2.587393007;-6.898035684;-24.99503037;5.880453132;-4.971943631;0.633359489
-8.500600285;-3.143844013;-10.64686133;-35.87951296;-11.47897513;-0.446400354;0.949463084;-23.70697144;-57.9;-40.38916136;-42.78323273;-15.6642829;-0.77987745;0.479817278;-13.19910912;-19.69578758;8.469097941;-1.456539225;0.638197589
-6.918462117;-0.602983177;-7.551648687;-35.73334144;-8.954611135;-0.677072093;-0.229702715;-20.8580609;-52.46230941;-38.07293908;-38.06588346;-13.47479481;-0.002250826;3.23583747;-15.42867491;-11.44816829;10.4795704;4.356644083;0.609418127
-5.046247049;2.446108289;-4.375998114;-34.10082247;-7.124760868;-0.992134506;-0.196756979;-18.64279177;-46.45721839;-34.25842745;-34.15508341;-11.67690831;-0.844624339;4.336071202;-12.59280304;-3.744780209;11.21754898;9.187614631;0.569473996
-3.869464803;4.443641783;-2.896043003;-30.72663083;-6.825235878;-1.126667784;1.196453803;-17.37790488;-41.0483954;-29.9409068;-31.40050984;-10.74631558;-1.481533152;3.167284132;-8.132955283;-0.369395493;10.25371192;10.40751167;0.557669191
-4.067495097;4.463597441;-4.289689117;-27.09504292;-7.866929413;-0.985724252;2.779843176;-16.96854363;-37.23408905;-26.99562442;-29.74953813;-11.20255405;-0.452891924;0.505230939;-6.697773332;-3.141504207;7.788213023;7.853742766;0.590778416
-5.617475891;2.846395326;-8.200157471;-25.55573512;-9.399797726;-0.702425878;3.164695226;-17.13987456;-35.29569537;-26.85852996;-28.85468105;-13.14026383;2.216447677;-1.773462546;-10.08707819;-10.5997505;4.863719728;3.818114132;0.641904972
-7.73511388;0.936987627;-12.69024966;-27.30571626;-10.57216361;-0.492682108;2.067359677;-17.59662084;-34.68683862;-29.30808054;-28.20354653;-15.74231417;5.217059511;-1.865708777;-15.72454535;-18.62096595;3.057622058;1.286988822;0.662408689
-9.214182575;0.11788508;-15.23020437;-31.02814342;-10.94157394;-0.452905552;0.616027819;-17.98708117;-34.3475063;-32.31769675;-27.19607414;-17.39630063;7.24046413;0.684145591;-18.80970767;-22.77396398;3.596761956;1.81133902;0.628859357
-9.034417059;0.840535885;-14.17245582;-33.54159459;-10.44318237;-0.488795261;0.340656008;-17.81291414;-33.20649871;-33.21986587;-25.23242938;-16.60924263;8.200039063;4.555836709;-16.2594532;-20.98650777;6.385321042;4.565664084;0.5692291
-6.941122259;2.353421968;-9.793146302;-32.10591778;-9.148375741;-0.431100133;1.768633745;-16.52513338;-30.62211733;-30.43918061;-21.90956508;-13.15838696;9.308630974;7.442572376;-9.187150764;-14.76673154;9.726061419;7.156052547;0.539753432
-3.661729736;3.302859301;-4.205244285;-26.56584555;-7.158937169;-0.217243345;3.920029297;-13.86554112;-26.61602731;-24.57194015;-17.29007813;-8.528699568;11.93783629;7.549085731;-2.00880927;-8.122321352;11.17073243;7.41963518;0.571586471
-0.583829428;2.737909076;-0.155706078;-19.58313713;-4.729836581;0.03890751;5.172977567;-10.21545542;-21.84803257;-18.0189636;-12.03389683;-5.11311398;16.26711736;4.766988198;0.92491744;-4.901065242;9.102656774;4.847974455;0.638196547
0.97263271;0.773110633;0.551513807;-14.75633305;-2.398130035;0.154673728;4.712249256;-6.598812687;-17.33177808;-13.42058132;-7.180530964;-4.623303498;20.94980625;0.722842719;-1.636065569;-6.395949338;3.971537396;0.734154591;0.677345225
0.479235889;-1.545602712;-1.986631875;-14.12444274;-0.85339389;0.057992101;3.241392189;-4.206207121;-13.96610109;-12.01172108;-3.608036182;-6.875089779;24.15548608;-2.310894119;-7.45682141;-10.85247466;-1.805893878;-2.81932587;0.649583883
-1.530735395;-3.008639839;-6.015751126;-16.97631705;-0.558344839;-0.135211792;2.316905169;-3.704360747;-12.07891273;-13.04594049;-1.500466969;-9.919877882;25.1176117;-2.879820356;-13.07740993;-15.10448361;-5.351912047;-4.156920673;0.57805685
-3.830535918;-3.028930625;-9.353129056;-20.74841772;-1.431117734;-0.222406209;2.924367004;-4.826868301;-11.25636094;-14.61507209;-0.241682155;-11.48185799;24.80281499;-1.214823611;-16.5883903;-17.00846673;-5.236690638;-2.767099595;0.529561308
-5.275905256;-1.887129183;-10.75235299;-23.11825054;-2.908384537;-0.101889259;4.600364541;-6.576355505;-10.62590185;-15.16139376;1.116467254;-10.63020429;25.02910276;1.01300528;-18.60541528;-16.83550595;-2.413484737;0.783970436;0.552116015
-5.481302599;-0.358740539;-10.51708684;-23.58830801;-4.383715618;0.128679835;5.889923132;-7.910039063;-9.472238514;-14.53111046;3.113661355;-8.416117178;26.73710004;1.810934785;-20.88059552;-16.68550554;0.513889793;5.323809515;0.627525885
-4.960820784;0.869174029;-10.04448554;-23.47257259;-5.656513675;0.256258209;5.699621238;-8.400821543;-7.78326179;-13.86034942;5.430284222;-7.012635245;28.96326987;0.093813337;-24.06359817;-18.55982361;1.143484065;9.515849676;0.685748738
-4.676151443;1.496402582;-10.72454835;-24.5766046;-6.987293725;0.143991987;4.29532216;-8.388210748;-6.306508273;-14.52144008;7.105210227;-8.056417521;29.56017504;-3.723476377;-26.73937572;-22.70780132;-1.129458511;12.14924059;0.670092773
-5.34251537;1.472863317;-13.01146818;-27.78860596;-8.699839297;-0.143621964;3.03791451;-8.550632949;-6.024182863;-17.03209898;7.28327248;-11.4697911;27.18878743;-8.048609154;-26.5959414;-27.51208152;-4.91154504;12.41658369;0.592499972
-6.982098177;0.709108017;-16.26631682;-32.60079282;-10.69650409;-0.394820927;3.119716013;-9.29358651;-7.40748133;-20.74582809;5.910986784;-15.60241275;22.85930973;-11.06346553;-22.62910133;-30.86202535;-8.03865856;10.24614372;0.525049767
-8.992687284;-0.969483846;-19.35360708;-37.63052003;-12.35931726;-0.433236314;4.47531961;-10.46871879;-10.0187029;-24.437435;3.81234726;-18.47974426;19.49388461;-11.71076394;-16.39590133;-31.80552771;-9.196189711;6.47873799;0.533115054
-10.60462684;-3.527622247;-21.44288388;-41.45504275;-12.97531156;-0.263755323;5.862047492;-11.61740497;-12.78577234;-27.19128143;2.063704804;-19.15034532;19.6144654;-10.19583941;-11.20919785;-31.18165212;-8.700912708;2.586235;0.612148285
-11.34211351;-6.3970584;-22.40374835;-43.10920492;-12.33662824;-0.054078142;6.016910164;-12.45726553;-14.74285059;-28.85376603;1.164610888;-18.17791649;23.00643695;-7.816490136;-9.970486193;-30.88311195;-7.985886862;-0.077473295;0.689160683
-11.1673954;-8.542864271;-22.58609273;-42.18049636;-10.97128751;0.023241949;4.811793969;-13.12310581;-15.64324669;-29.78012928;0.68996474;-17.08088397;26.49673932;-6.288565488;-13.45161191;-32.49362932;-8.373599376;-1.046128398;0.690131912
-10.2852598;-9.003302072;-22.28850286;-38.84914954;-9.757476677;-0.061086158;3.349550223;-13.92095734;-15.94787552;-30.23482944;-0.266781894;-17.2932542;26.3676261;-6.930219873;-20.32089655;-36.37839607;-10.17307585;-0.927623067;0.6111615
-8.856699763;-7.513541873;-21.42700299;-34.04517913;-9.217951176;-0.187869047;2.934991606;-14.83433656;-16.21814596;-30.05190316;-2.19914151;-19.40789373;21.62055459;-10.06051659;-28.6011606;-41.72167948;-12.69739803;-0.786181656;0.525067629
-6.898751395;-4.671753731;-19.68691118;-29.42714805;-9.099086561;-0.222337905;3.888390115;-15.29630249;-16.46384353;-28.85694008;-4.577195772;-23.04772497;15.29453981;-14.827421;-37.03159;-47.16243894;-14.94955363;-1.161416759;0.514480957
-4.437136164;-1.466316378;-16.99602088;-26.78117677;-8.621187657;-0.152157297;5.29252625;-14.54063475;-16.05880233;-26.60979199;-6.063888887;-27.1774892;12.39995231;-19.50466443;-45.07101272;-51.36680846;-16.24662884;-1.535429828;0.592784722
-1.732774693;1.439158055;-13.87637302;-26.95703459;-7.214563337;-0.097698778;5.8799075;-12.3214436;-14.35804069;-23.93786632;-5.457370203;-30.49835967;15.84411693;-22.14820964;-51.74916563;-53.26808997;-16.31182606;-0.759091218;0.68839755
0.663261449;4.009588012;-11.33426527;-29.12711182;-5.123266888;-0.187088456;5.209415223;-9.397626655;-11.51488618;-21.92683096;-2.669465407;-31.79240441;23.68296406;-21.39501027;-54.85647156;-52.24765971;-15.01505258;1.833029808;0.710087891
2.115932781;6.428550448;-10.32987407;-31.1971727;-3.349121599;-0.41882667;4.033627613;-7.28516338;-8.750738174;-21.51342345;1.017495732;-30.32681101;30.29132593;-17.11911819;-51.80988524;-48.56099302;-12.297485;5.517070583;0.633913547
2.234835739;8.361116953;-11.20758553;-31.35560456;-2.954954943;-0.646976263;3.5366698;-7.338036149;-7.717363535;-22.95149512;3.66019601;-26.34599572;30.91608052;-10.6554843;-41.96906346;-43.77611179;-8.51928955;8.300811132;0.529115931
1.084621742;8.673600951;-13.49906719;-29.65960829;-4.282592325;-0.707265023;4.187298262;-9.783885031;-9.32925989;-25.73067935;3.870621257;-21.35;26.00930489;-4.405830534;-28.54118793;-40.52934686;-4.846149735;8.114929991;0.495562705
-0.864641547;6.07380281;-16.22780878;-28.25972059;-6.71;-0.567479054;5.303920137;-13.43859919;-12.93528753;-28.93479397;1.711517795;-17.70875494;21.42737882;-0.876355813;-18.03034756;-41.19765822;-3.025307588;4.253418065;0.568974475
-2.990555688;0.299955353;-18.48421905;-29.81447092;-9.12037305;-0.359736236;5.743216133;-16.35101304;-16.52025859;-31.70133274;-1.328589381;-17.51135801;23.65314063;-1.502494683;-16.84039093;-46.08454397;-4.362052627;-2.012200891;0.683620455
-4.791082079;-7.14491898;-19.87808162;-35.17926938;-10.6764761;-0.260660905;5.051306155;-16.94769433;-17.88477286;-33.45511244;-3.244359045;-21.21818852;33.43136264;-5.831898344;-26.95631289;-52.53476355;-8.538990136;-8.140333262;0.730892248
-6.024412426;-13.51979188;-20.60610705;-42.25467948;-11.27918236;-0.327500215;3.967712023;-14.89333241;-16.01164492;-33.87883329;-2.694097899;-27.07338021;43.12136829;-11.58044284;-43.76208967;-56.08927341;-13.32852377;-11.87362963;0.661877211
-6.69504644;-16.47268531;-21.16369156;-47.13198029;-11.39862544;-0.441473086;3.774078034;-11.12268291;-11.66825527;-32.84232119;0.288908621;-31.88760064;40.74927902;-15.68172436;-57.95322772;-53.33010275;-15.73252268;-12.55531596;0.537434239
-6.966214676;-15.63293698;-21.95190547;-46.86042548;-11.50993624;-0.413139188;5.072466434;-7.124053887;-6.844517048;-30.48845413;4.433836964;-32.85575128;18.61855048;-15.87627232;-60.79826995;-44.53702934;-13.95410145;-11.32827267;0.475107934
-7.075556722;-12.90974008;-23.04224021;-41.75178935;-11.66283404;-0.156602484;7.137476723;-4.058502661;-3.462750379;-27.41017925;8.040894111;-29.25040891;-19.67497219;-11.97593996;-49.58449171;-34.05815992;-8.792527321;-10.17048485;0.538761559
-7.263588931;-11.16129144;-24.19861784;-35.367578;-11.53156224;0.224343039;8.478908555;-2.309491871;-2.282056791;-24.63882991;9.911639285;-22.83035939;-59.49595214;-6.013862611;-29.71061973;-27.80298289;-3.313458369;-10.52653484;0.674058278
-7.68801939;-12.17528943;-25.06978689;-32.10311083;-10.82640399;0.516345244;8.136754258;-1.626157549;-2.706559348;-23.24953639;9.86771215;-16.68934973;-83.35613119;-1.097858943;-11.90278873;-29.44789436;-0.880691099;-12.48731088;0.754227242
-8.33419382;-15.48297383;-25.38674107;-34.1762071;-9.634365587;0.572265167;6.539431636;-1.552211915;-3.493629502;-23.73477402;8.650531017;-13.37320296;-81.76500676;0.405588938;-6.106359388;-38.0467448;-2.900557905;-14.97218661;0.698178148
-8.989932416;-18.8957612;-25.05095791;-40.2848106;-8.364684682;0.428066611;5.136802073;-1.711227318;-3.715556955;-25.59137802;7.37651205;-13.55294469;-59.17983767;-1.746821343;-15.7113528;-48.77591863;-7.90095345;-16.62182151;0.551574196
-9.345194722;-20.28920149;-24.10657065;-46.83887773;-7.376507567;0.261560388;5.130738802;-1.793737024;-3.237023151;-27.50795297;6.926035423;-16.02773463;-30.78450527;-5.605247572;-35.56042618;-56.20285442;-12.59459297;-16.68510309;0.450792198
-9.184077077;-19.17970911;-22.66464311;-50.63589942;-6.670748136;0.235200985;6.448181168;-1.452932105;-2.453378203;-28.12253926;7.592545919;-18.81115142;-12.38389195;-8.315102762;-54.86696416;-57.61054596;-14.11276232;-15.33296081;0.497222511
-8.538909638;-16.862319;-20.85311371;-50.82387612;-5.952578172;0.363861633;7.876558694;-0.401630409;-1.663327227;-26.86489673;9.099070011;-20.3686035;-10.60936899;-7.918198205;-63.25382453;-54.03084179;-11.78461204;-13.34521977;0.656891102
-7.678951835;-15.11420414;-18.82142647;-48.77696464;-4.998545327;0.518505352;8.214564439;1.263639785;-0.709058204;-24.28743451;10.86627738;-20.20758526;-20.18401653;-4.491992734;-56.39096051;-48.58695899;-7.278936496;-11.55241065;0.783405596
-6.929113982;-14.66665021;-16.77559167;-46.34383175;-3.955885948;0.551111011;7.364784251;2.829463141;0.781295278;-21.63972012;12.31791437;-18.72255365;-29.5907629;0.072102154;-38.09961699;-43.85222565;-3.209514732;-10.47111961;0.750747917
-6.457778277;-14.78394286;-14.98857235;-44.20366778;-3.258000951;0.422516512;6.362379356;3.193849679;2.794641858;-19.99220515;13.06553667;-16.76223805;-30.31424742;3.409071817;-17.92727125;-40.44955387;-1.38433267;-10.29204351;0.576630759
-6.20364335;-14.25279598;-13.73737131;-41.72933366;-3.210029297;0.224103612;6.331852882;1.579069229;4.585513182;-19.53600049;12.95479062;-15.34821349;-22.57734497;4.168474122;-5.751531022;-37.72365344;-1.94924833;-11.05463677;0.417680777
-5.990725956;-12.79439791;-13.16434218;-38.22015755;-3.632262779;0.089456912;7.367058696;-1.721713674;5.016805719;-19.53182081;12.06351173;-15.50737085;-13.69727009;2.672723884;-6.505579999;-35.36599751;-3.805484013;-12.73737448;0.430916999
-5.711431069;-11.51342019;-13.12958115;-34.08425369;-3.923900858;0.089651642;8.405456275;-5.183047891;3.444865971;-18.88721831;10.73404714;-17.88929217;-11.10982041;0.439585961;-17.87597038;-34.14338828;-5.674950004;-15.14830753;0.622470979
-5.397472813;-11.87061361;-13.17027072;-30.68892445;-3.534743716;0.206403881;8.239557518;-6.74627799;0.484006121;-16.90114548;9.611067089;-22.10690525;-16.03539624;-0.930331616;-32.056476;-34.9748699;-6.861616997;-17.74221668;0.826202191
-5.111231651;-14.0564518;-12.65799776;-28.98398955;-2.446121284;0.389121584;6.732142432;-5.021478226;-2.034921972;-13.6553734;9.551116584;-26.30697474;-22.76397691;-0.661100949;-40.38455874;-37.407442;-7.258060245;-19.60361939;0.84426632
-4.776873993;-16.30711328;-11.13;-28.29921978;-1.225536605;0.617788793;5.07954709;-0.205080014;-2.055119097;-9.857529742;11.29740656;-27.67228675;-23.71193014;1.018248965;-38.17139378;-39.28093822;-6.908139525;-19.73454793;0.63265897
-4.151987342;-15.99221;-8.624559624;-26.6631781;-0.579247419;0.897531744;4.821616016;5.938383272;1.347082829;-6.355522811;14.99961086;-23.97948785;-15.80014079;3.308412608;-27.04902823;-38.2770505;-5.750501866;-17.55746605;0.362656648
-3.023575486;-11.76593236;-5.78766343;-22.58075623;-0.768871194;1.195076491;6.456078806;11.05491704;7.173649545;-3.718170749;19.87469894;-15.34738512;-2.952634833;5.373951999;-13.64573874;-34.11517929;-3.82020334;-13.35398532;0.288495021
-1.487927768;-5.025682074;-3.619917384;-16.72488212;-1.385766176;1.401692826;8.913648147;13.50734484;12.91564902;-2.117190033;24.34261485;-4.806544593;7.042534967;6.573634694;-5.506546815;-29.26498789;-1.599984108;-8.337994237;0.522000883
-0.047894363;0.674759666;-2.960763756;-11.86289702;-1.671704874;1.389659877;10.40563333;13.17514044;15.99490427;-1.442019854;26.71928936;3.069810451;8.467546721;6.416174727;-6.705136792;-27.18505317;0.000584477;-4.230245483;0.906803132
0.62940228;2.00659872;-4.00875492;-10.78807551;-1.104585304;1.130835272;9.927606669;11.29981749;15.334917;-1.414586971;26.13395582;4.814711955;1.56706186;4.565117914;-15.68117066;-29.36521913;0.191580773;-2.478660075;1.111513152
0.173196811;-1.717063827;-6.187303886;-13.84294283;0.250794852;0.764280085;8.099760254;9.589417669;12.02213543;-1.568959522;23.07273424;0.212510555;-8.418344728;1.09094017;-26.45506114;-33.77366567;-1.046750231;-3.509828912;0.879292183
-1.150572744;-7.985469625;-8.453167638;-18.17148178;1.904559847;0.525188251;6.599702622;9.239428481;8.600112896;-1.191226021;19.10456746;-7.663689874;-15.79499924;-3.224658828;-32.35912574;-36.32458576;-2.830019531;-6.453727501;0.235044513
-2.51425315;-12.88849098;-9.852115658;-19.53543699;3.434926144;0.569422217;6.687850845;10.46628663;7.452220599;0.567977446;15.88799063;-14.63758218;-18.55347204;-6.955389436;-29.98749146;-34.37660156;-3.969306257;-9.577353967;-0.519803754
-3.017759498;-13.92122203;-9.96895747;-15.40758943;4.848314258;0.837134711;8.125829701;12.69938141;9.34083965;4.322582911;14.11667696;-18.26630702;-18.89148968;-8.666520709;-21.04660013;-29.30610248;-3.865968386;-11.25835515;-1.022862348
-2.26672428;-11.65367271;-9.013327215;-6.912473884;6.483173276;1.0854912;9.430252948;15.1231936;13.05271883;10.00282355;13.18110867;-19.23195572;-20.22166148;-7.796374821;-11.14152933;-25.73706988;-2.961249832;-10.94705481;-1.104221574
-0.622982627;-9.020904895;-7.547161718;1.962474953;8.563983962;1.081932565;9.214354553;17.12844153;16.33463137;16.67195758;11.83863627;-20.30408735;-23.6552189;-5.118774828;-6.383546551;-27.77739691;-2.346321674;-9.479457932;-0.880090332
1.063869647;-8.85121001;-6.085274028;7.286586907;10.83718134;0.802802412;7.415677283;18.44456405;17.43063151;22.83694722;9.410822796;-23.78307382;-27.06135988;-2.333194624;-9.914081943;-35.2998601;-2.844173743;-8.45161322;-0.62666727
2.060058594;-11.58864086;-4.827354844;7.944314528;12.64827133;0.463107383;5.33423063;19.03910145;16.16235837;27.15161451;6.563477216;-29.49340075;-27.27805143;-0.983485683;-20.33025729;-43.51356361;-4.321647727;-8.99194547;-0.553801388
2.261133338;-14.94451519;-3.627297749;6.130039063;13.41789372;0.340064697;4.480647252;19.00865313;13.86919487;29.10795113;4.983436453;-34.89101029;-23.25254851;-1.471754509;-32.73674083;-46.45250548;-5.789661582;-10.76272561;-0.667288824
2.258570523;-15.66441022;-2.135153422;5.354887042;13.10815357;0.533188283;5.282572498;18.57977934;12.35129133;29.27350954;6.106331849;-37.11;-17.23044261;-2.906739138;-41.58711682;-41.68957703;-6.184403104;-11.98116563;-0.816090901
2.919587164;-11.98924426;0.00204587;7.703542829;12.2681012;0.867680956;6.788368935;18.14342361;12.62996732;28.90433439;9.838360415;-35.23430912;-13.00137489;-3.885584298;-43.56370996;-32.41107462;-5.172766524;-10.60326737;-0.856866919
4.768537697;-4.961613458;2.933704844;12.50971883;11.60881502;1.032449495;7.585228687;18.17381813;14.39;29.16177397;14.30767312;-30.97701953;-12.8418768;-3.567839421;-38.93894499;-25.05545558;-3.349306995;-5.948822618;-0.778499803
7.574545225;2.282484564;6.406311685;17.26063263;11.46127433;0.843145043;7.065048326;18.9977389;16.40476433;30.41645434;16.95164198;-27.31457697;-15.84495311;-2.184214189;-30.91305215;-24.36237337;-1.731662416;0.406884574;-0.685144856
10.40138245;6.56835565;9.650435956;19.6635645;11.5621478;0.408189233;5.898396543;20.55727245;17.52151922;32.066317;16.22657685;-26.27360755;-18.98237453;-0.622224951;-23.60643552;-29.83128663;-1.023633481;5.277092837;-0.675374771
12.08858043;6.550776138;11.52658273;19.03992922;11.32450105;0.052863839;5.332627064;22.36673701;17.44076046;32.97155727;12.70921108;-27.65436116;-19.8205635;0.475139486;-19.99584649;-36.41417385;-1.230029297;5.811135607;-0.745160755
11.89405038;3.214406802;11.04459278;16.10892102;10.34640124;0.060475268;6.002431828;23.73790897;16.77199121;32.22918327;8.76836243;-29.57996581;-18.47050322;1.257468901;-20.85870243;-38.7497936;-1.834717251;1.510092773;-0.805462804
9.954973707;-1.054683778;8.093165993;11.82616249;8.741066197;0.445588565;7.354199064;24.1454634;16.44407311;29.80757076;7.023402677;-30.22387845;-17.18532065;2.362454914;-25.00634597;-35.36834354;-2.276144669;-5.138672127;-0.78547186
7.319365403;-3.956715492;3.90033107;6.715451163;7.061921089;0.947549066;8.187810425;23.50041347;17.00314596;26.65043014;8.679904457;-29.19993661;-18.1578572;4.053180064;-30.31735363;-29.46955802;-2.294938049;-10.03130396;-0.709582677
5.500560534;-4.345406306;0.721637758;1.388343452;5.947482334;1.246039873;7.783975117;22.17383037;18.31983435;24.1781652;12.88055848;-27.56054092;-21.56805965;5.638240321;-34.79549539;-25.88068456;-1.962778922;-10.07830304;-0.668629696
5.732970081;-2.468423275;0.689725015;-2.521749326;5.803644487;1.214999102;6.56519714;20.79020329;19.82217121;23.47345637;17.42332673;-26.63169513;-25.53149506;5.814089668;-37.14940448;-26.99688445;-1.533909212;-5.391319491;-0.717614109
8.281697283;0.405017056;4.428214345;-2.464624874;6.728131965;1.004786643;5.692545655;19.9390857;20.9473186;24.6306884;20.21409272;-26.85679058;-27.79967503;3.762226421;-36.90193961;-31.16394285;-1.348161144;0.512906093;-0.809594367
12.19340796;2.576981599;10.40421451;3.322748462;8.611339737;0.893598259;5.988670387;19.95054063;21.40794187;26.66331957;20.39023279;-27.65035925;-27.55458685;0.106865752;-34.34303744;-34.62637332;-1.815282741;2.775203071;-0.839772559
15.70290698;2.547504358;15.65373814;13.67926276;11.20110859;1.043842456;7.185017316;20.78920786;21.1292327;28.0423914;18.44501927;-28.23499738;-25.73769798;-3.159578061;-30.52557561;-34.9977727;-3.303229039;-1.716701902;-0.759246737
17.15766588;-0.341307587;17.57889787;24.01527741;14.03232941;1.370777149;8.173274771;22.05285335;20.05214772;27.56363496;15.50835551;-28.53808621;-23.8398345;-3.895617195;-27.15137137;-33.03406603;-5.821953263;-12.19770999;-0.639736746
15.96693247;-5.391256497;15.64482026;28.52912347;16.35763555;1.624364519;8.010718063;23.06808656;18.09831349;25.03375142;12.50808498;-29.25598063;-22.49194039;-1.34156368;-26.02448547;-31.2662257;-8.703365563;-24.26712722;-0.612220211
12.97702138;-10.55304273;11.72773296;23.99590001;17.3036982;1.60090464;6.750416631;23.1065443;15.37798089;21.36443949;9.843156284;-31.05587016;-21.23491091;3.201305417;-28.03775253;-31.06144207;-10.6798287;-32.38615022;-0.729597783
9.966612813;-13.2634586;8.763797313;12.36117461;16.29331041;1.299773132;5.352970426;21.70940939;12.41824283;18.01959788;7.625297204;-33.72997259;-19.55768986;7.123027119;-32.23675205;-31.12713028;-10.55154013;-33.04969807;-0.891700748
8.520129616;-11.8822464;8.615439127;-0.087706121;13.47338392;0.902667441;4.794045417;18.99416262;10.09969552;16.16038112;6.04345861;-36.15353933;-17.97742912;8.206128022;-35.82741009;-29.01940322;-8.098796052;-26.63509328;-0.924483688
9.001234256;-6.866612227;10.72678725;-6.713724072;9.774628686;0.612585501;5.209289928;15.72845791;9.21822077;16.01668566;5.395980707;-37.12073875;-17.88583779;6.076372835;-35.58682228;-24.22600798;-4.512392108;-16.83126276;-0.75621553
10.3427564;-0.739694198;12.60527441;-4.916414313;6.455363411;0.502268745;5.852806925;13.0219084;9.939175555;16.85660274;5.759291949;-36.294555;-20.15595504;2.385068648;-30.09772132;-19.68124756;-1.822350512;-8.146438686;-0.521579759
10.83335377;3.362855114;11.78858244;2.307878669;4.390403113;0.494600059;5.869067063;11.72286953;11.56683326;17.53026518;6.677910806;-34.3995274;-23.85759379;-0.366100381;-21.30150131;-19.8314554;-1.552488442;-3.200597364;-0.468617598
9.365700428;3.704054008;7.79203405;8.769821404;3.605334175;0.468030148;5.124972488;11.86156068;12.85855273;17.20058272;7.273091511;-32.49969892;-26.51170923;-0.486174872;-13.93674341;-26.57457633;-3.538166522;-1.539155267;-0.721400658
6.250286096;1.094861774;2.524115985;9.584572388;3.397131293;0.37296964;4.314867004;12.53596901;12.71800359;15.78780265;6.780592323;-31.05656032;-25.94933332;1.914422663;-12.7422642;-36.64943064;-5.871472144;-0.583374376;-1.106342307
2.997722809;-1.717095912;-1.148877011;4.360628809;2.934810657;0.253509781;4.253202494;12.39719925;10.82387601;13.89297364;5.115792837;-29.64827032;-22.25049744;5.207436933;-19.06481505;-43.17405496;-6.154483027;2.134292691;-1.22754446
1.235929893;-2.030887076;-1.547110601;-3.162322994;1.867434617;0.172882569;5.041032501;10.48972953;7.805294377;12.33858305;3.008869144;-27.58097445;-17.94304501;7.48379125;-29.34226932;-40.59270463;-3.215912282;7.103465964;-0.772854354
1.580361629;0.90188113;0.663222392;-8.403451049;0.488864099;0.134242403;5.911925006;6.924476918;4.899185243;11.6958368;1.596198233;-24.75641896;-16.03987933;7.818299336;-36.93682342;-29.20342191;1.985028052;12.61007813;0.185311796
3.301117056;5.45892938;3.17543078;-9.32493603;-0.606387046;0.082614304;5.923068177;2.930255461;3.348773191;12.10409437;1.779544252;-21.90500204;-17.42783069;6.735637509;-36.43185664;-15.45902599;6.980441858;16.17981693;1.162205904
4.999519984;8.98070108;3.975211353;-7.279042365;-1.030755632;-0.018282611;4.858478969;0.218461668;3.893225672;13.41095012;3.803105563;-19.90401011;-19.85864434;5.69027305;-27.47067705;-7.514252516;9.501244467;16.52296099;1.569509091
5.715934753;9.770246627;2.886995371;-5.008608599;-0.841055429;-0.122904627;3.498563828;0.041862917;6.546114612;15.41108988;7.264131716;-18.81038501;-19.57643767;6.033954905;-15.2096984;-9.359592194;8.997069128;14.51256509;1.141921411
5.57456132;8.206596939;1.488038655;-3.885611978;-0.360676736;-0.131704076;2.983019368;2.519255415;10.64814431;17.93506005;11.41521617;-17.57971312;-14.39991825;8.182077997;-6.770313016;-18.09247123;6.852876968;12.50478125;0.144592422
5.482382733;6.193417148;1.53980389;-2.917326639;0.173401438;0.00704327;3.82442688;6.607175055;15.08728324;20.73218649;15.46158763;-14.86294195;-5.751423101;11.43403683;-6.124022934;-26.38584091;5.208289044;12.56561604;-0.815139674
6.19404935;5.521248269;3.330968042;-0.268037807;0.769443533;0.221136457;5.454067336;10.67600359;18.61903044;23.31677239;18.69816543;-10.27293652;2.118816521;14.42840632;-11.2531181;-28.08327197;5.348364897;14.96625906;-1.230929009
7.57040712;6.536207955;5.371923028;4.307875175;1.505255019;0.349648327;6.703701488;13.29311592;20.25910283;24.99920184;20.56674209;-5.010453651;5.197099502;15.87164717;-15.8916658;-22.4866059;6.898914576;18.06912228;-1.044902523
8.667327373;8.140039063;5.695526464;8.543994972;2.230784459;0.271949151;6.787297056;13.75821452;19.65776767;25.15960724;20.7755188;-1.223492558;2.649151315;15.13357404;-14.64820142;-14.17813708;8.35409696;19.64869974;-0.62816184
8.561186589;8.96238507;3.619410223;9.255523821;2.494514;0.017918288;5.910775194;12.17284595;17.25942668;23.59037313;19.45965849;-0.546367818;-2.689658335;12.47739686;-7.528859246;-8.938506442;8.400919541;18.60221396;-0.429186501
7.173555138;8.58075746;0.412861356;5.09873321;1.822074025;-0.24633097;4.993908005;9.151386195;14.07080614;20.64278415;17.18549831;-2.982055567;-6.612014586;8.905618622;-0.146577996;-9.326346877;6.945752489;15.73251949;-0.598872744
5.354670523;7.721448141;-1.753542682;-2.008254856;0.117640539;-0.353779855;4.798162956;5.459240026;11.08646618;17.04720378;14.65639364;-7.012766395;-6.715593587;5.736524053;0.77627691;-13.38040554;5.090207171;13.02862702;-0.90803603
4.130740634;7.352091486;-1.708935755;-8.195234084;-2.190626166;-0.27646775;5.273324734;1.804282993;8.711329182;13.52492746;12.26205184;-10.79176411;-3.919505753;4.076476291;-6.853797756;-17.01987816;4.192907464;12.0444643;-1.008742079
3.762028985;7.582075071;-0.401025865;-10.65453984;-4.424359499;-0.143592052;5.700595838;-1.194306521;6.605715889;10.46556315;9.846657148;-13.39331308;-1.242918631;4.367868365;-18.23493272;-17.67015304;4.832325984;12.66874367;-0.786889706
3.452662326;7.435644778;-0.223820472;-9.767298891;-6.123795884;-0.118382705;5.455846905;-2.997429224;4.112254636;7.880150606;6.96799384;-15.1342576;-1.046030281;6.18474065;-25.01722943;-15.97326808;6.447558061;13.25208438;-0.477706179
2.016174373;5.745303714;-3.044369113;-8.467495057;-7.295698126;-0.243626431;4.648682369;-3.237287976;0.965630516;5.616665586;3.500112039;-16.85836193;-3.107998966;8.386500029;-21.89498549;-14.47477809;7.809025853;11.97591545;-0.435530506
-1.022835103;2.373190457;-8.530019531;-9.393273574;-8.223336564;-0.39784168;4.029856103;-1.912423495;-2.288550031;3.629384338;0.056764759;-18.97360323;-5.062946255;9.606331357;-11.23143603;-14.90362573;7.84279275;8.368794182;-0.769227717
-4.819444472;-1.365519952;-14.16191634;-12.37266078;-9.03747384;-0.406205761;4.260432171;0.456533619;-4.556200547;2.080760675;-2.229577936;-21.14585791;-4.646442775;8.888587472;-1.779424774;-16.65986511;6.19342718;3.772275184;-1.187108262
-7.651539045;-3.531848811;-16.95644678;-14.55219936;-9.48767202;-0.208829236;5.241035724;2.888000459;-4.986815982;1.217708166;-2.519120128;-22.82324414;-1.718443652;6.188519248;-2.146529447;-17.70635691;3.265101118;0.403242741;-1.215677105
-8.120357868;-3.008480235;-15.54479336;-13.13912025;-9.172624083;0.067189918;6.146201077;4.2834172;-3.67573278;1.153526867;-1.047386309;-23.92404287;1.654397871;2.478411732;-13.96225015;-16.7317458;-0.079962135;-0.231066735;-0.618471093
-6.17924169;-0.364922727;-11.00918452;-8.317420131;-8.034304;0.202655263;6.150752995;3.932905489;-1.679038712;1.745094989;0.827981648;-24.88716224;3.019454517;-0.634131282;-30.19568098;-14.40178481;-2.853720719;1.676367023;0.354366323
-3.178687198;2.594566285;-5.919006544;-3.58916496;-6.61844916;0.069436102;5.186146228;1.920544574;-0.278869488;2.650493288;1.48477214;-25.98517698;1.601747285;-1.645899799;-40.17073102;-12.59022762;-4.186401078;4.564168121;1.125577172
-0.893043519;4.247216428;-2.444946851;-2.970821719;-5.766845894;-0.258175252;4.02711604;-0.830095215;-0.061733169;3.493449224;0.208694048;-26.64130653;-1.161345826;0.064527118;-37.53012432;-12.50516415;-3.574168842;6.8087394;1.247039298
-0.294076937;4.38197008;-1.066744216;-7.319456144;-5.927088008;-0.562679906;3.618099116;-2.964161322;-0.554746549;3.990391253;-2.237194196;-25.61111005;-2.970821264;3.812016562;-24.95599559;-13.62260923;-1.176733933;7.903012071;0.7709722
-1.009624138;4.253992426;-0.760842663;-13.06421352;-6.679473545;-0.661648945;4.243949238;-3.396784063;-0.723353007;3.963375789;-4.138195957;-22.09594099;-2.614298147;7.816086527;-11.92096991;-14.41784042;2.028271862;8.577145612;0.210110652
-1.827362216;5.443484487;-0.269969215;-14.76225508;-6.976590655;-0.54891134;5.292964944;-1.940626377;0.081722214;3.289795327;-4.07427115;-16.85714453;-0.784298605;10.04755685;-7.237407172;-14.03694033;4.53240077;9.856044863;0.105234999
-1.766555298;8.462829417;0.763535015;-9.635941441;-6.001069074;-0.377453426;5.822853369;0.527701109;1.529077994;1.901969286;-1.921151869;-12.18055555;0.870508025;9.344275131;-12.3125329;-13.12824105;5.064847161;11.93824854;0.559406844
-0.830317119;12.23131203;1.727574907;-0.344685492;-3.960039063;-0.305504655;5.414946814;2.531114877;2.581593005;-0.110704077;1.164809656;-10.42650152;1.496558202;6.177589065;-20.44757422;-12.95751438;3.418911706;13.89261045;1.138155106
0.124170896;14.81448974;1.908440239;6.560301008;-2.090468182;-0.348810998;4.548174713;2.88488897;2.429078676;-2.368739248;3.717395207;-12.18867259;1.93631215;2.525157181;-22.66281629;-13.74616532;0.690162962;14.42957964;1.230736689
0.206868989;14.82588887;1.34448502;5.592672959;-1.75096045;-0.373287979;4.165686453;1.509668468;1.296670842;-4.182293629;5.05477246;-15.61465565;3.927906424;0.768813945;-15.29;-14.06456422;-1.394741232;13.05936893;0.574344546
-0.72480701;12.41486012;0.82692359;-3.120636815;-3.260048828;-0.23224707;4.834591974;-0.372284497;0.425949645;-4.737031713;5.605294538;-17.63315696;8.30233541;2.177810899;-3.17983503;-12.13014046;-1.681596536;10.61018743;-0.502145533
-1.962625457;9.144317379;1.094274582;-13.41960288;-5.43987258;0.080173479;6.252638519;-0.868673941;1.196472416;-3.441372717;6.264868311;-16.27284771;13.80084201;5.935009329;4.058716041;-7.898913867;-0.447370488;8.630251873;-1.32678882
-2.550233583;6.927965402;2.058570725;-17.38696798;-6.337194271;0.402727147;7.525862753;1.429883128;4.062336507;-0.267418907;7.42254661;-12.25485983;17.63684407;9.456877298;-0.255125434;-3.830927299;0.785869;8.159138177;-1.422519444
-2.043328254;6.84339374;2.857520883;-11.16882845;-4.668788438;0.535752492;7.942847181;6.464111499;8.136794096;4.104292256;8.547899242;-8.510880505;17.4539647;9.966023906;-14.42843779;-3.261298109;0.396994704;8.901105489;-0.885450075
-0.804229589;8.613499585;2.707234757;2.089367423;-0.91392685;0.411848311;7.542572352;12.54053244;11.74557574;8.438988356;8.701742745;-7.912898785;13.15112435;6.37801674;-29.49613191;-7.562873889;-2.089649606;9.499391743;-0.287664721
0.348314534;10.97428163;1.726891797;14.40991767;2.818086112;0.156756304;6.990078125;17.16206002;13.51925691;11.36574782;7.494166941;-10.97384846;7.136637849;0.220042114;-35.9045647;-14.63486276;-5.631644514;8.684746188;-0.188417841
0.772103674;12.53458013;0.897455699;18.54478054;4.11608913;-0.013831237;6.91784902;18.39783221;13.21643877;11.90624809;5.612742303;-15.35141168;2.817472139;-5.151457501;-30.43636831;-20.29507356;-8.454426037;6.343349006;-0.665142561
0.38113579;12.52382699;1.131808154;12.71739383;1.860937248;0.029196246;7.362259986;15.96741534;11.73639166;9.903362076;4.424050706;-17.56772976;2.468299402;-6.623799861;-18.03865099;-21.59876084;-9.353558543;3.631282968;-1.254927003
-0.466079102;11.06032409;2.31576101;1.175015219;-3.041980689;0.231561665;7.803004175;11.37453616;10.42454516;6.154063454;4.964137234;-15.59896204;5.993088126;-3.337845825;-7.454207168;-19.23954941;-8.470058594;2.071594886;-1.349213107
-1.352481708;8.956848725;3.278087197;-9.430966201;-8.269932419;0.417362053;7.731092963;7.02063898;10.25084633;2.142799967;7.157304183;-10.32732412;11.29220375;2.74305045;-4.468058404;-16.81440553;-6.959376024;2.409110158;-0.706399171
-2.056142782;7.296674732;2.820847243;-14.69996711;-11.53573062;0.446977829;7.180836526;4.863025084;11.40372761;-0.567753172;9.889986509;-4.800919203;15.73123802;8.110991659;-8.19498009;-17.45516387;-5.907187493;4.161547641;0.343732409
-2.482865602;6.990189398;0.919412224;-14.62945364;-11.84669411;0.328194013;6.711875387;5.433737553;13.41240325;-1.048572089;11.82970407;-1.992927564;17.56122924;9.954352986;-13.01047586;-20.77126225;-5.452735946;6.177804227;1.163982752
-2.463931023;8.416041408;-1.055737888;-12.12447956;-9.786364692;0.18746233;6.859063102;7.753482345;15.5142628;0.529011884;12.28104177;-2.850847949;16.45501648;7.815291618;-13.99137794;-22.9477156;-4.852175323;7.653969619;1.311647046
-1.751066228;11.21979313;-1.432885718;-9.775475615;-6.821919964;0.138677853;7.576040984;10.07984951;16.94226428;2.951525633;11.41952933;-6.036257882;13.16095756;3.576996141;-11.05276881;-20.135066;-3.366602751;8.703027849;0.862028514
-0.309213191;14.37470312;0.218862078;-7.919705517;-4.302678189;0.176964976;8.209602588;10.93853641;17.0608976;4.568484707;9.848436441;-9.30317877;8.856724243;-0.077593138;-8.433143034;-12.26780737;-1.137300209;10.00898078;0.302984737
1.368309068;16.56756404;2.479447875;-5.433598467;-2.872028978;0.194510543;8.050329228;9.808358009;15.49876174;4.145090573;8.002761255;-11.21611325;4.713834423;-1.526947427;-10.34600608;-3.858014576;0.759782761;11.92075938;0.114193837
2.32572804;16.7932286;3.071790117;-2.035443637;-2.524389464;0.096895901;6.969222738;7.157946773;12.36796141;1.488445561;5.961387659;-11.85759957;1.71738382;-1.063635901;-16.85338277;-0.791843028;1.146953363;13.8349729;0.394890667
1.704112737;14.84679919;0.749025288;0.460378052;-2.988758417;-0.095838561;5.564206595;3.981771798;8.416003389;-2.509433151;3.73956778;-12.2186608;0.489515122;-0.271354553;-23.62987817;-5.639210526;-0.260177851;14.46257439;0.837635811
-0.570875639;11.39870559;-3.500938444;-0.626493097;-3.973730805;-0.261901539;4.67978634;1.235038179;4.843188124;-6.409773284;1.630270296;-13.08795059;1.01858402;-0.583286082;-25.74661016;-15.42003906;-2.567126267;12.80608191;1.037106814
-3.556413131;7.593266321;-7.04836689;-6.168290649;-5.11341497;-0.292337753;4.72270246;-0.502148269;2.735057644;-8.982453739;0.144158099;-14.48552488;2.5453512;-2.19337894;-22.0493789;-23.81102246;-4.376355278;9.054795667;0.845651407
-5.809198333;4.448324969;-7.654459787;-13.67818292;-5.849516263;-0.197194642;5.368907169;-1.062056998;2.444325446;-9.709177865;-0.431813429;-15.95142496;3.925821141;-4.065416387;-16.20236082;-26.03722238;-4.844064099;4.653231902;0.472648879
-6.344497851;2.466127228;-5.323295396;-18.60197412;-5.56922715;-0.099597794;5.896565403;-0.573599352;3.418469166;-8.791707813;-0.37057561;-17.11174843;4.40649532;-4.850756897;-13.40950444;-22.39722994;-4.224094012;1.455464174;0.267184692
-5.319925862;1.666046361;-2.402334809;-17.66757574;-4.021667663;-0.11987043;5.824150863;0.636590769;4.674666998;-6.801351843;-0.289848984;-17.78563251;4.257337094;-3.875219902;-15.6431321;-17.53183125;-3.47483774;0.58762617;0.399091831
-3.884491037;1.886930758;-1.747612953;-11.56665819;-1.668578517;-0.257669199;5.284437327;2.080533509;5.571360012;-4.335331618;-0.492185468;-17.56761825;4.64670483;-1.46367666;-19.60232705;-16.19048156;-3.32964613;1.833283611;0.723795685
-3.272011276;3.006466244;-4.375154768;-4.624578481;0.427458804;-0.385926317;4.831844897;3.155720739;6.211916612;-1.947593134;-0.500904637;-15.56993435;6.687570303;1.463806806;-19.3710187;-19.21386022;-3.678334428;3.917785978;0.934906717
-3.830068359;4.868368803;-8.501765681;-1.560283444;1.222795853;-0.368610007;4.898937921;3.277077363;7.083694368;-0.295165759;0.621800368;-10.98939519;10.3214768;4.007975133;-11.72782843;-23.16236302;-3.791677883;5.394940892;0.849209543
-4.750789182;7.053026368;-10.80213245;-3.882017451;0.408967892;-0.197738501;5.411277451;2.073508715;8.216093934;-0.186531725;3.272157857;-4.292619795;13.96838754;5.587018467;0.336267734;-23.75301162;-3.1393735;5.47068321;0.562708413
-4.72671515;8.831398887;-8.933804878;-8.818106038;-1.331691484;-0.021875772;5.889015295;-0.454581881;8.647070584;-2.282249923;6.442226873;2.082913801;15.35046832;5.85138548;9.058331685;-19.91349243;-2.011498898;4.265690663;0.347176385
-3.023291575;9.488397127;-3.356751228;-11.62981358;-2.765638952;-0.032312976;5.901503611;-3.909584035;6.81970425;-6.549749742;7.884736819;4.556643944;12.97216267;4.583489942;7.504310522;-14.78228234;-1.33767934;2.503002192;0.395077006
-0.127745324;8.818931756;2.963241948;-9.414693839;-2.93930662;-0.300979986;5.434757948;-7.610078125;1.755770324;-11.91107127;5.428467811;0.631934887;7.175414001;1.897697248;-4.907902759;-12.78553581;-1.839086436;0.982276867;0.649851243
2.530635705;7.357567346;6.696734634;-3.35701963;-1.790869763;-0.71056689;4.849539764;-10.77767547;-5.894507919;-16.51543586;-1.430815085;-8.975260877;-0.01749163;-1.406313627;-21.32196318;-15.49175461;-3.279297968;0.216457268;0.869564472
3.568365528;6.066221189;6.443741496;2.279925882;-0.109271031;-1.039639176;4.512460277;-12.72938094;-13.86914445;-18.65398256;-10.90025189;-20.10209625;-6.134341338;-3.847680266;-31.8252117;-20.07817188;-4.529397995;0.351225101;0.855095499
2.590404342;5.664038057;3.452281493;3.479215426;1.083179017;-1.132182106;4.478697413;-13.0523907;-19.54051833;-17.80086347;-19.80247059;-27.36248378;-9.620812825;-3.956098106;-30.16954622;-21.89743212;-4.461741644;1.248622321;0.62926584
0.404599694;6.129655432;0.36719971;-0.576083709;1.228046427;-1.009789245;4.521591348;-11.75330001;-21.55190926;-15.04763566;-25.42906975;-27.48672076;-10.38880973;-1.336080233;-17.93761043;-18.88451681;-2.94423518;2.582935262;0.407000392
-1.589159506;6.79851462;-0.831651251;-7.11386374;0.506887028;-0.837007076;4.443482756;-9.332713344;-20.62;-12.52576464;-26.992479;-21.40435412;-9.319427443;2.737471334;-3.204082573;-13.76196458;-1.076321673;3.916377064;0.392060473
-2.321590415;6.977390822;-0.030270922;-11.97231458;-0.427475505;-0.777472144;4.326048471;-6.690466698;-18.87474615;-12.09797451;-25.66477249;-13.48659307;-7.323631805;5.872098957;5.177004157;-11.85215457;-0.41699348;4.808527071;0.591464295
-1.614110568;6.539627106;1.477695773;-12.45691421;-0.969371443;-0.867404228;4.453866845;-4.806324255;-18.23319981;-14.15220434;-23.32575632;-8.456906768;-4.794342133;6.093185807;3.435759403;-16.22816871;-1.794554956;4.967653843;0.815650686
-0.06718404;5.973264087;2.465707218;-8.717241956;-0.909404956;-1.008446204;4.988620543;-4.28413349;-19.05523812;-17.32218361;-21.12972571;-8.246232248;-1.782725518;3.317118681;-5.190722602;-24.46872313;-4.64919417;4.354815761;0.85801148
1.491689785;5.846687862;2.85584191;-2.983859093;-0.4186342;-1.07156125;5.737152234;-4.997655339;-20.07956915;-19.35572963;-19.02532523;-11.0861473;1.485821674;-0.41438883;-13.49901718;-30.10443015;-7.439288668;3.148771858;0.684559829
2.504196113;6.198830277;3.50106002;2.271139693;0.200508849;-1.009617713;6.276037545;-6.089943038;-19.60747186;-18.56824195;-16.44614838;-13.36477255;4.406674281;-2.277330718;-15.76902484;-27.85262495;-8.792303774;1.59967527;0.460399696
2.804632651;6.448807649;5.016548116;5.660241751;0.726485022;-0.880164318;6.340845027;-6.396491688;-16.92893724;-14.91445003;-13.35849626;-12.62894411;6.359226466;-0.706524384;-11.59660014;-18.34340358;-8.500376202;-0.088751873;0.393281433
2.449792991;5.946671068;6.872086334;6.981268284;1.053516545;-0.771036579;6.105980488;-5.08685534;-12.86271394;-9.979481194;-10.60760115;-9.315660932;7.262823356;3.372614029;-5.586298856;-8.2263824;-7.607879898;-1.747585975;0.541903562
1.563696705;4.668242111;7.679056089;6.612268397;1.12823721;-0.7110492;6.056994107;-2.150019531;-9.067617755;-5.938380648;-9.22751556;-5.946493636;7.709868713;7.109398928;-3.512425939;-5.274274581;-7.565729433;-3.167128807;0.765188317
0.382456388;3.372380662;6.465744439;5.113020656;0.942222294;-0.65396641;6.536297626;1.574067252;-6.787206705;-4.225436473;-9.389974207;-4.637816487;8.453927662;7.753855729;-7.948007534;-12.28049306;-9.131722476;-4.12959818;0.855912713
-0.624176325;2.997157458;3.773596982;3.299020311;0.608104815;-0.545828338;7.371827172;4.831987689;-6.076101112;-4.805929979;-10.0370628;-5.118544096;9.679407875;4.685561726;-16.42871958;-24.66054191;-11.83354447;-4.615021399;0.732536858
-0.832444089;3.787724318;1.498344581;2.246912962;0.385553676;-0.401779676;7.95521604;6.590135338;-6.050539782;-6.468939068;-9.633975346;-4.937681046;10.74821429;-0.050854789;-23.18793648;-33.74310861;-14.32611134;-4.998905682;0.512227069
0.155552138;4.963772049;1.481594768;2.699302507;0.531765503;-0.309608438;7.741334523;6.498034159;-5.801832132;-7.825689842;-7.443442948;-1.659952126;10.72229336;-3.108749008;-23.0129084;-33.18332134;-15.30136393;-5.944888604;0.400024414
2.08426853;5.312383782;3.988574409;4.18771097;1.048112079;-0.350469103;6.747987921;4.965924633;-5.107131346;-8.23855708;-4.204892764;4.82304204;9.246306037;-2.116195004;-14.55432456;-23.49101948;-14.27452936;-7.908015412;0.498701664
3.990797461;4.260736074;7.385695151;4.906845817;1.576703001;-0.511098743;5.608147186;2.89740743;-4.365973325;-8.033149679;-1.582807732;11.82714316;7.007687647;2.755320034;-1.085896299;-11.28496509;-11.7713867;-10.57911335;0.715111692
4.718694465;2.482434653;9.37013409;2.984573365;1.640751842;-0.674898703;5.104453896;1.285920607;-3.958859341;-7.933259161;-0.817398588;15.68846918;5.333667099;8.983031327;11.46899174;-4.132776124;-8.93171202;-12.82054522;0.848040079
3.719187827;1.420009766;8.799038295;-1.566151217;1.116267091;-0.707915211;5.565560603;0.871253934;-3.74318694;-8.250847061;-1.721938131;14.43144295;5.243122218;13.40003906;17.79152564;-5.195006974;-6.904033738;-13.35903409;0.774895672
1.543563664;2.040447516;6.624195715;-5.984399734;0.5334601;-0.566832263;6.625129307;1.929820755;-3.213710729;-8.521455269;-2.88881364;9.198835091;6.755277859;14.14175837;15.75982404;-11.71750855;-6.406071717;-11.84460693;0.564517524
-0.415475018;3.879289989;5.134624917;-6.268854013;0.842096468;-0.333535453;7.53039357;4.184176537;-2.166086365;-7.896026275;-2.929189556;3.368900194;9.017695401;11.52400455;7.135124899;-18.07068322;-7.573089615;-9.407532781;0.412655036
-0.825908208;5.27864138;6.083438834;-0.390944452;2.683889997;-0.146395258;7.720710598;6.833850333;-1.174653741;-5.981842883;-1.682306673;0.114092203;11.07010945;7.438941076;-3.690459115;-20.4268909;-9.997134469;-8.064285534;0.460481855
0.66510773;4.737735179;9.196049961;9.26794415;5.69;-0.091224874;7.189721728;8.764419943;-1.331125545;-3.441367048;-0.361342561;0.31006897;12.50162105;3.921745598;-11.97716276;-19.21755312;-12.84579722;-9.204543512;0.663926748
3.178876717;2.285571908;12.26581311;16.64058391;8.432428255;-0.148602721;6.366517144;8.961695793;-3.373276123;-1.80518216;-0.519252116;2.310803554;13.41165252;1.987315362;-14.76890867;-17.75254827;-15.06488504;-12.26429331;0.834344503
5.22022195;-0.345461443;12.77870866;15.94255996;9.23157049;-0.238362521;5.683049387;7.007990398;-6.937574247;-2.53545953;-2.720406256;3.570337679;13.80538838;1.429051421;-11.98889071;-18.69581264;-15.71545507;-14.75739575;0.813025981
5.708810352;-1.025054568;9.799575392;6.166524481;7.340475336;-0.310236242;5.242317972;3.384514575;-10.63280457;-5.964223361;-6.034320936;2.693374048;13.1476778;1.449280722;-6.168598184;-21.65200518;-14.37942538;-13.8895154;0.618601183
4.666527207;0.982003088;4.6668663;-7.500184879;3.634738493;-0.388932675;4.858194253;-0.676610673;-12.96058143;-10.88244393;-8.752228933;0.31369095;10.66983906;1.435493616;-1.023794863;-23.80481139;-11.40767856;-8.680058594;0.430953835
3.079563537;4.24116423;0.004686905;-16.86563104;0.206260525;-0.530385431;4.36401306;-3.79622504;-13.37913058;-15.13653837;-9.703542458;-1.730243183;6.256244922;1.27478289;0.487757053;-22.72982499;-7.785208395;-0.944504974;0.425521467
2.094476046;6.149591429;-2.127592282;-16.46543814;-0.956573667;-0.736381435;3.845571198;-5.180772375;-12.65428974;-16.88163319;-9.089458333;-2.077172743;1.054321374;1.123630982;-2.244038516;-18.69899468;-4.618256103;5.773028125;0.610097656
2.198290841;5.01545433;-1.514563925;-7.540826749;0.696589372;-0.919452935;3.562723361;-5.007947826;-12.20492122;-15.65454345;-8.206196488;-0.957660285;-2.946399488;1.016320779;-7.05772444;-14.44680239;-2.544727613;8.653992995;0.815279253
2.994181061;1.552174671;0.406204597;2.917291744;3.900141133;-0.963854399;3.65722829;-4.185876934;-12.95586076;-12.53121511;-8.361331284;0.092576458;-4.236175791;0.736007338;-10.12190579;-12.72325413;-1.468108543;7.614383958;0.849372139
3.671881334;-1.498503167;1.904417052;7.470288591;6.45427712;-0.833541357;3.966411376;-3.64275458;-14.59186065;-9.271550402;-9.88891379;-0.428457047;-2.976235117;0.036535811;-8.149707384;-13.8709129;-0.797962898;5.279120283;0.676681021
3.718413057;-1.425640366;2.305347286;3.827027133;6.745903399;-0.625003947;4.154172189;-3.66056442;-15.76679521;-7.078006851;-11.98357133;-2.740853076;-0.972951495;-1.051886805;-0.578723938;-15.53068296;0.000290843;4.885534317;0.454255086
3.265945274;2.291775465;2.261230618;-3.636861179;4.811803899;-0.505650662;4.042651342;-3.752051997;-15.07150981;-5.871133431;-13.34598364;-5.59794612;-0.295717773;-2.157103621;9.629514827;-14.66167653;0.979188329;7.735682377;0.390067139
2.826376725;7.458710235;2.838211787;-7.61867752;2.189373641;-0.58173723;3.808394294;-3.176592667;-12.01957528;-4.597202025;-13.03127478;-7.236987642;-1.584559693;-2.81283066;17.28638099;-10.10592095;1.729652257;12.21646448;0.550037842
2.699382133;10.74465814;4.292194422;-3.895248749;0.70437512;-0.808980885;3.822251147;-1.691887563;-7.372441169;-2.30409478;-10.88756104;-6.674877592;-3.464435662;-2.799188009;17.84974359;-3.582246261;1.800748935;15.17300936;0.791705228
2.608334216;10.16877008;5.620952547;5.192268994;1.123673946;-1.027308247;4.261315281;0.066144391;-2.672694319;0.869143891;-7.450476646;-4.37934199;-3.637643497;-2.288321284;10.24022039;1.585248353;1.144790103;14.52153727;0.890021973
1.904688414;6.552085833;5.293755017;12.52367025;2.669060199;-1.093402622;4.866288798;0.916799863;0.596269286;3.590426528;-3.603742437;-1.897894887;-0.823141776;-1.70287225;-2.222325856;2.837322001;0.199647036;10.97173027;0.745021776
0.181085891;2.811043785;2.567655303;11.78633211;3.712426497;-0.996970888;5.108199187;-0.025709897;1.659124613;4.246959456;-0.334265483;-0.807540117;4.052223618;-1.446727325;-13.55344074;-0.055985778;-0.472194761;7.447634244;0.481516354
-2.227540236;1.674967747;-1.68928854;2.414560145;3.083094795;-0.859534467;4.649216631;-2.626024677;0.612352787;2.20444319;1.407221906;-1.76350577;8.434245512;-1.73979458;-18.59405644;-5.279159536;-0.693568446;6.678072948;0.343623328
-4.299470323;3.637422177;-5.362201557;-9.947631229;0.98782937;-0.818508983;3.685535452;-5.685187796;-1.813224069;-1.555914889;0.955639002;-4.242511782;10.05395017;-2.635822169;-16.0779367;-10.57446582;-0.900692513;8.929396898;0.472103605
-4.93978087;6.718692696;-6.411119814;-17.66669038;-1.126861508;-0.901589282;2.837222337;-7.66431329;-4.633101463;-4.952529305;-1.646810173;-7.027544919;8.61319864;-4.097056278;-9.233730053;-14.71414042;-1.868402673;11.73654638;0.764833818
-3.709875013;8.139542106;-4.196227681;-16.59695743;-1.633590413;-1.004479894;2.649418146;-7.690924567;-6.95042721;-6.140667108;-5.364364528;-9.006980417;5.876012159;-5.956467546;-3.456484952;-17.76600817;-4.10075844;11.85195059;0.954663532
-1.140488009;6.501152763;0.1278843;-8.630584763;0.096663263;-0.991005883;3.131921731;-6.144750603;-8.213889738;-4.715471472;-8.455234018;-9.755648424;4.145591238;-7.76489992;-2.595154745;-20.24607969;-7.323892296;7.830569459;0.847206132
1.584405584;2.740337522;4.377501457;0.313968816;3.240761204;-0.823466969;3.749683502;-4.410383934;-8.375908917;-1.916728551;-9.404067655;-9.610581554;4.449882851;-8.728838238;-6.424515369;-22.14081285;-10.4687267;1.181907125;0.51136672
3.323911178;-0.801108155;6.67148045;4.880144723;6.07699429;-0.603631502;3.883780226;-3.969145864;-7.875817023;0.285821805;-7.959371584;-9.312083996;5.941243409;-7.965808726;-11.09311285;-22.71638293;-12.20683239;-4.780488127;0.244123672
3.565231311;-2.310914746;6.408782802;3.714973566;7.106714549;-0.486071532;3.360551146;-5.454093095;-7.38515276;0.527565441;-5.460368675;-9.510406509;6.903301197;-5.066949727;-12.23192567;-21.22567375;-11.73424888;-7.398156167;0.321168762
2.543348851;-1.817111898;4.324871705;-0.606659466;5.951539289;-0.541744883;2.58121884;-8.293167214;-7.409525861;-1.163155584;-4.054471606;-10.44401507;6.355123534;-0.6308898;-8.459442826;-17.84793365;-9.327191051;-6.455503493;0.73618671
0.912700458;-0.867128207;1.760645316;-4.491331605;3.460785591;-0.695097451;2.141445806;-11.13638212;-8.010704478;-3.620615174;-5.258740909;-11.93195312;4.795971776;3.693443382;-2.675516116;-14.05216035;-6.315301133;-3.973462662;1.156686139
-0.714509257;-0.977659272;-0.223114524;-6.272228426;1.050821878;-0.791238849;2.289600874;-12.72867197;-8.879795044;-5.521578675;-8.902204269;-13.61334124;3.513455153;5.880898144;-0.107963493;-12.05150049;-4.445651598;-2.368148439;1.154538842
-2.034663868;-2.258592032;-1.282840391;-6.829882526;-0.201210106;-0.731857159;2.716227816;-12.62722465;-9.713443764;-6.264977826;-13.25898698;-15.22637372;3.245626837;4.660963736;-4.449762837;-13.64649182;-4.954232527;-2.60512927;0.542138122
-3.022491991;-3.393713155;-1.627812839;-7.848152806;-0.101375725;-0.556997867;2.862526893;-11.32709662;-10.54639158;-6.110298504;-16.27617309;-16.71614736;3.564062262;0.443627077;-14.86062786;-19.10301488;-7.84145905;-3.821766709;-0.450430447
-3.747529839;-2.951917159;-1.56614994;-9.691554099;0.75920775;-0.400533908;2.459372905;-9.796562917;-11.68456014;-5.610697304;-16.94793069;-18.09851447;3.590756516;-4.620793307;-26.03659396;-26.6730341;-11.77273266;-4.531385728;-1.30389633
-4.244839727;-0.85151213;-1.20180303;-10.92837637;1.565073034;-0.363277922;1.796094033;-8.807126125;-13.23676926;-4.957358154;-15.80306864;-19.20809616;3.292695827;-7.642958392;-31.38885953;-33.08533788;-14.7187184;-4.184448838;-1.553756022
-4.520585745;1.32911359;-0.481226676;-9.769843131;1.854256049;-0.422554254;1.465695656;-8.520363554;-14.67169131;-3.85422579;-14.22562356;-19.58304398;3.939772856;-6.583319028;-27.20039695;-34.94393329;-15.04667899;-3.671085016;-1.094651796
-4.611140542;1.522632395;0.562091487;-5.891659978;1.736536876;-0.461878949;1.815395895;-8.553323658;-14.90848844;-1.99762055;-13.27172953;-18.66886453;7.057375581;-1.51358018;-14.99798611;-30.52268774;-12.47866703;-4.388675238;-0.226810811
-4.578106161;-1.098706566;1.667822516;-0.873550917;1.674686433;-0.391568609;2.606672776;-8.391911743;-13.03464093;0.353256955;-12.98342266;-16.27079926;12.71734934;5.260039063;-0.664451917;-21.05682486;-8.335154362;-6.793367028;0.571863716
-4.427692178;-5.250358278;2.469816108;3.0937032;2.048289474;-0.244807809;3.203321571;-7.81012831;-9.148460121;2.329942786;-12.67833283;-12.92552574;18.85249787;10.38912706;8.993929682;-10.60533267;-4.84134597;-9.769979116;0.962986768
-4.062309095;-8.269820351;2.758485593;4.949354911;2.827497233;-0.154521027;3.12628517;-7.002834151;-4.590664314;3.067748996;-11.81324784;-9.829237106;22.53832995;11.36680279;9.983417396;-4.170229297;-3.830141101;-11.38214385;0.92353057
-3.366467498;-7.950417251;2.623548155;5.334972547;3.569340945;-0.226833802;2.477205889;-6.378599415;-1.238916371;2.480814583;-10.56827416;-8.238595383;22.39656032;8.007570812;2.993704642;-4.867177795;-5.601082322;-10.34255101;0.681145377
-2.390504713;-4.121066589;2.331625856;5.576568881;3.718669669;-0.42631795;1.846991775;-6.200742718;-0.305854148;1.490279588;-9.644163528;-8.681620262;20.04117933;2.608125861;-7.378654806;-11.84650704;-8.678376551;-6.95742808;0.498611877
-1.459502502;1.17292344;2.050226396;6.175871586;3.002993325;-0.584044392;1.789006244;-6.349739292;-1.554133384;1.419191059;-9.541582549;-10.541597;19.06067499;-1.362996717;-15.25369971;-20.53088593;-10.69431724;-2.81700583;0.490940116
-1.051148767;4.980221867;1.686149246;6.311593542;1.661237362;-0.532184642;2.328919338;-6.374971543;-3.568579004;2.978270265;-10.05874039;-12.37768932;22.09422748;-1.300676219;-16.35931682;-25.35372342;-9.895519654;0.39832495;0.598188501
-1.471167144;5.28070991;1.011827661;4.803987586;0.353634844;-0.253170223;2.949493847;-5.79923264;-4.883674291;5.652064614;-10.48437617;-12.81982509;28.37398275;2.997015257;-9.85;-23.36474758;-6.311823634;1.942266051;0.693423748
-2.559555043;2.100207755;-0.016897924;1.547690975;-0.206042546;0.088223334;3.060420997;-4.473321238;-5.052559484;8.006955357;-10.25748196;-11.41712869;33.97546418;9.232592264;1.523883833;-16.20235767;-1.791340787;2.092273864;0.706208421
-3.694348481;-2.732203047;-1.053914576;-2.036068119;0.316256055;0.264743281;2.529079169;-2.745938284;-4.787411939;8.707251552;-9.410911539;-8.816494978;34.85587527;14.02687428;12.7727324;-8.883158274;1.169827941;1.457593537;0.659539149
-4.160761817;-6.848489363;-1.513195374;-4.021062381;1.639605416;0.163265475;1.798573462;-1.323457753;-5.090029297;7.457065142;-8.355024376;-6.145224804;30.30961101;14.97710244;18.98475289;-6.126582744;1.057209008;0.324231398;0.615855898
-3.660097656;-8.69087302;-1.025957277;-3.535845225;2.990417298;-0.127158534;1.494498725;-0.875988367;-6.158372659;5.159275224;-7.250377995;-4.095550858;23.89019818;12.07630583;17.72564761;-8.857805158;-1.659111775;-1.318481058;0.60704375
-2.581178761;-8.127027911;0.14622305;-1.401584667;3.533155844;-0.387577915;1.878517164;-1.600603213;-7.044526718;3.226930806;-5.672466834;-2.450494789;20.80760295;7.620726326;10.42897328;-13.54319376;-4.835330438;-3.208774292;0.618025271
-1.789898779;-6.131913965;1.131415943;0.731581712;2.86581444;-0.440252675;2.634133815;-2.998157515;-6.3784109;2.644027817;-3.011256153;-0.430242956;23.77829276;4.697082786;1.85465645;-14.94688664;-6.081566661;-4.438638847;0.624264231
-2.033404755;-3.940879306;0.994759839;1.893089828;1.280191893;-0.278406109;3.161141813;-4.027625694;-3.533995402;3.500966993;0.706794271;2.447113322;30.7522825;5.240039063;-2.460648639;-10.26530427;-4.346733429;-3.836282376;0.627591891
-3.356273437;-2.284004454;-0.518478143;2.48378762;-0.382854045;-0.054820302;3.098089758;-3.607843332;0.77349392;5.252223609;4.404753381;5.741483323;36.50818458;8.896236036;0.453120141;-1.462853772;-0.593047938;-0.885112276;0.646553943
-4.954799546;-1.104420113;-2.599568642;3.509976406;-1.206704555;0.050330804;2.601354922;-1.232848356;4.96913209;7.314042073;6.508621373;8.273068376;36.88035082;13.37230727;8.939310787;6.043341014;2.883132964;3.658844306;0.677447098
-5.615048403;0.201035387;-3.721846146;5.183616864;-0.716434278;-0.032893848;2.148437359;2.634829708;7.747029739;9.401864832;6.148849714;9.005830581;32.08273418;15.96688028;17.54785038;7.39715854;4.005821367;8.116589614;0.681468742
-4.481158835;2.245956258;-2.584161242;6.392999112;0.874194463;-0.228753766;2.072184415;6.653069582;8.87516505;11.36512575;3.999932109;7.916801373;26.27722648;15.24581806;20.54888224;1.966061572;2.289745773;11.02072664;0.62634995
-1.661708011;5.133524579;0.942544265;5.733065421;2.827868678;-0.395216165;2.267029588;9.191034756;9.040653896;12.83620227;1.934007702;6.112963766;23.74249975;11.79577533;15.8962372;-6.130256074;-0.882778237;12.10206831;0.543503663
1.729490523;8.215289938;5.53425052;3.19887371;4.339046352;-0.436922686;2.330799006;9.15103365;8.986852623;13.21350106;1.643633856;5.059859916;25.0256789;7.660802214;6.804852787;-10.99157301;-3.228458018;12.2605485;0.527462772
4.146110876;10.27686986;9.062567923;0.814214066;4.979626759;-0.35687172;1.990965972;6.577787776;8.810176685;12.13550618;3.325537498;5.520592714;26.60713101;4.945314494;-0.370278488;-9.122819759;-3.089545401;12.52201783;0.649504985
4.458091532;10.11362559;9.813754961;1.284586796;4.860725844;-0.220370565;1.400584045;2.683779691;8.067542447;10.02184345;5.549924144;7.052894373;24.57462694;4.556408376;-0.569537574;-1.723589602;-0.493514433;12.89771212;0.848834955
2.571139835;7.231978374;7.510039063;5.594384916;4.441921535;-0.084706337;1.017518628;-0.77063624;6.515126375;8.052129402;6.475904712;8.457228071;19.09304543;5.864547967;6.426034729;6.454458677;2.925537101;12.19267908;0.913864702
-0.542330572;2.261891649;3.469297731;11.65101229;4.158278725;0.033672519;1.176003481;-2.418326234;4.657528431;7.39366094;5.417620239;8.785211961;15.3566366;7.373942724;15.96169524;10.57855589;5.033261465;9.005221908;0.611182467
-3.403967654;-3.244624747;-0.202795284;15.42412704;4.142945894;0.134577799;1.751857498;-2.000494168;3.464187364;8.225686334;3.434718654;8.063053438;19.44726899;7.821603691;21.96148371;8.822150999;4.553280289;3.108290614;-0.108300137
-4.84200051;-7.592691326;-1.860580032;13.95964757;4.231499348;0.196007228;2.240989634;-0.412754222;3.45743957;9.447926289;2.436186513;7.14394925;32.02893976;6.920039063;21.17970398;2.938336117;1.787107018;-3.97220448;-0.98983899
-4.584968094;-9.839462979;-1.20550889;7.917027142;4.216452228;0.177092512;2.19167464;0.960933478;4.079191621;9.498758499;3.561064195;6.857233166;45.28312499;5.311518308;15.03762773;-3.681276587;-1.715440034;-9.727691902;-1.570275189
-3.311457377;-10.19223768;0.722316365;1.452951301;4.134074909;0.065931051;1.604514453;1.209091362;4.079178212;7.750604461;6.223376993;7.227943603;46.54856379;3.905637985;7.867645236;-8.590741115;-4.230171755;-12.22117862;-1.460959536
-2.155951775;-9.60857105;2.372369987;-0.672568202;4.341505342;-0.080859845;0.939502929;0.514631074;2.717564969;5.316143649;8.62871706;7.477002287;26.96092572;3.178178332;3.290949363;-11.46716808;-4.910249481;-11.22909254;-0.631529976
-1.985009955;-8.891660169;2.728657277;3.374086338;5.295388546;-0.161454164;0.722513885;0.002167346;0.70155887;4.424333383;9.290823011;6.825889607;-10.99247971;2.949066874;1.806217427;-13.29151993;-4.134140932;-8.143075309;0.520536462
-2.882543749;-7.993887;1.876208639;11.054407;7.166975214;-0.109278734;1.101226439;0.886891921;-0.146186507;6.656928921;8.222609381;5.402774578;-53.00196582;2.727469416;1.38306792;-14.67148851;-3.004700249;-4.825151614;1.389184072
-4.14812073;-6.111278557;0.771784708;17.20261546;9.567559984;0.039154238;1.740019531;3.495752032;1.583762835;11.37924958;6.795125118;4.408683263;-80.7084483;2.263175589;0.12842931;-14.99365261;-2.444990027;-2.395774799;1.531359676
-4.795777565;-2.524367404;0.45931947;17.59234016;11.61222077;0.159938634;2.134541816;6.859039751;5.39641411;15.73026712;6.454218828;5.293944647;-82.80097776;1.816554139;-1.647678334;-13.13155019;-2.56913098;-0.849399795;0.935178161
-4.229633414;2.496999382;1.315546727;11.63942057;12.33980262;0.141103727;2.053894598;9.211438306;8.838395204;16.41198511;7.484186558;8.541294776;-61.85303344;1.928537595;-1.884182897;-8.929562345;-2.741403009;0.410532719;-0.001389246
-2.659015191;7.515230196;2.828354768;2.396373855;11.26362195;-0.01506317;1.717134009;9.115959217;9.176650542;12.06813502;8.921800146;13.04770003;-32.19335825;2.905772953;0.844857744;-3.97099947;-2.1959606;1.78710463;-0.757801883
-0.979538346;10.71127634;3.998527471;-5.82212572;8.710838275;-0.180608996;1.562859659;6.461471979;5.599481338;4.446943997;9.647186946;16.69112423;-10.43856694;4.482081481;5.491289716;-0.788355832;-0.685240045;3.192133931;-1.03053685
-0.193221717;11.08685081;4.030414341;-10.16819982;5.707483263;-0.201723728;1.838450995;2.627816917;0.133873001;-2.640941089;9.597771847;17.75947932;-5.37229372;5.97599067;9.214193875;-1.058583419;1.3477907;4.368812275;-0.884831303
-0.748264553;9.16041117;2.829155856;-10.43168607;3.435503763;-0.030837232;2.38481568;-0.338822678;-3.607192087;-5.901607436;9.951252537;16.2196768;-13.94653557;6.844286694;10.07362579;-4.236750361;3.162186054;5.332048814;-0.631392115
-2.23831045;6.603251985;1.015231395;-8.289960366;2.566721529;0.223233872;2.798355497;-1.01096508;-2.987141959;-4.796896829;12.08854114;13.87184653;-25.44225061;7.171942099;9.111580403;-7.768596321;4.303032344;6.368371479;-0.549960433
-3.662658815;5.086479457;-0.479702797;-5.776728134;2.88354391;0.376356344;2.803440462;0.541767906;1.763830248;-1.782495985;16.28772319;13.22714125;-29.98864422;7.646730535;9.550212535;-8.782492366;4.869917959;7.57722091;-0.684425312
-4.070220179;5.215882234;-0.924041692;-4.322344034;3.441764293;0.318303946;2.487187416;2.88170438;7.826014022;-0.389226314;21.36337359;15.86791572;-25.03393668;8.967816396;13.51945363;-6.022202391;5.26214347;8.49376167;-0.85765292
-3.153386329;6.324429687;-0.09844917;-4.71524315;3.195945231;0.105325691;2.190824396;4.244493617;11.99628645;-2.617968387;25.60340084;21.41194477;-15.60673632;11.13176731;19.31599951;-0.628450831;5.669196346;8.318601228;-0.868397165
-1.404078391;7.177379114;1.697526175;-7.295133385;1.700995786;-0.083652031;2.174966728;3.762669337;13.03486925;-7.596377845;28.15705614;27.75989493;-9.185308091;13.21694027;22.13385154;4.730175134;5.815011608;6.674355871;-0.689616231
0.243428671;6.936798077;3.845143519;-11.67408773;-0.566687357;-0.091892572;2.377787567;2.02220308;12.29728865;-12.41973998;29.60156865;32.41059813;-9.744024054;13.95507498;18.22732157;7.673769698;5.243602629;4.201331529;-0.497918154
1.009374477;5.618489676;5.649931703;-16.20053194;-2.493824099;0.090282399;2.486123608;0.584435427;12.25872985;-14.40592296;31.16858957;33.93817907;-15.44359482;12.74734605;9.074317589;7.557994011;3.921942831;2.327673825;-0.511769936
0.696680488;3.807891283;6.544078254;-18.12946506;-3.050498148;0.323788816;2.242504965;0.837944851;14.28155129;-12.97637805;33.36370291;32.69796601;-21.0427677;10.34111961;1.490725754;5.594311457;2.578690112;2.253848319;-0.777447709
-0.296588264;2.068291611;6.257664876;-15.07648627;-1.977202536;0.43978048;1.695821359;3.00069438;17.52843263;-9.793582109;35.30399695;30.41579281;-22.42159259;8.532435247;2.763494643;3.679803656;2.344757074;3.95706887;-1.086868461
-1.313050728;0.666836525;4.967181151;-7.024075836;0.022444608;0.375676977;1.164320921;5.956400183;19.85227197;-7.233524359;35.45886182;29.05215159;-19.45352246;8.961522403;14.32015956;2.862708088;3.847684741;6.113465209;-1.107233211
-1.832424198;-0.185506982;3.342312869;2.814171901;1.72290731;0.214681917;0.951023994;8.001462643;19.76678104;-6.546334005;33.16802237;29.71483666;-15.35271331;11.8232502;29.33246841;2.570319338;6.465522079;7.101894129;-0.633751859
-1.665903301;0.010733914;2.36240411;9.455346809;2.16731101;0.102533264;1.077283332;7.953657839;17.72467919;-7.161972515;29.53067562;32.23206637;-13.63617478;15.50762049;36.95243163;1.156513891;8.460996154;6.30567297;0.22415309
-0.898590466;1.920283519;2.873105028;9.318105928;1.285611997;0.120912612;1.27554903;5.8709355;15.63032864;-7.534773366;26.7598233;35.4940889;-15.46144953;17.58330348;30.47861775;-2.604655868;8.09279027;4.617399458;1.069534598
0.271007644;5.686310547;5.071007007;2.873206813;-0.066456485;0.228883423;1.239633208;2.955140993;15.1210101;-6.63745288;26.46598256;38.20835939;-19.28680408;16.52658469;13.09923526;-8.141506645;4.981806441;3.692226459;1.451067963
1.622947215;10.2654005;8.261950611;-5.369645149;-0.665490039;0.317539955;0.899755697;0.792944986;16.21805734;-4.77545315;28.34567115;39.56496347;-22.6067447;12.94465003;-3.723611563;-12.88874427;0.668286368;4.554592906;1.147968552
2.907939617;13.56519804;11.15364724;-9.763507245;0.301458597;0.321210288;0.479094988;0.487832916;17.54472652;-3.095216786;30.45897439;39.48636499;-23.93679158;9.308282402;-8.474028878;-13.61589819;-2.216075374;6.717853537;0.314372916
3.847587403;13.58660579;12.60459974;-7.27460157;2.748058923;0.282159729;0.296269829;2.212566326;17.83498017;-2.336980266;30.90294697;38.44854689;-23.42880768;8.27431562;1.796603481;-8.580544948;-1.716535289;8.533071498;-0.613317981
4.240157351;9.854096586;12.37762625;0.677896457;5.787545468;0.312857015;0.503625403;5.347044849;17.27119822;-2.010144513;29.43715465;37.09309685;-21.996335;10.76947537;19.27279041;0.894834045;1.965078306;8.432480356;-1.184074861
4.120649149;3.985122293;11.34470376;9.571685635;8.32051727;0.493967116;0.98985142;8.972996117;17.36590408;-0.745435973;27.62919615;35.89736058;-20.12321621;15.26486933;31.4701981;10.64509586;6.409287812;6.004341286;-1.200268141
3.80110382;-1.215816804;10.90690865;15.11465469;9.705061936;0.801220953;1.50673825;12.34618914;19.4713096;2.481806601;27.38432443;35.06083154;-17.54288624;18.83419255;30.85188575;15.82578908;8.489096396;2.062149001;-0.816325034
3.674193354;-3.598365034;11.95625425;15.91543456;10.08063584;1.12321954;1.874899278;15.09905532;23.3017076;7.323387825;29.16590185;34.59840499;-13.91954235;19.25113188;20.31145529;13.80374261;6.450604849;-2.183117965;-0.411291359
3.880648597;-3.074295198;14.10774272;13.60059327;10.17153517;1.347709178;2.073928077;17.17017408;26.88583614;12.1143186;31.50604181;34.50258806;-9.662582997;16.56705011;10.19851848;5.88223936;1.109414031;-5.95897223;-0.323194275
4.121545813;-1.473909758;15.82401275;10.71350243;10.73620037;1.435219203;2.160429097;18.61043291;28.08104647;14.97491632;32.263449;34.80959683;-5.976576105;12.9785363;9.444919523;-3.421172469;-4.679863316;-8.990058594;-0.618186799
3.839531034;-0.936169806;15.44982594;8.482092099;12.03081649;1.418084358;2.134180581;19.41260874;26.33810631;15.05775008;30.51375107;35.49293365;-4.090964313;11.09477503;18.14024596;-9.202429171;-7.889633052;-10.8612646;-1.043064395
2.698073727;-2.116436585;12.47705894;6.368967808;13.61273907;1.337868245;1.91229124;19.43248366;23.12887021;12.96303072;27.3696977;36.26694963;-4.4238634;11.94892938;27.64304076;-9.231063485;-7.195344647;-10.54599581;-1.193409102
0.989651314;-3.675618606;8.106335908;3.500509541;14.58149512;1.192202484;1.442177668;18.42027431;20.62142736;10.08089957;24.97496774;36.50804604;-6.435383058;14.29427956;28.04489545;-5.111023058;-3.589464893;-6.8618991;-0.792824137
-0.414441237;-3.479433597;4.607643766;0.320198767;14.10163057;0.948514009;0.824946964;16.17397225;19.77285135;7.501605066;24.56742768;35.47823179;-9.191325047;15.71725315;16.7276543;-0.738336607;0.57050782;0.324995757;0.095293571
-0.627630523;-0.51508415;3.84298195;-1.301399209;11.91363562;0.61147256;0.297536951;12.79127487;19.57029138;5.415493199;25.37858042;32.83098249;-11.97364002;14.67226014;0.893692058;0.749439706;3.260769299;9.237103372;1.066035884
0.561875104;4.089063987;5.974807496;0.295183078;8.564299242;0.272143227;0.061797532;8.895810033;18.14531132;3.409870898;25.41270132;29.10544883;-14.32616357;11.82217259;-8.025362863;-0.803923271;3.978212478;16.70812629;1.595709956
2.435179438;7.833645581;9.319758575;4.714736027;5.234268672;0.077751529;0.112009343;5.624087931;14.78241852;1.255139837;23.44614583;25.78933848;-15.62651012;9.620393691;-3.476688234;-2.851425325;3.673178822;20.04210824;1.358995404
3.795818793;8.815915356;11.51312273;9.299329582;3.228971998;0.133797471;0.231434175;4.221458404;10.96869852;-0.618935021;20.42680167;24.7178814;-14.8743064;10.45220278;11.02392413;-2.591917462;3.686022397;18.91125873;0.441850856
3.849342865;7.289437656;11.18523215;10.95862696;3.356745595;0.417898905;0.175727326;5.351745853;9.412531777;-1.40988369;18.91288522;27.02270911;-11.22434776;14.76977441;24.75715847;0.497987714;4.632848177;15.7334451;-0.691272056
2.843682605;5.525370259;8.942017383;8.576579751;5.490039063;0.782876459;-0.119389228;8.521873855;11.75477258;-0.70754518;20.91458781;32.25760137;-4.978534253;20.6401182;28.26339466;4.19657638;6.077137467;14.04745454;-1.463568193
1.938542167;6.073887464;6.924588479;3.943906731;8.55334284;1.053659887;-0.499012906;12.09233751;16.93173689;1.001553994;25.981239;38.36143586;1.918380649;25.02181945;20.52820236;5.546396975;7.098478977;16.00522971;-1.520092773
2.357045022;9.830143181;7.262060076;0.399558315;10.99821758;1.142379374;-0.755035549;14.03837307;21.69820896;2.600736992;31.26744089;42.65226937;6.625987939;25.78717217;9.291576023;3.632059573;7.163429476;20.88660618;-0.91712661
4.456084373;15.44576708;10.55307637;0.321469741;11.57256611;1.090159775;-0.836956526;13.09585249;23.01341557;3.195105092;33.64723778;43.33835622;7.126793284;23.01469148;4.595128537;0.699398309;6.561349434;25.79673027;-0.049270736
7.449043489;20.49530679;15.48641601;3.547420223;9.992181108;1.00720474;-0.901056973;9.560384669;20.37062176;2.825068656;32.14787838;40.58386108;3.682888994;18.71331112;11.00465488;0.530133051;6.122035866;27.98747642;0.625981837
10.01724849;23.3715593;19.85043488;7.922656399;7.121791997;0.968919483;-1.146072285;5.143308788;16.13;2.413718732;28.63077364;36.36350735;-1.198235649;15.33246941;24.60882944;5.310292761;6.53740064;26.95331091;0.871385327
11.33543986;24.34516102;22.13931996;11.29622196;4.51483277;0.959253087;-1.594361971;1.902915342;13.55269752;2.967431112;26.10664578;33.12320244;-4.436681072;14.21408948;36.66062675;13.58230161;7.86334999;24.66115798;0.77022395
11.68818895;25.00119418;22.53824562;13.11557679;3.537786138;0.905312952;-2.039597335;0.944125764;14.15536527;4.687589216;26.1064653;32.11512028;-4.525500956;15.00516745;40.36159079;21.06165133;9.536143498;23.81130049;0.594119198
12.16837297;26.65821117;22.57874384;14.30588554;4.585089694;0.763841319;-2.227661449;1.792094534;16.57521096;6.735398124;27.37566767;32.56596289;-2.537093839;16.21227844;35.21466326;23.75317925;10.78266693;25.61360741;0.560732801
13.68838983;29.18507328;23.79188187;15.79574511;6.870101433;0.57565156;-2.108227711;2.886881193;17.85973379;7.854191273;27.05075576;32.30042673;-1.216909447;16.28265436;25.97828749;20.87415968;11.04706847;28.89325542;0.676443839
16.10455202;31.19770665;26.43870809;17.28045364;8.935144618;0.436914594;-1.911712801;2.82570596;16.05727897;7.349974874;23.33619639;29.41619078;-2.860924588;14.42375345;17.96353478;15.22713508;10.16655738;31.17515919;0.778127823
18.18442933;31.36761084;29.29140792;17.47771105;9.564171519;0.414213704;-1.959473204;1.414191169;11.90600957;5.643037442;17.36244932;23.82437415;-7.595163808;10.80400617;13.12654286;10.7818747;8.324354911;30.74937422;0.719945319
18.48076739;29.62019305;30.58600608;15.59800114;8.513168396;0.481794773;-2.368850311;-0.270192593;8.204390935;3.953920165;12.54692514;17.52554191;-13.31951907;6.309228473;10.05775255;9.547143291;5.971401583;27.97345113;0.53213042
16.4461022;27.16025393;29.36057098;12.50998161;6.5915139;0.538600982;-2.928823046;-0.837127331;7.414006936;3.373349698;11.88578314;13.38151415;-17.26028131;2.1963926;7.11895314;10.36408294;3.806139292;24.8014651;0.406690421
12.91785036;25.3521109;26.14086239;10.32710486;5.063580576;0.490180211;-3.27795767;0.202156571;9.527515895;4.032303277;15.39721411;13.23488918;-17.87168638;-0.229127408;5.204981999;10.55426442;2.693649092;23.05930994;0.517259118
9.589438011;24.50908905;22.5013224;10.65337081;4.796203329;0.323098371;-3.23678792;1.943003773;11.99691797;4.985771156;19.88317103;16.71349964;-15.67039547;-0.016955407;7.271003278;8.857404785;3.362283345;22.99073968;0.830100784
7.867527618;23.70039351;19.92256678;13.06727639;5.734710365;0.108319407;-2.990453252;2.736726966;11.78821055;4.868642175;21.29638999;21.56093427;-12.52573896;2.91793415;15.04517749;6.953732512;5.929631104;23.26456158;1.081891235
7.973621028;21.73768704;18.86450052;15.29496033;7.039069034;-0.064926403;-2.93962589;1.497352951;7.872893796;2.826056414;17.85308139;25.21420219;-10.141143;7.46022202;26.14403275;8.095002406;9.584434972;22.32013155;0.965532206
8.930148954;18.42534423;18.7138279;15.00273012;7.736870714;-0.162376416;-3.338364285;-1.3577465;2.132164245;-0.929608242;11.40287585;26.44257689;-8.977904734;11.55727969;34.59550217;13.93811821;12.78369247;19.80602499;0.385562343
9.374980023;14.91940087;18.51464135;11.63325329;7.396031603;-0.220490879;-4.043702106;-4.101133899;-2.032351607;-5.266510088;5.970331564;25.85451779;-8.359137152;13.18693978;34.78824112;22.37179357;14.00520323;16.87629394;-0.428558391
8.54103401;12.84894398;17.79382905;6.650903575;6.338533929;-0.296143552;-4.616240782;-4.926159331;-2.244938928;-8.817606629;4.649063236;24.97826373;-7.463459933;11.53916127;25.78467891;28.43823449;12.64513552;15.16922529;-1.060716265
6.683116196;12.9752757;16.81583667;2.044303623;5.280885514;-0.402493393;-4.699376609;-3.310920517;1.141176252;-10.71785855;7.307479021;24.73413881;-6.244356207;7.578132074;12.45290529;27.88626153;9.448647079;15.42914721;-1.205540075
4.727387843;14.58575275;16.16198989;-1.41726982;4.716832072;-0.493154395;-4.344994502;-0.484288883;5.434216016;-10.95510264;10.85397304;24.57724106;-5.488004971;3.468990644;2.371781803;20.58445502;6.11987014;16.96398362;-0.895230447
3.522854963;16.16038391;16.10658697;-4.445648551;4.532205863;-0.508522714;-3.986552867;1.380362412;7.665513378;-10.20007813;11.74847114;23.03097172;-6.017327379;1.176403931;0.792525087;10.94924724;4.316016361;18.32432015;-0.471579143
3.305819267;16.70332373;16.36693111;-7.754817228;4.139858838;-0.438337571;-4.067521177;0.67524841;6.67753151;-9.304573374;8.728980134;19.18441827;-7.76648531;1.220202807;7.357307354;4.84634454;4.672447663;18.5167127;-0.317931275
3.714291284;16.53256872;16.39684976;-10.39870154;3.009868405;-0.339282882;-4.644519418;-2.51643075;3.723018397;-8.807376808;3.676034724;13.89630692;-9.529562982;2.504493246;16.76841111;5.264601848;6.492459016;17.67541055;-0.56
4.201543642;16.81500417;15.88259809;-9.865986311;1.166505339;-0.289196984;-5.318903425;-6.485000005;1.306022219;-8.727394653;0.089046477;9.614126871;-9.6285486;3.320651547;22.58388028;10.12300878;8.277782254;16.69675656;-0.973444113
4.426110165;18.28274314;14.95431898;-4.300706883;-0.742977068;-0.319587499;-5.569704887;-9.091558423;1.288793564;-8.725755941;0.474191558;8.785513965;-7.03590007;2.708999496;21.25055592;13.96444148;8.716864251;16.29993843;-1.171348587
4.329799848;20.3349814;13.94925969;4.970638018;-1.866467112;-0.389329891;-5.208670205;-9.240968287;3.662416192;-8.501983085;4.622344341;11.99245235;-2.166211637;1.109867996;13.78410411;12.27644722;7.484433113;16.43284769;-0.917678003
3.968983977;21.41;13.01913822;13.15391437;-1.736489576;-0.424984432;-4.565616533;-7.606323034;6.703771994;-8.148004626;9.89579256;17.25874012;3.194433774;-0.144846402;4.541714877;5.139465328;5.387104198;16.52309787;-0.309725532
3.379547436;20.3671913;12.01690449;14.8542565;-0.589880823;-0.391785515;-4.240323415;-6.134367064;8.192844247;-8.19206603;13.07898984;21.17201057;6.768997903;0.013513604;-1.532694969;-2.581423738;3.837616306;16.22871101;0.318576336
2.645726748;17.66224066;10.79299185;8.223418919;0.81162702;-0.330564024;-4.626508353;-6.709445346;6.760410771;-9.244663364;12.34223654;21.10733643;6.940869377;1.585626416;-1.3337247;-4.658057662;4.026523397;15.8822775;0.687292622
2.053738015;15.20351682;9.581023835;-2.983054209;1.711302629;-0.325945668;-5.602567597;-9.89407312;2.58231962;-11.4398058;8.063358133;16.9741144;3.533265245;3.660530338;5.308618741;1.992583093;6.265109202;16.16060686;0.805415713
2.062455615;14.88978563;9.010969899;-11.50607227;1.838206103;-0.432587042;-6.633663131;-14.55563574;-2.786806575;-14.07333922;2.273443705;11.21791233;-2.153875255;5.268320069;15.80058628;14.96923276;9.808915222;17.29952747;0.944997931
2.988138221;17.00276251;9.621713671;-11.64222509;1.500212923;-0.623487472;-7.18019913;-18.56101669;-7.167217073;-15.79012388;-2.588427794;7.085046337;-7.993080241;6.095495116;25.79256154;27.80792788;13.20213018;18.64792039;1.370418303
4.627873826;19.82961932;11.26075551;-3.483572932;1.261501761;-0.804825513;-7.066230307;-20.03660798;-8.690147552;-15.32638923;-4.747106107;6.436467014;-11.97904776;6.458127091;30.78139617;34.05513963;14.96140148;19.06216584;2.05342963
6.201191464;20.91209296;12.95769188;7.069128724;1.485993881;-0.884151131;-6.527339737;-18.39531211;-6.598418417;-12.37540637;-3.583973052;8.699188428;-13.00617611;6.698393112;28.08757373;31.1479904;14.29635626;17.854492;2.629663808
6.775878064;18.96559568;13.50418955;12.71180315;2.098495734;-0.834917874;-5.952157137;-14.56113362;-1.665213097;-7.95397952;0.342547873;11.63771245;-11.15555227;6.726542201;18.50648449;21.61286172;11.53830599;15.46219101;2.658403628
5.915513247;14.92433405;12.34074259;10.21762938;2.709404469;-0.707444258;-5.581669236;-10.36029679;3.990567568;-3.917559026;5.515644772;13.22359245;-7.457788055;6.233068192;6.491145568;11.07641682;8.032172008;13.21145917;1.989608361
4.028623931;11.25064051;10.00777656;2.704137927;2.95029828;-0.584649255;-5.421714735;-7.522584889;7.7674145;-1.869886484;9.877695869;13.07764656;-3.353112015;5.339697023;-1.839290762;4.666088608;5.468220095;12.32825517;0.935721304
2.083534938;10.03950847;7.719932771;-3.096918831;2.723110654;-0.52509874;-5.389908083;-6.8788807;7.838457;-2.202554955;11.52196959;12.3801856;-0.160424551;4.902508327;-2.155808196;4.18035229;4.944743394;12.99895803;0.087766751
0.866585558;11.40806991;6.359979526;-2.36687339;2.180474227;-0.538314545;-5.49427518;-8.13126276;4.148898105;-3.964671906;9.535554676;12.43948323;1.240695866;5.929337528;5.249047877;7.611407014;6.287916489;14.23265174;-0.101115473
0.376001016;13.41514318;5.735357977;3.912514123;1.511874413;-0.601156312;-5.836772836;-10.20056536;-1.509781864;-5.669756868;4.551931201;13.2256567;0.515392179;8.464954448;15.36018972;10.96428324;8.099308991;14.59236058;0.354790619
-0.121836401;13.53767536;4.784163945;9.810162598;0.776046131;-0.68720044;-6.440058594;-11.86351714;-6.501035337;-6.426658191;-1.455835023;13.20238862;-2.10597987;10.9984404;21.46863856;10.97525057;8.597217787;13.16878507;0.994401497
-1.378856885;10.54257916;2.632735897;9.304212976;-0.05041832;-0.777709413;-7.098386689;-12.316463;-8.835785689;-6.514135516;-6.174953185;10.6885847;-5.819242113;11.2055849;19.44678419;7.019117708;6.780489935;10.061118;1.272035353
-3.371029243;5.360676433;-0.366307764;1.208819442;-0.874115844;-0.85143411;-7.447906153;-11.4287282;-8.184762013;-6.954533136;-8.180959903;5.645506614;-9.3415825;7.726600761;10.34507214;1.198484268;3.156705893;6.136632752;0.979955733
-5.117919156;0.403968589;-2.567129227;-9.772457618;-1.377301947;-0.877713102;-7.238456662;-9.654438941;-5.762499894;-8.457211392;-7.592927122;0.320020752;-11.27383927;1.620435797;-0.477890901;-3.231735813;-0.496848947;2.443421641;0.397599864
-5.341943406;-2.063383261;-2.144214817;-16.65088158;-1.181454236;-0.83312409;-6.572748325;-7.728385645;-3.25991433;-10.63322025;-5.73740979;-1.991631433;-10.72740146;-3.863236696;-6.978994404;-4.016561427;-2.234100764;-0.201071711;0.048555971
-3.498981741;-1.301212265;1.397657265;-15.48069482;-0.198978985;-0.73074054;-5.876282835;-6.318516142;-1.680343328;-12.17052226;-4.124182364;0.713627849;-7.902985745;-5.332077745;-6.178343782;-1.292063476;-1.189018624;-1.287629357;0.259445993
-0.364096114;1.633732936;6.52119048;-8.193356525;1.138001179;-0.627551049;-5.588867878;-5.766069177;-0.919187816;-11.85635089;-3.508766615;7.452560671;-4.151288509;-1.734404855;0.471403653;2.605450869;1.865644715;-0.624033915;0.87545434
2.338288818;4.690195922;10.42131905;-0.827021972;2.04503452;-0.589081196;-5.823973886;-5.976707579;-0.255422838;-9.604334675;-3.662791009;14.59899134;-1.28417817;4.643652937;8.654167748;4.745931869;5.016270577;1.457348237;1.364498475
3.0355063;6.001136963;10.79727385;1.255376159;1.908065377;-0.632579157;-6.287559684;-6.478600503;0.814944927;-6.615609586;-3.859550269;18.16084231;-0.454478632;9.584624861;14.15598216;3.563383644;6.401871097;3.841296551;1.232142277
1.334516037;4.704194032;7.360058594;-2.723935601;0.778983555;-0.700280716;-6.532389294;-6.635321131;2.154345938;-4.519921866;-3.553480435;16.40779679;-1.360296416;9.836079143;15.0434991;-0.146129669;5.291790988;4.805821501;0.419591129
-1.784358815;1.113319971;1.959943016;-8.913356754;-0.594387337;-0.697359115;-6.334401556;-5.961351679;3.237191674;-4.205137784;-2.711943255;10.95293077;-2.42444605;5.377079827;11.94110668;-3.874875674;2.375911906;2.897518467;-0.632392074
-4.730686891;-3.603005087;-2.756867434;-12.42462632;-1.31154885;-0.573256245;-5.871971046;-4.422700408;3.696082403;-5.306927342;-1.681195253;5.511986696;-1.921747618;-0.642207379;6.901073164;-5.251703548;-0.817461525;-1.923955674;-1.307799357
-6.420338663;-7.950443309;-5.151573525;-11.44974205;-1.059227382;-0.378920192;-5.561494865;-2.554205989;3.564789073;-6.752247442;-0.884665052;3.273703798;0.7375991;-4.229075854;2.107037987;-3.760490773;-2.889215564;-7.821046033;-1.275797047
-6.89740938;-10.66641351;-5.52365555;-8.526747659;-0.438700954;-0.242619003;-5.699790755;-1.261150074;3.021196048;-7.821946535;-0.67806969;4.80997434;4.56374989;-3.377931435;-0.839360699;-1.065141951;-3.279868399;-11.95589188;-0.728526628
-7.03245884;-11.20361415;-5.53261202;-8.03194011;-0.533242628;-0.272426038;-6.222868336;-1.330978731;2.00953127;-8.736774605;-1.369919579;7.988710141;7.771298841;0.68469805;-1.198457837;0.296071598;-2.377554559;-12.34122939;-0.213597569
-7.60193513;-9.964811019;-6.634833382;-12.07842506;-1.970609745;-0.460874044;-6.776844166;-2.895052456;0.270803154;-10.20667765;-3.156250245;9.811586365;9.196371433;4.640641459;0.644882994;-1.161427237;-1.124671302;-9.339105891;-0.196041714
-8.520526286;-8.069447814;-8.785188633;-18.26285612;-4.20878451;-0.675258791;-7.019949109;-5.196146717;-2.142642792;-12.35626491;-5.832925042;8.686204148;9.196754551;5.584249887;3.044488346;-4.809630914;-0.469856692;-5.51868795;-0.692737492
-8.84583812;-6.638553681;-10.40537845;-21.18741484;-5.696612183;-0.751920834;-6.88406278;-6.900180709;-4.402231085;-14.08591474;-8.526795687;5.425641672;9.270019531;2.952077904;3.67625389;-8.50980289;-0.950969044;-3.766889431;-1.26075306
-7.547065048;-5.987803522;-9.623920911;-16.6644434;-4.926320613;-0.625238005;-6.581700549;-6.856137294;-5.135757242;-13.62878172;-9.884480391;2.354525178;10.68182371;-1.427946917;1.046698024;-10.32282296;-2.498084722;-5.001007527;-1.343359978
-4.429638454;-5.351831861;-5.8256328;-5.371951181;-1.6609298;-0.386788673;-6.383492911;-4.860068359;-3.414392751;-10.01549905;-8.859457307;1.384268458;13.25389305;-4.923356761;-3.952553801;-9.892021015;-4.439226645;-7.320486997;-0.703936971
-0.491701671;-3.487699274;-0.330822576;6.91448712;2.620650382;-0.221446248;-6.387796192;-1.889355931;0.250677465;-4.249669974;-5.631947951;2.630810683;15.36842624;-5.910515078;-7.946544879;-8.388915796;-5.720512485;-7.41755779;0.381321316
2.580385148;0.185199124;4.317892067;12.86656211;5.514799723;-0.266318127;-6.485912803;0.43110575;3.87450721;0.936177933;-1.859293241;4.582330289;15.23767674;-4.490048828;-7.131128357;-7.178115962;-5.365613445;-3.261579915;1.308917299
3.438870505;4.806370085;5.970019531;8.514493975;5.25891613;-0.503735723;-6.526157847;0.844205097;5.2192958;2.794469212;0.182065587;5.51316619;12.40276858;-1.873259492;-0.317465844;-6.46851296;-3.058800655;4.056553001;1.562550318
1.921626403;8.414651588;4.263450191;-3.883604276;1.973754185;-0.77483661;-6.494378713;-0.712641467;3.470292252;0.550398658;-0.877198704;4.87774689;8.199099405;0.725744152;9.478905117;-5.194260041;0.481174837;10.88275773;1.047833936
-0.841060261;9.316840871;0.855511452;-17.0108236;-2.350380081;-0.903873972;-6.528826229;-3.066751886;0.021965312;-3.890146541;-4.416044425;3.556292779;4.777593134;2.692885658;16.62113771;-2.223117709;3.705694606;13.6465092;0.117289814
-3.111141683;7.480531755;-1.652405079;-22.94973108;-5.167592041;-0.833963294;-6.762015012;-4.623535482;-2.396458094;-7.168348495;-8.105374151;2.877814894;3.486583903;3.834385706;16.83347533;2.254667827;5.074833837;11.5690297;-0.703237169
-3.565386577;4.77850156;-1.377468423;-18.02255198;-5.072737339;-0.666223534;-7.156215394;-4.478364374;-1.713574443;-6.805155346;-9.472821462;3.386326017;3.953252438;3.948764062;10.56538403;6.50757437;4.075650608;7.281958838;-1.064704652
-2.025323864;3.736845604;1.667952033;-4.936821849;-2.66386561;-0.573107793;-7.504938615;-3.026179502;1.891807852;-2.919826005;-7.625012531;4.466769655;4.592354142;2.810945276;2.831168176;8.510329793;1.681840292;4.825348082;-0.971887193
0.513716583;5.652184846;5.617287519;9.021556386;0.034677061;-0.657803089;-7.608574692;-1.617642245;6.0849637;1.940101457;-3.814839524;5.114993588;4.046418853;0.624756649;-0.67864595;7.579601927;-0.20857012;6.572216981;-0.69407328
2.522577108;9.536054686;7.959209548;16.47882947;1.125613175;-0.872396232;-7.459546821;-1.5183067;8.123558845;4.689333914;-0.425125564;5.071660117;2.293266269;-1.653045535;1.769933283;4.898558005;-0.089907014;11.47638365;-0.519280892
2.836471787;12.76237206;7.142704496;14.27549003;0.191239182;-1.056857525;-7.25813918;-2.959235511;6.885069312;3.851773113;0.80005127;5.186931109;0.504036329;-2.705400385;6.451663189;2.403499549;1.995224982;15.96821462;-0.554894318
1.284679232;12.95801838;3.567657313;4.97022269;-1.549624679;-1.063077628;-7.238172489;-5.001953636;3.563382528;0.371867266;-0.140582166;6.568112236;-0.132522393;-1.84572227;7.277377596;1.028242765;4.37478992;16.71286687;-0.706779906
-1.292303798;9.677908839;-0.669314454;-5.206277156;-2.343842419;-0.863856612;-7.461048273;-6.312107029;0.519878716;-3.393252774;-1.889122387;9.20802399;0.493745268;0.229588241;1.100764192;-0.03321897;4.912067784;13.0232607;-0.81195805
-3.617968394;4.590759095;-3.130439615;-10.47424852;-1.372434332;-0.565309428;-7.767105147;-6.227580836;-0.703444061;-5.563867019;-3.147774481;11.39236506;1.382682151;1.737630611;-9.184643383;-2.264144161;2.626532237;7.116415112;-0.78958645
-4.780290533;0.129074359;-2.639543642;-9.024741291;0.558491872;-0.32218422;-7.926651675;-5.277104768;-0.531831945;-5.980638981;-3.820648759;10.65882354;1.433626131;1.115596243;-16.51531042;-5.880560586;-1.436547033;2.224477129;-0.688615267
-4.75243065;-2.207972127;-0.075532047;-3.770431172;1.620869935;-0.22979726;-7.84851511;-4.741752943;-0.738960458;-5.928710828;-4.865641419;5.789655749;0.523047425;-1.654225219;-15.14634064;-8.893716845;-4.791406851;0.26475143;-0.616717831
-4.293621175;-2.515549392;2.221984991;-0.011260284;0.378899348;-0.275385148;-7.654452022;-5.61103403;-2.661016122;-6.766839481;-7.043894458;-1.692700715;-0.353958089;-4.856976852;-5.312652478;-8.323779076;-5.178521821;0.948238454;-0.634122242
-4.287481065;-1.718881165;2.104810309;-1.677627546;-3.067108218;-0.375004288;-7.556918839;-7.762978805;-5.841791466;-8.723063431;-9.791577109;-7.90131667;0.009702404;-6.289664954;6.77529671;-2.785781195;-2.116049071;2.806249559;-0.709093699
