Channel 1 - P4;Channel 2 - O2;Channel 3 - P8;Channel 4 - T8;Channel 5 - C4;Channel 6 - Cz;Channel 7 - Fz;Channel 8 - F4;Channel 9 - Fp2;Channel 10 - F8;Channel 11 - Fp1;Channel 12 - F7;Channel 13 - F3;Channel 14 - C3;Channel 15 - T7;Channel 16 - P7;Channel 17 - P3;Channel 18 - O1;Channel 19 - Pz
9.234986669;0.118210067;2.669616682;15.09847889;-1.642395329;8.628934619;-10.15966639;6.28029524;21.33184065;14.72713436;10.68823188;7.744337903;4.342324603;-5.509741916;-3.399581812;-1.197943677;2.473082967;0.844798347;6.741666399
6.683802941;-4.401855194;-1.839682693;11.79775448;-5.219120313;6.868408676;0.794866691;2.020844613;11.63742277;7.941935606;6.796035164;6.381098423;5.102338144;-5.215402547;-3.331768394;0.516907125;2.658430929;-3.632463636;5.393143637
3.911684185;-9.816084968;-5.604198149;7.351799549;-6.305990468;3.769267251;11.884549;0.808638354;4.846537195;3.484386777;1.711772665;2.463982907;0.447384855;-5.765718096;-4.056428511;0.343456086;0.111011384;-9.03455642;2.685300979
3.054166061;-12.93676231;-5.798830809;4.884489665;-3.867404196;0.78898115;17.39177946;2.756386447;4.355930741;3.159086301;-1.44974889;-1.46701434;-6.767069474;-5.797813707;-4.795445207;-1.16735765;-3.836122871;-12.05898238;-0.035657005
4.343903212;-12.46267157;-2.340024414;5.812229795;0.793291765;-0.944133062;15.56356452;6.024680969;9.750502101;6.094234851;-0.47524338;-2.485488187;-12.43437209;-4.37461588;-4.016888794;-2.376771188;-6.705167886;-10.81608071;-1.698134585
6.155903108;-9.436583251;2.145984746;8.740535683;4.740817224;-1.197637587;9.478865585;8.02993728;17.0649434;9.285963154;4.311399585;0.587717937;-13.8002949;-1.837052394;-1.116419124;-1.522139802;-6.448192186;-5.756658447;-2.029650341
6.467250652;-6.058598537;4.367218059;10.47935807;5.286017841;-0.572402672;4.404696431;7.028232073;21.36305901;9.564868651;10.06060781;6.132608345;-11.1460009;0.346491119;2.707559518;1.956584917;-2.929458747;0.85322614;-1.51776735
4.513744246;-3.985999055;2.809976991;8.404303135;1.743125106;0.05907746;3.82931937;3.036626134;19.8057473;5.598526054;13.17625119;10.68190968;-7.370573836;0.657327181;5.204951735;6.714677385;1.829655714;6.3697386;-0.932393937
1.362086417;-3.439711307;-1.254751077;2.365159175;-4.146420645;0.163274532;7.234128216;-2.395291362;13.15677172;-1.414580318;11.69170073;11.29258008;-5.816132484;-1.279124881;4.783740364;10.1082292;4.931527085;9.112523593;-0.794381181
-0.954773375;-3.586196454;-4.8540647;-5.241090707;-9.376224497;-0.210854713;11.11433553;-7.243258892;4.910245691;-8.700901178;6.588081818;7.622425247;-7.942536094;-4.304236492;1.711760085;9.882765594;4.554101137;8.892305921;-1.134044945
-0.963075689;-3.585961434;-5.529272576;-11.14777193;-11.56422154;-0.647102394;12.1331366;-10.10818802;-1.100980012;-13.6964438;1.118883575;2.169132405;-12.49978104;-6.459604954;-2.113505051;5.846902689;1.179036642;6.687042357;-1.620374698
1.273886837;-3.294937401;-2.96508462;-13.26988143;-10.268521;-0.78578081;9.736929298;-10.71417985;-2.88573931;-15.38646147;-1.384283942;-1.50019762;-16.66242342;-6.307909417;-4.469363434;0.291776395;-2.790826546;3.924703089;-1.880302197
4.390633543;-3.108521902;1.082907274;-11.65012982;-6.939371352;-0.600744592;6.236675047;-9.697965944;-0.973965227;-14.43865189;0.313957044;-1.20011548;-18.13113588;-3.871571533;-4.027491001;-3.294161929;-4.728668359;1.854112523;-1.7487591
6.829389623;-3.296239195;4.283438718;-7.875543194;-3.731646163;-0.350741337;4.569429371;-8.046783242;2.469112616;-12.33873369;4.679961055;2.529656391;-16.59628421;-0.530149396;-0.672133632;-2.457177295;-3.546433529;1.193418096;-1.308761358
7.862073701;-3.594280841;5.341096378;-3.769968281;-2.136407261;-0.308450046;5.799870055;-6.618351106;5.163214737;-10.36893185;8.614443496;7.066033559;-13.60134052;1.989689581;4.89067588;2.54664096;-0.274652823;1.998871467;-0.764836697
7.772271883;-3.477361331;4.52280414;-0.534489232;-2.345633017;-0.525535202;8.436001742;-5.925939968;5.82137411;-9.141262799;9.589581244;9.688867163;-11.14204838;2.74907422;11.45022731;8.827516645;2.861314142;3.688163174;-0.292818479
7.231099581;-2.807247816;2.928499635;1.18574961;-3.583089729;-0.818376909;9.949407412;-6.103455395;4.410363881;-8.758788903;7.203426472;9.348500527;-10.22837701;2.052117201;17.16237438;12.69142798;4.076038159;5.26591951;0.026181006
6.55570594;-2.157337378;1.35848257;0.828557202;-4.918203637;-0.950423376;9.027765022;-6.920708302;1.794433196;-9.158472309;3.161549666;6.990102573;-10.47421479;0.989790725;19.50086146;11.99450466;3.132208365;5.79189426;0.183876677
5.531574101;-2.410333888;-0.189903396;-2.111156343;-5.867045151;-0.8313718;6.601696724;-7.859429141;-0.80194003;-10.21169417;-0.137510263;4.43577122;-10.8170231;0.522977741;16.11189599;7.424421542;1.200056152;4.931789499;0.200607807
3.882382407;-3.932809147;-2.081598386;-7.425593936;-6.437539094;-0.568642742;4.877351757;-8.350826544;-2.295263268;-11.59165129;-1.305834347;2.896334807;-10.57152977;0.822210756;6.570343309;1.876740487;-0.248186906;3.231076407;0.111577504
1.853149301;-6.081928592;-4.251359384;-13.54479469;-6.80149235;-0.35406729;5.348526766;-8.155896482;-2.208060326;-12.75628013;-0.77874547;2.283963963;-9.900894712;1.284531729;-6.224358856;-1.566931952;-0.544654579;1.819778829;-0.02245189
0.280289694;-7.563372316;-5.933452187;-17.84619227;-7.014146265;-0.306090061;7.552684618;-7.641991195;-1.019916441;-13.27636647;-0.291770354;1.671992558;-9.435277389;1.08955595;-16.63051121;-1.616354939;-0.107860828;1.635041623;-0.120591821
0.012664878;-7.425205681;-6.23396453;-18.12369088;-7.018485229;-0.402197748;9.576696697;-7.646272293;-0.109893773;-13.29096217;-1.518151706;0.288053611;-9.534651267;-0.200500109;-19.20575724;0.614499389;0.163229611;2.66619214;-0.121992071
1.164307096;-5.883426868;-5.021267371;-14.27168911;-6.821106409;-0.535450167;9.762303118;-8.876852732;-1.044627288;-13.58711553;-4.852448746;-1.869628896;-9.913580152;-2.413903785;-12.35341722;2.642250354;-0.262821425;3.810275829;-0.031255139
2.870009766;-4.259610175;-3.2602632;-8.773126717;-6.569594488;-0.61819965;8.081930559;-11.22653677;-4.44;-15.03829967;-9.11257795;-4.194780051;-9.907714936;-4.96623411;0.055132654;2.429381719;-1.197758958;3.539337715;0.078810131
3.812046844;-4.019270457;-2.385607941;-5.339046574;-6.421122751;-0.633572623;6.042629422;-13.58193604;-9.168455543;-17.74315601;-12.26908202;-6.066740034;-9.042886007;-7.224949595;10.72422723;-0.323244855;-2.08551551;0.980119234;0.121046816
3.139354608;-5.644025542;-3.180058594;-6.500748742;-6.364664961;-0.606384167;5.304977803;-14.43815994;-12.7074838;-20.62013422;-12.68375049;-7.233362215;-7.349303666;-8.765247459;13.60764308;-4.19343309;-2.628055048;-3.34524248;0.064169365
1.063802022;-8.228809325;-5.113452746;-11.89654793;-6.239843175;-0.549090343;6.279326563;-13.00856552;-12.69608879;-21.97498486;-10.10758242;-7.699363988;-5.194784953;-9.441139283;7.970298514;-7.159566408;-3.064550641;-7.678672546;-0.041301105
-1.327549808;-10.13347682;-6.751507378;-18.56773908;-5.987788158;-0.452535894;7.887567725;-10.02891199;-8.748511309;-20.77309106;-5.895307886;-7.413848699;-2.912003114;-9.372177189;-1.228700503;-7.922011797;-3.864934827;-10.03523967;-0.10614939
-2.877644506;-10.1941133;-6.93972852;-23.05344972;-5.882391216;-0.329269641;8.600948616;-7.544857755;-3.132314556;-17.65781171;-2.343214219;-6.24368734;-0.656965373;-8.934180519;-7.061535824;-6.557252559;-5.169565351;-9.422861945;-0.07855833
-3.137935197;-8.573061845;-5.780538639;-23.67299455;-6.433496954;-0.249243382;7.774348358;-7.6612391;0.432849283;-14.80121677;-1.497733537;-4.344857169;1.380063477;-8.706194078;-5.763255691;-4.252732931;-6.541051753;-6.48896072;0.012864349
-2.530496544;-6.619956712;-4.556257966;-21.27027013;-7.928049638;-0.307502643;6.124224668;-11.04003906;-0.779378993;-14.515168;-4.038075761;-2.506106684;2.733491382;-9.266180318;0.570899228;-2.504140415;-7.292921591;-3.191719841;0.086247896
-1.825522105;-5.872649395;-4.617607733;-17.97906209;-9.955107527;-0.534563802;5.018319049;-16.22738443;-6.506043619;-17.55793824;-8.823599087;-1.924912295;2.803473647;-10.85281257;5.736243051;-2.356450093;-7.111345445;-1.710440571;0.07889262
-1.41418517;-6.948727888;-6.140997714;-15.19064756;-11.38406787;-0.831836565;5.281418896;-20.38629171;-13.47155779;-22.41455137;-13.40538197;-3.367093282;1.403081048;-13.10860173;4.236350061;-4.023833654;-6.394809711;-3.244495534;0.000702239
-0.991344778;-9.113735182;-7.813006534;-12.51123936;-10.96781504;-1.010329009;6.570058594;-21.03594867;-17.48389402;-26.1741732;-15.31552663;-6.330471107;-0.760871968;-15.1635864;-4.512819991;-6.876416338;-5.969329692;-7.363112993;-0.077475988
0.10288632;-10.78681735;-7.777731836;-8.580899926;-8.229513926;-0.924685922;7.788387635;-17.65527086;-16.22293878;-26.44513037;-13.47857352;-9.020229234;-2.230887316;-16.10369851;-15.69921145;-9.655987146;-6.390019531;-12.21942856;-0.088209011
2.182622722;-10.59;-5.156540147;-2.967539458;-3.986556687;-0.60083435;8.0843662;-12.05934267;-10.7454673;-22.9536984;-8.922817899;-9.383118577;-1.642995438;-15.54363598;-22.54180831;-10.88071344;-7.423985098;-15.48376128;-0.026212744
4.745530424;-8.230970488;-0.949144699;2.635417914;-0.052412021;-0.243298199;7.514511572;-7.279985344;-4.660019531;-17.69266554;-4.288813971;-6.556496296;1.302410557;-13.88211775;-20.91624758;-9.460525426;-8.180019531;-15.52192696;0.049868219
6.636099034;-4.691153295;2.440312592;5.136840533;1.770496063;-0.098325756;6.843796274;-5.69147758;-1.627265273;-13.54967514;-2.331072773;-1.635418247;5.534087245;-12.02195444;-11.80718794;-5.376784412;-7.811104638;-12.25207075;0.071894911
6.754835229;-1.668539996;2.773364833;2.296777301;0.765013641;-0.270009766;6.754559426;-7.606986818;-3.012297206;-12.4296959;-4.276560869;2.907991546;9.284264258;-10.75115183;-0.131409874;-0.010807849;-6.22230834;-7.25293532;0.022608818
4.814524382;-0.647385996;-0.467963661;-5.264670494;-2.276506673;-0.634469689;7.230592899;-11.21486241;-7.289067376;-14.17877088;-9.068165931;4.80183753;11.25974009;-10.26137698;8.74175755;4.309444556;-4.196134773;-3.016720533;-0.051544296
1.613478965;-2.111196233;-5.652060114;-13.98687672;-5.553627887;-0.926048136;7.653817753;-13.8143857;-11.41800159;-16.95053975;-14.00410497;3.41293775;11.39121734;-10.17407376;12.02177235;5.533681994;-2.817766175;-1.653640114;-0.084407739
-1.360993621;-5.281150795;-9.992106358;-19.43479657;-7.332768312;-0.934037277;7.462211954;-13.49554779;-13.00334404;-18.60114291;-16.38585641;0.010351997;10.58;-10.0245402;10.17492472;3.216229896;-2.658041425;-3.700290356;-0.049539342
-2.739319992;-8.489022734;-11.26605767;-19.05321282;-6.887679529;-0.659367398;6.718033646;-10.21241305;-11.64925664;-18.05978919;-15.11712636;-3.272781803;9.708218966;-9.770984838;5.458130334;-1.03045364;-3.3715707;-7.739448171;0.018224957
-1.988687965;-10.01453109;-9.11214755;-13.62414373;-4.746805761;-0.311488741;6.058891647;-5.68031113;-8.750374768;-15.80609234;-11.23752717;-4.927173268;8.806930791;-9.879448704;0.019664595;-4.484698011;-4.029473037;-11.16679814;0.056514865
0.355442694;-9.006803213;-5.118103725;-6.467131609;-2.193380555;-0.150931606;6.098888107;-2.29138243;-6.200353524;-13.33090326;-7.109313438;-4.8879074;7.131692194;-10.90526123;-4.926144816;-5.187615461;-3.909995109;-11.76062327;0.032086852
3.022122719;-6.026973978;-1.77477012;-1.134896593;-0.436825904;-0.300753108;6.849056302;-1.77797883;-5.165801466;-12.13150663;-4.87935083;-4.191182432;4.081373867;-12.93116265;-8.74078304;-3.437169558;-3.102901449;-9.125169903;-0.03095237
4.663307333;-2.866222187;-1.061662304;0.624622766;-0.000516326;-0.667422789;7.688858764;-4.379905424;-5.737038647;-12.93526132;-5.26751551;-3.919007452;0.124140288;-15.35230896;-10.83472416;-1.70339339;-2.438729874;-5.037308507;-0.075215052
4.470068359;-1.634154535;-3.528666109;-0.705361647;-0.626845837;-1.020348216;7.905259345;-8.874450201;-7.381282952;-15.49559962;-7.408305147;-4.36870687;-3.157940418;-17.20778835;-10.84224392;-2.85442486;-2.799506267;-2.368190436;-0.062676807
2.464058178;-3.551749229;-8.275811893;-3.535520231;-1.621929398;-1.157780218;7.307723519;-13.32007813;-9.520452883;-18.85989296;-9.681287411;-5.056772879;-4.057794803;-17.80024128;-9.291704746;-7.903955768;-4.362130405;-3.213463043;-0.00773386
-0.615775424;-8.151178059;-13.6288176;-6.626613157;-2.327985329;-1.031743761;6.378241985;-16.03906405;-11.69263627;-21.82171683;-10.81811988;-5.382780233;-2.017407934;-17.11392411;-7.783040518;-14.98965069;-6.37898858;-7.473985799;0.037971763
-3.718008785;-13.43626816;-17.98617345;-9.658100657;-2.4342947;-0.751355693;5.844822706;-16.334749;-13.36432482;-23.36076736;-10.51922776;-5.247665656;1.849981609;-15.72697004;-8.059501865;-20.47696496;-7.6789568;-12.88931632;0.033342869
-5.959010544;-16.99775016;-20.39953615;-12.70997305;-2.023726738;-0.484020822;6.071119333;-14.64323722;-13.87159769;-23.00623474;-9.30977826;-5.06992299;5.44645908;-14.34035726;-10.54422797;-21.49015417;-7.513029641;-16.54064331;-0.015862145
-6.964915136;-17.43659829;-20.75040097;-15.4904714;-1.42526452;-0.343088738;6.789311682;-12.11685529;-12.77822194;-21.04908235;-7.956301085;-5.270507954;7.077365655;-13.33753424;-13.69082609;-18.01693225;-6.105311955;-16.79243984;-0.064192715
-6.945387925;-15.18538105;-19.62018876;-17.2541442;-1.000910476;-0.340502747;7.375813176;-9.899679037;-10.37798052;-18.44497929;-6.984378328;-5.793369234;6.490839793;-12.70444404;-14.98893258;-12.96503857;-4.495275056;-14.31246346;-0.068918039
-6.494476955;-12.17099401;-17.99236965;-17.51641497;-0.960828793;-0.416265877;7.396008197;-8.489448441;-7.752744772;-16.31111553;-6.582392587;-6.148842261;4.83471673;-12.28277798;-13.01596104;-10.06116548;-3.788584443;-11.46936309;-0.028236875
-6.2342441;-10.52975514;-16.86181601;-16.74533751;-1.254743494;-0.497573341;6.942826533;-7.529405768;-6.109062655;-15.20463204;-6.752525875;-5.923427555;3.675259945;-12.03933202;-8.843350667;-11.13857128;-4.36756319;-10.58231601;0.018799412
-6.483903934;-11.23422418;-16.81401182;-16.13188886;-1.571960524;-0.535242024;6.512126244;-6.141837033;-5.810358203;-14.66220377;-7.385933814;-5.229533571;3.915183798;-12.07065371;-5.462704786;-14.86065182;-5.633050106;-12.31175605;0.029033366
-7.117286372;-13.54544299;-17.71671295;-16.42889208;-1.469988374;-0.504899538;6.568550024;-3.6011229;-5.936857503;-13.44366166;-8.133896355;-4.622502373;5.40752208;-12.36879533;-5.50340959;-17.84974137;-6.456134079;-15.32808387;-0.005840899
-7.669800133;-15.61751833;-18.72565164;-16.87977171;-0.601893312;-0.398357711;7.189695539;0.075198622;-4.882915116;-10.45587173;-8.284785847;-4.534945157;7.39320162;-12.64097085;-9.019144461;-17.3489608;-6.008115955;-17.4112055;-0.053197528
-7.623665109;-15.78191194;-18.70509275;-15.40509018;1.062529674;-0.230241518;8.0577232;4.007235146;-1.647482239;-5.748957734;-6.965543515;-4.769873151;9.219520714;-12.43666828;-13.19033719;-13.37119566;-4.376487281;-17.08424947;-0.070457316
-6.708927423;-13.60683343;-16.90597775;-10.21529586;3.159819095;-0.053471912;8.743898503;6.90243893;3.183695934;-0.787673185;-3.717680064;-4.579646099;10.69098922;-11.52234317;-14.29632313;-8.700382831;-2.53714615;-14.56195907;-0.043823787
-5.057305075;-10.05368242;-13.50908638;-1.679879557;5.074299897;0.046252185;9.007488534;7.794195708;7.612410301;2.338936504;0.920859143;-3.332427808;11.87912532;-10.16044991;-10.47890007;-6.778640498;-1.709067206;-11.4004587;0.000389439
-3.133180559;-6.730104404;-9.645789625;7.182913652;6.234786791;-0.006793613;8.879927025;6.587913477;9.511853716;2.287218609;5.359106652;-1.205707716;12.76729409;-8.986068565;-3.175902434;-9.126920808;-2.541273691;-9.249180569;0.021009381
-1.489416889;-4.845084415;-6.811227192;12.29054664;6.390229326;-0.221689711;8.535864571;4.060227296;8.063712143;-0.597586879;7.64757873;0.73140277;13.20121237;-8.524755539;3.831023102;-14.25580212;-4.684369519;-8.724840252;-0.00028901
-0.487758397;-4.582667626;-5.999901541;11.18086246;5.692107676;-0.518492675;8.126967009;1.331058237;4.243840697;-4.517389029;6.574835204;1.188160854;13.19988768;-8.747456427;6.949529968;-18.82220931;-7.022595183;-9.211509591;-0.043283349
-0.138171429;-5.212580942;-7.117703826;4.807080404;4.539242819;-0.769051667;7.727371331;-0.816880972;0.010731715;-7.501581995;2.437905042;-0.429289952;13.20875737;-9.074081009;4.962377149;-20.05709141;-8.38917553;-9.585330656;-0.06887896
-0.143392949;-5.708406415;-9.068268385;-2.993325342;3.300922382;-0.878693254;7.380800896;-2.314791364;-3.108733087;-8.764687199;-3.082017528;-3.58140646;13.85807234;-8.87035221;-0.607358083;-17.58700042;-8.271437919;-9.154514876;-0.055125005
-0.118909084;-5.363256225;-10.46218034;-8.037646734;2.109201935;-0.84820889;7.134217332;-3.664405784;-4.891459179;-9.091961294;-7.892035676;-6.979947049;15.28715404;-8.039792866;-6.900325656;-13.35416456;-7.042305266;-8.042699072;-0.016456258
0.145982086;-4.027663115;-10.469291;-8.469101507;0.849645226;-0.766884951;6.993871798;-5.430927099;-6.114233487;-9.970608025;-10.65325752;-9.464073245;16.63932902;-7.191678773;-11.57783768;-9.871273003;-5.597689139;-6.806358408;0.010645128
0.553410807;-1.954935912;-9.239924732;-5.602488071;-0.666732578;-0.741533591;6.86899201;-7.759312028;-7.462874864;-12.1939168;-11.35702809;-10.66592085;16.35319588;-7.19666251;-13.77470569;-8.284563546;-4.68799724;-5.740818993;0.00144161
0.787341926;0.495238993;-7.63420772;-2.457180187;-2.489887159;-0.818063711;6.61436839;-10.24003906;-8.697053272;-15.09049038;-10.9813933;-10.9903706;13.25667808;-8.457903757;-13.80480826;-7.726333523;-4.421616718;-4.537473592;-0.035053589
0.584592878;3.047191687;-6.494049253;-1.304546011;-4.431322505;-0.956685991;6.180466436;-12.17461007;-8.841553263;-17.01263092;-10.57398675;-11.03452044;7.704689965;-10.48632849;-12.32095377;-6.306960064;-4.266031153;-2.57880254;-0.065382807
0.00740879;5.534312241;-6.007747749;-2.226944516;-6.144501409;-1.075751198;5.734487028;-13.02003906;-7.225424094;-16.67833395;-10.48527852;-11.01318729;1.786080335;-12.14321682;-9.823313498;-2.802776739;-3.501236278;0.431035048;-0.062794403
-0.488920085;7.858581029;-5.624300296;-3.695206524;-7.324733011;-1.122781425;5.59661606;-12.71177209;-4.398279406;-14.25801864;-10.28507191;-10.67468399;-1.764354337;-12.38521244;-6.76688825;2.337921318;-1.76612968;4.084469316;-0.031291842
-0.279041607;9.98339776;-4.548807891;-4.405870159;-7.890455616;-1.112685247;5.991764441;-11.68888608;-2.017534216;-11.30997515;-9.322188929;-9.702220657;-1.309282339;-10.95620937;-3.812423942;7.368808644;0.694487735;7.479037834;-0.001004661
1.038363564;11.9506184;-2.41447756;-4.599808526;-8.022385075;-1.106123311;6.811644099;-10.65250687;-1.68104507;-9.615752124;-7.405105578;-8.164343937;2.519422726;-8.533190509;-1.704734788;10.55385611;3.220048828;9.83387156;6.16163E-06
3.340429817;13.84733669;0.392718336;-5.661508308;-8.02935937;-1.153869375;7.616746914;-10.22189711;-3.626501383;-9.860649698;-5.054917511;-6.580358544;7.107199443;-6.273923033;-0.812016356;11.30759717;5.167459561;10.99391964;-0.028822077
6.001525365;15.70248553;2.999257454;-8.42847433;-8.123599684;-1.258633781;7.921896072;-10.66265678;-6.411008747;-11.21273895;-3.184319176;-5.562250011;9.449624395;-5.148508008;-0.849192066;10.35317534;6.243606529;11.42513579;-0.060895734
8.246559302;17.39804229;4.680359632;-11.86481083;-8.256807189;-1.384014671;7.555254453;-11.78988061;-7.929965028;-12.10529958;-2.520236081;-5.387952746;7.96133682;-5.517055366;-1.170669121;8.964970133;6.527616412;11.75244506;-0.067480959
9.59880799;18.70257814;5.36421858;-13.47530667;-8.145872222;-1.494439153;6.793768526;-13.06978409;-7.039994388;-11.55615753;-3.233996592;-5.887980207;3.290653836;-7.129712624;-1.390533856;8.048587139;6.257488406;12.26296858;-0.04391238
10.10112271;19.43068651;5.612331041;-11.2840255;-7.502875302;-1.58371673;6.153033603;-13.8825525;-4.518756675;-9.95908582;-4.994378951;-6.692679455;-2.310900904;-9.37653752;-1.668044719;7.776256869;5.637405888;12.78215837;-0.01312438
10.15235986;19.59753788;6.101937367;-5.736594048;-6.336156056;-1.666023309;6.001548572;-13.85199972;-2.575239259;-8.754888607;-7.278546896;-7.539591006;-6.494413288;-11.51927115;-2.297405158;7.882680106;4.847106773;12.97332452;-0.003955005
10.0987042;19.4172397;7.032034397;0.180489883;-5.10422237;-1.743668741;6.31784895;-13.09333762;-3.245275612;-9.308656984;-9.611358075;-8.323150738;-8.11632148;-12.82672745;-3.01493795;8.146296183;4.184469019;12.74281647;-0.024698986
9.918294256;19.12616224;7.934646921;2.870317842;-4.561566755;-1.790243161;6.777699611;-12.22469273;-6.879180663;-11.92055042;-11.57387456;-8.884820399;-7.572176909;-12.74877733;-2.871560818;8.534662909;4.093941635;12.36920646;-0.056130678
9.266629;18.78115361;8.048427324;0.638898285;-5.329430502;-1.771706003;7.06563461;-12.08242954;-11.86488348;-15.71930172;-12.72459346;-8.853891489;-6.180312511;-11.22866771;-1.057567678;8.944971959;4.917483901;12.24666853;-0.06980986
7.852471605;18.22120518;6.958608485;-5.208885276;-7.440853137;-1.687298211;7.117882136;-13.2564942;-15.78865976;-19.4307696;-12.69086953;-7.818978991;-5.237954486;-8.982976727;1.953947219;8.935993305;6.500402077;12.48265571;-0.05428687
5.826522294;17.2387584;4.988176604;-11.54340845;-10.18533852;-1.587243067;7.090722405;-15.70915469;-17.15536267;-22.33171248;-11.48410748;-5.743957775;-5.395405535;-7.381986941;4.157630236;7.869807182;8.022394259;12.71308901;-0.025093135
3.832023032;15.80860049;3.018920317;-15.84098508;-12.42381621;-1.541564864;7.121355712;-18.73053805;-16.39522157;-24.63145558;-9.766058822;-3.205255949;-6.567491013;-7.740669515;3.291226069;5.452573419;8.345704629;12.30543747;-0.009833832
2.630958982;14.15803831;1.875750885;-17.85795591;-13.23295647;-1.580324147;7.1448697;-21.28929009;-15.44817655;-27.06622921;-8.691988649;-1.096677217;-8.181263986;-10.33535774;-1.126062974;2.208771499;6.777293565;10.79535127;-0.022645368
2.574545356;12.60331608;1.757512849;-19.24572144;-12.48151294;-1.657546315;6.962951659;-22.57778566;-16.280255;-30.14383759;-9.246967862;0.075497334;-9.475457111;-13.8714126;-6.723368818;-0.609228737;3.729766083;8.223922213;-0.051621158
3.336905697;11.29902957;2.15707778;-21.5980475;-10.94375306;-1.676757467;6.495130665;-22.41846179;-19.44310317;-33.70050715;-11.47218444;0.720920338;-9.759718766;-15.99524126;-9.42025568;-1.730832432;0.709357151;5.140519431;-0.070365848
4.13964799;10.13789038;2.313590735;-24.74444481;-9.845264247;-1.564441705;5.94303172;-21.29593474;-23.70356716;-37.09258001;-14.21832923;1.955134649;-8.696084216;-14.73578165;-6.280728123;-0.716124599;-0.518239644;2.300995256;-0.062511959
4.307991058;8.901048111;1.807910038;-26.82060339;-10.12310505;-1.333351519;5.667343592;-20.03506378;-26.95623562;-39.78233789;-15.77626626;4.66910685;-6.57947282;-9.972068757;2.014568814;1.690582559;0.895824266;0.293639426;-0.036456777
3.731549317;7.514955626;0.806891568;-26.0274364;-11.88317489;-1.081199559;5.861178249;-19.3619104;-27.71444113;-41.77443485;-15.06776571;8.574188123;-4.393624082;-3.82145015;11.15765044;3.975119351;4.192471766;-0.677760831;-0.01707057
2.878570066;6.153828472;-0.226641039;-22.46666227;-14.39660517;-0.921652515;6.329771538;-19.60702442;-26.10660292;-43.53492725;-12.54575809;12.07697939;-3.409381449;0.501919128;15.94517547;4.737176371;7.370725683;-0.785953734;-0.02251389
2.372232794;5.063454528;-1.073943636;-18.35555866;-16.59490641;-0.901072046;6.621204365;-20.65174312;-23.70281447;-45.48346431;-10.03716919;13.25613604;-4.406575353;0.710303845;13.83378145;3.4327455;8.455200841;-0.435674614;-0.047745047
2.484888354;4.258512642;-2.041829219;-16.35359873;-17.6882577;-0.967457667;6.433078713;-22.03787535;-22.33486993;-47.49241874;-9.490365284;11.30888933;-7.007081965;-3.016345063;6.637394939;0.533619877;6.829682502;-0.103019852;-0.069677941
2.954816472;3.399310127;-3.697746394;-17.42097429;-17.49191613;-1.015572068;5.936531932;-23.11331117;-22.75498337;-48.79989449;-11.45469637;7.357889394;-9.692239484;-8.076139832;-0.923107825;-2.87765042;3.694442461;-0.208198208;-0.068775008
3.246395457;2.017831675;-6.260328788;-20.0808152;-16.31387636;-0.969959844;5.692231593;-23.17798088;-24.06066783;-48.41519666;-14.43681201;3.907106227;-10.6547431;-11.09080747;-4.648727169;-5.706442772;1.287475698;-1.006593209;-0.046906636
3.004164024;-0.062863403;-9.188005424;-21.75752475;-14.60070553;-0.838152768;6.18247393;-21.68948474;-24.27808742;-45.74870642;-15.7314154;3.245917693;-8.97762349;-10.03472441;-3.591808235;-7.267476921;1.378616983;-2.49704761;-0.025168092
2.307485234;-2.491550803;-11.39007813;-21.04844082;-12.67809107;-0.693872967;7.346910959;-18.55059546;-21.72232899;-41.07380707;-13.25811316;5.930796614;-5.290195827;-5.407701186;-0.088959332;-7.416317369;4.068240346;-4.402508856;-0.024083077
1.528017122;-4.596766047;-11.97887282;-18.94488695;-10.76400815;-0.609626952;8.546844274;-14.34691073;-16.24416699;-35.55804457;-7.136931048;10.44656372;-1.370387271;0.275953183;2.635822683;-6.502158571;7.713109194;-6.283569262;-0.04474456
0.946073253;-5.923276051;-10.99933425;-17.90626813;-9.139948862;-0.598261193;9.033079204;-10.29956149;-9.540705453;-30.84517397;0.161817823;14.26993227;1.052887088;4.216916289;3.114889406;-5.255582386;10.01327625;-7.761961928;-0.068206377
0.482418093;-6.660644761;-9.530431087;-19.55702164;-8.211662772;-0.610774189;8.547367884;-7.805171137;-4.29660814;-28.37597025;5.277405218;15.52244708;1.414967394;5.032389787;2.363056325;-4.589467194;9.498689527;-8.727384274;-0.073321892
-0.219485618;-7.570626546;-9.016388831;-23.0063652;-8.313088668;-0.586250358;7.545169073;-7.729608897;-2.660931454;-28.73971867;6.056119177;14.02221634;0.52395227;3.343518107;2.356775981;-5.247095277;6.414185955;-9.387177725;-0.05625995
-1.450195413;-9.424158306;-10.2971577;-25.30496108;-9.38737718;-0.505640754;6.832680117;-9.878161768;-4.991580683;-31.35241548;2.84355782;11.08929275;-0.242007149;1.052885014;3.908547247;-7.383330639;2.457974305;-10.12847249;-0.033703387
-3.151338237;-12.39003906;-13.06644499;-23.7478503;-10.85034311;-0.402102425;6.912124509;-13.03549983;-9.644619377;-34.65803364;-1.893098257;8.442455063;-0.054731199;0.007235468;5.955160593;-10.36007813;-0.377643072;-11.30681103;-0.02708782
-4.948312585;-15.88965439;-16.16548156;-18.14772894;-11.83106865;-0.323136704;7.588678032;-15.61616259;-13.93807925;-36.83153049;-5.277695311;7.136591535;0.838036267;0.995616722;6.808713565;-13.01646707;-1.051370039;-13.11884638;-0.042745965
-6.457108453;-19.0521303;-18.46697349;-11.19256034;-11.67312856;-0.283666574;8.173762177;-16.53075127;-15.68480546;-36.67849462;-5.812052892;7.280771953;1.554845937;3.586275085;6.020485347;-14.35721523;-0.015282435;-15.61277667;-0.066332965
-7.571960881;-21.38503977;-19.64392651;-6.574666818;-10.33829025;-0.254876179;8.10507097;-15.69837789;-14.34071423;-34.23990739;-4.00668263;8.510373845;1.536547798;6.631562157;4.950781778;-14.22199336;1.206812592;-18.73771166;-0.076428007
-8.466103596;-23.06834943;-20.22955427;-6.396043967;-8.403603761;-0.197616321;7.442094698;-13.88260718;-11.08655593;-30.70627982;-1.553795663;10.56970119;1.147486368;8.922308648;5.425849077;-13.41255553;1.04446822;-22.29122414;-0.064439665
-9.316414943;-24.5977381;-20.96788765;-9.889542283;-6.654342945;-0.106160744;6.807082185;-12.02113177;-7.873999498;-27.64675424;0.169576317;13.41051083;1.395551004;9.620712815;7.772580934;-13.11286112;-1.159520269;-25.75513925;-0.042335122
-10.03402481;-26.08978312;-22.04104345;-14.33779091;-5.589826149;-0.018421639;6.830058594;-10.57519439;-6.135337842;-26.03076238;1.066047674;16.81219905;3.031868633;8.457209938;10.22972625;-13.99122334;-4.784807998;-28.2;-0.03124687
-10.28854931;-26.90749469;-22.85192218;-17.25345635;-5.210078125;0.018781672;7.592237834;-9.363333812;-6.020953081;-25.70099905;2.086632987;20.0715267;5.8334279;5.839127445;10.51037649;-15.66260108;-8.285174158;-28.48821696;-0.041780493
-9.837530168;-26.03528568;-22.56182419;-17.95968871;-5.198774814;-0.003195435;8.559318895;-7.924891368;-6.589034899;-25.65442092;4.153750118;22.26357158;8.703421713;2.870633303;8.210278643;-16.93831277;-9.990559695;-25.81245583;-0.064355818
-8.864183493;-22.98448858;-20.92979727;-17.40730946;-5.284577887;-0.041771742;9.058479864;-6.034351392;-6.667012806;-24.88799051;7.243003382;22.98061332;10.5031823;1.080590179;5.759689828;-16.67742788;-8.927239365;-20.29481248;-0.078372375
-7.978697748;-18.48656594;-18.72177012;-16.6907175;-5.439109273;-0.039990065;8.869490594;-3.907209827;-5.6633641;-23.13187791;10.41478505;22.88498861;10.89425236;1.730714412;6.735043396;-14.58098577;-5.28654883;-13.20118494;-0.071452729
-7.817205128;-14.30866127;-17.29299239;-15.8125712;-5.755111456;0.01841912;8.402724408;-1.95220525;-3.748101321;-20.89759094;12.72078477;23.44288603;10.47475415;4.96386742;12.70339148;-11.33558355;-0.360946412;-6.497188258;-0.050806452
-8.543977013;-12.19438362;-17.6272638;-13.86937656;-6.167827863;0.087734663;8.309841674;-0.345639352;-1.397266057;-18.85430739;14.13773697;25.87522604;10.12850109;9.401856163;21.2886077;-8.058425127;4.018441961;-1.907059518;-0.036287001
-9.69;-12.66882271;-19.58139894;-10.39474169;-6.340360545;0.096931083;8.88206806;1.142457413;1.175517747;-17.1326902;15.65278543;30.101985;10.20321682;12.69441811;27.37380236;-5.550546487;6.314128073;-0.029726821;-0.041806794
-10.50745913;-14.63252494;-21.94588356;-6.450280178;-5.88224676;0.015780234;9.779748118;2.886104628;4.133683728;-15.22643659;18.36154644;34.58558983;10.27666348;12.89530405;26.80694168;-3.957990298;6.019297338;-0.09531183;-0.062489115
-10.58179906;-16.11144987;-23.29765724;-4.253998756;-4.743445004;-0.108590284;10.33659406;4.941635982;7.575765141;-12.62500987;22.31810248;37.31692203;9.727592348;9.83127812;19.77344012;-3.018363146;3.924378697;-0.547589031;-0.079415378
-10.19709628;-15.64501506;-22.99982746;-5.501769886;-3.422521817;-0.181987453;10.16298131;6.835131693;10.99469186;-9.613179231;26.14963199;37.24885703;8.578410307;5.445403812;11.06131805;-2.53762819;1.718648774;-0.079528209;-0.077366999
-10.12362821;-13.28636665;-21.59458222;-9.818407036;-2.745257322;-0.140019836;9.501539996;7.848380851;13.2502801;-7.44084798;27.86823841;35.06013981;7.785692326;2.698070624;6.820584188;-2.588738805;1.072693056;1.563090951;-0.058942625
-10.96686155;-10.47712379;-20.32045462;-14.78083464;-3.322918415;-0.007380516;9.009563912;7.605060704;13.25003906;-7.555568384;26.3364679;32.61787019;8.5994919;3.631650285;10.19834425;-3.271892963;2.67653306;3.52502501;-0.041963176
-12.59625339;-8.925625939;-20.1669021;-17.63632541;-5.088561667;0.114528883;9.158743496;6.456338468;10.87779139;-10.4234605;22.26392259;31.53399465;11.43152851;7.890103578;19.13853677;-4.368403094;5.798148011;4.517150577;-0.042734501
-14.1361313;-9.376296259;-21.21294477;-17.34408005;-7.280171315;0.127035859;9.790519729;5.289721651;7.381682002;-14.92057958;17.91302334;31.94432012;15.16829343;12.77042491;27.9391087;-5.35790663;8.665493277;3.710748359;-0.060868122
-14.56332467;-11.20665914;-22.73048546;-15.23421444;-8.904427637;0.017415032;10.23175868;4.854538337;4.76073687;-18.9085287;15.65307608;32.46838037;17.59518759;14.86512849;31.26736087;-5.89317024;9.485602242;1.229475185;-0.079780899
-13.4672141;-13.09986754;-23.90137305;-13.7329407;-9.347087746;-0.124967498;9.878000883;5.124560656;4.45992478;-20.66197509;16.37849469;31.36716346;16.75190487;12.24755632;27.58140614;-6.290956673;7.505268951;-2.040692474;-0.082287438
-11.38568232;-14.17951743;-24.51722503;-14.25887097;-8.694873971;-0.177554881;8.733702226;5.234677013;6.295495082;-20.0670993;18.92303403;27.97074429;12.28825256;5.755674087;19.60504204;-7.450468285;3.473006262;-5.092479457;-0.066643378
-9.452267983;-14.65443879;-25.0786515;-16.10603063;-7.572631877;-0.085471531;7.433467456;4.099298394;8.462790921;-18.61997741;20.87749622;23.262727;5.83637531;-1.468514896;11.92248636;-10.07014618;-0.772195254;-7.367703825;-0.048073914
-8.616780014;-15.46314484;-26.22678001;-17.26046282;-6.670289596;0.088341007;6.724484792;1.280489961;8.727311033;-18.18615815;20.21536776;19.21131638;0.108458309;-5.862747877;7.846919818;-13.7353131;-3.320552343;-8.862921992;-0.044448013
-9.015020518;-17.25215476;-27.99545608;-16.39581255;-6.33323654;0.207938318;6.862154416;-2.544075556;6.011700892;-19.49441434;16.59692139;17.42882355;-2.666214095;-5.522194816;7.87767098;-16.73646457;-3.198028522;-9.787032121;-0.0595593
-9.926853817;-19.57316981;-29.52342931;-14.24375208;-6.476933917;0.171495278;7.440324584;-5.882620317;1.248286072;-21.5813081;11.51529525;18.21206228;-1.915953549;-1.187689774;10.42408253;-16.99763462;-0.785682151;-10.13891605;-0.079643618
-10.3044819;-20.99897468;-29.50437853;-13.06557448;-6.791178053;-0.004390411;7.787173867;-7.308659204;-3.14571315;-22.64563674;7.294383365;20.62035028;1.205124419;4.366863338;13.61483154;-13.56758139;2.529734428;-9.594098701;-0.086332637
-9.447044688;-20.1018925;-27.07521013;-14.61675954;-6.989013536;-0.192407379;7.559359739;-6.31622803;-4.836752923;-21.61524524;5.698976733;23.37007813;4.769317163;8.039896301;16.47943403;-7.531051735;5.19656928;-7.789225323;-0.073870472
-7.347993156;-16.53510647;-22.49996941;-18.35616127;-6.893592109;-0.250664794;7.00464902;-3.586560994;-3.104232716;-19.12729019;7.063195079;25.72082429;7.29977489;8.101309976;18.79801626;-1.509027624;6.314776269;-4.738082868;-0.054471178
-4.547389183;-11.37180795;-17.14844933;-21.51463485;-6.369278828;-0.132457666;6.676048355;-0.53134013;0.725934822;-17.08800405;10.36963125;27.67;8.450298267;4.932439405;20.31722566;2.026018138;6.000272172;-0.999149109;-0.046829356
-1.703708024;-6.443076127;-12.76932118;-21.09592395;-5.266666945;0.076984686;6.880992616;1.540951218;4.222627583;-17.14003906;14.04195716;29.46771244;8.819638677;0.534180612;20.48420074;2.415718432;5.17220213;2.572378573;-0.058574942
0.74746117;-3.186985878;-10.5364526;-16.23677427;-3.508947584;0.225985175;7.384324218;2.095763173;5.487707093;-19.2717534;16.83428809;31.05741496;9.21154079;-2.748912346;19.0583428;1.185014169;4.946344563;5.302782574;-0.079122049
2.640989455;-1.863344301;-10.46906549;-9.002351777;-1.255910749;0.212680089;7.642996833;1.523472054;4.358603235;-21.70493047;18.29998934;32.02650441;9.959326446;-3.497192411;16.84426586;0.791556026;5.976555237;7.030039063;-0.08961288
3.921217279;-1.653637811;-11.54007813;-2.942191528;1.051054311;0.061221111;7.354265508;0.782893158;2.388609517;-22.17572349;18.71691723;32.08017716;10.76255268;-1.826062989;15.5254247;2.688420997;8.065668451;8.035914401;-0.080631103
4.51494488;-1.456581897;-12.32989422;-0.540406919;2.882392374;-0.100090637;6.8;0.825631884;1.684457814;-19.61141335;18.69559263;31.50143373;11.04350766;0.872130675;16.44829346;6.189056956;10.22502966;8.669506621;-0.061064342
4.387715623;-0.688833746;-11.77769853;-1.56448372;3.941827919;-0.13890224;6.643919048;2.126054667;3.442388063;-14.90626061;18.78958469;31.05794162;10.47839494;2.808042041;19.34824028;9.015511112;11.1673977;9.014962252;-0.049778882
3.70637729;0.511195889;-9.604926817;-3.553529018;4.343778007;-0.016984621;7.335000739;4.496377528;7.170584991;-10.23404755;19.29522332;31.36708231;9.309747816;2.789982946;22.26452905;9.106875605;10.0228653;8.911398389;-0.057891449
2.897203378;1.717854577;-6.2612318;-3.9529246;4.458193626;0.189209592;8.644311332;7.195972697;11.06424468;-7.486849821;20.2443897;32.30502946;8.261411521;0.83045573;22.93738924;6.291532193;6.929191056;8.309082184;-0.078277622
2.472548941;2.792617023;-2.550955338;-2.132119268;4.518146623;0.35745639;9.769911402;9.248996407;13.21003906;-7.066696086;21.49609867;33.07416995;8.149834243;-1.912697838;20.64727414;2.543117101;3.146797225;7.611146498;-0.092210994
2.718701194;4.028029072;0.765906024;0.285257587;4.325129907;0.419116256;9.956280217;9.852375333;12.78230256;-7.900509202;22.83345333;32.95423304;9.434399554;-3.800358045;16.96877983;0.634497834;0.542960496;7.604571728;-0.086958216
3.488607124;5.723293702;3.184225458;0.925923701;3.350357582;0.408383335;9.114913073;8.731974865;10.4638658;-8.538929058;24.01371643;32.07761345;11.93310902;-3.617500446;14.74779534;2.204664793;0.633198921;8.902198693;-0.067818058
4.284391755;7.601378269;4.452698251;-1.295338492;1.214595649;0.424130756;7.910699334;6.287817756;7.884475844;-8.376573775;24.76172137;31.4468702;14.81971402;-1.231698565;16.05869864;6.64259243;3.679996465;11.26695267;-0.053232586
4.59082834;8.663515793;4.485063294;-5.233289569;-1.815751087;0.538620325;7.2240217;3.421637322;6.511920114;-8.029061146;24.74392696;32.03622986;16.89988827;2.349475597;20.70630666;11.52506243;8.404494263;13.39687146;-0.057470127
4.219257032;7.734642931;3.320208586;-8.33126176;-4.751940119;0.729420921;7.431859895;1.096740525;6.746492596;-8.654065647;23.6057522;33.68616536;17.0713568;5.54;26.34147909;14.19692958;12.56512192;13.49817545;-0.07711981
3.40849395;4.361499163;1.168288901;-8.479148816;-6.372058789;0.890835892;8.111824113;-0.134101153;7.783249085;-10.85060041;21.14685353;34.82591572;14.80357735;7.022952667;29.95262719;13.33956786;14.13899524;10.40042142;-0.094167116
2.613920198;-0.624931243;-1.533815584;-5.483984623;-5.981313346;0.916501865;8.419220342;-0.335727492;8.278581424;-14.0394398;17.60095598;33.47132959;10.43747464;6.400314632;29.53141588;9.527930548;12.43369508;4.491184264;-0.092888938
2.149637958;-5.378458994;-4.167982684;-1.159975409;-3.905902531;0.787791293;7.819505122;0.007790296;7.341828342;-16.77007813;13.82661681;28.86280655;5.142712958;4.305511428;24.83875126;4.595813051;8.45426751;-2.23920794;-0.074744211
1.952079203;-8.032979923;-6.119698679;1.866175211;-1.343942643;0.597899513;6.56024765;0.445700465;5.190305051;-17.65554595;11.15508621;22.43735663;0.501840024;1.975135829;17.12885984;0.426590882;4.291307299;-7.19800918;-0.05717502
1.636969251;-7.770851376;-7.020536433;1.700793641;0.349544688;0.491472702;5.489067922;0.913306186;3.052441334;-16.21432793;10.8116207;17.20639248;-2.124348118;0.579946677;8.463496075;-1.98976793;1.907352443;-8.659080744;-0.057279188
0.807024106;-5.239888566;-6.894640329;-1.887236683;0.463084938;0.564239951;5.373853017;1.701827696;2.403472619;-13.0707982;13.1717346;15.8225175;-2.159702694;0.698670023;1.197678956;-2.770116221;2.072606819;-6.748881085;-0.075616976
-0.606826898;-2.055024513;-6.097432884;-7.515049506;-0.716642606;0.796471762;6.291985098;3.076376131;4.045008128;-9.499179469;17.36934294;18.71628819;-0.02198633;2.166449196;-2.411223694;-2.724071056;4.083534233;-3.282957097;-0.095468315
-2.208345348;0.236880771;-5.072264425;-12.93526537;-2.197566003;1.067333056;7.585943323;4.882110744;7.623624968;-6.72246398;21.66037351;23.74258477;3.135402851;4.285799339;-0.888746913;-2.729790164;6.374361932;-0.559454379;-0.098442465
-3.306385724;1.004336704;-4.086973053;-15.98418927;-2.971971116;1.236961793;8.403683911;6.513080348;11.88003906;-5.409083187;24.44458713;27.67716075;6.02237131;6.222594721;5.460397874;-3.26240913;7.564814718;0.068593468;-0.081888452
-3.302099742;0.655840804;-3.137801302;-15.38066839;-2.612087898;1.235867337;8.364070541;7.324109139;15.43752342;-5.537716236;25.29813262;28.47953259;7.845933908;7.389719757;13.9958009;-4.211652224;7.255614455;-1.115668784;-0.061646971
-2.066167271;0.064007459;-2.087622818;-11.2210031;-1.403051525;1.100734302;7.805953461;7.173325978;17.59690097;-6.53281495;25.23946669;26.62529528;8.654785785;7.688808032;20.56042662;-4.970397222;6.114456274;-2.650748238;-0.057315634
-0.074398574;-0.196443097;-0.918831775;-5.035392289;-0.004562058;0.93850786;7.444974819;6.627682289;18.63074966;-7.516903939;25.94045974;24.5235948;9.220856634;7.54537116;21.72066244;-4.744992778;5.294062923;-3.09123212;-0.073712267
1.802815276;-0.211517433;0.124837286;0.75308859;1.053274496;0.851708705;7.752636416;6.602750227;19.42537186;-7.621783465;28.39602862;24.52505621;10.52361112;7.710850832;17.11188307;-3.010534296;5.634144325;-2.032313642;-0.096043713
2.766290834;-0.474673662;0.65885149;3.932318362;1.678415795;0.879645644;8.577927477;7.668656105;20.7581653;-6.347846984;32.05079984;27.10642646;13.11180213;8.865035725;10.02435559;0.07383148;7.165465242;-0.248278525;-0.103598739
2.555495467;-1.296251105;0.476448311;3.706954174;2.167019029;0.990615254;9.300536197;9.560152736;22.71409263;-3.865642753;35.10288649;30.62807748;16.69188835;11.1661144;5.39540056;3.568366749;9.165719595;1.064877165;-0.089312084
1.631864466;-2.392769701;-0.189588477;1.242120136;2.903123767;1.119146195;9.353531661;11.30979195;24.61068098;-1.041576391;35.81194154;32.76667642;20.18799621;14.00145104;6.379622091;6.153498774;10.64281642;1.284766384;-0.066747468
0.932476817;-2.993020481;-0.713360976;-0.986818285;4.058259864;1.212865316;8.666926567;11.94910083;25.4359377;0.959450724;33.81868401;32.38953062;22.27330294;16.16489309;12.01618631;6.880208328;10.89829081;0.813522665;-0.057625731
1.304617707;-2.368428349;-0.459124647;-0.79499259;5.486407344;1.255260586;7.68420516;11.26312596;24.47818518;1.354981455;30.425751;30.3424635;22.10348798;16.46570195;17.91186981;5.79592466;9.855996475;0.685715544;-0.071343688
2.955144967;-0.364438414;0.75225067;2.187197752;6.840233048;1.256622885;6.978923311;10.01328402;21.75369575;0.285495886;27.59462069;28.58331883;19.84028785;14.46606642;19.58731229;3.961201666;8.042604575;1.715003068;-0.095765387
5.27890145;2.474397279;2.456771225;6.197517787;7.791205908;1.231401367;6.81765097;9.433778666;18.02502167;-1.205199401;26.45686164;28.48440513;16.64126093;10.8777851;15.95886424;2.773028734;6.306187944;3.891931176;-0.108279084
7.212585522;5.265523551;3.826176486;8.575110219;8.203635204;1.185781665;7.021909929;10.36056073;14.47482251;-1.805600041;26.55557317;29.78256049;14.0882664;7.297356806;10.19089417;3.047809455;5.444494868;6.485367283;-0.097070303
7.912388984;7.348095507;4.247153153;7.724656742;8.176978603;1.12377618;7.19942276;12.63658499;12.25767381;-0.776172757;26.4442541;31.04252421;13.36820889;5.371098031;7.174638739;4.540885334;5.890924874;8.695005659;-0.072630012
7.311033102;8.628634668;3.783466282;4.372512821;7.961678658;1.060227082;7.105457202;15.23028448;12.12839631;1.603656396;25.13306868;31.16062119;14.68626742;5.883476953;9.599205;6.260504456;7.547828866;10.26517646;-0.058323041
6.163626061;9.492945728;3.1631011;1.144858061;7.813284315;1.022921846;6.818203305;16.96835065;14.22857311;4.299499069;23.1334769;30.5240027;17.25753363;8.349954672;15.76003906;7.301874455;9.814834554;11.55077616;-0.068467281
5.532350478;10.40261849;3.278092517;0.746867608;7.86392542;1.037579182;6.608195409;17.33405055;18.03590393;6.278992207;22.15852334;30.73926173;19.85895143;11.38050092;20.88662145;7.506542489;11.82190292;13.02900829;-0.094454912
6.058478369;11.50925468;4.555628001;4.087739234;8.073151981;1.106926315;6.657049922;16.75659732;22.48758411;7.182272187;23.66593955;33.10107557;21.56861658;13.57094046;20.93914563;7.414547069;12.80645058;14.73100146;-0.11232967
7.533451106;12.56254599;6.661593634;9.730870905;8.283770163;1.202360321;6.892706334;16.2179717;26.30556628;7.432701324;27.44817343;37.11027704;22.21828453;14.33571666;15.83175272;7.595959285;12.47964276;16.11666683;-0.105187871
9.074148788;13.13367997;8.744898993;15.01850523;8.357328449;1.277585607;7.076787394;16.51023252;28.48528499;7.787840037;31.50215587;40.38369469;22.30660242;14.15665718;9.506437062;7.990755561;11.18032876;16.50653249;-0.079493401
9.770983917;12.94030568;10.01947552;17.94563557;8.312646182;1.296349161;7.041646584;17.70591303;28.76802536;8.763882863;33.38987322;40.16966795;22.50210849;14.13099523;6.818506755;7.871461944;9.690911075;15.68240731;-0.059603362
9.332122906;12.0192782;10.2360937;18.34533601;8.371254851;1.255466138;6.848013148;19.20523936;27.82655461;10.40227548;32.05907245;35.32804584;23.1302771;15.15995052;9.718993868;6.477874268;8.781061106;14.11348847;-0.065082345
8.253711896;10.65072315;9.707833262;17.57260397;8.854273975;1.187967536;6.722067601;20.27446474;26.98444339;12.48519078;28.67210348;27.19506785;24.00599274;17.31818854;15.71272991;3.757386856;8.73886038;12.58900945;-0.091894969
7.401844999;9.139900101;8.921536905;17.09241676;9.966987935;1.145313026;6.84018812;20.63846667;27.55519811;14.89344465;25.76140379;18.61901229;24.68734092;19.78343285;19.70746536;0.532672059;9.195384057;11.55950359;-0.115508179
7.32940609;7.647037451;8.089190855;17.1960132;11.59516639;1.170636155;7.16603184;20.68525311;30.15483496;17.71050012;25.36847397;11.91960044;24.91577919;21.33228555;17.72461937;-2.080411151;9.383348606;10.75435288;-0.113633217
7.841693519;6.175777316;7.012609536;16.86401859;13.25480344;1.278200055;7.489460861;21.15428997;34.39777677;20.97428948;27.62527183;7.383163666;24.89759811;21.07941264;9.629873298;-3.511970634;8.682930247;9.422096953;-0.087567958
8.131423591;4.682736157;5.352178515;14.79754243;14.26030248;1.447982319;7.627691143;22.56163164;39.15971301;24.36785795;30.84594153;3.448996985;25.22775881;19.03126831;-1.012273593;-4.107199591;7.094594129;7.017352699;-0.061756558
7.379808165;3.187326901;3.051072896;10.69969542;14.04766344;1.635460812;7.600360661;24.78774533;43.22910902;27.23951092;32.95457064;-1.646382619;26.52254015;16.15548301;-9.569598744;-4.716527362;5.303263036;3.775126878;-0.061257846
5.385130694;1.795892894;0.548332255;5.753729497;12.48995758;1.79116992;7.61451595;27.11742674;45.93084022;29.04291542;33.02592216;-8.17131517;29.010394;13.92567886;-13.32151277;-5.894500073;4.262877948;0.690776497;-0.087844941
2.77252635;0.648663441;-1.401508469;1.953406178;10.03384323;1.882824053;7.868275179;28.69644056;47.35868953;29.85606541;31.71905604;-14.5495998;32.32484219;13.5592943;-12.70213049;-7.437694947;4.561778032;-1.104632487;-0.117473248
0.645256183;-0.146505309;-2.167414992;0.857999114;7.570234737;1.911873513;8.34778791;29.09;48.14276085;30.48402155;30.39021636;-18.61420509;35.59685214;15.32732133;-10.28979879;-8.665506171;5.994837711;-1.108297193;-0.122291618
-0.078402508;-0.552674987;-1.617199698;2.722223741;6.07933991;1.915683358;8.803908583;28.57232754;48.97692905;31.94942993;29.78955518;-19.39506225;37.7846415;18.31666796;-8.695641215;-9.149414269;7.643680276;0.214419193;-0.0970985
0.792684357;-0.626373012;-0.181683528;6.550564952;6.197370718;1.949686918;8.941537128;27.96011218;50.23077243;34.69667379;29.52246204;-17.96164767;38.09488409;20.83702379;-9.010582941;-9.172288546;8.429554467;1.73775448;-0.065176246
2.627281222;-0.544230337;1.395107123;10.85841537;7.897699073;2.053920909;8.668187627;28.09725322;51.83745327;38.1316574;28.69258332;-16.65058885;36.33901717;21.32633076;-10.67149473;-9.451909896;7.784161399;2.369736125;-0.057159662
4.347475001;-0.605513608;2.421561251;14.44980932;10.44839547;2.221480639;8.189711647;29.31267081;53.42895733;40.91129212;27.04719649;-17.33264064;33.08779966;19.27783692;-12.39628049;-10.37041614;6.002033746;1.627886785;-0.082058907
5.02185619;-1.144445682;2.526127901;16.68202587;12.7041489;2.391859495;7.862420112;31.18937164;54.56147239;41.82667599;25.49265583;-20.11261061;29.52622812;15.61127537;-13.22648783;-11.45647816;4.0495811;-0.250144303;-0.117775024
4.333005169;-2.332064989;1.745021044;17.25156587;13.63661848;2.480801073;7.912640156;32.79163792;54.89770085;40.64629174;25.42776746;-23.43858301;27.00357961;12.18007813;-12.98984256;-11.67767836;2.963773767;-2.620554256;-0.130937337
2.690068359;-3.965371114;0.475801222;15.96082088;12.86090004;2.433441706;8.249721039;33.21682146;54.30912588;38.29180108;27.43062372;-25.42603318;26.43020449;10.64428034;-12.15295714;-10.35821764;3.233748494;-4.847376638;-0.108325968
0.970591187;-5.42383155;-0.639499145;12.84800222;10.86548196;2.266258316;8.530058594;32.13548128;52.91447943;36.21292838;30.46306541;-25.27272559;27.81641765;11.40407329;-11.420322;-7.912575881;4.551434971;-6.512860254;-0.070369918
0.058708643;-5.910459975;-0.89647053;8.599180094;8.769407768;2.064810717;8.430784424;29.98616896;51.05131435;35.4234147;32.36851704;-23.68284932;30.24593272;13.32129675;-11.36162479;-5.677521949;6.060407541;-7.371261008;-0.053079461
0.422206475;-4.893805031;0.210958057;4.765487461;7.692859738;1.932598718;7.920819159;27.70617774;49.15524405;35.89701696;31.36339441;-22.11452756;32.36019824;14.46329896;-12.13003906;-4.896961353;6.909632644;-7.222873923;-0.074303716
1.927925962;-2.476010773;2.71649199;3.358959528;8.09433956;1.923382951;7.312643002;26.17750836;47.56688858;36.73264784;27.37882571;-21.60476646;33.10289323;13.3960092;-13.30883741;-5.695811387;6.745723153;-5.905446634;-0.115843059
3.96824671;0.59320759;6.059347797;5.875575309;9.504844359;2.00602407;7.044461318;25.75266136;46.37442557;36.92240044;22.20681768;-22.1405128;32.26838358;10.14272923;-14.04619969;-6.950971191;5.852239605;-3.435372711;-0.139203031
5.814521135;3.312719951;9.263351395;12.30571938;10.8741531;2.090605047;7.353061907;26.16435228;45.42295236;36.13694245;18.34462448;-22.94608051;30.49976673;6.144721396;-13.58659977;-7.220426316;4.893595461;-0.162566007;-0.121470442
6.995185989;4.991152993;11.3888781;20.81913334;11.33716786;2.09917863;8.086475801;26.84886509;44.51197249;34.97238118;17.41922135;-23.25154211;28.75493249;3.272422861;-11.94448231;-5.95781757;4.465461062;3.217951583;-0.077974882
7.482794922;5.590269054;12.00998446;28.43653009;10.8819808;2.028143974;8.803043569;27.41562578;43.62835736;34.520442;19.31845212;-22.80604557;27.63833832;2.61467515;-10.12441252;-3.953286329;4.741287684;5.83740248;-0.049468167
7.58987233;5.621050106;11.40452103;32.38516062;10.41681441;1.952428003;9.08614753;27.89633558;42.9917093;35.59747261;22.52401504;-21.79117475;27.08469385;3.901856233;-9.459054713;-2.590579125;5.406851306;6.923122538;-0.064373875
7.662724542;5.699772963;10.32425034;31.40375862;11.12706985;1.965085071;8.838024869;28.58778182;42.82726531;38.16618139;25.21993887;-20.41851009;26.59615595;5.906481243;-10.37910414;-2.553565002;5.883594719;6.055866025;-0.110963895
7.802419617;6.123448992;9.513661429;26.28772753;13.53394245;2.097348734;8.33;29.63151416;43.04059719;41.30988018;26.29263424;-18.74;25.79506799;7.424266868;-11.64567844;-3.133839907;5.686097661;3.352888791;-0.14654161
7.822988799;6.783243673;9.325600721;19.40756211;16.93078455;2.28237852;7.971699456;30.69513258;43.11383816;43.73779443;25.62462064;-16.86412779;24.81232959;8.05224635;-10.97545079;-2.799498483;4.714472485;-0.456926595;-0.136719638
7.475824111;7.434451986;9.683406318;13.50296655;19.65690223;2.394306722;7.977900499;31.05187144;42.40205405;44.48165151;23.74570532;-15.24700289;24.18419735;8.226854661;-6.909081713;-0.582387943;3.339787509;-4.133774859;-0.088790933
6.754273589;8.037262887;10.34324277;10.42132417;20.0929603;2.335859979;8.192318692;30.04073125;40.65668925;43.36859647;21.33040955;-14.58738529;24.35010407;8.621566451;-0.522722464;2.91400896;2.24367869;-6.288272138;-0.046981529
6.014907313;8.835575551;11.17215596;10.44970016;17.73197861;2.108756774;8.208101602;27.57344721;38.33959535;41.02553484;18.92896295;-15.26810378;25.18147382;9.488238963;4.651504963;5.807870241;2.074739682;-5.977833684;-0.052098017
5.78662566;10.09181394;12.18324946;12.5227829;13.589458;1.813237214;7.694596711;24.29268573;36.38756295;38.45293488;16.92904095;-16.8444041;25.94824862;10.48147014;4.882421756;6.355516665;3.065149945;-3.288792113;-0.102232643
6.389670896;11.72276265;13.32867208;15.08913004;9.648888939;1.577739218;6.676457858;21.23623277;35.52164963;36.43932557;15.52422271;-18.17935839;25.77242384;11.02510806;-0.810249428;4.33066682;4.797146656;0.496785384;-0.152169014
7.653273857;13.19212571;14.30024086;17.06125216;7.693717017;1.473534182;5.543871695;19.23244816;35.62434121;35.15985052;14.60858218;-18.2842003;24.22979399;10.81815976;-9.387126905;1.204662624;6.286451993;3.419534745;-0.154229716
8.961364371;13.80415143;14.59120186;18.2654601;8.287264692;1.478962953;4.78;18.45207232;35.73667872;34.18586464;13.78534102;-17.19897563;21.65916624;10.02872645;-15.5174825;-1.03064682;6.424116801;3.891915839;-0.103852661
9.611052376;13.18957644;13.82307526;19.16161595;10.54253614;1.516281094;4.613704082;18.41603313;34.76943681;32.88674385;12.68745097;-16.05953664;18.98514561;9.081494547;-15.27020903;-1.401986699;4.610643688;1.679402293;-0.046555507
9.233873307;11.59248641;12.07118797;20.11288779;12.77646005;1.525515972;4.866451933;18.41404642;32.41793692;30.95940255;11.47417547;-16.12263758;17.22621263;8.331838492;-8.988121507;-0.55643145;1.236483669;-1.869726299;-0.03732762
7.993189312;9.722307183;9.891479844;20.81400092;13.56917258;1.512185103;5.111005055;18.00036462;29.53377961;28.72601216;11.03189015;-17.48196808;17.03844287;7.965998378;-1.003790037;0.055470523;-2.339370325;-4.597158516;-0.088444425
6.454197676;8.29867317;8.001501745;20.37990478;12.54133451;1.530997672;5.012786557;17.2186725;27.5867217;26.97932263;12.50035051;-18.63325848;18.52561382;8.156812411;3.705039611;-0.33942038;-4.415284697;-4.864122143;-0.154960476
5.264890997;7.669821712;6.875703873;18.09101512;10.4236882;1.623402983;4.580611001;16.45411792;27.57956958;26.46376906;16.30941342;-17.45587715;21.29046669;9.182939605;3.315545315;-1.024992976;-3.891390999;-2.547473861;-0.174151722
4.887163869;7.802511933;6.590627076;14.23641001;8.489714615;1.765718183;4.129053608;16.09697035;29.26293083;27.35571552;21.47379146;-12.97763103;24.56793051;11.24267709;0.36499614;-0.396145496;-0.968798911;0.999489224;-0.124593552
5.513220108;8.596062061;7.019142804;10.33134581;7.790963043;1.874267078;3.991472301;16.29903833;31.30296654;29.13301786;25.87127964;-6.493040785;27.3674565;14.06250852;-0.598323784;2.53752715;2.891141641;3.992648429;-0.049554685
7.11456112;10.17565371;8.138987593;8.394048926;8.658381144;1.864275115;4.227610512;16.96220156;32.30290198;30.95017634;27.50840627;-0.974195649;28.70836342;16.73766777;3.065455176;7.075184147;5.805906735;5.500166101;-0.019888232
9.483968665;12.84294747;10.10852709;9.687395928;10.67060714;1.713201178;4.572613756;17.87572393;31.87213536;32.24478219;25.90616132;0.952737954;28.027876;18.15148752;9.893146532;11.16926775;6.622331843;6.017520086;-0.067843691
12.21598078;16.69123857;12.99463573;13.8121647;12.98096566;1.475946564;4.670029297;18.82253968;30.87342133;33.09854393;22.49956157;-1.040555407;25.62230833;17.80150776;15.66572259;12.9644755;5.624578725;6.927758526;-0.153230517
14.71937465;21.23295535;16.40918409;18.86148215;14.74686582;1.240931813;4.388794709;19.57166529;30.63780002;34.04726471;19.64207695;-4.67807602;22.76028485;16.36629984;17.06991563;12.25007813;4.290141915;9.287402881;-0.196714115
16.38796431;25.42422029;19.46403375;22.59045393;15.45263398;1.065902192;3.948134963;19.84102146;31.78839839;35.47217646;18.92488687;-6.757281466;21.17348508;15.3945047;14.44746626;10.5778181;4.218281283;12.88043939;-0.153235007
16.91072435;28.15507;21.21169174;23.7833443;15.04627566;0.947479356;3.73445286;19.36789062;33.64813356;37.06894007;20.11788089;-5.570345363;22.04806543;16.16218097;11.21041414;9.911190134;5.949487444;16.25771347;-0.058109873
16.50945325;28.8733773;21.28850571;22.83328115;13.89970357;0.846601269;3.958293339;18.10133192;34.73210855;37.87054795;21.56060326;-2.195553901;25.11829877;18.5165761;10.4537644;10.92715643;8.509959526;17.7169882;0.000555662
15.86184783;27.87795588;20.22773552;21.1515388;12.62561101;0.741868372;4.445243109;16.35640258;33.92890374;36.88247156;21.63935373;0.353894073;28.56714648;20.70540085;11.8372397;12.41327747;10.03478535;16.48108019;-0.037507042
15.68024563;26.0731633;19.12234909;19.93662121;11.80010415;0.65888702;4.751173156;14.73510637;31.40313305;33.88891099;20.0896313;-0.541911421;29.97412804;20.51722312;11.67090726;12.30456042;9.065792957;13.223902;-0.144195665
16.21729906;24.40210422;18.84778997;19.32216858;11.69025843;0.647019163;4.520742033;13.79074459;28.48378078;29.81052495;18.04631621;-5.113011244;27.796405;16.99959972;6.357621189;9.527783978;5.625298162;9.619588149;-0.22244299
17.08638819;23.39998697;19.45192872;18.57639974;12.12995984;0.724594914;3.795490881;13.65368271;26.64204997;26.29561737;16.87978345;-11.03857787;22.40150562;11.44408789;-3.712690445;5.119503224;1.303566754;7.304035124;-0.193795148
17.5729707;23.14854191;20.2142799;17.11760568;12.64411859;0.845010818;3.008459634;13.92041062;26.40158049;24.78475646;16.92482114;-15.15142181;15.90540069;6.774307937;-13.35994751;1.647728587;-1.719027264;6.993571648;-0.076009272
17.21575949;23.53076299;20.32592955;15.39424713;12.77132846;0.920225973;2.657739247;13.92867335;27.04758629;25.672507;17.27463617;-15.61376703;10.88972276;5.664145248;-15.99093175;1.33620739;-2.050406151;8.286392533;0.02486442
16.18710236;24.44229281;19.6059661;14.7696503;12.37483007;0.887629626;2.920782758;13.22927052;27.30848253;28.10995719;16.80610607;-12.92685594;8.875373184;8.722472593;-8.696387505;4.344603964;0.070468212;10.12561563;0.008372026
15.13965579;25.73197376;18.62521733;16.39974933;11.70669325;0.765096921;3.526341013;11.88674339;26.37970264;30.52892442;15.43209003;-9.18984117;9.594408385;14.08132146;5.025065207;8.548529891;3.014365349;11.4847373;-0.122420825
14.62761537;26.99230227;18.11879323;20.00077367;11.15778272;0.644539943;3.990517782;10.36674596;24.42863769;31.49380089;14.3264307;-6.425052212;11.49150964;18.68323114;17.27095874;10.99680137;4.877088701;11.82295226;-0.252779905
14.59190959;27.54274951;18.20858491;23.59670981;10.87787911;0.623912963;4.021000567;9.108616822;22.23397635;30.34643497;14.80827257;-5.373626457;12.97467943;20.29293686;21.08312207;9.946183213;4.681818308;11.1564476;-0.25516017
14.37783211;26.79812067;18.16149687;24.61271269;10.58126232;0.730212558;3.752987445;8.151883957;20.39356217;27.3519611;16.87736961;-5.5454417;13.43221399;18.76111223;15.08813896;5.98265084;2.876841975;9.886423532;-0.111582608
13.31722368;24.8053493;16.97216724;21.6013824;9.732727746;0.896291528;3.621415068;7.145674331;18.88357075;23.42570029;18.84756474;-6.1376318;13.31275621;15.71543855;3.970848783;1.486909654;0.873034848;8.586927287;0.055516577
11.40806427;22.45780064;14.3316575;15.32978684;8.008336598;1.011987755;3.979224537;5.741532563;17.36889952;19.71706605;18.633441;-6.783888971;13.36662551;13.09178065;-5.34757475;-1.052289782;0.027623311;7.825208893;0.084374668
9.495272721;21.06534836;11.15170351;8.388036963;5.678241118;1.009415129;4.783906719;4.028045275;15.91226448;17.25289997;15.72595663;-7.478389241;13.80068194;11.73942848;-8.651508555;-0.604459417;0.800262171;7.975903153;-0.07400377
8.736029825;21.48476314;9.120761168;3.578796319;3.577912404;0.913733698;5.615797175;2.60762318;15.30562119;16.6645094;12.10240535;-7.975067977;14.08621694;11.12076856;-6.702425042;1.997865825;2.601055906;9.034624213;-0.292127426
9.726274294;23.45378967;9.546910306;2.247731111;2.627896581;0.818498485;6.012169929;2.203232216;16.55968399;17.96319052;11.04951385;-7.532076646;13.53133698;10.13623036;-3.477776128;4.90966026;4.322866456;10.55785775;-0.363509625
11.97698499;25.70173483;12.35286977;3.716937742;3.214584861;0.806136534;5.837349145;3.080979205;19.87937526;20.43408953;14.61357434;-5.497609599;12.04521371;8.213069892;-2.326134469;6.594624424;5.105439834;11.86218275;-0.190854944
14.18169184;26.82626023;16.01224179;6.1098049;4.878863973;0.878562358;5.381789927;4.748121345;24.01900974;22.81721818;21.67221528;-2.285773858;10.3637456;5.722329701;-3.41929147;6.649772509;4.806326213;12.43092835;0.100729731
15.09649327;26.2912165;18.5013661;7.817256795;6.559978042;0.954017401;5.11189626;6.185218466;26.71394684;23.84427093;28.29475335;0.286680543;9.4911675;3.503749613;-4.404919583;5.695986988;3.940029297;12.25259434;0.243993724
14.36612637;24.76337593;18.56601415;8.460700907;7.249649572;0.9318539;5.281921395;6.459134296;26.04108507;22.91571709;30.29842662;-0.087111372;9.808174664;2.084055359;-3.246746135;4.629698095;3.233451139;11.7981117;0.058835218
12.67730499;23.51998818;16.39048924;8.716618633;6.617271504;0.772293941;5.727742503;5.277449737;21.75907151;20.4837088;26.13;-4.54563713;10.60542281;1.354547702;-0.461620379;3.902572417;3.153974971;11.61293235;-0.357032452
11.16263087;23.41736935;13.25847649;9.316608331;5.186757064;0.527594009;6.005041691;3.109446108;15.60506922;17.81060175;17.88755653;-11.9696849;10.46579296;0.930339436;1.247822434;3.320888572;3.699211785;11.84857084;-0.654907335
10.56337381;24.27219364;10.57448963;10.14861651;3.958764631;0.301788066;5.750196717;0.842690453;10.27231957;16.19511134;9.734433065;-19.48900449;8.230780735;0.71393806;-0.514726821;2.384355576;4.50647616;12.15631029;-0.488072535
10.80794495;25.14887408;9.034158599;10.21046155;3.745989746;0.173545437;4.9692289;-0.726939674;7.776567231;16.18257223;4.982863164;-24.3711254;3.821968829;1.010225315;-5.5905396;0.815669765;5.139083886;12.07422108;0.198172943
11.27212069;25.26201455;8.490329357;8.414285481;4.662060279;0.143840744;4.033646311;-1.217657814;8.359069267;17.32850824;4.088906957;-25.90216976;-1.681890327;2.041969978;-11.29911818;-1.114597689;5.350445401;11.57875878;1.082362724
11.40939763;24.66885011;8.426641321;4.5558276;6.075233451;0.14684614;3.40696766;-0.664962276;10.63530889;18.67577743;4.956141582;-25.78201728;-6.721214278;3.387213042;-14.66157403;-2.655714486;5.197159079;11.26245266;1.680593209
11.17076415;24.11933596;8.490615299;-0.325205729;7.021549367;0.110260214;3.331533341;0.653488264;12.75461993;19.54439077;5.047201067;-26.69052987;-10.14303966;4.020823399;-14.77643041;-2.97104096;4.97716987;11.87781867;1.706791983
10.8823868;24.19799414;8.618552148;-4.453134672;6.793595277;0.013756465;3.709618676;2.350370129;13.63940712;19.98747689;3.442747824;-30.1335317;-11.67738183;3.092741268;-13.27081188;-1.638978855;5.041469062;13.56043697;1.293790284
10.76917923;24.56104187;8.764122133;-6.301376469;5.348269652;-0.099728903;4.233053111;3.947170034;13.43416354;20.55807071;1.23554487;-35.25436947;-11.78513387;0.808739895;-12.56142957;0.994120497;5.563574421;15.41246761;0.886543202
10.62709558;24.03340439;8.638684265;-5.384985389;3.320519288;-0.163811452;4.618524084;4.900324977;12.99293055;21.62405061;0.180028076;-39.522616;-11.16596915;-1.4579318;-13.6185031;3.812986267;6.371270805;15.91804215;0.880253805
9.98116747;21.58034886;7.818117869;-2.428176967;1.669359381;-0.142929795;4.754135012;4.776720189;12.96490229;22.85736635;0.963520396;-40.72337821;-10.39488707;-2.106236523;-15.27105964;5.356121667;6.944021416;13.9867938;1.290941488
8.584626296;17.34588813;6.149275177;1.052656444;1.170459759;-0.056969593;4.677605524;3.53736243;13.24035709;23.36925226;2.623027617;-38.6774642;-9.905475811;-0.630942586;-15.58419317;4.520318245;6.624242426;9.832995712;1.731210657
6.768361582;12.79699334;4.03273706;3.403902969;2.023459436;0.03952958;4.464280795;1.692953137;13.11556651;22.39563211;3.482288492;-35.39550723;-10.13648794;1.795839199;-13.91607069;1.190436359;4.973973378;4.933168731;1.721522014
5.26647294;9.718840472;2.232514209;3.412409283;3.764855247;0.101765517;4.159332506;0.113752252;11.93247025;19.95110032;2.629194089;-33.62843472;-11.49663537;3.10158112;-11.68584634;-3.61151538;2.089955403;1.004166904;1.09065751
4.62606904;8.807957252;1.312418903;0.699998101;5.523303696;0.125230057;3.808346255;-0.4610438;9.643706666;16.89276361;0.587086352;-34.97358122;-14.02677268;1.948140074;-11.13599871;-8.229441942;-1.332414128;-1.23520542;0.137843836
4.719268145;9.042605892;1.193717054;-4.057533727;6.490285149;0.141183639;3.519298898;0.119371445;6.919179184;14.34629473;-1.310935696;-38.91051274;-17.02706218;-1.067945909;-13.25891177;-11.27201665;-4.271985088;-2.511677441;-0.583200461
4.825512703;8.448632976;1.269917538;-9.156687428;6.368288479;0.186458755;3.452014094;1.362041454;4.812348247;12.99190593;-2.126028198;-43.31235091;-19.086738;-3.694238544;-16.83311774;-12.33096873;-5.868191849;-4.238530186;-0.690156094
4.262286085;5.736241174;1.020103094;-12.30692776;5.553763293;0.275189566;3.712376671;2.551899338;4.274108593;12.80336837;-1.937112448;-45.86989723;-18.70918807;-3.677601169;-19.4833617;-12.02143454;-5.846870414;-7.124833318;-0.264553529
3.035132803;1.498702499;0.573299792;-11.54029373;4.934234699;0.39292661;4.241945817;3.328771283;5.777074961;13.39914968;-1.399156317;-45.35578345;-15.23675403;-0.560472261;-19.80602435;-11.33031453;-4.637115158;-10.3073766;0.227725266
1.913876023;-2.071139573;0.663330872;-6.292289802;5.386474132;0.511418656;4.820716755;3.944644849;9.131551167;14.60076836;-0.830630799;-42.0146894;-9.450653177;3.796353982;-18.60970291;-10.7979617;-3.122779918;-11.81205038;0.324217109
1.80732735;-2.834447712;1.933685821;1.96418224;7.247444154;0.606625464;5.207419616;4.975734046;13.47204443;16.61866906;0.147774784;-37.12948314;-3.350490236;6.428839821;-18.11389943;-10.20354178;-2.194314795;-10.10342766;-0.053825927
2.92322441;-0.482455223;4.167757027;10.09186384;10.07051557;0.665628885;5.312435447;6.727302078;17.43843607;19.66495502;2.020773669;-32.29462641;0.851908416;5.352150792;-19.80253759;-9.011623499;-2.362048934;-5.554192301;-0.538340662
4.432702338;2.991454262;6.169734515;14.69767383;12.82807652;0.683384445;5.256824753;8.851444365;19.61845731;23.37718176;4.467758786;-28.8419679;1.934711023;0.976970631;-22.86370293;-7.175058184;-3.608561143;-0.624258595;-0.618660946
4.985273094;4.586001681;6.524489951;13.90426282;14.45590355;0.660558488;5.26213563;10.53775128;19.19090253;26.67685211;6.18212588;-27.4951819;0.303903582;-4.156378302;-24.6517271;-5.537397933;-5.482976128;1.5362282;-0.063694729
3.728008585;2.443901816;4.708520444;8.451520282;14.42162771;0.608938876;5.461323851;11.14847412;16.45929175;28.33105306;5.808926115;-28.14740437;-2.3467605;-7.079918671;-22.83090074;-5.37719464;-7.317683561;-0.855049373;0.880760478
1.039652143;-2.745462128;1.653705591;1.397620123;12.98332641;0.557541814;5.790409326;10.76560415;12.85471803;27.83230448;3.252996109;-29.80691668;-4.137181139;-6.279528148;-17.38637699;-7.380979456;-8.45211434;-6.958585449;1.675667589
-1.626548302;-8.16472453;-0.768889065;-3.486411284;10.99920454;0.546332815;6.050213468;10.15943162;10.23191987;25.85263226;0.099260801;-30.9398976;-4.161055169;-2.480981568;-10.80805107;-10.9;-8.428128017;-13.79013006;1.899448414
-2.720219175;-10.82061409;-1.039175641;-3.722117856;9.425498401;0.604086502;6.080292538;10.16639334;9.790598677;23.82024349;-1.434246279;-30.28828506;-2.977900381;2.038922148;-6.326681871;-14.21282055;-7.165434672;-18.12389292;1.553910382
-1.68418571;-9.603874945;0.892318747;0.629549849;8.815088049;0.724374615;5.893981514;10.98387612;11.32964402;22.89401504;-0.267906092;-27.77423396;-2.150573087;4.950068359;-5.698871533;-15.72407175;-5.079504411;-18.50749143;1.029226023
0.642793456;-5.976236172;3.510068359;7.162100216;9.099095796;0.86135125;5.6643524;11.99756681;13.41246644;23.14958302;2.551092663;-24.77963438;-3.150972207;5.097171816;-8.304124647;-15.20691776;-3.031878226;-16.0210115;0.774376257
2.596221709;-2.84167864;4.759503108;12.56190185;9.737423108;0.954664202;5.584138499;12.33311448;14.39903993;23.6534964;4.596096599;-23.36292445;-6.345375463;2.791655383;-12.08082723;-14.04903015;-2.022224932;-13.32407157;0.951907288
2.801566708;-2.475769767;3.455882557;14.39291577;10.10344928;0.968746498;5.726299753;11.70341222;13.63537669;23.37597164;4.032194608;-24.77778028;-10.70381211;-0.728273055;-15.25812342;-14.18645452;-2.688360966;-12.72165482;1.350910775
1.042623695;-5.001064804;0.078492471;12.22567872;9.858196985;0.916787307;6.016949229;10.82889781;11.92915714;22.18375084;1.192674678;-28.35070567;-14.40845776;-4.081983132;-17.32892435;-16.46865543;-4.875628376;-14.5970903;1.605400655
-1.680615152;-8.411273765;-3.562339396;7.600265452;9.112448669;0.848824042;6.321926608;11.01236877;10.95270415;21.07074771;-1.598875761;-31.68017361;-15.96330833;-6.271323934;-18.61836005;-19.73836404;-7.591404761;-17.22560419;1.514332671
-3.861761142;-10.00181642;-5.478465551;3.022415226;8.315852773;0.8112732;6.550480082;13.12970763;12.02152651;21.40834144;-1.867979196;-32.17820357;-15.09114679;-6.848817363;-19.19360238;-21.44661841;-9.472478017;-18.00168312;1.192323288
-4.417268003;-8.135871713;-4.652683364;0.663406688;7.957494519;0.809240054;6.682738178;16.80584863;15.15883899;23.80878344;1.012196615;-28.89237084;-12.84590196;-5.913562392;-18.41277147;-19.46595575;-9.552627304;-15.20098578;0.941326882
-3.227730988;-3.185650894;-1.482922038;1.441908745;8.247272309;0.802193083;6.718821083;20.45467689;19.10510494;27.51463544;5.306530658;-23.24044832;-10.88365176;-4.067534604;-15.64801611;-13.7997631;-7.866030554;-9.137064031;0.974895409
-1.04141458;2.817063398;2.599117274;4.815872956;8.951855236;0.73729866;6.629504104;22.2229431;22.18281977;30.79634274;8.274522463;-18.08318407;-10.39260997;-2.259382225;-11.4254788;-6.883476322;-5.471290611;-2.048855069;1.240896367
1.062616566;7.407980913;5.924133947;9.200270342;9.48944599;0.593962317;6.378181057;21.18681872;23.29988519;32.03468257;8.221050192;-15.84489227;-11.40702217;-1.402391349;-7.68085703;-2.169600313;-3.835394412;3.126079366;1.487092637
2.245107136;8.940929683;7.272949575;12.69641076;9.261650108;0.403552431;5.994669914;17.94780503;22.36627233;30.65959791;5.546177771;-17.10843174;-12.95582216;-1.872375782;-6.592850612;-1.943866293;-3.94644789;4.313611372;1.495981478
2.213104272;7.198657585;6.203591394;13.81631565;8.058334059;0.228315983;5.609128686;14.21694421;19.96564128;27.30393772;2.045034816;-20.66048751;-13.90024909;-3.233461931;-8.837496384;-5.889878811;-5.722641689;1.319718146;1.27393406
1.217360837;3.235154796;3.083859575;11.99416487;6.286713016;0.11679994;5.380921016;11.71210123;16.74142812;23.20116376;-0.75350512;-24.73984936;-13.81597782;-4.490303913;-12.8012343;-11.38274633;-8.099660663;-4.188256722;1.032258688
-0.136195805;-1.2481069;-1.024038866;7.76843765;4.829113484;0.072012265;5.364842811;11.15654336;13.09312171;19.41317738;-2.664350394;-28.30503057;-13.24892581;-4.780804245;-15.59526973;-15.26154012;-9.730134742;-9.630368304;0.988519562
-1.136623637;-4.598382246;-4.617023721;2.572199471;4.540533637;0.057346711;5.439546059;12.02829261;9.360554028;16.47052553;-4.460122264;-31.28271433;-13.15953903;-4.019081167;-15.19073553;-15.81917144;-9.827110456;-12.82115229;1.172562717
-1.228000263;-5.743051601;-6.229853775;-1.844370508;5.656010589;0.033437477;5.387818373;13.11889116;6.134850005;14.52148316;-6.572354989;-33.80823765;-14.01427286;-2.968243283;-11.98225271;-13.67022693;-8.604193889;-12.93622962;1.408586665
-0.244059846;-4.482272248;-5.089745798;-4.171718114;7.506576987;-0.006618655;5.08305382;13.39798654;4.200402688;13.6144779;-8.287076544;-35.43449436;-15.28405296;-2.651939935;-8.500297694;-11.01289114;-7.052274899;-10.67508781;1.481303966
1.474952647;-1.509384966;-1.62492308;-4.127988367;8.805840145;-0.034267699;4.622531664;12.55773873;4.011301789;13.71436974;-8.330207063;-35.26425893;-15.80749433;-3.561958288;-7.49578705;-9.924611196;-6.237033959;-7.612915135;1.330700998
3.201945209;1.885092909;2.595568125;-2.522505038;8.408416344;-0.017389576;4.272272035;10.95760068;5.148398498;14.45273499;-6.341016997;-32.97296703;-14.78100126;-5.304712256;-9.927501036;-10.92232367;-6.598257927;-5.17309358;1.100472454
4.196155754;4.39131121;5.634402545;-0.697074934;6.086574252;0.040671801;4.246131836;9.17202552;6.34512069;14.99725945;-3.768610598;-29.67798896;-12.59248886;-6.968445744;-14.39595027;-12.72297468;-7.696964382;-3.839566416;1.0018709
4.154564448;5.320697091;6.295139929;0.348545406;2.79334601;0.089991495;4.499859367;7.572192024;6.228347;14.37901864;-3.139200787;-27.58442138;-10.77757419;-7.884455764;-18.32731764;-13.25213493;-8.539555994;-3.054477217;1.120925756
3.446005478;4.955166405;4.847896787;0.567318507;0.178902217;0.06376127;4.730240778;6.221280783;4.266243315;12.1556697;-6.110318339;-28.41356001;-11.03541902;-8.128988238;-19.82279692;-11.12793619;-8.237886893;-1.805957948;1.343919698
2.924633784;4.343977438;2.823147846;0.747040413;-0.375090707;-0.071891578;4.60511112;5.032363863;1.152585431;8.860852823;-11.9296367;-31.85708789;-13.99523084;-8.355152869;-18.71386083;-6.622582214;-6.577570547;0.526317555;1.465166626
3.395896858;4.615129445;1.955110633;1.69886295;1.409790283;-0.286306992;4.045148545;3.942192447;-1.729511108;5.751515216;-17.71572963;-35.51324644;-18.66682113;-9.138883114;-16.21265865;-1.537104056;-4.157951363;3.64871414;1.375643607
5.070542948;6.216103182;2.98829569;3.344724532;4.551060456;-0.496616876;3.31523399;2.934341185;-3.353981032;3.92959654;-20.47773736;-36.62055816;-23.02;-10.43904792;-13.76172754;1.850151618;-2.048250982;6.493348222;1.160367614
7.378114887;8.590226028;5.192980197;4.467532189;7.419583732;-0.616828093;2.830299423;1.968927652;-3.74415691;3.503595097;-19.27946305;-34.31488616;-25.28427519;-11.64318771;-12.18252073;2.069342566;-1.187752365;7.895926731;1.018007235
9.275824094;10.52577652;6.934810782;3.462760841;8.702938064;-0.609286743;2.822744479;0.992022923;-3.732227569;3.512934795;-15.77780875;-30.50649862;-25.01265638;-12.12547026;-11.67072399;-0.771063934;-1.882502159;7.331558857;1.078294685
9.850260837;10.95720658;6.874514425;-0.346371402;8.083076739;-0.503288838;3.148126294;0.086439019;-4.015689924;2.748100493;-12.72106888;-28.47462932;-23.15598118;-11.78521913;-12.25084944;-5.112806006;-3.668541831;5.22398046;1.284263977
8.818400297;9.679342019;4.91905371;-5.817577134;6.230497882;-0.370617744;3.402539832;-0.389219451;-4.377844035;0.830293684;-11.72103759;-30.17259461;-21.17424084;-11.07800147;-13.93693762;-8.832981439;-5.591754618;2.669518217;1.445706519
6.624330293;7.490058594;2.248206249;-10.34478141;4.211206246;-0.278469966;3.266624886;0.096720225;-3.828789886;-1.364774192;-12.20658536;-34.43737507;-19.94868408;-10.5440379;-16.36083419;-10.35986086;-6.727569019;0.812140965;1.413923584
4.116799236;5.667514254;0.435459889;-11.42506737;2.781433154;-0.253469435;2.794002013;1.853314945;-1.624988466;-2.360151439;-12.39987486;-37.70447181;-19.35168032;-10.3120264;-18.41677726;-9.419002802;-6.647569931;0.284658366;1.217949413
2.059090121;5.137273738;0.334992143;-8.440270066;2.046651017;-0.278204435;2.397985066;4.528017597;1.69022664;-1.338182226;-11.36153304;-36.82543377;-18.72974963;-10.06385979;-18.63871471;-7.044098463;-5.585925532;1.005806939;1.03804739
0.786373969;5.884168935;1.536878687;-3.343794832;1.627619838;-0.315819409;2.536301606;7.018092301;4.198207154;1.009175971;-10.20512854;-31.79042294;-17.7750484;-9.481916323;-16.31561786;-4.892634926;-4.234288384;2.34643561;1.040602693
0.175637317;6.988131525;2.736504945;0.391625796;1.096411217;-0.339476912;3.345777051;7.9402992;3.715233004;2.782811667;-11.31919822;-26.09766954;-16.9598994;-8.710539677;-12.43499003;-4.27600181;-3.302344884;3.483207391;1.22493113
-0.129636927;7.248082587;2.695523632;-0.020322798;0.309089457;-0.344867799;4.524772717;6.454716673;-0.644129558;2.17541647;-16.211889;-24.31700582;-17.13007813;-8.326507297;-9.40429087;-5.45658744;-3.107749063;3.751404814;1.422303887
-0.431465372;5.982923658;1.089504622;-4.800997893;-0.569008661;-0.341349947;5.559972788;2.915978882;-7.632276612;-1.189307582;-23.84967865;-28.64322561;-18.62191393;-8.785900479;-9.43712603;-7.597743282;-3.431558099;2.905942804;1.449456176
-0.800272167;3.49921037;-1.315250292;-11.38421335;-1.263295044;-0.334903987;6.113014972;-1.13370527;-14.44549617;-5.886283425;-30.9930417;-37.09908616;-20.71653196;-9.859804552;-12.75148153;-9.360968916;-3.7081605;1.253339533;1.277641297
-1.07246897;0.936709052;-3.200282821;-16.03421384;-1.583976111;-0.320065918;6.255222778;-3.70750548;-18.34725082;-9.563766484;-34.35363929;-44.80405532;-21.98212336;-10.65478797;-17.12799141;-9.755700457;-3.412040788;-0.411970113;1.062254947
-0.981632928;-0.406289088;-3.517610357;-16.18003906;-1.4681166;-0.287128245;6.368672801;-3.437835779;-18.20496217;-10.41348488;-32.86049939;-47.3596675;-21.29704452;-10.31189381;-19.40770035;-8.704363838;-2.386490357;-1.138503796;1.003209284
-0.336710409;0.151035901;-2.045802228;-11.8540464;-0.919374302;-0.236027644;6.806984309;-0.321185837;-14.91295792;-8.192374783;-28.24039699;-43.80290511;-18.74147694;-8.820265646;-17.89050827;-6.986458282;-0.907218477;-0.354407211;1.160727332
0.836795833;2.27;0.612033407;-5.326073733;0.0075609;-0.182408249;7.599748945;4.296165382;-10.53420854;-4.157820051;-23.53216581;-36.98988015;-15.61061233;-7.184014873;-13.72066703;-5.640931699;0.54446035;1.671853457;1.394965278
2.257462425;4.806648574;3.483047369;0.628127683;1.121623003;-0.14855538;8.437058083;8.455210776;-6.904032731;-0.109411223;-20.82861815;-31.30287785;-13.49697687;-6.679242034;-10.05822027;-5.256413552;1.629878147;3.820097656;1.488798479
3.48485151;6.50422356;5.778358026;4.442385752;2.022666692;-0.14555476;8.933059818;10.58383344;-4.706928411;2.68352852;-20.05866299;-29.56592128;-13.14173005;-7.741126374;-9.625471939;-5.627704797;2.37736147;4.711686528;1.346885551
4.130800963;6.73068847;7.216941945;6.24509345;2.208442008;-0.161435343;8.941965891;10.19204918;-3.532082601;3.954836026;-19.61665496;-31.46531283;-13.94590619;-9.424994661;-12.5944462;-5.980979744;3.128778708;3.614558152;1.090409702
4.088317669;5.803680496;8.006553082;6.987739156;1.382000831;-0.166474104;8.669325145;7.933886039;-2.619879226;4.168004468;-18.06361916;-34.40502868;-14.50982016;-9.991085449;-16.54285246;-5.573731636;4.248524683;1.033218781;0.955483966
3.638270854;4.714294277;8.590812455;7.17833726;-0.244208599;-0.13408743;8.499923282;5.096355157;-1.581520184;3.901588408;-15.34713127;-35.80218905;-13.76320227;-8.25218966;-18.50679275;-4.237236762;5.798423519;-1.524406401;1.079159305
3.338967339;4.452909463;9.364918662;6.386597869;-1.931086447;-0.063454131;8.694582391;2.866767599;-0.578146537;3.420180723;-12.60699242;-34.89922389;-11.80795619;-4.64800106;-17.41671488;-2.49998006;7.40551;-2.538350313;1.364087192
3.733567943;5.393712633;10.51203582;3.896380181;-2.787617672;0.01282191;9.202230921;1.782197244;-0.003380689;2.654073418;-10.98700586;-32.84740681;-9.852080096;-1.157477023;-14.89773529;-1.235873171;8.421864695;-1.54548567;1.551471866
5.041840171;7.132586469;11.99453555;-0.182564773;-2.325988002;0.043952043;9.725474288;1.604732761;-0.098466342;1.43090917;-10.69814166;-31.36122762;-9.330987242;-0.042641667;-13.807454;-1.095089041;8.285197244;0.530405735;1.44983269
7.029601119;8.838301841;13.63827842;-4.44073556;-0.797509787;-0.007724725;9.969524792;1.620172908;-0.852002438;-0.32150017;-11.17858726;-31.30114795;-10.90705757;-2.328550916;-15.78411907;-2.092906835;6.860145034;2.079092901;1.121967051
9.13581348;9.813916726;15.22039887;-6.853468998;0.965132781;-0.137745335;9.868935497;1.154408735;-2.160716412;-2.522261371;-12.03623312;-32.32456134;-14.06524756;-7.12795692;-19.87048947;-3.603807724;4.551384211;2.01399858;0.855803978
10.76185888;9.844474106;16.50633668;-6.115487167;2.108567702;-0.29227415;9.622991746;0.015170766;-3.963340637;-4.952935924;-13.68185795;-33.62168425;-17.5169138;-12.26163078;-23.31600731;-4.746431134;2.117542611;0.532978782;0.924798966
11.52563504;9.114947018;17.24372197;-2.547555698;2.313311551;-0.391133336;9.53214168;-1.38265104;-6.152378468;-7.241896438;-16.90186698;-34.81289195;-20.027306;-15.65310577;-23.80525023;-4.921252001;0.291331066;-1.19110942;1.33034158
11.33419066;7.845902212;17.16556933;2.129501883;1.928781958;-0.372001173;9.775741166;-2.282315235;-8.382134147;-8.864915414;-21.72899269;-36.12007813;-21.05223781;-16.46670419;-21.21645588;-4.192390901;-0.578452981;-2.13173964;1.75013874
10.2851134;6.014547243;16.05206009;5.903720025;1.601672064;-0.23185891;10.29565401;-2.09470794;-10.06932537;-9.301305035;-26.76147795;-37.77436743;-20.81959723;-15.27065632;-17.52146715;-3.299693055;-0.663682649;-2.382679792;1.757820218
8.533737952;3.42566354;13.84813093;7.539438308;1.709736982;-0.039233832;10.85151967;-0.841411512;-10.71625968;-8.361036823;-29.76422144;-39.40465285;-19.94971951;-13.31692541;-15.08309944;-3.281401221;-0.502199138;-3.115470273;1.156145932
6.255824258;0.063871162;10.76969483;6.858175506;2.060361398;0.095546068;11.18511859;0.772926959;-10.32862214;-6.455664199;-29.2151533;-40.12955381;-18.99211147;-11.64168509;-14.91310298;-4.888595049;-0.647897971;-5.498183223;0.163243192
3.71133496;-3.611775523;7.30971342;4.293954707;2.087829941;0.080381607;11.1711099;1.751956651;-9.51890831;-4.500559215;-25.5152744;-39.3167876;-18.19324897;-10.64850181;-16.31357158;-8.093532905;-1.331126224;-9.465148531;-0.703200464
1.296146956;-6.736429181;4.106815676;0.418080089;1.37089997;-0.101536848;10.86640252;1.445205468;-9.103148106;-3.374168108;-20.76661226;-37.25349421;-17.53925828;-10.28047067;-17.95639303;-11.97305264;-2.324834997;-13.41893952;-0.966729593
-0.531506389;-8.46368096;1.734124922;-4.01632767;0.032767634;-0.374410496;10.45232298;0.01242259;-9.453131602;-3.268215467;-17.2226498;-35.00060509;-16.90991008;-10.37438363;-19.16380641;-15.07334659;-3.08791857;-15.21481264;-0.507443136
-1.443468899;-8.420178;0.528084096;-7.708867313;-1.309850941;-0.608441469;10.12501498;-1.628889244;-10.14548119;-3.466414361;-15.67647376;-33.47317318;-16.1849337;-10.7641245;-20.11610213;-16.10131926;-3.092009971;-13.70787227;0.376332122
-1.419548533;-6.830313327;0.546646041;-8.875716043;-2.004494168;-0.695543307;9.999517139;-2.378073922;-10.26344326;-2.835701677;-15.12699668;-32.57087932;-15.28368152;-11.10788708;-20.9084355;-14.58100719;-2.13174887;-9.634255396;1.191991469
-0.764263296;-4.236551979;1.641809339;-6.194431565;-1.84886636;-0.615956903;10.06761558;-1.675367555;-9.174749838;-0.745886183;-13.96517351;-31.22185563;-14.21218469;-10.79444309;-20.62534327;-11.10271906;-0.437116923;-5.101942812;1.582903828
0.065562429;-1.093963885;3.545582995;-0.113462112;-1.209059699;-0.45057775;10.21918092;0.131879537;-7.174009906;2.285064313;-11.6097692;-28.41699693;-13.14591412;-9.234130778;-17.6656664;-7.01391581;1.463487782;-2.085797302;1.523025822
0.702574412;2.386472329;5.886574698;6.698625389;-0.682703652;-0.326715344;10.31416729;2.054201732;-5.430890316;4.795094159;-9.149139587;-24.38437;-12.46912489;-6.404387802;-11.31385032;-3.731641942;3.026342569;-1.124462829;1.257895363
1.012441693;6.029053849;8.165927449;10.60394996;-0.593462352;-0.330399973;10.27305657;3.177238608;-5.213265705;5.372908678;-8.431753014;-20.8255754;-12.66694249;-3.14400028;-3.159579249;-2.079746792;3.942185147;-1.226968589;1.073766591
1.061982526;9.381334666;9.813393544;9.420998115;-0.734739038;-0.444741469;10.13744236;3.312035116;-6.938734198;3.733148594;-10.4039398;-19.85370023;-14.07432952;-0.790321405;3.207652793;-2.014338979;4.219604863;-0.9745034;1.091072341
0.97807444;11.69920497;10.40198038;4.264483215;-0.568380174;-0.559776061;10.05605886;3.095621023;-9.771486212;1.037011431;-14.13196209;-22.35722554;-16.62813616;-0.30025983;4.440737059;-2.828932422;4.093448946;0.183442133;1.228428356
0.832702741;12.36879143;9.929527101;-0.868089945;0.289377955;-0.550924894;10.18979676;3.458921817;-12.08817165;-0.835772776;-17.33546528;-27.0562436;-19.80032911;-1.512710353;0.037571281;-3.628760997;3.855310526;1.553418091;1.328092558
0.632680467;11.45915214;8.929057573;-1.833882502;1.6906251;-0.373131346;10.58816471;4.850517605;-12.49840483;-0.560070801;-17.97148849;-31.05152988;-22.7713421;-3.197947699;-6.872761094;-3.747870048;3.718859306;2.015228042;1.309682766
0.377264561;9.883588781;8.219270203;2.459938991;2.988308919;-0.102874016;11.12491048;6.794463386;-10.71749579;1.742516503;-15.57547187;-31.55842084;-24.73679438;-3.944627449;-11.47230789;-2.910630888;3.767760854;1.245830326;1.221333688
0.089788403;8.903958972;8.371004171;8.911170009;3.451637112;0.105728652;11.55281174;8.123576886;-7.725473617;4.62914401;-11.36708283;-27.64187766;-25.17320848;-3.231773869;-10.64252648;-1.171998123;3.961735378;0.212035524;1.166606236
-0.218382409;9.267045303;9.250526591;12.2665749;2.746580364;0.123565107;11.65491909;7.741169462;-5.163931303;6.34855278;-7.219126396;-20.78707961;-23.96112968;-1.829418018;-5.216050003;1.197567285;4.162307498;0.451957366;1.195411693
-0.5948392;10.64142077;10.03751926;9.03960391;1.13429477;-0.063401044;11.39161188;5.384023523;-4.411420949;5.97461199;-4.465048268;-13.98735941;-21.38319714;-1.176050718;0.727164251;3.774242457;4.179336615;2.751155548;1.264309393
-1.114864572;11.85966658;9.804718837;0.38033249;-0.725547729;-0.341686285;10.93587468;1.859880114;-5.908294024;3.86905443;-3.457130398;-10.02759898;-18.0566499;-2.202203541;3.040772833;6.029554265;3.866431317;6.376288983;1.293003635
-1.761812231;11.84636589;8.287602455;-8.399792725;-2.185804506;-0.54624799;10.56658756;-1.3990421;-9.054790289;1.243571568;-3.959055337;-10.07126288;-14.80494692;-4.531849827;0.703659391;7.465135312;3.254147374;9.562751473;1.250917066
-2.326184727;10.52636125;6.242260713;-11.45715394;-2.933278517;-0.571967077;10.49420125;-3.163293773;-12.6270993;-0.739661135;-5.709951601;-13.31237394;-12.4238849;-6.705745838;-3.480343244;7.831917953;2.630564468;10.86745028;1.186085701
-2.459193361;8.969295298;5.0301501;-6.563573173;-3.034624033;-0.44162639;10.74180031;-3.077831693;-15.41099889;-1.631398553;-8.51531436;-17.69746998;-11.35705396;-7.259672171;-5.20130718;7.280606418;2.453246383;10.2439842;1.171685024
-1.90337117;8.608891637;5.650155228;3.315359257;-2.753660924;-0.282748634;11.15854975;-1.775510659;-16.73068189;-1.718665647;-11.89064804;-21.12597483;-11.43525798;-5.81338055;-2.111131389;6.273849996;3.073678417;8.937830004;1.227802522
-0.751793187;10.12499439;7.918188595;12.1640873;-2.335668881;-0.231861699;11.54124665;-0.408522074;-16.66686458;-1.544850196;-14.85733001;-22.42226365;-11.89941121;-3.326316934;4.309697357;5.272121589;4.429495579;8.325206831;1.298457506
0.484655714;12.87365704;10.45873977;15.12312154;-1.918136624;-0.33681061;11.76615925;0.071346153;-15.90094482;-1.398715684;-16.35288059;-21.66058845;-11.79041904;-1.340818502;9.913727148;4.435078276;5.960928614;8.731842092;1.307411382
1.108908665;15.33191795;11.59516241;11.61314048;-1.573350874;-0.527230649;11.84218559;-0.561400873;-15.25885446;-1.15657408;-16.01025609;-19.8254471;-10.51290687;-0.818655524;11.08330749;3.61949586;6.904527259;9.266331526;1.237466133
0.648827746;16.21742183;10.52863898;5.199630953;-1.370821995;-0.671448533;11.86943194;-1.75781245;-15.17178194;-0.505650247;-14.53838428;-18.0819002;-8.193994051;-1.464519878;7.41450252;2.713958016;6.836055418;8.790263328;1.153331691
-0.82874268;15.40647014;7.934637395;0.591387841;-1.364482113;-0.67452124;11.95583257;-2.605816411;-15.37309577;0.71155529;-13.20197456;-17.05856063;-5.564391217;-2.023080934;1.853970811;2.012252557;6.080230774;7.129780342;1.141888841
-2.72809747;13.94706953;5.514798364;0.259310144;-1.522332916;-0.544345957;12.15472833;-2.427966695;-15.08916695;2.306528756;-12.7630695;-16.52862332;-3.446007397;-1.287388111;-1.665858273;2.2139863;5.614230064;5.411207256;1.224883605
-4.259532095;13.19791848;4.823486711;3.180523088;-1.699925153;-0.379982643;12.44578897;-1.211702302;-13.69138867;3.791881834;-12.86404385;-15.69653581;-2.250688994;0.947077883;-1.130406787;3.916428248;6.422763447;5.177330539;1.329693786
-4.872116307;13.80954225;6.233068712;6.308256412;-1.726331599;-0.295724684;12.74278083;0.370924051;-11.39556089;4.575229204;-12.51732131;-13.95588723;-1.883820192;3.657549887;2.33568411;6.939946664;8.702923551;7.031627334;1.352180921
-4.505230745;15.34277025;8.779817635;7.216023673;-1.553443665;-0.340121099;12.91319734;1.365488922;-9.430953501;4.183164216;-11.31878243;-11.61522338;-2.083514218;5.216630931;5.671721591;10.09097652;11.51714767;10.00155127;1.25766285
-3.531855845;16.75387197;10.94467863;5.700636926;-1.333855248;-0.468031444;12.82141611;1.133569229;-9.384530152;2.466361554;-10.19415471;-9.977340444;-2.819098585;4.407996256;6.341797827;11.71811719;13.24287228;12.20970466;1.124249996
-2.488344496;17.26377254;11.72289168;3.31854127;-1.330555759;-0.580179046;12.40983579;-0.204125702;-12.0446922;-0.242009013;-10.77617598;-10.51666825;-4.304086575;1.182813459;4.079935467;10.78907719;12.59996558;12.31356569;1.080101184
-1.800251847;16.86954019;11.17461572;1.676320745;-1.701009352;-0.594641685;11.78892196;-1.767354859;-16.56871889;-3.105695572;-13.76287951;-13.59443969;-6.549262676;-3.257699284;0.74929311;7.709122045;9.564756985;10.50643112;1.183825922
-1.653848;16.13723686;10.12515549;1.174505871;-2.319914456;-0.496256792;11.25684447;-2.402069342;-20.7138591;-5.026484941;-17.71809975;-17.67914605;-8.879840842;-7.036787615;-1.270294899;4.1848058;5.490058594;8.25079044;1.356833037
-2.01358016;15.5686938;9.378116213;1.184654205;-2.797599365;-0.333463027;11.18123002;-1.391472035;-22.15271012;-5.146302016;-19.63093377;-19.88230882;-9.991816132;-8.490811774;-0.736005033;2.123108805;2.285587502;7.010530671;1.438948257
-2.69183856;15.17723374;9.142034179;1.152629021;-2.709992552;-0.174818983;11.77203458;1.044323472;-20.03245791;-3.368991659;-17.10655617;-17.72946519;-8.720269102;-6.943928724;1.931684008;2.334288014;1.19929487;7.101666751;1.330659431
-3.405304625;14.65516295;9.102585345;1.30684158;-1.890542593;-0.064207596;12.88967769;3.803140758;-15.63297696;-0.523368071;-10.50624615;-11.05515868;-5.029789682;-3.044270571;5.312843944;4.029400521;2.057998027;7.646829731;1.10005127
-3.838079845;13.92397101;8.969473419;2.217313325;-0.576956859;-0.006171058;14.05584431;5.514408591;-11.55691743;2.04854566;-3.128551297;-2.582854533;-0.397625838;1.480354215;8.014318282;5.533286202;3.50829933;7.619432912;0.949604284
-3.759814298;13.47853372;8.92580532;3.761544021;0.696879393;0.017712854;14.7127866;5.340980268;-9.970117149;3.286137511;1.001438828;3.471964071;2.886850888;4.58081429;9.246978557;5.682551421;4.068774913;6.98442568;1.051538495
-3.175353616;14.1185752;9.540309103;4.76924653;1.395961617;0.025395821;14.58277692;3.453453511;-11.16654279;3.056237222;0.13532502;4.01799364;3.146623166;4.87076263;8.836664541;4.806239808;3.207423012;6.853516704;1.378598233
-2.390286886;16.23974593;11.22210384;3.990751025;1.274380357;0.02696612;13.86920839;0.870845791;-13.5242914;2.167678201;-3.834592219;-0.83620434;0.454274061;2.376497284;7.111389855;4.484950239;1.654115719;8.460549796;1.677258966
-1.883954294;19.30521595;13.72700905;1.630293092;0.4840569;0.034438087;13.12683837;-1.206800694;-14.86426313;1.726773381;-6.876571544;-7.753746939;-3.413217529;-1.391860268;4.98476881;6.24656267;0.749750689;11.84884093;1.627235213
-2.018231075;22.0197987;16.18609634;-0.120577505;-0.543437431;0.070006256;12.86910513;-2.104222875;-14.13840932;2.322799561;-6.068573693;-12.28415716;-6.235137139;-4.193884672;3.988842971;10.22129016;1.363925092;15.48098268;1.082153828
-2.769416229;23.15054644;17.66901619;1.56808828;-1.343616958;0.155750688;13.19406922;-1.944968862;-12.13309033;3.67376263;-1.955250577;-11.67529841;-6.905334145;-4.298896837;5.737916785;14.83911084;3.218751679;17.22806552;0.211345426
-3.696795452;22.37708136;17.83099797;7.741446248;-1.63711846;0.289020317;13.71722557;-1.363424383;-10.67994114;4.986065741;1.972906444;-6.440848317;-6.10831603;-1.504716933;10.77086075;17.84382373;5.113014314;16.002218;-0.573729419
-4.202105652;20.50117468;17.12706883;16.17243271;-1.410073242;0.427333117;13.87538409;-0.937947301;-11.06956507;5.689970497;2.296738729;0.319573323;-5.605648263;2.721544942;17.55050707;17.86255892;5.832976847;12.69424622;-0.86802894
-3.905209543;18.85217975;16.45003906;22.34093772;-0.848990125;0.504152754;13.37749362;-0.7952575;-12.98;5.909954562;-1.317510412;5.204060997;-6.714248374;6.120107586;22.70746761;15.33788048;5.024133051;9.604097899;-0.525958855
-2.857956374;18.36518264;16.51820256;22.48281884;-0.200776836;0.471944602;12.45574727;-0.643635244;-14.76563639;6.280162795;-5.659269343;6.665228129;-9.188819499;7.00189283;22.86988203;12.14079716;3.369788118;8.779519005;0.255312709
-1.441222215;19.04537862;17.49796467;16.49180629;0.353877339;0.342429709;11.71856748;-0.122280627;-14.80705926;7.301006061;-6.51323601;5.576254293;-11.37987452;5.221114507;17.06807636;10.2116189;1.993239099;10.5762487;1.072757396
-0.045917341;20.18041697;19.08844355;8.333474619;0.757005277;0.190222659;11.71386735;0.876444206;-12.76701444;8.834119424;-2.122277898;4.067549739;-11.50652059;2.133299186;7.904482785;10.29044215;1.599151743;13.56432145;1.570170219
1.188550317;21.03814953;20.88;3.440211514;1.047928433;0.110980644;12.53348808;2.167671859;-9.732516182;10.19156188;5.298931214;3.7755785;-9.004448509;-0.389373451;0.305650513;11.64984711;2.028160735;15.7910974;1.631424349
2.365877812;21.42247696;22.61082315;4.913015101;1.28058514;0.16020916;13.75197929;3.476861511;-7.209343908;10.72249219;11.25884148;4.895229231;-4.893030028;-1.173710926;-1.56208887;12.89829854;2.522194244;16.31181684;1.397747832
3.585341675;21.64324832;24.1243673;11.35808072;1.432650252;0.315780909;14.72970981;4.62741267;-5.902600916;10.34439535;12.48435025;6.565440176;-0.937992998;-0.360462499;2.918076914;13.10329298;2.420175103;15.72912792;1.125963579
4.698617993;21.99834821;25.17335515;17.98810539;1.365922291;0.491673648;15.03630416;5.518251824;-5.340999827;9.528940394;9.338828852;7.965938098;1.642930047;0.939279716;10.43806642;12.34058218;1.694965381;15.36487463;1.008231103
5.30897521;22.28498113;25.372774;20.1438032;0.881305463;0.59389845;14.68103286;5.962356176;-4.602276504;8.778080742;5.238620397;9.036244596;2.87528967;1.605609265;16.18992059;11.3606575;0.925154987;15.85623056;1.077067315
5.032715019;21.80356402;24.43020384;16.58652931;-0.140802159;0.579991481;14.01298118;5.646196744;-3.400178603;8.120327919;3.678822643;10.2499204;3.641714379;1.345274503;17.31077264;10.8217557;0.782610202;16.43432234;1.23575032
3.806486072;19.8657479;22.45686872;10.16857899;-1.59357538;0.482579072;13.41702142;4.368691713;-2.486852163;7.143314951;5.427183587;11.82053367;4.662957374;0.819829676;14.7173647;10.81753576;1.492295925;15.52915534;1.359903691
1.979604978;16.37715331;20.0240335;5.539906307;-3.104575487;0.384329875;13.0651488;2.399215708;-2.972577385;5.551293285;8.180746228;13.20531838;5.783477837;1.047406255;11.93346132;11.03999421;2.693234882;12.18962423;1.382457583
0.114641712;12.00956378;17.83278314;5.746860199;-4.173069059;0.364545609;12.89401998;0.571115939;-5.179102759;3.687430332;8.800284164;13.41282417;6.157592227;2.575366562;11.90762006;11.27396561;3.759352943;7.096011891;1.312772313
-1.335702221;7.828918488;16.23136636;10.24508848;-4.434832397;0.453020816;12.76736378;-0.134268585;-8.106230056;2.43396782;6.06353795;11.81169289;5.100255208;5.026470795;14.4468386;11.62933917;4.261804791;2.268601538;1.204101666
-2.220615764;4.681430449;14.99139738;15.5979244;-3.893143495;0.616861986;12.63790373;0.684570842;-10.07501129;2.471271771;1.56351559;8.661062348;2.789298248;7.293772427;16.39189239;12.23484924;4.181772564;-0.344563348;1.114660665
-2.638254313;2.794235338;13.55432725;18.07190404;-2.94430167;0.782207986;12.56124628;2.378952788;-10.0608857;3.536948896;-1.886280098;4.869640642;0.176091858;8.192805565;14.39566499;12.72025201;3.745500263;-0.290337425;1.089489389
-2.751883412;1.824658202;11.54807572;16.09090794;-2.149928303;0.873792991;12.57840226;3.528140781;-8.578218661;4.438267463;-2.779413936;1.23982087;-1.800359132;7.119099405;7.978825034;12.10916865;3.097398235;1.082237651;1.154144137
-2.686173013;1.224194937;9.126942842;10.8992103;-1.890890164;0.851174179;12.61232092;2.907522664;-7.317569861;3.959844102;-2.087653526;-2.060572975;-2.968480963;4.338867955;0.253831426;9.420860047;2.148962209;1.665614472;1.299439244
-2.592499077;0.592246051;6.843982835;5.301677537;-2.139795981;0.727668914;12.50094341;0.479893689;-7.79187635;1.973493028;-2.106296439;-5.295092221;-3.95689884;0.827269743;-4.390365018;4.601336833;0.749836706;0.169468122;1.45966682
-2.757191534;-0.195222197;5.191979366;1.706522416;-2.517123467;0.566949908;12.14620437;-2.392944278;-10.10468837;-0.237175209;-4.130821151;-8.452186977;-5.475963929;-2.179681337;-3.804325302;-1.010492384;-0.990955396;-2.965433558;1.515004489
-3.542787622;-1.043844071;4.25461608;0.921252568;-2.589138091;0.457979619;11.63674517;-3.795281143;-12.86237202;-0.841518267;-7.137987731;-10.78599968;-7.509144052;-3.677942062;0.117305555;-5.210828685;-2.561779239;-5.944146629;1.344009567
-5.104191668;-1.712818361;3.800701345;2.291713137;-2.179467611;0.474402416;11.21806173;-2.612204203;-14.28617668;1.097965952;-8.673616321;-11.15589128;-9.173216187;-3.256780198;2.919123128;-6.208900909;-3.26754348;-6.908851054;0.909030666
-7.082391218;-1.81835435;3.71947512;4.68605969;-1.453964531;0.633144781;11.12157228;0.615453343;-13.57516045;4.794373141;-7.111463418;-8.959838991;-9.419116661;-1.23917058;1.242826491;-3.763479792;-2.678583295;-5.134049274;0.313457542
-8.593558094;-0.866626723;4.33737275;7.370333482;-0.721247239;0.874714614;11.39432214;4.027654701;-11.39362238;8.268757233;-3.201110201;-4.841682299;-7.987122692;1.442324532;-4.289454707;0.673348834;-0.961163801;-1.306683165;-0.228076132
-8.653639299;1.541451306;6.229086026;10.19146617;-0.127578224;1.084057855;11.87324721;5.767961711;-9.145360063;9.875282805;0.517057775;-0.469334618;-5.769097098;3.632222499;-9.354815301;4.929486131;1.186420072;3.145731805;-0.506827561
-6.821228658;5.360925338;9.604187537;13.18797989;0.48233538;1.150132974;12.32123683;5.306610207;-7.74614846;9.57426876;1.903645071;2.538383117;-4.206348343;4.49372905;-9.223739651;7.487742411;2.965531001;7.017896148;-0.451912723
-3.602160923;9.861283069;13.80120508;16.15635445;1.405305045;1.033999058;12.60343391;3.752381105;-6.993657729;8.870627455;1.032834721;3.697889242;-4.167396565;3.960678109;-2.470161183;8.26794566;3.963309455;9.837458102;-0.180154933
-0.267735801;13.77875613;17.42204434;18.5760283;2.751047088;0.800783452;12.75590293;2.919661142;-6.037967286;9.447067702;-0.010043678;3.868525538;-5.214141596;2.812626133;7.850753317;8.317376433;4.33837781;11.69095302;0.080866135
1.853958757;15.9005794;19.14054522;19.8902451;4.242486524;0.587294528;12.90362579;3.891536762;-4.431722502;11.65287534;0.855127089;4.413788726;-5.880880907;2.244486632;16.45990263;8.764447957;4.58375078;12.7344596;0.147162451
2.154417103;15.76409617;18.62330711;19.8574267;5.356327863;0.519035012;13.12003906;6.209284288;-2.717773077;14.16817219;3.727477516;6.025884727;-4.787359241;3.116999193;19.68855185;9.91221261;5.064874225;12.9393335;-0.001354705
1.058067499;13.99298239;16.8311047;18.70708653;5.729030817;0.629536957;13.36269624;8.306298913;-1.963137304;15.17070962;6.609902024;8.191242642;-1.739434362;5.338625044;17.82205113;11.14626353;5.693010754;12.2858951;-0.22331391
-0.333283057;11.99248117;15.40741797;17.03088002;5.500959915;0.839480115;13.53516786;8.805155869;-2.656409394;14.01531867;7.275324774;9.704647575;2.027459242;7.819417164;14.20115364;11.61843014;5.983705748;11.12273934;-0.336537265
-0.994950232;11.15912377;15.57137981;15.49963456;5.280039063;1.014258521;13.60261933;7.62091347;-4.023891585;11.94260288;5.408277674;9.739631077;4.651865777;9.103759464;12.04460292;11.0538102;5.459871065;10.22452019;-0.261325804
-0.598027115;12.10328964;17.33311646;14.5436124;5.697397758;1.06169487;13.63939001;6.002561045;-4.485427092;11.13135121;3.026620158;8.540078125;4.906734894;8.32910106;11.79313981;9.999194962;4.105930625;10.36652105;-0.075025291
0.407054006;14.37469276;19.60245881;14.13177081;6.878714415;0.999133817;13.76011249;5.525250425;-2.94080355;12.84721124;2.725797028;7.180265311;3.017936978;5.893368743;11.21157405;9.356605832;2.538758593;11.71775413;0.060780729
1.230773088;16.83229907;21.06480298;13.78531259;8.26979002;0.938516914;14.001812;6.883774337;0.22483141;16.27737697;5.285476636;6.678519278;0.501817049;3.355226205;8.032656416;9.645453309;1.74933738;13.58724692;0.036646214
1.336373741;18.37491774;21.11851733;12.89909291;9.008336582;0.997886064;14.27322178;9.451709754;3.354724471;19.1153049;8.826973054;7.286524989;-0.807190918;2.571301441;2.690124039;10.61201186;2.550189677;14.81438518;-0.11766238
0.757707208;18.54726143;20.16795122;11.25105701;8.598982979;1.204181948;14.42244399;11.89620033;4.853088415;19.47492868;10.38399062;8.546058039;0.152219699;4.580357722;-1.413390545;11.4557959;5.054909959;14.5660373;-0.264615877
-0.02839447;17.67106535;19.11933553;9.346702378;7.370935113;1.461533404;14.36031386;13.26492603;4.529611492;17.53014589;8.590322591;9.95416607;3.143623782;8.932407686;-0.523633024;11.41680608;8.506377486;12.93655519;-0.278771168
-0.512737305;16.4894629;18.55960333;8.220899224;6.323479125;1.612368429;14.12519079;13.62156269;3.778020147;15.43762871;5.113259767;11.51348173;6.91146533;13.89603152;6.100978593;10.22530911;11.57534747;10.86340274;-0.152475055
-0.522328393;15.60921876;18.29907408;8.66307535;6.423353009;1.549510582;13.83445022;13.75508191;4.377916327;15.52155645;3.465247585;13.59083532;9.978138587;17.4278297;14.99976404;8.124223185;12.98843399;9.397175775;0.000970865
-0.311892713;15.10706876;17.60212367;10.36377791;7.860207201;1.297829233;13.57873651;14.30662234;6.900058594;18.19585202;6.079800107;16.21946332;11.42481192;18.3109001;20.70776369;5.590019531;12.15932727;8.885937814;0.047229132
-0.368469616;14.52666683;15.85192012;11.73465187;9.832769385;1.004328682;13.36695952;15.129561;10.07294234;21.3863494;12.09108129;18.58176183;11.23309486;16.77125853;19.74490704;3.100029297;9.487692476;8.727558014;-0.052715915
-1.094664834;13.24768594;13.0814578;10.77710251;11.05480221;0.841285475;13.17118191;15.43512794;11.68034341;22.0078865;17.73850127;19.31580929;10.0848144;14.21968566;13.24046606;1.138923409;6.162541797;7.917991414;-0.209530541
-2.564802391;10.99562932;9.974724316;6.535072252;10.62260056;0.889788154;13.00997677;14.54104655;10.26283356;18.33819771;19.14125823;17.55058662;8.820354722;12.31851469;6.062788642;0.29813272;3.571845164;5.994758368;-0.283869544
-4.465514365;8.172520497;7.400579153;0.033612806;8.603846655;1.085047744;12.96065349;12.50223216;6.203901933;11.35487139;15.20393406;13.84715164;7.900969881;11.98405539;3.122275647;1.164905765;2.634612065;3.628562066;-0.20848194
-6.22971482;5.764451445;5.882129255;-6.183479245;5.920369966;1.260825271;13.0612819;10.03692038;1.300751634;3.93733077;8.31322952;10.18206794;7.182812687;12.94812175;5.787355561;3.908431564;3.412025689;2.335243993;-0.048370601
-7.301139742;4.809157188;5.376496884;-9.760384189;3.642552869;1.261120498;13.19018966;7.834771282;-2.784026749;-1.39958436;2.340994656;8.838711784;6.13080827;14.11726975;11.22741592;7.858841747;5.19053835;3.426049994;0.054277752
-7.41765022;5.697730284;5.436386318;-10.23476656;2.259815771;1.042407858;13.06582263;5.925733223;-5.833708005;-4.35721527;-0.314178158;10.97103166;4.347682086;14.44129447;15.08647152;11.54661985;6.954663121;6.918981911;0.004535427
-6.767565089;7.770888954;5.546767906;-9.328300135;1.484902125;0.699118198;12.42302008;3.749969622;-9.006253053;-6.76545962;-0.210253651;15.90461899;2.074535314;13.67837242;15.1941985;13.39387455;7.948064212;11.24016048;-0.158778572
-5.893261436;9.578764925;5.390426352;-9.448329717;0.699643345;0.399194654;11.2559499;0.916486984;-13.44728453;-10.67079937;0.210115783;21.67534563;0.274572242;12.53432211;13.24980275;12.70063173;7.995690031;14.04083115;-0.291972163
-5.337862305;9.774549588;4.949266626;-11.52089279;-0.374099737;0.275951679;9.922948093;-2.048947349;-18.82843548;-16.25904532;-0.872886762;26.34492513;0.131355702;12.09512083;13.16413612;10.21256205;7.438680771;13.67227521;-0.270116254
-5.222588012;8.119987597;4.486755253;-13.9685333;-1.364276771;0.347421348;8.986473113;-3.750273899;-23.1688021;-21.42101585;-2.978225952;29.07297761;2.200571021;12.96552079;17.52619331;7.750210956;6.791053913;10.34663495;-0.101030684
-5.065349848;5.864163325;4.451604177;-13.84306023;-1.564832274;0.511706295;8.865940945;-2.902708585;-24.23073667;-23.39297703;-3.898272441;30.20856938;5.786024047;14.73377979;25.16588701;7.043762976;6.385904779;6.151592898;0.071676734
-4.056505409;5.07125009;5.269821716;-9.366164236;-0.602852639;0.615735666;9.546272143;0.458345037;-21.41916351;-21.14965414;-1.917150732;30.51283196;9.075704217;16.15752667;31.81641772;8.556278207;6.23945355;3.820859297;0.086752982
-1.693641476;7.198029335;7.020406685;-1.846347359;1.127283064;0.550314016;10.56477225;4.565181989;-16.60907525;-16.55880454;2.362879642;30.30233312;10.1055747;15.96230222;33.30448087;11.16493813;6.171472994;5.007911572;-0.090159804
1.649515766;11.86331103;9.157320008;4.727702392;2.661976489;0.312998885;11.29787386;6.790658892;-13.1236557;-13.28003906;6.235941283;29.26029542;7.99885871;13.71378117;28.67261475;12.98284353;6.03290221;9.183770096;-0.320273645
4.700097656;16.77239751;10.5698688;6.324735369;3.169464244;0.004898526;11.34486369;5.297005197;-13.54656783;-14.20440733;6.985881102;26.99224265;3.627312657;10.16960307;20.79039073;12.75633837;5.841805967;13.90232367;-0.393590398
5.955066665;19.02862854;10.14163988;1.805899017;2.591190296;-0.231045205;10.73837534;0.291839025;-17.98815514;-19.40102773;4.06593153;23.72444411;-0.846304546;6.873178908;14.11491787;10.8108408;5.735058405;16.28344507;-0.20661326
4.662557736;17.04135583;7.572632508;-6.1304216;1.687634985;-0.290356852;9.852445344;-6.047601029;-24.08461499;-26.13;-0.480441223;20.44361787;-3.318384233;5.263064308;11.50862174;8.818714729;5.802691468;14.75618773;0.126665619
1.422183011;11.69432151;3.874057285;-12.78867611;1.426809731;-0.159753511;9.109013529;-10.95650328;-28.68281038;-30.85547118;-3.680182313;18.30524281;-3.088167311;5.877031845;12.59178399;8.526845482;5.955193214;9.937956844;0.329664793
-2.096580795;5.859169375;1.008405317;-14.72612965;2.190965333;0.083816238;8.716849777;-12.78986802;-29.92112934;-31.67837802;-3.947301892;17.79967027;-1.248972246;8.129915037;14.66646312;10.37082443;5.929946159;4.11835532;0.155758062
-4.203677728;2.499247632;0.710915535;-11.95007813;3.43685373;0.32176157;8.617150711;-11.86387947;-28.21708638;-29.39086456;-2.145839473;18.3790917;0.160078125;10.73784539;15.13481954;13.01910499;5.427937898;-0.243679091;-0.421968242
-4.297668858;2.672201387;3.218905942;-7.479802688;4.091852638;0.458588568;8.625512472;-9.918753915;-25.60172185;-26.5222287;-0.622247647;18.85404375;-0.365415456;12.45611095;13.32912806;14.23206658;4.286615619;-1.96852331;-1.17027705
-3.229706834;4.875739683;6.872208625;-4.801242357;3.384299419;0.465841082;8.613504362;-8.712302335;-24.09808246;-25.30481593;-1.147716159;18.23508035;-2.744836496;12.66677661;10.47446556;12.46279204;2.593226539;-1.615406155;-1.742378565
-2.632841364;6.230600637;9.034939263;-5.34234419;1.460426235;0.383927582;8.577657068;-8.832607861;-24.43634689;-26.18856669;-3.540725947;16.36767862;-5.422592846;11.53698016;8.235798072;8.068398585;0.697214447;-0.761098861;-1.907944096
-3.690632736;4.640437155;7.827782005;-7.901298566;-0.692663244;0.286617927;8.572135059;-9.550326718;-25.95173288;-27.91614442;-6.042491438;13.92746788;-6.507038212;9.779541751;7.378532708;3.25027134;-0.873894944;-0.733249867;-1.69880638
-6.247842416;0.33565094;3.476744431;-10.21674544;-1.956616652;0.233660135;8.604916207;-9.681838101;-27.49540798;-28.85041607;-6.979096599;11.8707734;-5.077698701;8.244127625;7.64592912;0.719044273;-1.580723253;-1.751442228;-1.366223323
-8.918200943;-4.330178318;-1.737388173;-11.10264526;-1.878907588;0.240483594;8.609269656;-8.688904801;-28.46251737;-28.33333181;-6.212096356;10.80885937;-1.742121479;7.555601922;8.599433366;1.959807503;-1.100024414;-3.03837267;-1.187808887
-10.0995852;-6.648966685;-4.967771409;-11.26241056;-0.961930445;0.279784145;8.509881285;-7.146185472;-29.1233754;-27.01843802;-5.178908267;10.72465272;1.864564996;7.89210617;10.25023877;6.241802194;0.449439095;-3.694183924;-1.27285079
-9.134550753;-5.546710263;-4.703444095;-12.21978454;-0.254092881;0.308504646;8.307108803;-6.270413813;-30.14087237;-26.09278183;-5.597027315;11.10546059;4.173959702;8.914614347;12.68946015;11.00791433;2.412093968;-3.57128228;-1.509165595
-6.766058198;-2.317361704;-1.73091344;-14.52272096;-0.580259661;0.299551666;8.094282287;-6.93731656;-31.81771092;-26.2028943;-8.004801611;11.27358406;4.566604934;9.872558569;15.15797055;13.36881899;3.76800031;-3.445736849;-1.680083008
-4.587252773;0.392748011;1.517228093;-16.9667919;-1.988715897;0.258538201;7.99778185;-8.955162921;-33.7255895;-27.00819308;-11.33614316;10.68099242;3.517583264;9.924249823;15.795916;11.74326159;3.59099955;-4.371795665;-1.64867946
-3.931485023;0.531814716;2.717886044;-17.57377683;-3.783605366;0.21872127;8.10298997;-11.11257697;-34.94444302;-27.62341104;-13.76458334;9.107827398;2.080083008;8.615544256;12.79369679;6.662109355;1.603821448;-6.749673064;-1.4607667
-5.022031842;-1.939480489;1.22663543;-15.41170794;-5.051693814;0.221314931;8.427257113;-11.92796125;-34.63200112;-27.43181843;-14.01097315;6.813151748;1.195353769;6.281225449;6.235464159;0.346739368;-1.508140356;-9.844007191;-1.291360892
-6.945662652;-5.143676717;-1.631562834;-11.56068067;-5.251522343;0.294156748;8.935688138;-10.55991813;-32.47786138;-26.51980856;-12.06182442;4.603445889;1.278231781;4.047769944;-1.053440223;-4.562604615;-4.300986382;-12.13191081;-1.288320837
-8.372820579;-6.71453043;-3.651655755;-8.308010913;-4.453193856;0.438215039;9.547472997;-7.293718235;-28.81618561;-25.4213906;-8.889052082;3.649402908;2.184075383;3.288016899;-4.811400413;-6.319583353;-5.28;-12.23901176;-1.447487819
-8.435454546;-5.439666854;-3.323907202;-7.271069949;-3.135623228;0.624842902;10.10894081;-3.354728304;-24.47793807;-24.50620132;-5.624579804;4.938740282;3.380295394;4.763435525;-2.197801918;-4.733431309;-3.746327527;-9.813678054;-1.621971249
-7.156204104;-1.965540849;-0.746407141;-8.122689512;-1.781674848;0.803240267;10.38376954;-0.228585245;-20.55884314;-23.61498203;-2.959795653;8.556943867;4.144365298;8.009023403;5.89783009;-0.981570985;-0.263502204;-5.768727081;-1.653539287
-5.243988883;1.791537101;2.663417705;-9.046881184;-0.605185677;0.917411727;10.13728502;1.089716732;-18.15285905;-22.25367245;-1.135067675;13.28995007;3.784640628;11.46358394;15.04236916;3.135443073;3.586839835;-1.778534795;-1.511976828
-3.545783122;3.944152209;5.267010165;-8.481320475;0.432286036;0.930159595;9.315126196;0.530869226;-17.99165323;-20.12339604;-0.252609349;16.99775876;1.956963436;13.37539922;20.04700267;6.015084256;6.055644107;0.606862196;-1.322804679
-2.603848181;3.680526709;6.210058594;-6.537065096;1.41630698;0.845574256;8.192372809;-1.098351899;-20.02910032;-17.48322788;-0.414073246;17.72709302;-0.998943677;12.92898602;18.38342316;6.800039063;6.182532058;0.698409444;-1.258710951
-2.553590519;1.463972115;5.669302974;-4.790382113;2.309012005;0.715680136;7.326677786;-2.572008826;-23.2277618;-15.03241025;-1.511305037;14.93413682;-3.984930389;10.80195358;11.68428521;5.555080543;4.278516781;-1.095260518;-1.386316695
-3.263851372;-1.509458161;4.365474187;-4.649416726;2.950446465;0.620175967;7.266188461;-2.863892138;-25.85439228;-13.43994157;-2.975021551;9.975586617;-5.58189159;8.708755372;4.254305204;3.138934442;1.657619284;-3.54833419;-1.600390324
-4.475222131;-4.042486986;2.903738737;-5.842390253;3.189365111;0.623849952;8.17205761;-1.631218078;-26.30388502;-12.93033816;-3.888232345;5.444687833;-4.890458651;8.206533748;-0.146585472;0.85243185;-0.184419363;-5.192734559;-1.707048198
-5.818188427;-5.380659327;1.487305311;-6.514293202;2.997973486;0.735270991;9.638091544;0.664233417;-24.02070679;-13.23416883;-3.495787666;3.717477712;-2.243983786;9.594810544;-0.703893549;-0.078413531;-0.417297085;-4.916422276;-1.59212604
-6.809840543;-5.284118454;0.100788614;-4.969744525;2.471565533;0.896258632;10.89077701;3.048483717;-19.88012304;-13.87105994;-1.693459413;5.639951891;0.807003909;11.6956552;0.606378794;0.933551241;0.752029438;-2.386538899;-1.333899437
-6.988522942;-3.933355159;-1.168673047;-1.540348609;1.738621385;1.014727381;11.27539309;4.57180041;-15.68999319;-14.48069606;0.955337451;10.18383945;2.386921573;12.66874886;1.298479711;3.466967146;2.348580983;1.821027701;-1.156958107
-6.183885924;-1.844118339;-2.045489494;1.195042863;0.881876512;1.022460173;10.6907011;4.774779972;-13.1070604;-14.95289195;3.688831364;15.20520634;1.528875175;11.27057243;0.670141909;6.193233604;3.30581761;6.444366253;-1.250523054
-4.709294566;0.246707753;-2.274137231;0.260101239;-0.063007317;0.917752347;9.63903444;3.812323156;-12.72368468;-15.34048786;6.040658961;18.69875068;-1.138579204;7.672477628;0.181631657;7.536494998;3.109461513;10.07425819;-1.590280614
-3.242668352;1.653328598;-1.861999237;-5.195843096;-1.054265318;0.760706422;8.835233054;2.195514226;-13.95965879;-15.71719966;7.882319728;19.70846551;-3.811475689;3.314732509;1.797270804;6.618164687;2.052046476;11.81445104;-1.912829933
-2.393206209;2.135552231;-1.081333068;-12.80605234;-2.007666746;0.623965593;8.661635683;0.381810861;-15.75560495;-16.11650744;9.028908884;18.45007813;-4.781626725;-0.014462461;5.955046878;3.925624585;1.012420977;11.73350103;-1.88210161
-2.246577123;2.137866598;-0.229257482;-18.36590325;-2.814548977;0.537627488;8.88867247;-1.45614954;-17.43238499;-16.53789845;8.932668215;15.83271986;-3.631682491;-1.182396337;11.04681452;1.201476633;0.939500344;10.81369415;-1.338444911
-2.263510645;2.579540366;0.591534436;-18.73489088;-3.385451196;0.473576348;8.881412712;-3.318193022;-18.9952764;-16.92838196;6.967875468;12.90302498;-1.457835114;-0.162155218;14.81254836;0.496447683;2.337386586;10.3664458;-0.44818689
-1.667249859;4.214636146;1.430301814;-14.04864862;-3.669057587;0.383158744;8.130580528;-5.064208856;-20.69966689;-17.12604595;3.207811641;10.56515201;0.035139108;2.206942836;16.26433414;2.90316343;5.000522719;11.23806764;0.365955876
-0.066969518;6.983998164;2.229590546;-7.542373291;-3.639277203;0.256566713;6.687098105;-6.237305065;-22.38367362;-16.87386804;-1.035526457;9.512050499;-0.151196657;4.796495711;16.29565239;7.777520031;8.103187353;13.31236578;0.677965495
2.153276845;9.893865485;2.653869045;-3.154159357;-3.293561004;0.150668847;5.154512382;-6.253707657;-23.29308874;-15.99601847;-3.631521578;10.09283688;-1.606328377;6.650714795;16.41081899;13.00575779;10.58929755;15.650511;0.325654825
4.002103556;11.61149417;2.261537529;-2.771505927;-2.694905646;0.155181552;4.24554351;-4.859185689;-22.66191609;-14.64656161;-2.971901446;12.03393791;-2.934688544;7.161942685;16.84310645;16.21133813;11.6848248;17.17568912;-0.490531312
4.514045144;11.40284141;0.941444415;-5.165477486;-2.020664382;0.318731531;4.253671036;-2.474064134;-20.56813267;-13.37537382;0.707490611;14.2916897;-2.917590845;6.114410779;16.00163667;16.15823041;11.29245204;17.41873199;-1.341704825
3.401652169;9.715731226;-0.776830336;-7.256452253;-1.532407476;0.594178875;4.851353527;-0.082909374;-18.23678533;-12.82798141;5.162666255;15.40626144;-1.461929208;3.789301938;12.0095085;13.44886808;10.05530831;16.79430396;-1.840685696
1.259580754;7.931762468;-1.900589571;-6.568427626;-1.427246474;0.852806404;5.359784642;1.327699932;-17.36458968;-13.21233032;7.475097439;14.36366045;0.396069737;1.073035731;5.072732619;10.06497954;9.014211456;16.22415276;-1.862661537
-0.817478872;7.429642526;-1.612511162;-2.969891919;-1.653041584;0.964274704;5.262723635;1.396032146;-18.88503801;-13.96109779;6.015100402;11.4343187;1.369479666;-0.715272744;-1.60352515;8.058628804;8.998379623;16.40651915;-1.576167431
-1.921584689;8.637854485;0.084613396;1.450244786;-1.854257475;0.885157083;4.558961786;0.59870945;-22.15363489;-13.97651082;1.56815974;8.266156971;0.918892375;-0.450268604;-3.611179166;8.251013204;10.0752856;17.28206585;-1.284215345
-1.846560405;10.77424826;2.251347418;4.014373156;-1.556461068;0.688513465;3.696963879;-0.128277262;-25.28715138;-12.41464618;-3.265510279;6.947347565;-0.435700309;1.971007938;1.221507579;9.769514874;11.40715343;18.08099619;-1.204653982
-1.110919502;12.45299741;3.584270122;3.223586253;-0.511651263;0.510829683;3.175824984;-0.08419863;-26.49273575;-9.467714876;-5.952025265;8.551880982;-1.683505936;5.210254011;10.48047613;10.68511257;11.66131289;17.89319563;-1.346040938
-0.531644445;12.69210833;3.297344264;-0.540530805;1.038899887;0.456370616;3.147949248;0.703544044;-25.39987828;-6.484979228;-5.734670881;12.19811415;-2.238373406;6.983461504;18.10288115;9.30139293;9.789575071;16.32917103;-1.549587768
-0.681799583;11.57842783;1.666206481;-5.57236387;2.413820255;0.530968398;3.328753899;1.534279457;-23.35692676;-5.211262783;-3.892977579;15.40249023;-2.425541798;5.367981849;18.32482582;5.262111324;5.733410018;13.80697253;-1.641292581
-1.589223479;10.13606129;-0.172012203;-9.948440281;2.868259673;0.651670401;3.252830928;1.547611424;-22.44369262;-6.61658896;-2.473232953;15.60932294;-3.171510139;0.139918631;9.884713216;-0.19344744;0.612855927;11.30222635;-1.567067824
-2.817079609;9.547569239;-1.012408861;-12.34895546;2.055879403;0.717374458;2.643905381;0.272647506;-23.95250285;-10.17621178;-2.637563345;11.88634072;-5.20310851;-6.818897932;-2.715675226;-4.938592469;-3.756712167;9.77780789;-1.413979832
-3.8;10.32343077;-0.382775136;-12.29402549;0.247531121;0.679728126;1.602399249;-2.177673672;-27.49136961;-14.17895055;-3.996495641;5.59532333;-8.43028362;-12.45924052;-12.0303966;-7.165546301;-5.773650551;9.683925685;-1.31909951
-4.180495035;11.99262337;1.214234505;-10.0410074;-1.851195926;0.56016179;0.488653847;-5.317555754;-31.34827944;-16.87336935;-5.350624901;-0.452096731;-11.97685851;-14.33710839;-12.67870139;-6.372873178;-4.876290165;10.80094806;-1.35253968
-3.951736269;13.46607495;2.741578799;-6.457099654;-3.540676161;0.409589582;-0.37047629;-8.625521039;-33.76040873;-17.60898956;-6.018349747;-3.772305071;-14.76411766;-12.08368846;-4.988394591;-3.593385067;-1.822932599;12.43120289;-1.469833831
-3.376602763;13.75814952;3.378078395;-2.865426262;-4.496351963;0.256355562;-0.903678503;-11.69581153;-34.07046165;-17.12995315;-6.466938538;-3.695919692;-16.13891855;-7.5970116;5.305988459;-0.774909066;1.718194913;13.75483176;-1.562644816
-2.786950484;12.57064199;3.029077787;-0.65089377;-4.816827769;0.092792147;-1.286164849;-14.15379941;-32.93535199;-16.84503776;-7.677290158;-1.584544062;-16.09111504;-3.832591947;11.02995461;0.316802164;4.023672161;14.15601682;-1.555366165
-2.401827331;10.41699243;2.287303981;-0.615289245;-4.777739786;-0.090897596;-1.741383459;-15.56443414;-31.57745533;-17.69459169;-9.89512027;0.274291805;-15.01632805;-3.002502603;8.345161829;-0.928050251;4.143449727;13.43082153;-1.464176144
-2.2539488;8.297823424;1.957141882;-2.478206787;-4.551730841;-0.265132099;-2.3372991;-15.57430312;-30.81824347;-19.5153443;-12.03580916;0.24488683;-13.35126648;-5.343466354;-0.943944126;-3.630820741;2.283501393;11.86677592;-1.374199036
-2.237934304;7.178045789;2.52650578;-5.0243748;-4.147088064;-0.361053295;-2.940285485;-14.25272552;-30.69866788;-21.35080935;-12.44305382;-1.69501397;-11.42717675;-9.169762097;-10.92476933;-5.912208676;-0.409360718;10.17801336;-1.361615301
-2.233924698;7.546363924;3.923045946;-6.95561117;-3.584394174;-0.322115574;-3.344265358;-12.30738633;-30.87427827;-22.36034825;-10.44114363;-4.167098298;-9.590039063;-12.04924906;-15.6181397;-5.947555743;-2.498028861;9.256701223;-1.430334731
-2.229171503;9.224019169;5.629696963;-7.852373792;-3.088890285;-0.164288059;-3.452468759;-10.85505259;-31.25807513;-22.51129042;-7.296053802;-5.488170676;-8.340953806;-12.26305105;-12.65818391;-3.021078891;-2.982615145;9.762258273;-1.514746788
-2.360910373;11.45775963;6.998533361;-8.424761791;-3.050957752;0.014383066;-3.360981427;-10.77411693;-32.20415969;-22.47418874;-5.585604367;-4.810721287;-8.238262734;-9.653679969;-4.311302903;2.016270382;-1.745038497;11.7142016;-1.54087157
-2.842669414;13.24443366;7.548199416;-9.752527266;-3.727516255;0.095346357;-3.283130112;-12.06861117;-34.01523336;-22.8580077;-7.296955124;-2.558174297;-9.565568559;-5.474283027;4.449630614;7.172160534;0.483204841;14.35368998;-1.489988924
-3.808064582;13.77114851;7.127782273;-12.10182273;-4.926110607;0.029888089;-3.379355533;-13.75898879;-36.25286506;-23.49676757;-12.11123205;0.026606006;-12.03606333;-1.500210841;9.202639134;10.40484053;2.582156321;16.4516938;-1.410799622
-5.174307586;12.79371853;5.940019531;-14.37229282;-5.980330381;-0.115714169;-3.623806567;-14.46125223;-37.5904461;-23.44596112;-17.30567371;1.802811708;-14.8149802;0.976204796;8.503028726;10.75246272;3.676920935;16.96837055;-1.373284179
-6.635939012;10.75831394;4.44993523;-14.78010814;-6.111379729;-0.203400848;-3.80804255;-13.28469737;-36.52340609;-21.72565217;-19.48208094;2.468908958;-16.88999492;1.720063477;4.213471328;8.821325617;3.603065779;15.68925069;-1.40724773
-7.820706647;8.565269222;3.193310162;-12.32678875;-4.946987783;-0.127144429;-3.685598371;-10.40785127;-32.49535931;-18.19843584;-16.8971493;2.667680101;-17.54289915;1.493805258;-0.056532057;6.335241993;2.94887958;13.41039581;-1.478951989
-8.516576673;7.075661005;2.526557185;-7.837820189;-2.812649584;0.102710779;-3.165513607;-6.921562851;-26.56540147;-13.84540964;-10.68663234;3.454360478;-16.62135852;1.505338281;-1.185030397;5.03783154;2.646958984;11.50129514;-1.523705559
