Channel 1 - P4;Channel 2 - O2;Channel 3 - P8;Channel 4 - T8;Channel 5 - C4;Channel 6 - Cz;Channel 7 - Fz;Channel 8 - F4;Channel 9 - Fp2;Channel 10 - F8;Channel 11 - Fp1;Channel 12 - F7;Channel 13 - F3;Channel 14 - C3;Channel 15 - T7;Channel 16 - P7;Channel 17 - P3;Channel 18 - O1;Channel 19 - Pz
143.6379614;72.12945277;84.75962195;120.5505891;51.60358744;0.32397382;-36.76027211;15.47163855;103.1490339;96.66193497;118.5925426;91.79035722;43.14930009;32.60683554;58.71737882;46.63579383;55.21455396;36.37226247;12.86973371
75.49729785;13.38105396;26.49286338;79.6651893;44.28565795;-3.330854462;-37.44236509;-2.362346719;58.23574158;41.24728093;69.36762997;50.58578668;29.05891861;34.39033709;62.44651588;15.9731045;5.510862074;15.59210537;8.691952164
28.75898217;-23.91667171;-11.00464258;59.93642685;30.72567708;-5.960892849;-21.53929496;-11.41676962;29.23866348;16.86296112;37.33398305;44.62086638;45.46787235;30.98331743;79.35489911;12.51259183;-8.831767502;3.581507149;1.903455461
15.84197815;-32.9855742;-22.81537943;63.23227921;17.00738664;-6.185731087;0.555105877;-11.50817933;18.46282664;23.48149622;28.98743504;65.16677412;79.27465707;23.58416941;97.05851425;27.08034332;5.330444198;-4.514064459;-3.955063926
29.84243386;-21.65862116;-16.35055013;78.68989392;9.084643162;-4.333521759;14.07991792;-6.560913126;20.05897436;44.59973868;36.90507952;89.30197259;109.4936275;15.40856801;103.3777796;43.43931155;27.82275032;-10.67328731;-6.272697559
50.82611956;-6.068065188;-5.132827579;90.28042364;8.93239135;-2.040370953;10.91429328;-1.623478203;25.13152764;59.62330786;46.67537001;96.91561691;121.2290259;9.797823617;93.79929682;49.01448244;39.3975189;-14.18990564;-4.94202446
60.4275576;0.387486367;0.081248393;87.82617212;13.62485762;-0.949381458;-4.32798782;0.211758873;27.40888737;57.56419723;48.07251095;84.15794739;114.1883975;8.427794755;74.58284671;42.10750411;33.63212212;-14.14545232;-2.086061585
53.53804952;-5.128945359;-3.21073499;73.38161264;17.86634174;-1.543390346;-17.84186071;-0.995745274;25.83491189;42.50209705;41.4359345;63.65171047;100.2293176;10.66;58.58140438;30.96745454;18.4974821;-11.41121125;-0.281007767
38.92902988;-15.43326713;-10.19798398;58.42718823;17.92527986;-2.968896377;-17.05994526;-3.108914191;23.16190887;27.8826907;34.83379179;52.51699815;92.83624378;14.25365996;56.22840632;26.05293428;7.6827184;-8.448570173;-0.703657951
29.74337247;-20.89136452;-14.34894252;54.3938318;14.01319645;-3.882843605;-0.004233632;-4.039282724;22.46184756;24.98113195;35.44223007;58.50540157;97.06985051;16.8188866;68.14143237;31.60069367;9.196770293;-7.463084505;-2.563438837
32.35905698;-17.57676735;-12.90020229;63.98838401;9.52048079;-3.565360054;23.35264874;-3.246545033;24.44463292;34.5662306;42.94284208;75.06653598;107.3037335;17.07036041;84.89987457;42.72885924;19.99613338;-8.856877123;-4.078101768
42.37141363;-9.741032641;-8.314029795;79.75814401;7.991071187;-2.407123417;38.37870682;-1.742810321;27.26412243;47.54020292;50.27416181;88.1635456;113.4177031;15.2394199;94.17669122;49.81498523;29.91022534;-11.35299224;-4.048608183
49.81408038;-5.333622611;-5.36078352;90.36971328;10.32899042;-1.45728355;35.98469987;-0.981655942;28.38007813;53.06118755;50.368123;88.14458854;109.6132398;12.60940885;89.74033075;46.32563674;30.67173748;-13.44016537;-2.73368843
48.16253771;-8.909801659;-6.823593627;89.15191548;14.31633518;-1.49270927;18.30048466;-1.70038872;26.68388854;47.16476542;42.52314643;76.70055787;98.67861007;10.62332345;75.48834953;33.88029593;22.3557658;-14.63144729;-1.426635629
39.30533402;-17.96687488;-11.4316492;78.2395615;16.56823023;-2.406767138;-3.696558564;-3.539144039;23.27263519;35.20660072;32.88007813;63.9774488;88.9155336;10.12769925;61.7476027;20.80082181;12.39687178;-15.43290323;-1.242225949
30.90730791;-25.45378746;-15.37710853;65.74320336;15.1888487;-3.381171889;-18.04585799;-5.49465358;20.51631337;26.83696949;28.94073238;59.39992555;87.03654734;11.09988868;57.21654949;15.61848296;8.772760329;-16.31511917;-2.203237709
29.28787786;-25.91932014;-15.74728684;59.03882017;11.04264824;-3.62502536;-19.10350353;-6.682193009;20.30923483;28.11308852;33.19378816;64.43094139;93.14636724;12.86881105;63.09318802;20.81525489;13.48209411;-16.93281149;-3.349424105
34.31726587;-19.9429877;-12.86299221;59.84208758;6.833891117;-3.02252312;-9.542363177;-6.847090942;22.79818844;37.14471275;41.34339927;72.8803531;101.5328852;14.58892563;73.65239279;31.5684895;21.6050159;-16.45891893;-3.665813741
40.41070294;-13.28154644;-9.722623437;64.48634279;4.940507055;-2.166140367;3.211367934;-6.419140118;26.36367214;46.3116283;46.341254;77.40158642;105.8843108;15.6607573;81.9482659;40.06909227;26.15722893;-14.65252604;-2.960574649
42.07950565;-11.78226774;-9.274215853;68.16072046;5.774750647;-1.804742263;12.54019024;-6.229636625;28.72623932;48.67050577;44.41039236;75.78884067;104.1555189;15.89389035;85.26457321;41.60933167;24.14697047;-12.4550503;-1.949651272
38.74771424;-16.55304134;-11.92790946;68.91445149;7.815822021;-2.215053789;16.12129514;-7.089719399;28.38442666;43.13532585;37.84515343;71.68177259;99.2178291;15.3981134;85.76464115;37.57024788;18.65956418;-11.34069999;-1.550024414
34.69796915;-23.36296458;-15.31476457;68.21340533;9.041189031;-3.021079277;15.7419742;-9.363643893;25.48992496;34.54629315;32.50342827;69.84687401;95.41713194;14.35744768;86.5067983;33.32361922;15.57523132;-11.91522696;-2.061843826
34.64742759;-26.46917261;-16.32448209;68.36865442;8.469682793;-3.566625774;14.77901237;-12.66458449;21.67664383;29.18377719;32.5582559;71.05315494;94.56885638;12.89305907;87.23815773;33.30865803;18.17095143;-13.10977554;-2.957721839
39.26498757;-23.39444988;-13.63550757;69.83744296;6.647390986;-3.478243409;15.74691481;-15.86949515;18.99679767;29.80402177;37.16614004;71.46725984;94.92647966;11.1187417;84.35101857;37.59709227;24.39439418;-12.88310256;-3.413210459
44.66650977;-16.66673099;-8.711134276;70.97580707;4.903245103;-2.933886955;19.27413991;-17.60543781;18.63640321;34.14560715;41.67187727;66.91350309;93.6213537;9.304283693;75.19826894;42.58768412;28.95543183;-9.977406409;-3.056771727
46.10584835;-11.36903392;-4.606013874;70.0838455;4.170526277;-2.4468036;24.25636996;-17.07397232;20.2128047;37.57686677;41.89239868;57.70191005;89.91696495;7.936196385;62.52021572;44.73411224;28.09945891;-5.228896612;-2.264916243
42.32040704;-10.90333534;-3.671204256;67.34520837;4.362215327;-2.39905845;28.35611653;-14.71753477;22.10470833;37.1423929;37.55981438;49.25343135;86.12578114;7.525831644;54.20569646;43.7122786;22.77015796;-1.209720039;-1.77534234
36.6032839;-14.60729637;-5.970322936;64.60520747;4.677592532;-2.744356843;28.62608937;-12.16062802;22.60256251;33.53415767;32.10899337;47.72168175;85.42495933;8.241370096;57.65453671;42.23704;17.54035025;-0.376074998;-2.006608685
33.79486438;-18.94160657;-9.486665622;63.31908588;4.418297241;-3.111195736;22.67719958;-11.28291596;21.09978773;29.74704985;29.38669872;54.48085457;88.74068178;9.651333563;73.10761004;42.95170007;16.50346656;-3.195794356;-2.706030848
36.0483899;-20.79915275;-11.75219884;62.9472119;3.568064884;-3.170905418;10.44884867;-12.95868937;18.486753;28.1440795;30.41272554;64.46649272;93.6776201;10.85591942;91.83946915;45.48157173;19.85538929;-7.780940313;-3.217371965
41.1552804;-19.88731909;-11.55454454;61.6220652;2.715623205;-2.921519036;-4.467001805;-16.3696543;16.46035854;28.73594756;32.93286551;69.97244933;96.52428378;11.00725746;101.4577875;46.50364932;24.04999724;-11.31106013;-3.092214563
44.7457148;-18.32093394;-9.534264181;58.52325469;2.49906452;-2.647670531;-15.51208965;-19.47261285;16.26139652;29.96078711;33.80695984;66.71514311;95.53061372;9.879363568;94.65886456;42.83221834;25.12885997;-12.07991107;-2.479743621
44.18606659;-18.22855214;-7.469794105;55.47157099;3.093800586;-2.624896063;-16.36367853;-20.35513661;17.79307895;30.77304188;31.83957757;57.03432094;92.50892701;8.041547196;74.66922914;34.68323359;22.10888948;-10.56350705;-1.959416751
40.63291726;-19.82691505;-6.987964035;55.78760516;4.129687676;-2.857279937;-5.067000942;-18.50322876;19.78065965;31.75944252;28.56305005;47.63970592;91.32705132;6.452998563;53.02756673;26.03880652;17.49138075;-8.798392598;-1.996819029
37.5660056;-21.67587911;-8.658840402;61.08131595;5.012975049;-3.083806423;13.82039576;-15.04215396;20.80620735;34.18707658;26.5498376;43.99878985;94.61841465;5.754390432;41.4063429;21.61235756;14.6934398;-8.74256667;-2.530376661
37.37405201;-22.57496181;-11.93609001;68.88854041;5.332334421;-3.03;31.11362855;-11.80300749;20.35846941;38.07896072;27.02235757;46.17859915;101.5599343;5.807712055;43.82836442;22.99685024;14.93345709;-10.98232694;-3.053274161
39.22602847;-23.00706366;-15.72439773;73.69827945;5.055582379;-2.662311696;38.1943714;-9.978558247;19.06154951;41.45276573;28.91950772;49.46307446;108.5684467;5.866036724;55.07;27.38395132;16.40876454;-14.6560444;-3.092511257
40.11577049;-24.60364615;-19.03112605;71.04128284;4.468003477;-2.215140685;32.19695135;-9.411749729;17.9764425;41.75122986;30.04349954;48.85593111;112.2055515;5.243468127;65.8525898;30.02;16.34624088;-18.35607609;-2.634875987
37.97088599;-28.16583379;-21.31201305;61.42916567;3.999929836;-1.978222395;17.58628942;-8.989961755;17.67392839;38.30103548;29.03199987;43.38946154;111.7454485;3.918815007;70.04980425;28.27172856;13.84158479;-21.06715663;-2.118235238
33.84802539;-32.29696682;-22.47256321;50.69860349;4.085582512;-2.046889986;2.9696597;-7.702132121;17.9387745;33.46244424;26.37260701;36.63929262;109.3026626;2.534982527;68.02805358;23.73743436;10.76031356;-22.43613914;-2.01528504
31.14904548;-34.19778406;-22.70125;46.11377797;5.060192597;-2.258861187;-4.61574287;-5.437400701;18.32887612;31.14672535;23.77788357;33.33094317;107.6351876;1.763159075;64.06170527;20.55684976;9.868321634;-22.4642668;-2.403394774
32.5693737;-32.10079967;-22.29082362;51.1020787;7.024437987;-2.360957844;-3.925383816;-2.936466563;18.95641115;33.7246007;22.75355456;35.22796064;107.715579;1.576940996;60.99373491;21.43854434;11.99061712;-21.2295278;-2.910305611
37.56194301;-27.14011151;-21.49555361;62.7260343;9.677568009;-2.241456132;0.575979383;-1.098738615;20.5937742;39.907312;23.69978849;39.81786463;108.1979198;1.120151239;57.37965927;24.97028441;14.93319985;-19.02238124;-3.069875476
42.61410428;-22.79853088;-20.43770952;73.84790599;12.25381125;-2.015987359;2.709581795;-0.36364289;23.83405849;45.49748386;26.09414665;42.63672712;107.0861047;-0.610409164;49.64660008;26.67597558;15.29530052;-16.64197448;-2.749569568
44.09472474;-22.20562238;-19.11345324;78.22286761;13.72061049;-1.900386228;-0.663536944;-0.683619968;28.01993296;46.51934632;29.18282079;40.94729255;103.9298247;-3.758481428;36.94669488;22.984746;11.62135136;-15.28602877;-2.259092215
41.16489176;-25.55638237;-17.53280673;74.56540782;13.24118408;-2.000480656;-7.578572369;-1.939596375;31.06633712;42.21568346;32.30248243;35.61781426;100.4864783;-7.131694616;23.8115067;14.67177988;6.03474624;-15.84740698;-2.052883866
36.26605704;-29.92850071;-15.90591329;66.6981228;10.67654165;-2.216392244;-12.82043637;-4.200280559;30.66083636;35.5037361;34.64928476;29.94250377;99.25203745;-8.772897426;17.69588908;6.710319089;2.7612211;-18.12845522;-2.310918799
32.90384363;-31.72352649;-14.67549335;60.14891032;6.799071652;-2.343463841;-12.00458505;-7.446417634;26.09565534;30.61363724;35.12474569;26.86033379;101.2036779;-7.285377774;23.19633821;4.525466233;4.681546425;-20.75312188;-2.783242367
32.7925693;-29.65015289;-14.26569251;58.19989087;3.020609626;-2.267675876;-4.758543683;-11.04614183;19.23943748;29.93517282;32.8662111;27.11765605;104.7814288;-2.967279537;37.89483796;9.722264436;10.83257724;-22.03956342;-3.031415004
34.83168548;-25.67645564;-14.68065229;60.33840394;0.729400012;-2.071145676;5.188106441;-13.68286951;13.64636246;32.61263661;28.20543825;29.63847011;107.0134534;2.133734803;53.56542429;18.81769611;17.02383213;-21.21987768;-2.834729546
36.5916911;-23.16337809;-15.3174096;63.68589033;0.585217423;-1.953104943;12.80671343;-14.11314127;12.24173371;35.79840656;23.04826736;33.1733396;105.8115034;5.376265845;61.94266709;25.97175312;19.10068021;-18.99335475;-2.385956475
36.71495294;-23.87421752;-15.28477876;65.5625453;2.169956092;-2.04421635;15.26462573;-12.29620743;15.25835578;37.20816172;19.94840222;37.31903618;101.4907216;5.129426592;60.37528088;27.3927856;16.15011329;-16.91353022;-2.103895133
35.95540281;-26.52203776;-14.1133868;64.9199506;4.204495456;-2.286650013;13.63816248;-9.876884959;20.04705809;36.69438449;20.33842747;42.00875561;96.29999571;1.723741598;52.84826469;23.81649419;11.02417448;-16.12187548;-2.244134555
36.0218966;-28.10901098;-12.31518133;61.97427015;5.236657685;-2.486187591;11.79823008;-9.344303696;22.99376319;35.67327061;23.35663372;46.37602361;92.47634305;-2.879503188;45.86137127;19.23211492;7.842261072;-16.53205975;-2.668783648
37.52386721;-26.7954765;-11.22364127;57.21116754;4.448620421;-2.482669236;13.39418041;-12.26507154;22.12471404;35.27204491;26.41821425;48.61241093;90.53564645;-6.409913655;42.96432873;17.22749775;8.637721039;-17.16687468;-2.981818843
39.13152891;-23.66991724;-12.05100123;51.22460705;2.152789405;-2.280861083;19.04074904;-17.90600081;18.41861713;35.13375227;27.23124941;47.35761043;89.19738701;-7.643527793;42.63977376;18.17689528;11.92207469;-17.29201808;-2.897871258
38.82973117;-21.79738489;-14.78990185;45.49686536;-0.317878411;-2.027819935;25.57043576;-23.45305514;14.85589469;34.01662214;25.61927422;43.39833578;86.87311824;-6.896897865;41.03079572;19.51132324;14.21920121;-17.24346367;-2.501938707
36.06700831;-23.39518775;-17.87185913;42.79689419;-1.317848972;-1.868404346;27.8606045;-25.86090556;14.01689535;31.49217994;23.56526491;39.8312333;83.33721277;-5.45581861;36.64862811;18.50523115;13.12109246;-18.1193656;-2.164486498
32.6621789;-27.6975102;-19.03820193;45.97752567;0.148187016;-1.81990409;22.16279683;-24.03307118;16.15099245;28.93774674;23.39562238;40.09287599;80.12905292;-4.495347572;32.53096427;14.90700745;9.263042591;-20.58152806;-2.196243449
31.43892885;-31.48068897;-16.94724229;55.60520729;3.74773896;-1.780619898;8.933601412;-19.6577424;19.19160044;28.67462949;25.67714573;45.27475869;79.37498604;-4.317258657;33.75486966;11.10420983;5.685300067;-23.90339498;-2.563543568
33.70337328;-31.84693873;-12.35649719;68.42871703;7.878534295;-1.655039331;-6.635137378;-15.99035713;20.58707756;31.90024838;28.69557428;53.01165516;82.03587558;-4.373650359;42.50211944;9.865621816;5.298749817;-26.25912583;-2.924083909
37.86228231;-28.82466561;-7.890880013;78.48586312;10.52339858;-1.466989252;-16.95313402;-15.45514814;19.38704934;37.30867309;30.00140299;59.04759553;86.99880936;-3.906580693;55.18748463;11.85050716;8.647653605;-26.14953794;-2.945555165
40.56;-25.46342742;-6.400199446;80.58984839;10.45991262;-1.346069742;-16.13521635;-17.87096334;16.91358326;41.79632367;28.65781921;60.32686786;91.69618534;-2.621408959;64.4496083;15.13768267;13.706878;-23.7777108;-2.611251798
39.47251654;-25.28619219;-9.002822299;73.77303456;8.083672905;-1.396866672;-3.577491415;-20.63230722;15.57934818;42.81577773;26.17614747;57.13080918;93.74940906;-0.891566483;64.58741174;17.07450541;17.62351631;-21.12260413;-2.232646214
35.35;-29.28281698;-14.24155129;61.99872928;5.260356215;-1.57652556;15.22633754;-20.67212928;16.91806392;40.4168688;25.28161392;52.58103725;92.4549682;0.577257778;55.9956328;16.63952446;18.77175755;-20.5266818;-2.160454191
31.47428361;-35.04035198;-19.02851756;51.47740215;4.205630217;-1.70388353;31.38785199;-16.69904327;20.43518048;37.19518821;27.58599188;50.05173528;89.17946655;1.292671298;44.92736575;15.15331403;17.48645089;-22.90338596;-2.461683044
30.92262394;-38.7523204;-20.75254335;46.59179756;6.053348739;-1.603062222;37.4609433;-10.07172101;24.10142111;36.13304487;32.21066133;50.7163399;86.55826116;1.31210788;38.78440929;14.79506729;15.18905163;-27.04149784;-2.858814998
33.96308411;-38.36533526;-19.04764713;47.47795513;10.0467377;-1.257182595;31.54956032;-3.784986515;25.94186498;38.13041537;36.53496781;53.15817897;87.10553071;1.176153905;40.76807979;16.42088813;12.99804585;-30.58327087;-2.985363573
37.82131931;-35.17439277;-15.95366482;50.8559941;13.93296076;-0.832373167;18.10505045;-0.455816604;25.37894673;41.29636956;38.34088896;55.05936193;92.01368427;1.550745674;48.07715517;18.75680946;11.13025981;-31.84698067;-2.722715499
39.02829291;-32.56181135;-14.37552814;53.05111779;15.35457982;-0.545226317;4.872164089;-0.809126678;23.3527136;42.56979658;37.42196376;55.22560092;100.6316942;2.844663696;54.76043798;19.68361807;9.418842339;-30.97063391;-2.310135725
36.34317254;-33.0421812;-15.9814108;52.5780761;13.34418608;-0.487034989;-2.030324499;-3.59817334;21.33804431;40.27322947;35.30108139;54.14990026;110.7210068;5.011554214;56.55450483;18.35316277;8.141877047;-29.47068011;-2.127574946
31.77370242;-36.17251119;-20.05164432;50.41904847;8.936503817;-0.558299785;-1.644763007;-6.735911986;20.21997337;35.46531665;33.49299693;52.8859835;119.3290583;7.587052285;53.72610036;16.11687358;8.145523237;-28.6899125;-2.348765135
28.87135286;-39.04947894;-24.05028047;48.34556188;4.500951443;-0.569804488;1.963247009;-8.629279861;19.91656337;31.03940025;32.07477779;51.63297655;123.9714291;9.892285808;49.98135827;15.37769179;10.0726028;-28.54501089;-2.77964645
29.79844433;-38.85;-25.42992215;47.23143373;2.260865356;-0.418708131;3.234560562;-8.823063735;19.84784914;29.43190312;29.95819863;49.58615056;123.6811248;11.30421746;48.90757764;17.41581907;13.49403618;-27.67357099;-3.029496082
33.64600901;-35.18067906;-23.34642227;46.90828994;2.994532061;-0.182085212;-0.599605839;-7.794765418;19.62341422;30.89443207;26.55250193;46.2029177;119.4275858;11.50574777;51.20464843;21.18615555;16.90339393;-24.82056716;-2.862264905
37.33033958;-30.2999508;-19.12681902;47.29592747;5.743311073;-0.04509794;-7.554470978;-6.373753878;19.28278719;33.66978517;23.08532608;42.48621928;113.6083702;10.63260076;54.80796136;24.18503892;18.72299649;-20.21234497;-2.413732255
38.17763194;-27.1913997;-15.29681503;49.17815803;8.627678079;-0.129229502;-12.5410546;-5.307644084;18.99801542;35.71839073;22.08645694;40.74290038;108.8084138;9.239216926;57.22473692;24.58838152;18.47850995;-15.68659826;-2.07965814
35.95697625;-27.25337855;-13.96668415;53.44698509;10.12721134;-0.375172915;-11.25974096;-5.103043364;18.70846864;36.37992997;25.26277695;42.72150818;106.5232139;8.059698616;57.60714511;22.72098712;17.08813192;-13.43282439;-2.171708162
32.74376182;-29.51217982;-15.69083772;59.42867606;9.935447772;-0.58606961;-3.402226237;-5.940213182;18.15980761;36.57199929;31.61786088;47.71088884;106.6260411;7.650194249;56.7531109;20.55875793;15.99348296;-14.38265831;-2.641128973
30.94103351;-31.77934617;-19.42646008;64.1908405;8.885699562;-0.594315341;7.140230416;-7.532372934;17.31140473;37.52840401;37.64607407;52.45312981;107.8596466;8.097191879;55.48265317;19.77819737;15.90532265;-17.55629859;-3.107817312
31.30639555;-32.49320473;-23.389844;64.09498862;8.133398762;-0.406138353;15.08656161;-9.103515742;16.61617757;39.36456559;39.69130336;53.23754909;108.8841318;8.969391104;53.41412221;20.18201118;16.27665672;-20.83408887;-3.165385961
32.65119882;-31.59500169;-26.08223019;57.74307252;8.2633786;-0.198411728;17.43692463;-9.751824681;16.75734547;40.81523521;36.62483206;48.59575874;109.0274899;9.556292246;49.58242247;19.9583942;15.94138571;-22.44804296;-2.699535209
33.27732542;-29.90115342;-26.83723713;47.83702102;8.953501489;-0.171937056;15.33895041;-9.140624912;17.98596476;40.35343108;30.61789801;40.39144848;108.2182983;9.258955008;44.2647291;17.53771345;14.29976864;-21.9848977;-1.95800941
32.69418247;-27.88529268;-25.73665216;40.00343528;9.35598508;-0.388939855;12.90773189;-8.004172308;19.68214879;37.64430081;25.352762;32.40978242;106.3633303;7.906522089;39.91957563;13.3472472;11.96249538;-20.22710012;-1.333706608
32.04335495;-25.20298056;-23.19814983;39.07912421;8.834088108;-0.732010788;13.97170718;-7.892575111;20.65334709;34.0227051;23.18069609;27.66136868;102.9642108;5.830649196;39.81647235;9.847428453;10.291932;-18.18402786;-1.063425609
32.94771466;-21.37465667;-19.64124154;45.63129386;7.483706549;-1.012230607;19.11003906;-10.11519216;20.03547655;31.57990218;23.5967716;26.6477554;97.53050868;3.685983791;45.18658647;9.759346424;10.28962271;-16.26328387;-1.094808314
35.94553879;-16.77708606;-15.41700387;55.52056076;6.080421904;-1.125211027;25.03040898;-14.58484996;18.06360389;31.65013801;24.20843632;27.88023234;90.51478365;2.13924997;53.42854369;13.97323578;11.83738223;-14.23902568;-1.204409489
39.96263061;-12.75710647;-10.91123989;62.93416456;5.526795758;-1.11865024;26.67407009;-19.5282603;16.00918443;33.94236913;23.19501237;29.89036459;83.82681448;1.581913803;59.32746892;20.86744178;13.91929215;-11.8529766;-1.226234958
43.23095153;-10.59684981;-6.62988674;64.49640023;6.213508469;-1.120685477;20.64141008;-22.46456422;15.26064428;36.93686492;21.01551562;32.69476502;80.15966195;1.968121674;58.72271074;27.5125105;15.52899846;-9.32841052;-1.173878378
44.7186609;-10.29931569;-3.164347604;61.22540511;7.739113182;-1.204290209;7.747704556;-21.84402655;16.26903738;39.08895635;19.88838637;37.32548168;81.33252115;2.815024041;51.77523366;31.6555776;16.37946424;-7.265311745;-1.165292538
44.74349605;-10.46561612;-1.064591105;56.9747943;9.170427337;-1.315911503;-6.886453161;-18.12378399;18.22228452;39.80743938;21.60885586;43.98114802;86.82356928;3.371550189;43.04818559;32.86475026;16.80752774;-6.067602338;-1.255120072
44.30468951;-9.545108058;-0.692403569;54.94414371;9.663779934;-1.331994573;-16.32306498;-13.41608928;19.70833954;39.52445425;25.74291032;50.76538241;93.7408388;2.937718112;38.12980232;32.12014843;17.09673381;-5.538181112;-1.357985708
43.91181531;-7.378282133;-2.095655897;55.3133819;9.037823415;-1.186865358;-15.51691073;-9.947704047;19.8021047;39.02510945;29.8464679;54.5145288;98.48126699;1.250228792;39.41990217;30.53968311;17.0042849;-5.101567131;-1.340510879
43.11841877;-5.55229474;-4.928446177;55.83803273;7.921749492;-0.949688146;-4.205227968;-8.524692938;18.68376443;38.75894696;31.50251149;53.26327855;99.00608618;-1.246619038;44.47661014;28.53087889;16.02822562;-4.468389838;-1.180989039
41.20357037;-6.107374579;-8.477902429;54.51032066;7.368628779;-0.775469638;12.66271187;-8.194053006;17.33967023;38.68542725;30.34395815;48.2370916;96.10038474;-3.458165829;48.24814783;26.00893446;14.14696988;-4.080428176;-1.021540996
38.25648182;-9.670848743;-11.87350351;51.62350569;8.161353279;-0.771081998;27.31311925;-7.3112187;16.69682807;38.59222558;28.28261313;43.4571091;92.69254852;-4.111803864;47.30320896;23.15883063;12.2120804;-4.838835876;-1.042089102
35.47720679;-14.70975322;-14.4607827;49.31521792;10.2460861;-0.896454034;33.16499691;-5.071816394;16.98223158;38.40801038;27.80225103;43.00443614;91.75852695;-2.468287618;42.53124723;20.71517265;11.45051204;-7.279723954;-1.268400219
34.25644199;-18.65211822;-16.14992653;49.14864333;12.67128392;-0.992014881;28.28628253;-2.21124815;17.81106652;38.16979447;29.88715556;48.02390564;94.37952848;1.135013861;38.10489589;19.34601104;12.40685382;-10.9072759;-1.508486255
34.83162731;-19.94572596;-17.46543051;50.18435526;14.10663793;-0.912256586;16.27084009;-0.310632366;18.79487956;37.77066538;33.41130753;55.85951589;99.3353563;5.308715385;37.66426136;18.78787865;14.29458188;-14.3147519;-1.505233125
35.83716228;-19.24377139;-19.16992647;49.5428772;13.64192659;-0.651075436;3.930776361;-0.342808308;19.99738548;36.87822586;36.42722082;62.00713069;104.3734309;8.295493378;41.02030987;17.77587955;15.47126826;-16.07708985;-1.188784997
35.32419931;-18.67118807;-21.66016719;45.08331961;11.36317994;-0.350719653;-2.863458664;-1.733361007;21.76980518;35.20546963;38.06678564;63.30488631;108.0116032;8.965449967;44.21797263;15.09317395;14.77116458;-15.74962934;-0.799133711
32.46292864;-19.8629955;-24.57723356;37.73749114;8.32474155;-0.186799198;-2.605961053;-2.764954637;24.15075776;32.88098829;39.26785184;59.87945049;110.4223909;7.510681774;42.94854433;10.89838845;12.59322224;-14.2095037;-0.741686303
28.42154402;-22.58097021;-26.98242718;31.20749422;5.921846432;-0.228172573;1.378134725;-2.01048969;26.48;30.49263288;41.68411439;54.52762742;112.7975712;5.359733162;36.45878656;7.037507269;10.74836614;-13.0901807;-1.266403721
25.5558742;-25.15813975;-28.03102697;29.0659987;5.065999379;-0.390159642;3.720324039;0.38922754;27.69940235;28.67921642;45.83825477;50.34960318;115.86;4.312382306;28.64307887;5.834622427;11.08713421;-13.73300486;-2.227250215
25.51881225;-26.2885177;-27.64411929;31.70268685;5.694769071;-0.51702931;1.098422962;2.666823651;27.15767204;27.62424198;50.27591303;48.70524889;118.8426024;5.412921262;25.2939825;8.231044811;13.99306381;-16.37394924;-3.132204246
27.89238306;-26.38754734;-26.61862573;35.83563357;6.910413158;-0.518490136;-5.290213997;2.665956042;25.22064585;26.95834165;52.55538365;48.96671953;119.8136923;8.277475112;29.62351872;12.843347;17.99378971;-20.03303869;-3.465690154
30.53699833;-27.13879494;-26.03358528;37.14116277;7.607697631;-0.441443243;-10.66826606;-0.568986877;23.11038387;26.20820524;51.23171129;49.79818147;117.1126084;11.31771327;39.5898096;16.83564479;20.83446785;-23.0654953;-3.043878686
31.37151241;-29.59571669;-26.39648797;33.83516706;7.138272226;-0.418041764;-10.33359153;-6.035118871;22.06266058;25.37710144;47.09367901;50.45709621;110.7773247;12.73021991;49.15226631;17.98567135;21.14325079;-23.98656486;-2.133919121
30.05080296;-32.68967774;-27.22944001;28.17107767;5.58902884;-0.539765761;-3.287914987;-11.35071491;22.49393755;25.06175029;42.58254008;50.9282475;102.8618415;11.62502736;52.51542338;16.28810014;19.33939806;-22.16859163;-1.254077621
28.11029001;-33.75515975;-27.46476751;24.58608008;3.576957076;-0.770007324;6.918689734;-14.18293514;23.85358083;25.92212501;39.92469391;51.10158859;96.37407322;8.575042538;48.15866716;13.80344552;17.09585505;-18.17898925;-0.817447898
27.51175227;-30.83952805;-26.34408617;26.08593109;1.80913114;-0.972041995;14.79054461;-13.51144572;25.21867201;27.96132875;39.59217553;50.2292928;93.54518525;5.239115691;39.70893463;12.91735954;15.88565944;-13.65789355;-0.888289819
28.92982398;-24.77713985;-24.06300135;31.91787245;0.75470297;-1.02835341;16.9556607;-9.987736303;26.03953249;30.31898557;40.32667166;47.53075706;94.56486951;3.303439453;33.17512439;14.46170116;15.86479021;-10.69611886;-1.211356825
31.30424204;-18.99210129;-21.59174775;38.40242812;0.585374936;-0.948893843;14.5695442;-5.376945647;26.36172553;31.853537;40.52825101;43.45538082;97.55677899;3.419299951;32.73544762;17.18016761;15.97848843;-10.82145685;-1.453639044
32.99227112;-16.91047732;-19.80781198;42.06063841;1.270427511;-0.875309984;12.18613147;-1.622751746;26.39961864;32.05031505;39.65007813;40.1731339;99.75197231;4.816056513;38.14089791;18.83553162;15.08684475;-14.00249316;-1.449192311
33.38058599;-19.0707203;-18.70519448;42.28811899;2.620252855;-0.975208093;13.95616429;-0.099058593;25.98705155;31.4382177;38.37566864;40.38201001;99.11030439;5.836890816;45.37475157;17.93157906;13.05921848;-18.31821849;-1.269355024
33.40835558;-22.49649512;-17.42570621;41.37920748;4.225426088;-1.310209427;20.09322989;-1.259747125;24.55339005;31.09936727;37.58474254;45.11892397;95.43988938;5.052445315;49.75042772;14.67804515;10.89539804;-20.7654229;-1.103733944
34.49200475;-23.07720636;-15.15770007;42.1038126;5.452394864;-1.780795693;26.36261017;-4.592423233;21.7374755;31.6807936;37.24937743;52.43550937;90.41351707;2.229191267;49.03258677;10.63590968;9.838872956;-18.9909269;-1.083494214
36.87554582;-19.08503829;-12.14357947;45.11762972;5.678600569;-2.187953993;27.04622938;-8.771195961;18.0614264;32.80547069;36.39476735;58.3305126;86.52651785;-1.48635973;44.47468962;7.601972662;10.31603802;-12.95083541;-1.194435746
39.03318299;-12.84413529;-9.847030219;48.46130784;4.715632239;-2.361592593;19.20566436;-12.05420352;14.91783718;33.44717708;34.16224923;59.47520991;85.62725911;-4.29930839;39.40573336;6.717842398;11.6165898;-5.288927894;-1.323924321
38.82887316;-9.023947389;-9.982593672;49.42620745;3.092040343;-2.260817264;5.113950686;-12.97482237;13.68822674;32.94740513;30.89727607;55.62519729;87.88376585;-4.934090437;36.72517922;8.27856932;12.51730421;0.056633404;-1.370350603
35.49541381;-10.87946772;-13.10042996;46.98605099;1.853010088;-1.981284906;-8.875928325;-11.12051771;14.62923658;31.72122454;28.11967181;49.70661757;91.798645;-3.450554297;37.1614851;11.93611055;12.23300599;0.256391981;-1.313833708
30.63480763;-17.55698995;-17.90091964;42.64268732;1.8776955;-1.678245424;-16.15412423;-7.519158864;16.48358627;30.93660048;27.28375369;45.43457501;95.25525651;-1.144908655;39.27982141;16.77507853;10.87971746;-4.608167007;-1.207539055
27.2013547;-24.7351366;-21.95693919;39.09462051;3.166414947;-1.469724806;-13.67780557;-4.216832349;17.25484396;31.38807225;28.4150869;44.40248782;96.91292367;0.398391634;40.85255056;21.22653679;9.166495489;-11.64914768;-1.125151061
27.19428125;-28.06828527;-23.39339577;38.08335476;4.696955767;-1.384455605;-3.340632577;-3.122492532;15.63273876;32.58292525;29.90504454;45.05182623;97.00274108;0.429715311;40.39121837;23.32046147;7.739476869;-17.15106841;-1.1194664
29.99836491;-26.54528497;-22.23479879;39.34177865;5.086573831;-1.374448834;9.644282695;-4.780058594;11.98187885;32.956546;29.74794524;44.33621424;96.95309898;-0.483554481;37.82890603;21.62835927;6.822573222;-19.00565456;-1.208177783
32.84754883;-22.99627762;-20.31871249;41.36603315;3.653605942;-1.365148249;19.85346608;-7.907387766;8.119725149;31.16321931;27.21016094;40.58653476;98.10714379;-0.974600306;34.16885976;16.44113755;6.386395955;-17.84767784;-1.36428601
33.09218775;-21.45100632;-19.79290239;43.00436801;1.071235331;-1.301503254;24.10264791;-10.09271012;6.059632324;27.38372282;23.49832957;35.0668253;100.5042488;-0.008478345;30.63747051;10.10347026;6.498279218;-16.14702134;-1.498389591
30.37273647;-23.71242346;-21.37625055;44.24407541;-0.969958257;-1.166907456;22.04462742;-9.251179972;6.687601284;23.46813304;20.83181544;30.87590149;102.7081346;2.237633832;28.0136438;5.808345955;7.35690811;-16.08317969;-1.462199024
26.84337263;-28.06448144;-23.796019;45.56627793;-0.935248025;-0.978483827;15.28378861;-4.904899124;9.330058594;21.66024686;20.6833717;30.18108725;102.8874956;4.437939452;26.43246263;5.432588107;8.927371308;-17.91056395;-1.115479288
25.25258303;-31.06242259;-24.88315173;46.76202557;1.389177815;-0.773258865;6.227183466;1.528651699;12.40677121;22.86437176;22.64186877;32.22891013;100.3462437;5.098276366;25.52722156;8.063118069;10.61564835;-20.02826026;-0.446969219
26.54490723;-30.65059518;-23.44646496;46.63052447;4.644473406;-0.593676476;-2.479415572;7.571625846;14.52610442;25.86372592;24.79419256;33.89141404;96.27470062;3.703542307;24.6498035;10.59969694;11.48115718;-20.53793883;0.337014868
29.07236697;-27.80340723;-20.37588055;44.01169001;6.801068625;-0.472797256;-8.083636058;11.04811534;15.16162396;28.16417966;25.24131087;32.2877855;93.0546463;1.133493105;23.09014779;10.21106716;10.97085991;-18.90146627;0.860576899
30.10505257;-25.34982242;-18.02410531;39.14128497;6.562485096;-0.421085384;-8.159025192;11.11668776;14.55190988;27.81635278;23.47583399;27.21952219;92.59961453;-0.9870915;20.39867275;6.756222949;9.557203061;-16.33520138;0.782243109
28.31590487;-25.22692949;-18.32283268;33.86149477;4.213832982;-0.423376062;-1.687382451;8.44188695;13.16894613;24.77502236;20.5714335;21.34100638;95.01462484;-1.49375113;16.83586718;3.092124437;8.602633074;-14.71399761;0.039575492
25.04762608;-26.76121633;-21.15644735;30.28696321;1.283942866;-0.453086756;9.787447001;4.574417728;11.3617193;20.75569026;18.18894792;17.96903344;98.62148384;-0.489642066;13.68003906;2.829070054;9.397139454;-15.00184233;-1.049112795
23.22166348;-27.51786102;-24.35032021;29.10172808;-0.678285471;-0.496701975;22.03881449;1.041893045;9.434809408;17.79451179;17.33145902;18.45752423;101.2825476;0.870211227;12.95230851;7.281005947;12.09455942;-16.5393669;-1.933004688
24.81260272;-25.82169123;-25.34046532;29.16174269;-1.2237249;-0.567616107;29.69725359;-1.314327473;7.883512032;16.7499227;17.82832862;21.36462926;101.8977829;1.402401142;16.37127377;14.18553076;15.47208567;-17.70272867;-2.153956387
29.08276249;-22.50633377;-23.21527199;28.90397593;-1.143813686;-0.692056754;28.88917141;-2.49165412;7.341013269;16.94769245;18.77746906;23.99955966;100.8589214;0.853826076;23.97483201;19.39462828;17.80489497;-17.26794753;-1.630618805
33.13047838;-20.2057584;-19.48464331;28.26151854;-1.580249828;-0.873385911;19.45327113;-3.025779718;8.151940161;17.13921909;19.37679618;24.84639954;99.20434878;0.002774452;33.37272048;20.22722289;18.19394593;-15.29167984;-0.697902378
34.30166746;-20.83901837;-16.92660031;29.11383109;-2.903543186;-1.065236044;5.291728538;-3.487702531;9.974406048;16.82770118;19.41075413;24.67593131;97.38058928;-0.138225766;40.48452754;17.6744297;17.25353317;-12.84444231;0.127882678
32.3943713;-23.66939831;-17.39464701;33.55010773;-4.33513356;-1.18374662;-7.468043048;-4.068949684;11.89241505;16.76466772;19.14365525;25.44337406;94.83381523;0.72193299;41.73074707;15.52975985;16.57226034;-10.97003906;0.486452325
29.76561078;-25.82074553;-20.30835047;41.35783528;-4.641084587;-1.159123501;-13.46112435;-4.480859557;13.06418205;18.20396172;18.94165252;28.12895766;90.82773126;1.906638835;36.48938168;17.11311677;17.39398308;-9.85901866;0.371800522
29.27190698;-24.85078465;-23.02053396;49.16716837;-3.299111561;-0.990021973;-10.53189554;-4.242125086;13.37081978;21.60607511;19.05798251;31.63393897;85.66096268;2.456739805;28.09061865;22.36049586;19.62644986;-8.917651928;0.065176403
31.84595448;-21.02629941;-22.78296596;52.46431325;-1.114615763;-0.754627165;-0.406670332;-3.198803256;13.44453129;25.95490615;19.66792479;33.8342028;80.98372828;2.11156306;22.2999484;27.80309439;21.989639;-7.541250276;-0.117857013
35.8;-17.15415895;-18.7915754;49.13948365;0.297546468;-0.562952529;12.49179885;-1.907577566;13.99223486;29.30693691;20.89575558;33.83890759;78.68498183;1.650078125;23.88346569;29.50826041;23.12279586;-5.781783659;-0.056918568
38.41232713;-16.04558411;-12.75402969;41.60626017;-0.202965672;-0.48347816;23.17017727;-1.503750488;15.01657672;30.13889229;22.63558656;33.28219695;79.18588413;2.210900959;33.36930016;26.4869981;22.65942767;-4.2785256;0.133668734
38.35188021;-17.90132017;-7.589571291;35.42346186;-2.27390549;-0.50172975;27.96460513;-2.988246092;15.70045448;28.40229837;24.3373304;35.24188767;80.68083749;4.153984069;46.30943551;21.62804357;21.36519066;-3.570058594;0.253690176
36.7938832;-20.04555464;-5.300952266;35.19818344;-4.224251009;-0.544952578;25.52773641;-6.358837351;15.14473928;25.46299486;25.13693043;41.50500274;80.19294518;6.515572744;55.83754432;19.32212669;20.3158156;-3.500464064;0.204792776
36.26828912;-19.32656216;-5.637383493;40.96910038;-4.255175642;-0.552078073;16.89777992;-10.29012701;13.32256294;23.03122812;24.43929051;50.51233392;75.76930753;7.658655709;57.02014546;21.79357152;19.95286371;-3.323602567;0.057980329
38.31044009;-15.04363021;-6.489839294;48.0975828;-1.869728081;-0.528276764;4.999602987;-12.79927167;11.32123615;21.97710506;22.53314328;57.93361877;68.07684622;6.672377873;50.06790197;27.2809636;19.90636046;-2.427124373;-0.03650831
42.03516957;-9.719377923;-5.610786711;50.92062153;1.659645893;-0.534805344;-6.164883799;-12.59697948;10.52566908;21.94666118;20.60173061;59.68550462;60.05862765;4.332375607;40.09837776;31.61156916;19.68334687;-0.9984124;0.003779231
44.91115258;-6.957796977;-2.296732276;47.30088006;4.166756361;-0.6207098;-12.61352014;-10.15904694;11.3833962;21.98538289;19.92278879;55.08998789;54.88850162;2.696752046;33.53408626;31.77548804;19.44723226;0.003210776;0.126298562
45.02991494;-8.292360414;2.191890282;40.38722027;4.173248836;-0.756358195;-11.73324677;-7.579893331;12.87556027;21.5617558;20.81302025;47.60072497;53.86827603;3.5285405;33.68556449;28.38578708;20.00031131;-0.427979689;0.206578062
42.81864513;-11.89224548;5.661057385;36.12617033;1.985994657;-0.832085672;-3.516077905;-7.115780601;13.28558322;21.11655283;22.24138649;42.39139901;55.91643154;6.784344124;38.71945301;24.91159879;21.86804274;-2.545786631;0.170729767
40.64361485;-14.33151964;6.569748806;38.52;-0.518897697;-0.732226709;9.011249476;-9.408357453;11.70584576;21.70512551;22.56808278;42.60158992;58.89944443;10.46452086;43.45255855;24.41321485;24.34290204;-5.660653112;0.060131967
40.65012999;-13.81687743;4.968403691;46.44213446;-1.26560089;-0.428602765;20.74017104;-12.79619737;8.969607728;24.04440038;20.88920716;47.12411992;61.50127062;12.06436178;43.51574431;26.69812362;25.54129869;-8.686091303;-0.01602082
42.78412173;-11.88991717;2.198624263;54.50777667;0.513641141;-0.015369295;26.69919;-14.40784182;7.080618554;27.72989695;17.85223883;51.60597001;63.98817592;10.53593356;38.63007813;28.43471989;23.69113675;-10.91881983;0.01220446
44.79581907;-11.98347651;-0.258315182;57.19835727;3.7304429;0.349009621;24.52866835;-12.33840387;7.49053619;31.24128135;15.1794722;51.81699039;67.36179283;7.184076177;32.48087326;26.14557542;18.69737387;-12.39503071;0.112116027
44.25046565;-16.1190138;-1.825795573;52.90100722;6.224013122;0.551162669;15.774096;-7.243826221;9.659195423;32.77049086;14.24496847;46.74902076;71.91253372;4.726448425;29.41590647;19.45373318;12.6035113;-13.59527675;0.184791443
40.75025943;-22.81421103;-3.021949487;44.78317098;6.280386787;0.597760907;5.056160673;-2.008883841;11.22564104;31.33150128;14.92715514;39.13692063;76.6674993;5.218277445;30.75305638;11.71062463;8.35894599;-14.8552357;0.161524883
36.35391051;-28.22488595;-4.783788426;38.10345568;3.794551041;0.596231523;-2.573749516;0.387838505;9.81600567;27.42520378;15.77477393;33.19426668;80.25314187;8.472966216;33.77260543;7.405781902;7.717176031;-16.04456642;0.067173007
33.78908402;-29.55591787;-7.556879471;36.33501467;0.287233376;0.658154189;-4.555523069;-0.792908867;5.082187754;22.81772345;15.37844769;31.49036195;82.2430105;12.22344627;34.22202124;8.555821007;9.919301583;-16.75623165;-0.007143695
34.05921583;-27.5808801;-10.86970007;39.10746717;-2.174981181;0.806125008;-2.163304865;-3.386539449;-0.74684106;19.53795183;13.73254581;33.38969426;83.57531996;13.87670236;30.20179988;13.15208525;12.28656757;-16.75113716;0.007609248
35.62834362;-25.81824134;-13.65795915;43.17317348;-2.362061533;0.961592627;0.655298685;-3.941766455;-4.370239542;18.68176349;12.3254006;36.05659928;85.59830533;12.45889214;24.09281716;16.95771797;12.32543525;-16.20480596;0.094160384
35.95731986;-26.99853725;-15.01992464;45.11828932;-0.623343533;1.022253051;0.218069579;-0.417129588;-3.849761712;19.757154;12.80907673;36.95397724;88.75968222;9.249654086;20.78240638;17.06156473;9.686961533;-15.55311544;0.168016372
33.99938163;-30.12371536;-14.81246004;43.4824307;1.454593719;0.960531222;-4.156511579;6.152745528;-0.030153093;21.01992901;15.40632704;35.71997442;92.37782502;6.706814672;23.56736649;14.12781884;6.398522851;-15.14075877;0.159005811
31.31460387;-31.09647917;-13.68559458;38.96709682;2.172238549;0.855298048;-9.5325809;12.35512178;4.209794382;20.65751314;18.51936178;34.0287176;95.78062;6.640555075;31.15485853;11.47496937;5.176254769;-15.02583326;0.076854182
30.66165679;-26.66944723;-12.59585781;33.28093452;0.838130026;0.825404289;-11.34960723;14.9286112;6.263805799;18.09985713;19.98179912;33.80217405;99.47782808;9.090711107;38.38315397;11.89588818;7.195049172;-15.07003906;-0.000104035
33.26345718;-18.17179754;-12.18741261;28.09494108;-1.833279821;0.919500883;-6.688185302;13.13762609;5.774823813;14.55522203;18.91566271;35.43833243;104.7149804;12.64630398;40.2334348;15.06111336;11.13484416;-15.12310152;-0.000249302
37.30551081;-11.25080351;-12.46384405;24.88956053;-4.253123548;1.058805575;3.455801848;9.148428116;4.684085976;12.29166829;16.54912728;37.54501643;111.3833817;15.70826301;35.91075367;17.77881474;14.26382653;-15.05159976;0.074243196
39.27124381;-11.24200809;-12.92261044;25.13458015;-5.029612994;1.089574793;14.48761397;6.182569359;5.370039063;13.029692;15.20712695;38.27677791;116.4528913;17.51841281;29.59695894;16.86083111;14.63868888;-14.62155258;0.151127555
37.15852717;-17.95942608;-12.99852039;29.78383222;-3.8812749;0.910290659;20.91761173;5.989830791;8.478767509;16.52780416;16.29082087;36.99445202;115.5062643;18.18763028;27.13845801;12.08265717;12.5934171;-13.50344556;0.157368004
32.70423847;-24.85070401;-12.48046677;38.01294542;-1.826290039;0.570701188;19.61361932;7.662938236;12.27652508;20.45514257;18.99723648;34.74580422;107.5265438;17.99080822;31.27241255;6.664216753;10.29600303;-11.58852932;0.08761908
30.31207264;-24.15165837;-11.61999092;46.45457987;-0.541689965;0.254857616;11.47101727;8.656656783;14.05640901;21.81810433;20.9373449;33.13534238;99.45498728;16.85932087;39.25234203;4.835636938;9.759351975;-9.408071629;0.007885801
33.16369839;-14.37811532;-10.88052808;50.34056005;-1.287681394;0.150304514;0.583497722;7.070039063;12.41238741;19.05616695;20.17423195;32.58017818;105.5389755;14.68583946;44.83740731;8.508137066;10.96516559;-8.152563109;-0.007654811
39.68664058;-3.744731822;-10.52725721;46.46890195;-4.050895165;0.29989798;-8.252253491;3.290251931;8.494473435;13.30907533;16.94886473;31.53810579;139.3209917;12.09720214;43.09237271;15.76075023;11.66344593;-8.996466893;0.053762376
43.70871593;-5.65037779;-10.37159388;35.99379312;-7.4366454;0.554035485;-11.89975088;-0.284206359;5.228487869;7.83767176;13.60084634;27.55097562;201.9643331;10.71032647;34.18629628;22.27547216;9.051087619;-12.07370028;0.132641309
38.82896297;-28.61306041;-9.88446043;24.56781491;-9.405483291;0.668616715;-9.765564584;-1.113281203;5.154411704;5.893871493;12.73027557;19.45820807;275.0648206;12.24938571;23.21675797;24.43789343;2.035456232;-15.9512146;0.154112879
23.92146126;-68.04068369;-8.630354475;19.10697616;-8.447498329;0.482123265;-3.190448142;1.583889582;8.607322946;8.520541299;15.14525573;9.084362905;324.9639228;17.01088625;16.30649959;21.6172558;-7.652502663;-18.24827337;0.098182281
5.304107587;-106.6778848;-6.717029945;23.16732739;-4.510125884;0.041207465;5.626176769;6.351460016;13.5960938;13.87601493;19.29600352;0.938739733;318.5524993;23.00232251;16.16435353;16.04481929;-16.31591203;-17.17003906;0.017521704
-6.661089806;-124.4529128;-4.894740829;34.32453628;0.882677303;-0.420621916;14.21786546;10.64814896;17.32003906;18.57262877;22.59484641;-0.150948566;242.1362464;26.78348788;20.59282453;10.78401974;-20.45403011;-12.86364514;-0.012880593
-4.479783824;-111.2944028;-4.154643576;45.67448791;5.414833411;-0.638137569;19.94706425;12.56332783;18.0263454;20.01755832;23.4224405;7.977154493;111.4282567;25.71310186;24.90897059;7.692490571;-18.68099877;-7.46836683;0.033913987
11.06650606;-73.8901482;-5.048382083;50.48451778;7.220957761;-0.4914691;20.36091228;11.77121318;15.82888504;18.01866502;22.11969958;23.2082869;-34.59942884;20.01480641;26.0658829;6.918971086;-12.18714278;-3.68401951;0.112372281
31.17351588;-31.49914409;-7.210990826;46.58626867;5.863651279;-0.079115436;14.32227153;9.223397569;12.12191246;14.54068994;20.25551856;40.05225893;-153.0968137;12.97549218;25.02508452;7.881687522;-3.691747666;-2.896275647;0.148044768
44.9194184;-3.758884123;-9.487744132;37.32564117;2.485990418;0.359632507;3.36544102;6.157133588;8.361248964;11.95944133;19.00857252;52.53630867;-218.3427618;8.895572891;25.54935358;10.38408135;4.147741035;-4.33572152;0.107431372
46.53551254;0.963063125;-10.65219749;28.60572993;-0.912148888;0.609008512;-8.079578186;3.379450263;5.29747016;11.28150033;18.21098482;57.26620777;-231.7819106;10.15662181;30.6024577;14.65564552;9.768922007;-5.953792905;0.028643322
38.73524648;-11.10882776;-10.24207544;24.54437719;-2.600516674;0.606553652;-14.50434401;1.262215044;3.089007871;11.69381545;16.87459318;54.78235359;-215.971096;15.55183994;39.43229463;20.38802616;12.76512808;-6.280623857;-0.015120019
29.85037063;-25.6029716;-8.897813419;25.10741104;-1.968461868;0.452398984;-12.50380879;0.081650488;1.827251407;11.62589903;14.57459493;48.54288336;-197.8914689;21.15565572;47.71026712;25.95945779;13.37586398;-5.684512115;0.015727831
27.24579656;-30.71581009;-7.917166725;27.20402285;0.351339607;0.307346514;-3.19570087;0.06943672;1.723845022;10.27235012;12.25316181;42.44847002;-193.2858036;23.12097492;50.53447714;28.92294185;12.08281347;-5.943725633;0.090725191
32.16291071;-24.31785586;-8.320613813;27.84069078;3.049014278;0.26814172;8.155540862;1.02108681;2.734930798;8.255084735;11.5707295;38.66992583;-201.4871935;20.34851634;45.86929233;27.61;9.610997526;-8.493419469;0.13866157
39.73891796;-13.11614108;-10.10984367;26.47218822;4.951922662;0.313199203;15.4673232;1.970937101;4.12847209;6.958188503;13.33838988;37.10423488;-211.8648545;15.09565706;35.84498068;22.54942318;7.074459978;-12.88545405;0.114425412
43.70983252;-5.811736421;-12.2718366;24.75382008;5.575062105;0.346423578;15.94525208;1.545592527;4.664849609;7.24086786;16.49867063;36.46808484;-215.0292726;11.16943402;25.19871892;16.41400062;5.817371498;-16.85543848;0.040672906
41.68491493;-6.232919402;-13.51395857;24.36452005;5.158227049;0.288632015;11.92652207;-1.025305126;3.46787471;8.700364975;18.70391632;35.86546995;-209.9517374;11.13742708;18.31628391;12.40021518;6.829552067;-18.01503246;-0.01411777
36.72359546;-11.47844802;-13.15490205;25.18804195;4.309605518;0.1376819;8.925630856;-5.033932119;0.891088065;10.06918475;18.12933511;35.50196625;-202.8088743;14.62587998;17.08180016;12.24575599;10.10848032;-15.75543852;5.11232E-05
34.21296358;-15.52730014;-11.49713727;25.55620423;3.583685546;-0.043640248;11.22420632;-8.451856974;-1.479283004;10.28689701;15.02086414;36.11179619;-200.3023373;18.83929879;20.69494464;15.36307173;14.51060294;-11.72136461;0.068401901
36.9409553;-14.54622773;-9.4517243;24.15827371;3.260871797;-0.187221714;18.35381125;-9.233981231;-1.866987868;9.247324708;11.64495362;37.82923575;-203.8886445;20.73582195;26.92390408;19.60688736;18.30977322;-8.424769701;0.125917273
42.59860969;-9.465399967;-7.803204641;21.61543492;3.372218272;-0.266272664;25.26398651;-6.847685258;0.36423197;7.630509132;10.64003906;39.6936781;-209.4480753;19.15634164;33.42711072;22.88630275;20.13785031;-7.182696615;0.118419534
45.7459231;-4.297381948;-6.767724729;20.07991005;3.829247669;-0.290143539;26.15194533;-2.771086948;4.186659299;6.13540824;13.0975574;40.35494865;-211.7417572;15.42197888;38.30361159;24.3034768;19.68357135;-7.169316362;0.052825078
42.48750304;-2.325157716;-6.185720432;21.15723649;4.50467428;-0.263010801;19.02522312;0.542528064;7.658869311;4.948518058;17.87673465;39.39053202;-209.1536951;12.17771433;40.12569502;24.11601894;17.70972413;-6.413407119;-0.010006142
33.89858015;-3.644516251;-6.078302098;24.12291948;5.229654153;-0.15777097;7.413046366;1.476148275;9.347759541;3.942388878;22.57793556;37.98130662;-204.6311168;11.51466774;38.17639653;22.91659166;15.44692994;-3.861414511;-0.012478551
25.37207504;-5.84455149;-6.935209918;26.22849489;5.785797193;0.059662961;-2.169405098;0.390714829;9.246974426;3.273618959;25.24591698;38.14889983;-202.5149118;13.73783105;33.05824558;20.98532913;13.83181371;-0.655147863;0.04624142
22.47402453;-6.688508645;-9.336980743;25.00117578;5.967675119;0.373239597;-5.060341177;-0.831445464;8.464203803;3.590752025;25.42148508;41.00856084;-204.5158509;17.46620888;26.98501718;18.37323496;13.0876747;0.586816345;0.110100511
26.71514482;-6.125646622;-13.16398041;20.56034224;5.691988871;0.684341424;-1.818122532;-0.450699551;8.034075435;5.454991983;23.90486805;45.47843632;-208.4547128;20.73157581;22.97356256;15.41743151;12.83260279;-2.030495579;0.118890777
34.5921015;-5.933851242;-17.13560752;15.84082628;5.047289168;0.849106684;2.507020509;1.654309967;7.970874245;8.454782315;21.76549483;48.6964708;-210.5881585;22.17849777;23.08601316;12.95245367;12.52622638;-7.83827435;0.064235466
40.49141963;-7.617722156;-19.27627082;14.39159961;4.208045731;0.772164401;2.588268095;3.921787223;7.424547296;10.97317023;19.64392121;48.07145739;-209.1178062;21.64962425;26.97476974;11.86272805;11.90085872;-13.73607654;-0.003208004
40.95132404;-10.69654578;-18.17420236;17.54254343;3.261659883;0.488098379;-2.816718621;4.468531772;5.765084001;11.09583427;17.85862898;43.47085063;-205.6602684;20.02888804;32.07045742;12.38031054;11.12178459;-16.29562111;-0.021455513
36.86907247;-12.98031452;-14.16401225;23.31152498;2.101035015;0.159948481;-9.774754837;2.693459886;3.532265624;8.086577489;16.88182786;37.73920422;-203.5358319;18.66161253;35.5141863;13.86385164;10.64166779;-14.20225816;0.025112211
32.13044489;-12.5178531;-9.463851708;27.94199103;0.510309667;-0.017134144;-12.17071398;-0.230648871;2.268606668;3.189355321;17.37122033;34.91405837;-204.646381;18.71534243;36.35774178;15.34274293;10.88062287;-9.123550226;0.091751413
30.11506543;-9.40917776;-6.987774052;28.73094097;-1.581182448;0.056198951;-6.427672048;-2.344111923;3.258969024;-1.059280366;19.51028037;37.30766545;-207.8353349;20.65925398;36.11214727;16.3233045;11.91114352;-4.387629722;0.11555531
31.10280383;-5.872348077;-8.540537135;25.78793754;-3.862976475;0.317364285;5.653122257;-2.467454663;6.244077293;-2.588506515;22.31536098;43.61866213;-210.1016725;23.93931831;37.00517071;17.04229014;13.29924113;-2.602920547;0.07405342
32.59012955;-4.535145921;-13.61925245;21.41324029;-5.641534937;0.588338672;17.97471983;-1.00302039;9.305622157;-1.230874961;23.835996;49.57366827;-209.4073685;27.00069234;39.35042554;17.87740602;14.20149483;-4.093150312;0.005638595
31.94403736;-6.414713868;-19.66803211;17.90597947;-6.143115719;0.701341857;24.16969345;0.645598505;10.17379938;1.351280962;22.43207228;50.73213509;-206.4741628;27.84575005;40.44766259;18.50908499;13.73542715;-7.200276161;-0.026717235
28.92060792;-10.1980925;-23.62349572;15.89288079;-4.968458237;0.610181979;21.52216327;1.424833492;7.975217056;3.175719566;18.20358181;45.45802592;-204.0155491;25.08015112;36.36968557;17.79052441;11.50258398;-9.909480463;0.005831032
25.88419952;-13.25477669;-23.70413236;14.59547449;-2.409816335;0.40591558;12.12833451;1.5063957;3.99137911;3.569092181;13.26528652;35.94394542;-204.2158614;18.95882991;25.55232929;14.69028363;7.993707754;-11.27187915;0.071590734
25.6679954;-13.43128808;-20.28439181;13.51390378;0.59919601;0.230767424;0.941744403;1.933626041;0.753407122;3.496025694;10.38947826;26.64788704;-206.7804133;11.68786092;11.29434144;9.602210354;4.569434606;-11.51853316;0.108373159
29.03092376;-10.25463954;-15.40058442;13.62889916;2.906080366;0.162903327;-7.409510032;3.430938198;0.146595331;4.336488731;10.94534978;21.3968977;-209.2551285;6.52856568;0.745578872;4.769330321;2.891182389;-11.0889221;0.081513579
33.90379511;-4.896223721;-11.39212933;16.70360916;3.701471656;0.16421146;-10.67974219;5.521831484;2.012773653;6.273681744;13.79332696;21.25950764;-209.2280909;6.025167637;0.552784517;3.142725687;4.02342266;-9.781631653;0.015748716
36.9940385;0.690266671;-9.676019762;23.17105203;2.897446461;0.128990723;-8.981418319;6.796653666;4.337006417;7.836758699;16.11648505;24.51053071;-206.3997056;10.40226735;12.07381511;6.29788507;7.717352317;-6.996937566;-0.028342288
36.31801036;4.604456116;-10.3810312;30.64516104;1.113875848;-0.011863066;-3.555974071;6.104871342;4.82658673;7.111418034;15.58902136;28.33871756;-202.7405981;17.24158476;29.73019254;12.95980931;12.37308975;-2.85464106;-0.010900138
32.5549867;5.374217743;-12.83137404;34.78873615;-0.695718597;-0.221147615;4.11555913;3.592602617;2.598352192;3.583107804;12.13820094;30.75877927;-200.7261269;22.786712;43.98067918;19.3924765;15.80577086;1.018255967;0.05045288
28.23973555;2.109100269;-16.27994957;32.2678383;-1.74109431;-0.38014847;12.19748567;0.634272639;-1.330310827;-1.086792258;7.866821417;31.35258562;-201.2955009;24.12535967;47.07345479;21.55324303;16.42447083;2.068489683;0.097539323
25.65797273;-5.155211618;-20.26765443;23.54906554;-1.730645738;-0.38858068;18.09898133;-1.303640266;-5.027512055;-4.184575374;5.236283299;30.66854226;-203.2914454;20.86;37.69533574;17.57171016;14.12603797;-1.412553698;0.085990996
25.27717891;-14.98003906;-24.45041796;13.14404589;-0.88849825;-0.256706703;18.9715732;-1.870629143;-7.205766952;-4.122978683;5.060487623;29.22140342;-204.7119472;15.19631922;21.43355355;8.864212609;10.34402811;-8.692188608;0.026256497
25.8959969;-24.51049557;-28.24067598;6.825655151;0.297699274;-0.110978403;13.36144372;-2.045726068;-8.07448553;-1.82516253;5.982015911;27.13143661;-204.5101876;10.44569499;6.963937472;-0.783808478;7.207037034;-16.59857197;-0.026634769
26.12015148;-30.43971745;-30.73718009;7.778336602;1.400928124;-0.103640276;2.853055146;-3.167765841;-8.891015183;-0.061956631;5.801104665;24.57986865;-203.3233406;8.988181204;0.791584328;-7.393810057;6.315632495;-21.35314621;-0.024541523
25.69614936;-30.69177681;-31.11;14.55532183;2.246876372;-0.294872701;-7.949117454;-5.636944057;-10.72138132;-1.218598289;3.444987021;22.34581358;-202.6081942;11.03012885;4.072985704;-8.721680998;7.876462045;-20.98593259;0.029221128
25.53653324;-25.76705555;-29.17048534;22.31838676;2.890555196;-0.600188764;-13.6840161;-8.431990437;-13.51025474;-5.333477479;-0.131635665;21.6096808;-203.1252487;14.85325782;13.20187657;-4.871623287;10.69288152;-16.55888629;0.083461811
26.56843549;-18.67144546;-25.66368001;26.2852377;3.448473683;-0.846291931;-11.48338295;-9.877386875;-16.19059142;-10.05005859;-2.83660791;23.00526589;-204.2155299;18.19639091;23.03776809;2.368430267;12.97226996;-11.30041885;0.087040985
28.6063353;-13.26783642;-22.01077608;24.70350681;3.941037217;-0.89466362;-2.899138671;-9.016658516;-17.62803217;-12.50842788;-3.271501425;25.77563811;-204.4837654;19.70932178;30.06063138;10.63875711;13.42263626;-8.33128681;0.036278503
30.35385942;-12.06516399;-19.62319197;19.26876693;4.265916865;-0.740014648;7.05498658;-6.438403174;-17.52494603;-11.56832338;-1.882671326;27.95810212;-203.1813204;19.52112184;33.37315174;17.79289717;11.97084629;-8.677467895;-0.022096338
30.53574551;-14.92843985;-19.19752357;13.09696154;4.307888644;-0.510799701;13.23608944;-3.882342497;-16.5411572;-8.517812615;-0.47788762;27.66774883;-200.9886904;18.70794627;33.54454179;22.21727499;9.702588068;-10.94894622;-0.034747864
29.0979797;-19.53406396;-20.3931338;8.250738742;4.082367985;-0.374394776;13.75569837;-2.980048828;-15.63453436;-5.768113218;-0.619184451;24.52694473;-199.5057478;18.23049257;30.97953463;23.03219665;8.112218043;-12.7327482;0.008766122
27.35242575;-23.11534339;-22.04186391;4.871178584;3.78559965;-0.420706878;10.98685015;-4.16708014;-15.28932939;-4.772824855;-2.349625257;20.049881;-199.9357089;18.18656359;25.50704631;20.41012204;8.15731131;-12.49359861;0.066728158
26.90474714;-24.158481;-22.74342983;2.291454474;3.697859637;-0.610334102;9.492847582;-6.586311514;-15.31727729;-5.013758434;-4.333866965;16.60161946;-202.1096216;17.86994767;17.42644324;15.77294352;9.704894249;-10.54169698;0.084423914
28.29725458;-22.89538017;-21.53677248;0.682405006;4.000801818;-0.819882704;12.42880164;-8.928888661;-15.32769783;-4.866195474;-5.185625081;15.7297695;-204.6113931;16.48059817;8.728194155;11.40837158;11.69328047;-8.488794071;0.044972838
30.54377987;-20.4864055;-18.35145175;1.414872721;4.641704371;-0.941798838;19.05038078;-10.41370199;-15.33677967;-3.442594681;-4.72041318;17.18739375;-205.778166;13.88371611;2.95734714;9.413252659;12.87926652;-7.80244992;-0.015387806
31.94038766;-17.80377402;-14.07081543;5.669838901;5.352935972;-0.958127386;25.10211705;-11.10601385;-15.88549023;-1.655664626;-4.01526246;19.37172442;-204.6969352;10.84647375;3.380177661;10.52311141;12.66999443;-8.657217509;-0.04138573
31.43525308;-14.90402227;-10.1980492;12.60622715;5.829651067;-0.934257393;25.75147013;-11.45018672;-17.52342577;-1.492172829;-4.293063526;20.71690582;-201.5144783;8.602027981;10.67910546;13.66583221;11.48401985;-9.910860647;-0.010110278
29.4033728;-11.54160032;-8.259734142;18.97194375;5.954519957;-0.945689405;18.96571568;-11.59316868;-20.12879791;-4.150722018;-5.711139437;20.83344543;-197.103035;8.065952281;21.9896798;16.63304797;10.39542117;-10.10460381;0.048062761
27.24194559;-8.10323826;-9.182244227;20.87295456;5.91426689;-1.003597474;7.033137838;-11.18778904;-22.71630974;-8.760698943;-7.167956305;20.50731781;-192.6143169;9.241979563;32.20185738;17.4269088;10.30459006;-8.649068041;0.07811512
26.22880867;-5.964667104;-12.898348;16.50972126;6.111987425;-1.042562833;-4.677979608;-9.840741865;-23.97782374;-12.90302434;-7.263493697;20.73017207;-189.2842917;11.20072118;36.79094547;15.34050638;11.22699336;-6.307764072;0.051591751
26.65340205;-6.782236375;-18.35315699;7.717650158;6.907517325;-0.98047783;-10.75847652;-7.731454507;-23.16803603;-14.54013632;-5.4906911;21.76209122;-188.3234792;12.63520286;34.3263015;11.10925376;12.23875147;-4.662503672;-0.007282925
27.88253076;-11.18025766;-23.9004293;-1.019733097;8.336563541;-0.800358177;-8.604097016;-5.762346493;-20.63707182;-13.67960558;-2.566868462;23.10178539;-190.5073871;12.64313219;27.06101674;6.258429683;12.16593945;-4.968020103;-0.04453619
29.14055044;-17.88582277;-27.90203723;-5.446422901;9.99283476;-0.58474298;0.535203766;-5.033462442;-17.58207652;-12.29513521;0.344624363;24.3126367;-195.4709441;11.26164612;19.37401665;2.338692738;10.54803237;-7.193437309;-0.026723479
30.18999442;-24.11029442;-29.27074943;-4.177125313;11.1790612;-0.46997978;12.57945125;-6.047281225;-15.20436372;-12.54168231;2.732317216;25.80550558;-201.3043706;9.43869236;15.24314725;0.593724324;8.152169483;-9.909857099;0.02827786
31.30051165;-27.07148967;-27.76466105;0.803666998;11.27942841;-0.550721092;22.76326208;-8.290019531;-13.90946282;-14.79469609;5.095359452;28.70040062;-205.1312614;8.460364475;16.3701885;1.962088564;6.586825819;-11.14718797;0.068300567
32.6433273;-25.683166;-23.98348017;5.999255652;10.16022871;-0.805284108;27.58577958;-10.51596181;-13.12699249;-17.20688606;8.238020854;33.76171579;-204.6535574;9.170153133;21.87311028;6.89308206;7.205521887;-9.727752294;0.055525465
33.81095059;-21.25647055;-19.12538678;9.039655331;8.354722283;-1.099317705;25.7724944;-11.49454642;-11.83663015;-17.17573349;12.2055345;40.32386328;-199.7058446;11.43517145;29.28879224;14.74254788;10.04837813;-6.22812153;0.001382651
34.01467717;-16.69450151;-14.59162493;10.06286265;6.877652626;-1.268741272;18.26062462;-10.6652493;-9.373333811;-13.492991;15.9233768;46.24186149;-192.574908;14.16933375;35.91140671;23.24606417;13.61103388;-2.852266658;-0.044483752
32.81905787;-14.66644625;-11.52245735;10.94545298;6.715804011;-1.225534992;7.662055776;-8.305288336;-5.932197531;-7.399354515;17.95086947;49.08167421;-186.6256487;15.89988506;39.64961739;28.93570991;15.68657691;-2.120501172;-0.04054486
30.70870262;-15.93203523;-10.38318966;13.23824973;8.251303782;-1.013635406;-2.453115292;-5.242903848;-2.46743773;-1.724980541;17.70701744;47.71321502;-184.0915611;15.55370839;39.2857967;28.81119706;14.76730571;-5.090514353;0.008221285
28.89345419;-18.89691372;-10.7816627;16.6;10.96291905;-0.777729788;-8.448636484;-2.435743845;-0.124520245;1.112294001;16.04989047;43.09643186;-184.64;13.02662008;34.55099891;22.41642627;11.0712126;-10.30725308;0.055359428
28.44865653;-20.68310498;-11.68245716;18.97585516;13.63400895;-0.66827829;-7.781525925;-0.67642043;0.377984228;0.622646614;14.63784378;37.67187026;-185.8085827;9.240572736;26.34630162;12.73880281;6.49206135;-14.38687788;0.056335352
29.51614381;-19.0192533;-12.0003196;18.28228157;15.00775474;-0.748155406;-0.206323839;-0.438892286;-0.954202685;-1.813567188;14.58113559;33.84105729;-184.9783719;5.688779008;16.92593633;4.879365157;3.500117784;-14.10247069;0.009764034
31.26776708;-13.72619252;-11.27416708;14.17098454;14.52982113;-0.961608705;11.62464346;-1.749788341;-3.516969632;-4.295558684;15.53206965;32.6523995;-181.3582509;3.731467256;9.509068079;3.037203713;3.718516315;-8.685516421;-0.041693034
32.66472269;-6.838739267;-9.968945837;8.45280621;12.70928887;-1.180733517;22.84835358;-4.083967805;-6.49396368;-5.78966806;15.99013739;33.5267746;-176.4743091;3.994879721;7.050862009;7.795531831;7.076591796;-0.673290616;-0.051229088
33.33462883;-1.301174219;-9.127157488;3.870029297;10.82196286;-1.292180266;28.44387625;-6.46105336;-9.238780104;-6.49397104;14.5556424;34.98953481;-172.8714633;6.131359623;10.6415462;15.72197387;12.00179939;5.521207471;-0.011275825
33.78113959;0.877555898;-9.551006808;2.181081119;10.09248778;-1.263580748;25.77898984;-7.881206246;-11.46071764;-7.16148446;11.07763018;35.69263497;-172.1226106;9.012808827;18.57658982;21.70532118;16.40832143;6.517230891;0.039835362
34.74092899;-0.241745322;-11.11171223;2.992925099;10.86555892;-1.148590618;16.17570496;-7.936388783;-13.17044913;-8.232807084;6.78195064;35.02012489;-173.6883343;11.25861015;26.95351382;22.39987466;18.78197816;2.327517111;0.053775136
36.27561296;-2.865294408;-12.7763406;4.161239013;12.33862874;-1.034626186;4.347661428;-7.145475512;-14.47007813;-9.580768847;3.364953622;33.11160326;-175.3844527;11.88698625;31.6912132;18.26760864;18.72667226;-3.641512372;0.017058222
37.4413887;-4.998563534;-13.42871843;3.41468064;13.09141871;-0.975335371;-4.208853615;-6.634800515;-15.33480974;-10.88892372;1.876333396;30.61805755;-174.93066;10.82198594;30.80016234;12.76035442;16.79932134;-7.108349092;-0.036775215
36.88842707;-6.030733384;-12.89025476;0.022655324;12.10486491;-0.955554331;-6.398971172;-7.265814514;-15.52576662;-12.02883747;2.277716423;28.50441085;-171.3438316;8.997767981;25.40992452;9.383882417;13.93230058;-6.176618088;-0.058629035
33.93680944;-7.169694926;-12.27554929;-4.635431393;9.584084034;-0.909336086;-3.263765411;-8.831312503;-14.70095086;-12.92069302;3.871790463;27.86803275;-165.286506;7.92581714;18.83326811;8.996115571;10.90461124;-2.865749366;-0.029448257
29.25684065;-10.36150065;-13.24845067;-7.937816064;6.978826224;-0.773453335;0.951964056;-10.01378491;-12.67234265;-13.075207;6.035066607;29.54124088;-158.4311209;8.849702904;14.3180366;9.430982896;8.14319023;-1.640497898;0.022398763
24.59978733;-16.4774175;-16.61586187;-7.700327395;6.116949072;-0.536641472;1.868121524;-9.270829704;-9.646484074;-11.51691018;8.540864025;33.4808807;-152.5643217;11.90798267;13.0908005;7.633774038;5.832040098;-5.934060654;0.047799457
21.78783782;-24.15931028;-21.32995;-3.557288215;7.990448153;-0.251878007;-1.872683768;-6.058448184;-6.26251651;-7.484218016;11.28957159;38.38263244;-149.0427358;15.84663237;14.06712992;2.491668199;4.123792695;-15.25515048;0.022550738
21.72320956;-30.28847866;-24.79787496;2.816677867;12.01541186;-0.006895965;-7.565171732;-1.449494024;-3.350068359;-1.435188924;13.89755265;42.05631424;-148.6191091;18.59131445;15.31608811;-3.956504428;3.264559042;-25.10830077;-0.030446763
24.0801371;-31.86138829;-24.46505351;8.732987107;16.30201566;0.124523252;-10.31476893;2.405261728;-1.519495766;4.658419274;15.7066206;42.60100857;-151.2876731;18.45898104;15.99353414;-7.890877279;3.563381118;-29.86785167;-0.062798023
27.74401004;-27.99028896;-19.6250539;12.07066038;18.7935804;0.119188177;-6.569795122;3.655997362;-0.836618332;8.314904532;16.28296534;39.67872587;-156.0184007;15.28577445;17.09184017;-6.552793435;5.234856755;-26.53483036;-0.045640097
31.51277508;-20.6103893;-12.12666823;12.40376562;18.53233901;0.010274998;3.15946666;1.988673767;-0.806553388;8.286409573;15.90031243;34.89997286;-160.7364714;10.67819377;20.32899271;-0.336230336;8.183150752;-16.6848133;0.003802675
34.52262566;-13.38451995;-5.376717056;10.99114989;16.21247186;-0.135019284;14.32929371;-1.18725392;-0.695606503;5.650942033;15.44437807;30.88492798;-163.0028086;7.10703612;26.08067593;7.425151122;11.82541875;-5.329886056;0.038559896
36.26032685;-9.567224557;-2.263842318;9.699138686;13.66358841;-0.248554625;21.13593405;-3.725293592;0.007877895;3.19400713;15.71567644;29.58727984;-161.3001314;6.365745059;32.1713946;12.70689191;15.09432351;2.293268926;0.025655166
36.43717773;-10.26964086;-3.425679887;9.630133952;12.63208289;-0.287416304;20.10459968;-4.168479193;1.287314898;3.371446081;16.72611299;31.10867977;-156.0933352;8.427231605;34.784611;13.32936026;16.74644317;3.63227005;-0.02348326
35.03213662;-14.17878715;-7.03381738;10.41730762;13.68566404;-0.245204392;12.06201207;-2.601865534;2.632238433;6.399384832;17.66257289;33.89033801;-149.7029466;11.52191037;31.08482329;9.999274875;15.95357593;-0.425421679;-0.063979811
32.48767016;-18.68976182;-10.16782397;10.67369915;15.94752209;-0.149844952;1.314241824;-0.401904678;3.374113287;10.04649352;17.61402545;36.07516002;-144.8228949;13.41320961;21.65982824;5.367961478;12.90435625;-6.978050054;-0.059339924
29.74714772;-21.48167264;-10.73668795;9.254494066;17.77625483;-0.05212695;-7.138412983;0.817750848;3.105490666;11.38690996;16.44600962;36.89889519;-142.6624344;12.96723954;10.816294;2.089880793;8.987262479;-13.19489012;-0.015164722
27.89914503;-21.47568237;-8.611201523;6.381705699;17.8763632;-0.007464306;-10.28606464;0.245415262;1.942067079;9.16503051;15.0302934;36.99907639;-142.1714293;10.87912294;4.253183903;1.375714828;6.26814167;-17.4468048;0.026389208
27.58732075;-18.80219793;-5.320370789;3.749389231;16.08566156;-0.053437993;-8.029164164;-1.783710728;0.505301181;4.882754362;14.5882893;37.50374946;-141.0637456;9.042056158;5.599178123;2.849851611;6.415499906;-19.07761892;0.025943536
28.65090089;-14.2087895;-2.746640422;3.459250521;13.3703885;-0.190110348;-2.225136786;-4.216497696;-0.342308342;1.730295432;15.69933736;38.82301255;-137.8895336;9.069940666;14.2106372;5.386218777;9.68298729;-17.69219249;-0.016671309
30.3317017;-8.5958091;-1.887025534;6.513058677;11.12422832;-0.374335522;4.88500369;-6.02582814;0.12218654;2.217834475;17.83708776;40.27634093;-133.4435472;11.117796;25.74590162;7.988154683;14.64951426;-13.04249258;-0.06258744
31.89243174;-2.968546562;-2.513238031;11.95297628;10.30333256;-0.536009479;11.51648344;-6.718943556;2.143555751;6.385871774;19.83608421;40.86787253;-130.2310874;13.88391081;35.01515678;10.07115691;18.98604617;-5.675979682;-0.070206013
33.0940354;1.47254406;-3.756493983;17.30200222;10.96067963;-0.611756809;16.16247027;-6.38039844;5.332408075;11.94825447;20.86778086;40.42243396;-130.2874144;15.72775853;39.00525607;11.25184427;20.81702541;2.518130585;-0.033728044
34.08812926;3.54147637;-4.958901748;20.03164468;12.40452293;-0.577798666;17.24701807;-5.404039637;8.784769572;16.13040455;21.06302449;39.93077551;-133.0864594;15.95904014;38.01466436;11.18495581;19.78896757;8.805543063;0.011775212
34.84221515;2.639347585;-6.076358938;19.06615653;13.77568861;-0.460674332;13.56912482;-4.203538425;11.47157433;17.65421018;21.25178992;40.67703472;-135.339664;15.25288588;34.41781361;9.774286072;17.12889225;11.10929101;0.023166083
34.72041941;-0.741063734;-7.423290402;15.34920258;14.61153205;-0.317468627;5.504451386;-3.05662493;12.74397405;17.34381857;22.09094991;42.89039381;-133.044959;14.89827167;30.40075613;7.53402989;14.68476029;9.395540189;-0.010761488
32.7784942;-5.093876752;-9.118753441;11.1978567;15.04903729;-0.198504209;-4.170132031;-2.054389872;12.67913466;17.0698753;23.39066204;45.19927021;-124.3384388;15.56615286;26.61558213;5.603351804;13.66797633;5.716586945;-0.059172657
28.68426039;-8.632513886;-10.76424732;8.981535896;15.60207779;-0.118889342;-11.02523307;-1.090669821;12.01876811;18.0942021;24.25031978;45.5354488;-111.0087772;16.67829944;22.67496708;5.2044116;14.00502726;2.745001437;-0.078080457
23.4957492;-10.1838933;-11.60082466;9.986234021;16.71490553;-0.059180485;-11.30578282;0.082315155;11.67786842;20.20705417;23.87207049;42.85165605;-97.53866693;16.93922772;18.69265144;6.887505418;14.70510966;1.931989537;-0.051170161
19.47263361;-9.611815468;-10.97902596;14.00536159;18.39296334;0.006829943;-4.37877547;1.66428804;12.10713921;22.19858464;22.31241294;38.21145629;-88.42430181;15.59298789;16.1576915;10.16633607;14.85905263;2.76910252;-0.004673704
18.81152243;-7.558450239;-8.784484658;19.61236495;20.12762799;0.080478391;6.553316779;3.530521514;12.94639711;23.02334863;20.49791519;34.23501232;-85.76299639;13.32;17.08515917;13.84317759;14.42767351;3.676948135;0.017259607
22.13423317;-4.871875745;-5.574765715;24.73551766;21.14935779;0.129056309;16.18282985;5.083551525;13.24469726;22.5477099;19.48907572;33.22394426;-88.72357055;11.94600052;22.02999944;16.73859524;14.20521587;3.62919611;-0.006425144
27.90502792;-2.266375192;-2.405467448;27.25889321;20.86808139;0.107217004;20.15610767;5.452262567;12.12234742;21.33141738;19.62483363;35.41535765;-94.91061856;13.09865028;28.7441326;18.22611606;15.04926499;3.022577092;-0.054388108
33.33478519;-0.38319435;-0.444071244;25.64478267;19.26044581;-0.007823311;17.3495915;4.014900178;9.406571819;19.86088121;20.25602073;38.7597919;-102.1810268;16.83859243;32.92762299;18.21842546;17.06584869;3.064480402;-0.082991751
36.18482408;0.103883977;-0.474605172;19.61058708;16.97413707;-0.195333826;9.919525515;0.909050802;5.774552078;18.0979128;20.25092293;40.41103508;-109.3545525;21.37263588;30.88195949;16.8071647;19.44662306;4.36309915;-0.066872537
36.13693296;-1.220830917;-2.424218454;10.61480452;15.04639317;-0.400775072;1.44029235;-2.892738331;2.308895064;15.77357948;18.82463977;38.76166354;-115.4838026;24.15270943;22.24488291;14.07414637;21.08922531;6.155802273;-0.022269067
34.69530078;-3.888177724;-5.155943292;1.661655558;14.34278393;-0.567849904;-5.202989494;-6.083718095;-0.178116646;13.03487413;16.04541332;34.46980259;-118.7755606;23.59793342;10.72207804;10.35150274;21.4756543;6.989417084;0.008344364
33.73;-6.238256152;-6.820607528;-3.853244221;15.01782588;-0.667450958;-8.658248635;-7.791619977;-1.537684269;10.67094965;12.7119534;29.78078434;-116.614008;20.18649924;2.094517571;6.642255671;21.07739328;6.239744467;-0.004217474
33.84821468;-6.094258289;-5.830949266;-3.854383352;16.34862199;-0.702497577;-8.574949258;-8.0637043;-2.150822295;9.569581037;9.80720291;26.79606746;-107.1138962;16.12307503;0.738469102;4.592551627;20.95309898;4.969810544;-0.048944837
33.90588505;-2.296084012;-2.031120861;1.16485949;17.11495311;-0.689135473;-4.859995976;-7.711424529;-2.48207347;9.854214988;7.964882392;26.06988498;-91.12307839;13.83189347;6.961424137;5.704005985;21.86191013;5.154929149;-0.085146135
32.04109456;3.976389729;2.749942169;8.299241299;16.35740583;-0.634370297;2.158894675;-7.650640212;-2.772618915;10.5378899;7.22187485;26.50027734;-72.92237156;14.35775545;16.86665391;10.18599393;23.59506793;7.819414818;-0.080348227
27.3705005;9.350615711;5.404354567;13.84998396;14.05101006;-0.531194847;10.80578011;-8.258309129;-3.129836007;10.11368868;7.040350843;26.37915055;-58.66427679;16.7741837;24.71979612;16.34340181;25.04281082;11.75104665;-0.040286142
20.95945326;10.18555884;3.355986561;15.38216045;11.21746997;-0.374609377;17.6839837;-9.223436216;-3.833077336;7.659873217;6.48249967;24.63686885;-53.26296223;18.93502078;26.20933106;21.17269651;24.93970098;14.09864425;-0.003289913
15.27102973;5.117599278;-3.598980831;12.82745274;9.331021137;-0.181951927;18.98063847;-9.945701557;-5.425921796;3.552188025;4.526618863;21.3744027;-57.6865673;18.96469776;20.62696096;21.99134603;22.73718719;12.54998331;-0.004548888
12.52384453;-3.669996501;-12.77032808;7.956812932;9.360346064;0.003418353;13.01276075;-10.09992353;-8.370772717;-0.805180758;0.56623936;17.51558695;-68.44101723;16.44143838;10.90907443;18.10028491;19.0018033;7.330449701;-0.043567837
13.24012877;-11.60423937;-19.9621189;2.817463617;11.08706057;0.131244691;2.065274442;-9.900503405;-12.53183884;-3.989184077;-5.057879359;14.09748157;-79.59357333;12.54120858;1.854646567;11.35032224;15.11852772;1.288320998;-0.084908608
16.07235524;-14.65761218;-22.0053932;-1.510793593;13.20104072;0.172186792;-8.344683983;-9.905237992;-17.04616254;-5.477049149;-10.91743919;11.79620801;-86.03336138;9.174356887;-2.285602318;5.18771861;12.55748783;-2.10955636;-0.091265805
18.95372371;-11.96598374;-18.72772324;-4.902120718;14.1517914;0.132717081;-12.75252598;-10.59184824;-20.89256071;-5.797352981;-15.13438556;10.84966682;-85.96434463;7.786670735;0.353098001;2.772728006;12.18538042;-1.278156534;-0.058008336
20.59773442;-6.173884741;-12.93525913;-7.213603301;13.18902995;0.046989525;-9.347775823;-12.07543723;-23.8258929;-5.942532625;-16.65243185;11.13060919;-81.27172684;8.607078829;8.626046067;5.345518364;13.97160758;2.517872135;-0.01720762
21.18667303;-1.264745934;-8.383072748;-7.590847608;10.8616822;-0.045133683;-1.107454266;-14.1331912;-26.87942203;-6.660252027;-16.32140769;12.1458967;-75.83021459;10.72156545;19.01472928;11.768107;17.13323088;6.458767954;-0.007666063
21.83170697;0.413684161;-7.198690239;-5.014380615;8.609334035;-0.115434998;6.540692005;-16.40337826;-31.84598253;-8.201924659;-16.81208956;13.06344235;-73.01912926;12.78711585;27.19858005;19.34851887;20.53818447;8.544486998;-0.038952363
23.39627195;-0.384150912;-8.633220081;0.245489925;7.728559137;-0.14996578;9.757499942;-18.52913768;-39.9597997;-10.55765604;-21.08606693;13.02865256;-73.96736244;13.85557996;30.01119817;25.29174207;23.15318285;9.004765654;-0.082775149
25.71611419;-0.896835873;-9.990414083;5.738525789;8.45662664;-0.143226308;8.839226363;-20.18395173;-50.76385498;-13.73451705;-30.30915389;11.76062529;-77.37811407;13.8175378;27.01756291;27.91763526;24.4016264;9.622596075;-0.099463126
27.8118239;1.026721111;-8.913408121;7.803229747;9.838580669;-0.097407957;7.291345612;-21.11922265;-62.15558595;-17.69809184;-42.75898407;9.974057183;-80.75040843;13.29131038;20.88813042;27.14354688;24.3545654;11.72003906;-0.074769504
28.80445863;5.024981047;-5.20950741;4.147313072;10.47515391;-0.030676682;8.36147165;-21.35509097;-71.73730803;-22.08060956;-54.73513885;9.09357057;-82.07663648;13.12843625;16.1296549;24.25317201;23.68284453;14.70999642;-0.032858752
28.68043698;8.594071948;-0.845484558;-3.858261309;9.602239092;0.017537519;12.10591319;-21.39226222;-78.50793773;-26.11245234;-62.99531032;10.245687;-80.98999746;13.88496346;16.60572817;21.26276074;23.33325744;16.54702041;-0.013643482
28.25322005;9.330381511;1.747086364;-11.29225233;7.705084101;0.0001896;15.55375535;-22.13789527;-83.54554212;-29.04844818;-66.95870964;13.23578322;-78.78934505;15.55901771;23.17692856;20.16809245;24.02368305;15.65698928;-0.035723626
28.40857556;7.075702022;1.595414433;-12.67045493;6.20577042;-0.104958897;15.75995888;-24.38966323;-89.05437468;-30.80247681;-68.95914082;16.4318994;-77.45545682;17.69030046;32.98331368;22.22488594;25.81655508;12.56972698;-0.079338097
29.3325248;4.127882741;-0.205725802;-5.926213037;6.434429602;-0.267476722;12.90923151;-28.15492282;-96.46660759;-32.16412368;-72.29168962;17.8469007;-78.32553823;19.69089533;41.01660986;27.40342327;28.06129279;9.738185583;-0.104950452
30.39267046;3.362316017;-1.582669036;5.599808581;8.612691329;-0.410627349;10.5017512;-32.39581998;-105.1228859;-34.26382885;-78.5607968;16.68016866;-81.24905987;21.15689024;43.13288921;34.24841573;29.79597582;9.646916582;-0.089991684
30.73765606;5.875993913;-1.259500954;14.92066019;11.57203467;-0.459106752;12.2276153;-35.59719597;-112.6629734;-37.66100595;-86.44078548;14.05795202;-84.73149559;21.96157231;38.5880539;40.35213196;30.37036226;12.83062482;-0.049616067
30.04958921;10.11550282;0.260018921;15.9125918;13.41612175;-0.39846499;18.20734034;-36.89343005;-116.8897017;-41.86859257;-92.83892621;12.25501352;-86.94302084;22.1175871;30.40229564;43.36907717;29.85360629;17.48576528;-0.022385589
28.7765835;13.13452029;1.218568692;7.402531184;12.69080262;-0.297516259;24.08544766;-36.89163925;-117.6224821;-45.80594338;-95.48240553;12.92408274;-86.8934944;21.58722927;23.31594098;42.10488982;28.91634772;20.93660237;-0.034402153
27.65935813;12.83010924;0.070144539;-6.136044264;9.298714974;-0.265985547;24.15274819;-37.38611263;-116.9863081;-48.81595678;-94.76744314;15.75778412;-84.94830137;20.26557349;20.76489481;37.04494272;28.26805787;21.61356027;-0.075247056
27.00331186;9.284326515;-3.375926321;-17.75198681;4.590465992;-0.369890745;16.13030885;-39.96738533;-117.8052707;-51.28510963;-93.32713802;18.73205507;-82.32468628;18.20359812;22.94799658;29.97709416;28.0872663;19.85200955;-0.107903149
26.374727;4.251327165;-7.970869577;-22.6565854;0.614306444;-0.567456638;3.562400477;-44.50151371;-121.3225998;-54.19376138;-93.69944916;19.79079445;-79.97902638;15.88645392;27.20412947;22.96084601;27.90313783;16.99293053;-0.103216168
25.02249443;-0.506028859;-12.18065396;-20.94766785;-0.978764144;-0.721767926;-6.45788151;-48.7501831;-126.0756636;-57.91912051;-96.08836447;18.59915366;-77.79464144;14.2524615;30.22480863;17.34982369;27.03167024;13.84171639;-0.066815504
22.67483184;-4.417918179;-15.03592266;-16.6491169;0.277152216;-0.691446779;-8.631486453;-49.6519998;-128.882965;-61.41917023;-98.13496317;16.89231403;-74.76691429;14.28385342;30.37761885;13.49987031;25.21474765;10.05454601;-0.033639047
19.9982741;-7.84967224;-16.34168022;-14.17302903;3.576236169;-0.437387137;-3.55834931;-45.48803775;-127.2280225;-62.72942288;-96.90675383;17.10259544;-70.05857874;16.35286444;28.50348915;11.22456714;22.93107307;5.021519217;-0.035376702
18.25282479;-10.88238076;-16.24338292;-15.13153958;7.39808637;-0.063849922;2.847453764;-37.34307317;-121.2008849;-60.56960607;-91.42745021;20.39183886;-64.00714474;19.79101887;26.81740023;10.45476506;21.10472634;-0.725562708;-0.071167795
18.34053742;-12.57389573;-14.85003906;-17.82495218;10.30870783;0.243236453;4.259839857;-28.67656059;-113.4975968;-55.75355931;-83.61533172;25.7110389;-58.11168166;23.09082588;26.95515699;11.43348924;20.4296584;-5.148284896;-0.108644751
19.98268834;-11.63549987;-12.41494425;-19.3722994;11.55271485;0.339944341;-0.83760066;-23.20637565;-107.5074041;-51.06766616;-76.85708645;30.6302955;-53.85197011;24.72451469;28.71138374;14.25216377;20.85324473;-5.990999071;-0.114126268
21.72487328;-7.976217042;-9.815415823;-18.37530383;11.19043082;0.218627176;-7.942799862;-22.6170764;-104.9983305;-49.47875718;-73.44016748;33.1946725;-51.27391718;24.07062665;30.32942281;18.20498687;21.64540492;-2.694830591;-0.083797312
21.86687434;-3.528842798;-8.574979316;-15.87898536;9.82395001;0.000927837;-10.35960357;-25.76908456;-105.1604669;-51.98608723;-72.98883684;33.25028757;-48.66604293;21.78392281;29.96910947;21.70417747;22.00941131;2.858736967;-0.047014002
19.70066578;-1.238454997;-10.00706198;-14.12422511;8.152446234;-0.16498539;-4.861534777;-29.93271015;-105.6193583;-56.86103214;-73.12986106;32.22459775;-43.88985009;19.30504856;27.16314708;23.08;21.74802014;7.656012719;-0.038886075
16.16233308;-2.749085705;-13.98468942;-14.52806355;6.621674142;-0.221950508;5.558114711;-32.99990954;-104.4576627;-60.96461183;-71.6817647;31.7171553;-36.51307598;17.84596605;23.21352238;21.79754327;21.44677902;9.945439525;-0.067741712
13.38101991;-6.698149374;-18.45636821;-16.78101464;5.320411147;-0.24227485;14.16045213;-34.89778954;-101.5625665;-62.12810983;-68.40247607;32.23250039;-28.98434573;17.60658888;20.34188539;19.12492655;22.02023735;10.64481014;-0.107621766
13.3721439;-9.293941859;-20.43900848;-19.66099627;4.117566113;-0.355397944;16.0636233;-37.13176875;-98.28826756;-60.67477827;-64.81284181;33.1312517;-25.56329154;17.81610319;20.27724061;17.56629856;23.97592398;12.40818147;-0.12256072
16.72540139;-7.052619774;-18.02288572;-22.45856207;2.910328479;-0.622169201;12.22854787;-40.94651531;-95.87193309;-58.86120378;-62.37182628;33.68230388;-29.38878399;17.54435878;23.24309323;19.26612006;26.97367027;17.01594472;-0.099945392
22.15656076;0.328544793;-11.92533783;-25.42014577;1.811705901;-0.958368429;8.442743066;-45.73027696;-94.04795259;-58.75990269;-60.74553322;34.0918505;-39.69229118;16.60125826;27.91452882;24.43104032;30.01641146;23.31628897;-0.062012749
27.22138396;9.321252756;-5.274789671;-28.76339895;1.153683612;-1.174076074;10.15173806;-49.07232334;-91.06875442;-60.40734147;-57.80454571;35.47479631;-51.38749122;15.75457351;32.23654606;30.90466646;32.10165542;27.62180432;-0.045010621
29.73066739;14.86301695;-1.605768276;-31.43545178;1.296269661;-1.105245724;17.52186118;-48.49809621;-85.11593519;-61.78375751;-51.42165252;38.79284646;-57.73452777;16.04559954;34.50889819;35.2606299;32.80197575;26.43290642;-0.06554827
28.96880833;13.97785746;-2.486045478;-31.2318556;2.358371475;-0.739920772;24.96107303;-43.49597354;-75.92288548;-60.59900807;-41.51733525;43.78778247;-54.51928895;17.73918272;34.09587733;34.71458553;32.31933675;19.32568974;-0.105372039
25.97668896;7.96217682;-6.566317358;-26.62957015;4.051982976;-0.242305212;25.59710375;-36.17062481;-65.27469335;-56.31502342;-30.54085456;48.94038632;-42.9055762;19.79141429;31.44437095;28.60629681;31.00870246;9.580759768;-0.128517248
22.780423;1.425860052;-10.77433397;-18.84034544;5.754744391;0.146742884;17.04234854;-29.93356994;-55.97797479;-50.67150479;-21.896165;52.50182681;-28.87104265;20.352561;27.54230262;18.57321522;28.8245371;1.929635831;-0.114722541
21.10708986;-1.094892072;-12.70136046;-11.96761298;6.809716027;0.262443828;3.657304575;-27.19148209;-50.09841059;-46.31231934;-17.56282906;53.63182512;-19.47410886;18.01718707;23.26538644;7.504606486;25.23104488;-0.829279595;-0.078063811
21.40697628;1.630401061;-12.30887793;-10.54311291;6.881821902;0.113609071;-6.612327541;-27.76975595;-47.77322491;-44.74507276;-16.82103653;52.61756974;-18.4392393;12.92338134;19.07932082;-1.846182521;19.74511677;0.352833478;-0.053673571
22.75089528;6.862176595;-11.66733925;-16.06402408;6.141207588;-0.140477441;-8.297730969;-29.21559675;-47.3741561;-45.37376425;-17.03227912;50.09852306;-24.03854433;6.874732945;15.26866213;-7.691586304;12.72894374;1.935238167;-0.065072566
23.58715916;10.17551683;-13.03593765;-25.36247234;5.141942693;-0.310157117;-2.485756042;-28.67303761;-46.733507;-46.31902567;-15.71834896;46.24849382;-30.61905823;2.358616431;12.41598153;-9.248434803;5.755727997;0.894223184;-0.102488803
22.81497965;8.833995589;-16.88855372;-32.45905544;4.466270134;-0.302008535;4.321567928;-24.87908889;-44.43056546;-46.14399015;-12.19365723;40.92424115;-32.57471067;1.119938747;11.57;-6.457282193;1.099416127;-2.798180784;-0.132146421
20.48176879;3.690872286;-21.45261649;-32.77489386;4.370669501;-0.164742239;5.566666869;-18.85794904;-40.27480583;-44.87995541;-7.5306495;34.75597436;-27.94527379;3.23124888;13.70806362;0.037936293;0.522291552;-6.287930591;-0.127699629
17.70124437;-1.658451849;-24.04675517;-26.49951375;4.673962063;-0.032708257;-0.1203059;-12.98052879;-34.88477375;-43.51313137;-3.13699302;30.00482198;-19.26311214;7.202862825;18.709074;8.613392464;4.111403112;-6.31756584;-0.094559176
15.90142291;-3.607791595;-23.07697339;-18.39572296;4.956215657;-0.019726737;-7.909737661;-9.281691364;-28.95259732;-42.5980606;0.642478666;29.93501191;-11.34594678;10.94663512;24.68487149;16.66714503;10.00112996;-1.939614951;-0.064651798
15.91341907;-1.001746569;-19.12862787;-14.11993995;4.910365979;-0.143912433;-10.64082185;-8.336497772;-22.86719847;-41.48442342;4.659432164;36.69;-7.867744365;12.90010346;28.55575256;21.46967238;15.29733174;4.724953349;-0.066679801
17.46958985;4.372430957;-14.42665465;-15.98305719;4.575837682;-0.330535892;-4.402852537;-9.369589576;-16.88420038;-39.00919032;9.828212191;49.19025434;-9.202944368;12.65239298;27.94027007;21.68658331;17.71003906;10.1469162;-0.099582744
19.39099222;9.316204027;-11.24526533;-21.55762887;4.27497947;-0.477104589;8.478499448;-11.22640498;-11.48183873;-35.01187994;15.87102147;62.9385018;-12.87301719;10.86115291;23.22016116;18.53126609;16.86567597;11.95935659;-0.133736543
20.31473597;11.39027807;-10.54236318;-26.16983129;4.304811397;-0.52303882;21.10822477;-13.24943657;-7.413405788;-31.10331504;21.15;72.30899486;-15.92194021;8.707735909;18.04560529;15.39444037;14.41423334;10.35648572;-0.138577159
19.50668746;10.1579841;-11.70846278;-27.04243641;4.633237825;-0.473576871;26.76868762;-15.38154533;-5.313419526;-29.69340628;23.77965981;73.87908789;-17.22943629;7.292277765;17.32181857;15.76290845;12.82291614;7.417017295;-0.110892327
17.28567843;6.922305633;-13.33038338;-25.45660161;4.856067342;-0.371053689;23.08378236;-17.61342623;-5.172282533;-31.90799142;23.0725664;68.36680199;-18.03543025;7.224179036;23.58985937;20.64902615;13.64512199;5.231162769;-0.077594978
14.83256422;3.554266654;-14.17642973;-25.02216952;4.476161198;-0.247890241;12.82930071;-19.46888601;-6.14414044;-36.22046652;20.11156933;59.71311031;-20.46505173;8.452986224;34.332222;27.43695059;16.44336567;4.536677878;-0.07059794
13.50981449;1.438413745;-13.71181061;-27.58014863;3.312579212;-0.103302069;1.437831841;-20.10879161;-6.889353568;-39.21615272;17.02288603;52.08389649;-25.39117583;10.30863238;42.61854221;31.27183671;19.11888607;4.840461118;-0.097244448
14.07988192;1.100736836;-12.07234138;-30.47453491;1.729831996;0.080848186;-6.437985546;-18.99630791;-6.235830919;-38.13064269;15.60866406;47.20878455;-31.40288748;11.75898273;41.34326435;28.28460843;19.42696754;5.527806541;-0.133690798
16.25682216;2.359561747;-9.871978663;-27.94431698;0.491774298;0.304449162;-8.830338643;-16.50687249;-3.729031322;-33.166838;16.42662241;44.10900162;-35.71653358;11.88071992;28.47780504;18.42818814;16.61440351;6.639739406;-0.147198193
18.84407126;4.549568912;-8.103558913;-15.9090215;0.313571905;0.527595426;-6.139775373;-13.88140031;0.231626766;-27.58392921;18.88603217;41.17584923;-36.33766813;10.39027383;9.485175874;5.783677658;12.01942706;8.524274411;-0.126494757
20.39555591;6.643654463;-7.970909656;3.665849123;1.411471152;0.682419001;0.213727765;-12.48011281;4.661255474;-25.29209938;22.01807268;38.53047215;-33.8128166;7.918223931;-5.364471441;-4.02393931;8.214863803;10.84272278;-0.092051716
20.04249886;7.478347115;-10.3503593;22.66344921;3.363738795;0.709571424;8.591375261;-12.89818527;8.431692063;-27.77090492;25.11565463;38.39174757;-31.19013176;5.754995457;-7.437273105;-7.472487683;7.324282794;12.16109666;-0.076909322
18.01036426;6.276023676;-14.97962664;31.58992983;5.382111004;0.592580747;16.94590649;-14.63389028;10.65598782;-32.78535419;27.7684031;43.0037807;-32.09979745;5.118079173;4.399182075;-5.160540491;9.725138419;10.83559919;-0.096009487
15.49529176;3.244680775;-20.02614315;25.91446494;6.804628127;0.367417982;22.53785773;-16.55399039;10.92160827;-35.99131687;29.52652239;51.95153743;-38.22144004;6.381301951;22.78114318;-0.737792703;14.03335318;6.588909932;-0.132498317
13.93071496;-0.293664975;-22.72235532;9.225266203;7.4673274;0.104140173;22.637327;-17.76184636;9.383956233;-34.20560632;29.78852474;61.4109139;-47.86874949;8.82154492;36.68536313;2.286184379;18.28335867;1.32201782;-0.153552166
14.06419147;-2.587638196;-21.01973703;-9.241994652;7.705602239;-0.124627017;16.18980262;-18.16899902;6.730540449;-27.77338305;28.19593265;66.34314253;-56.68627898;11.11425312;38.79253688;3.205637821;21.33015811;-1.82207767;-0.140868783
15.43354792;-2.629867143;-15.2315125;-20.87704588;8.007794435;-0.269641051;5.171879184;-18.33742625;3.990367262;-20.20243209;25.18971474;64.11231881;-60.04996259;12.25189988;30.12455094;4.076524423;23.39121252;-0.665680196;-0.107500788
16.62859668;-0.959241231;-8.318898584;-23.0870396;8.59530627;-0.315774396;-5.765536628;-18.76557185;2.197373237;-15.42950836;22.09769623;56.64150423;-55.65977291;12.21072372;18.66898295;7.093392387;25.39026474;4.194213443;-0.085551391
16.22954257;0.616079057;-4.289858387;-19.92855479;9.251421208;-0.27958787;-11.55130463;-19.24358698;2.021869305;-14.92746919;20.48719722;49.2428263;-44.74;11.86061833;13.17075824;11.76579768;27.75699558;9.491154562;-0.096328155
13.83143004;0.275958252;-5.616707051;-17.87312434;9.529824275;-0.200742152;-9.492847955;-18.84793621;3.550009766;-16.87778895;21.19440676;46.87157045;-31.22289089;12.19534192;16.82873611;14.55380207;29.76904209;11.38986724;-0.13070115
10.44391702;-2.487342645;-11.49010686;-20.31222041;9.182696472;-0.131306278;-0.742526873;-16.63534578;6.322881084;-17.88854349;23.78250372;50.62032468;-19.58597898;13.49578956;25.54468428;11.58359725;30.04284224;8.10014286;-0.157769699
7.93120901;-6.499574594;-18.2725302;-25.15685248;8.47079271;-0.122299708;10.50418283;-12.531027;9.580638562;-15.72711145;26.85249076;57.09076732;-12.75623284;15.08927846;31.74798414;2.337156573;27.78355444;1.10286765;-0.153614829
7.81053666;-9.779161382;-21.93282634;-27.20512626;8.088244316;-0.20658711;19.40144151;-7.716904315;12.53935528;-10.88511947;28.93333643;61.02191492;-11.2306387;15.88664437;30.54418503;-8.886674802;23.72237257;-5.864884716;-0.123385421
10.20741151;-10.96061665;-20.73592894;-23.09443214;8.709985092;-0.382189371;22.78228629;-4.154367439;14.56489505;-5.91704708;29.24827067;59.07161397;-13.58588874;15.25831172;23.34648528;-15.34442161;19.88246419;-9.264579444;-0.096326184
13.70455828;-10.15157022;-16.23789564;-14.70646173;10.45733411;-0.605183224;20.11464015;-3.485554808;15.25148693;-3.338932988;27.85864427;51.91723586;-17.63427117;13.55361749;16.37473406;-12.545733;18.26320126;-7.883889837;-0.098541532
16.22593297;-8.59835786;-11.90952383;-8.285605914;12.66948601;-0.800774124;12.98331846;-6.013764381;14.5008658;-3.889364304;25.28665588;43.33349036;-21.29334049;11.86963585;15.52528604;-1.691084767;19.43685433;-3.262939599;-0.128859289
16.37491733;-7.513579718;-10.49645268;-9.998576632;14.1886229;-0.893118625;3.971315427;-10.44618441;12.62837483;-6.412768758;22.1212117;37.2828152;-22.81083863;11.27051818;21.7979961;10.95434794;22.15599305;1.632119267;-0.160109051
14.3193222;-7.068595405;-12.12525113;-21.38952222;14.02569934;-0.842923798;-4.1776939;-14.59855023;10.37235787;-9.148219588;18.956778;35.37659444;-20.73340017;12.05741562;30.70501978;18.40767858;24.27562743;4.362817711;-0.164451722
11.63077432;-6.360144146;-14.50616607;-38.1122571;12.00057173;-0.673823137;-8.963743632;-16.63527989;8.64558399;-11.12356366;16.51888886;36.4174715;-14.2213014;13.59598381;35.73721843;17.69858216;24.25305858;4.260685438;-0.139148412
10.21616479;-4.327442063;-14.93196081;-52.70618524;8.934760186;-0.470076904;-8.557038693;-16.06854933;8.046896252;-12.51251347;15.5519095;37.88085995;-3.790239075;14.74844541;32.88678678;11.30755384;22.06032447;2.345007602;-0.108917654
11.09173269;-0.836974177;-12.44793201;-59.21631038;6.240266155;-0.340709599;-2.561099852;-13.90003906;8.422381329;-13.90931351;16.31097076;37.78772249;8.189242591;14.53529026;22.82283558;4.3242189;18.87439589;0.270594613;-0.102865082
13.81126638;2.934911648;-8.562221438;-56.39564666;5.128372204;-0.363859287;7.263128835;-11.85423773;8.856614292;-15.43791871;18.05247756;35.52435749;18.0917031;12.58631956;9.608851953;-0.122254731;15.93761081;-0.838182078;-0.127515941
16.85661087;5.101924029;-6.081780471;-47.63715165;5.911823502;-0.540054932;17.13626828;-11.24312512;8.225937502;-16.60702725;19.15044728;31.42341231;22.86484158;9.207210881;-2.344235873;-3.18641026;13.62994291;-0.9687086;-0.160935339
18.6321619;4.195017288;-7.070910224;-38.28792785;7.826944096;-0.783614539;22.70350195;-12.22117216;6.001436248;-16.9671376;18.03740497;26.03413935;22.06063985;5.188953595;-10.43961763;-8.373716017;11.52430194;-1.022272666;-0.173229008
18.36191311;0.051254638;-11.4607362;-32.58781743;9.485201339;-0.963438617;21.22068126;-13.88600125;2.718482231;-16.79899035;14.39179884;19.9933331;18.47957291;1.560129435;-13.93382066;-17.1072949;9.262897926;-2.076657671;-0.154265933
16.36695749;-6.038027745;-17.20174069;-32.14701001;9.678322374;-0.975203431;13.1582123;-15.07292933;-0.28813387;-17.04524456;9.598193051;14.45280373;16.54713038;-0.66264076;-12.80111;-25.9147979;7.328884894;-4.541449931;-0.12291552
13.69493861;-11.9006333;-21.67201623;-36.27835853;8.052713492;-0.803748247;2.099603832;-15.21176602;-1.737960863;-18.46500602;5.956493488;11.2094583;19.19488495;-0.79528915;-7.220322571;-28.18392103;6.877114129;-7.653715187;-0.109380526
11.47576329;-15.40352151;-23.26168958;-43.14455263;5.265808548;-0.534856615;-7.090880718;-14.60942957;-1.218823946;-20.78371961;5.122243309;11.89687115;25.38283346;1.13738865;1.659316095;-19.54202968;8.664951525;-9.662574403;-0.127165162
10.42859975;-15.31283141;-22.13111035;-50.5767269;2.567773158;-0.304075301;-10.70088768;-13.99036171;0.666687073;-22.67065247;6.96907912;16.64470574;30.2708023;4.201032414;10.82798936;-2.51894025;12.0178429;-8.778348336;-0.160694062
10.70437237;-11.82379018;-19.84530508;-56.31797042;1.097181652;-0.211394631;-7.750078125;-13.71167726;2.92660678;-22.64784971;9.805919469;23.42796307;28.28689046;6.826831767;16.08284399;13.76174524;14.86191439;-4.490385197;-0.179930855
11.98463863;-6.588301085;-18.29751274;-58.25998484;1.320245845;-0.256802429;0.024914623;-13.32158074;5.047770602;-20.19501945;11.80122468;29.00401581;17.14581292;7.600324381;14.51275887;19.35666302;15.01759186;1.58215236;-0.168277992
13.67896739;-2.126038697;-18.6084466;-55.16065135;2.906847554;-0.34182134;9.410796576;-11.85092703;7.366910001;-16.13146802;12.45478696;31.02776123;-0.060694707;6.153566148;6.999758525;10.71703067;11.85288985;6.121030043;-0.137843909
15.14660598;-0.689804057;-20.53088282;-47.5388222;5.036700931;-0.339095221;17.17978123;-8.635184279;10.61435564;-11.98469117;12.89426863;29.77947896;-16.38351926;3.513185443;-1.673133359;-6.232427715;6.979063022;5.920374395;-0.118036153
15.93936323;-3.022352112;-22.57373437;-37.85757594;6.877455625;-0.184152544;21.00399491;-4.024468157;15.00460109;-8.91699936;14.74743956;28.03681632;-25.2618993;1.526205691;-5.819706394;-19.84803998;3.331330419;0.10896909;-0.128223723
16.01136848;-7.742533448;-22.78271137;-29.4387692;7.931297963;0.074460789;19.76617169;0.597004968;19.65886709;-7.108897829;18.54220403;29.01310765;-24.57007813;1.642449801;-2.969096846;-20.86013249;3.216703309;-8.790596938;-0.15988076
15.74836;-11.94838258;-19.87333676;-24.5952792;8.105457257;0.303117284;13.67681462;3.541521033;22.90622191;-6.02917265;22.99326073;33.85581037;-17.617935;3.879409159;4.165049082;-8.877347271;6.737044652;-16.01249902;-0.184671604
15.70754358;-12.91350772;-14.17821888;-23.27799677;7.578811921;0.370703048;4.437437756;3.792562459;23.30670072;-5.214306766;25.7974602;40.62362631;-10.46507564;6.75172911;9.665281977;7.523955848;11.73762632;-17.45349337;-0.180813839
16.17692233;-9.895183226;-7.787317398;-23.30550439;6.642960036;0.234714796;-4.829216805;1.54684377;20.64768083;-4.769863323;25.30764226;45.54803944;-7.598589909;8.277308601;8.965991804;17.12012303;15.29183675;-12.45050903;-0.153192899
16.88374888;-4.773461879;-3.564092145;-22.0714801;5.631974623;-0.033926859;-10.38034106;-2.010723895;16.16661725;-5.136700435;21.7460672;45.62824001;-9.146165936;7.363028845;2.386650477;13.96985147;15.61309843;-4.380682631;-0.128655257
17.15185561;-0.901152065;-3.421011841;-18.45940133;4.908037006;-0.302194935;-9.444693822;-5.468213115;11.83853585;-6.396033521;17.02923685;40.62810529;-11.5114025;4.564750473;-5.237197521;1.112980815;13.04442682;1.543017256;-0.131008788
16.46750707;-0.814407339;-6.915363128;-13.52327918;4.79132874;-0.46236529;-1.873283031;-7.913335621;9.252576666;-7.833948802;13.41931852;33.0916703;-10.65986608;1.673414337;-8.529123488;-12.37419146;9.546384727;1.845349752;-0.159008795
15.01722808;-4.393122269;-11.26593257;-9.478821852;5.391227826;-0.491845052;9.294754544;-9.177077927;8.849275495;-8.248348236;12.10977944;26.55371162;-5.347291741;0.457150882;-5.85800933;-18.29328344;7.224654776;-2.824336604;-0.187683553
13.68814065;-8.862331492;-13.04083421;-7.882497954;6.446182428;-0.446248314;19.03056878;-9.577091021;9.947527125;-6.793797636;12.77980498;23.39985644;2.159474102;1.501840269;-0.383378918;-14.79160679;7.032851901;-8.267191636;-0.191610933
13.4176317;-10.72615385;-10.5124699;-8.4663241;7.355447914;-0.398783981;22.83095518;-9.500503338;11.38691755;-3.655456251;14.26178014;23.86364579;8.168335343;3.968208134;2.942103941;-6.548087703;8.473449053;-9.870039063;-0.168450904
14.36269316;-8.267616341;-4.992137669;-9.491047231;7.482303769;-0.377846912;19.12250806;-9.176336083;12.24313516;0.027981917;15.58244476;26.56566456;10.51658345;6.346702122;1.776698631;-0.220378843;10.26579406;-5.975257195;-0.140951867
15.61268382;-2.776640716;-0.028672055;-9.222282812;6.580561546;-0.351001954;10.06298287;-8.710819432;12.1774048;2.937621709;16.49747821;29.81080791;9.935948781;7.548203495;-1.621052108;0.762976419;11.29040599;1.003330671;-0.135722526
15.79502167;2.399540634;1.094812463;-7.273219398;5.033480824;-0.262797144;0.214931127;-8.195838078;11.37044891;4.41613734;17.25667988;32.52121221;8.903037924;7.498963627;-2.538663402;-2.009270063;11.11859928;6.468390716;-0.158577299
14.16328312;4.248371855;-2.240014648;-4.761807897;3.666834475;-0.090430885;-6.086772978;-7.695603116;10.28242539;4.728304685;18.06093723;34.30672875;9.266611861;6.896156745;1.782393419;-4.411202656;9.951269519;7.005841253;-0.189298024
11.25175183;2.120915489;-7.540527317;-3.259298949;3.196799041;0.130164369;-7.051718708;-7.132425567;9.457733556;4.608863241;18.83369468;35.04470957;10.94072271;6.474620939;9.347705497;-3.836642686;8.280997062;2.669401504;-0.20052656
8.434335824;-2.069091386;-11.11592656;-3.468091201;3.685467281;0.327744202;-4.08184168;-6.268573894;9.381419973;4.552004947;19.4589364;34.64426206;12.89687207;6.455347976;14.74935548;-1.205106609;6.650178816;-3.409845644;-0.183135896
6.624406894;-5.48373196;-10.90164106;-4.694265132;4.436823756;0.446919843;-0.503872673;-4.908506147;10.28250073;4.453962913;20.07983051;33.23791862;15.50268327;6.573954743;13.61972236;0.51683886;5.571017281;-7.554351857;-0.154552538
5.180247724;-6.445905753;-7.97862448;-5.450872181;4.478248987;0.484226314;0.685328972;-3.186661734;11.90400469;3.856003512;20.99668139;31.42721675;21.83719392;6.522182967;6.447244152;-0.477543989;5.40797697;-8.11419386;-0.142444364
2.086793225;-5.347526811;-5.57053783;-4.614193388;3.32013998;0.481522889;-1.369079096;-1.639528794;13.45699051;2.505148816;22.19506721;30.08177987;36.2418507;6.298718616;-1.548623519;-3.027312685;6.105150154;-6.172645811;-0.15904125
-4.456122317;-3.824026992;-6.318266492;-2.205823013;1.41841892;0.485752067;-5.03455526;-0.899571253;13.96409772;0.713898214;23.03944914;29.68184101;60.6221958;6.131785855;-4.507642998;-4.216442158;6.963537835;-4.122189382;-0.189921109
-14.11062124;-3.077878654;-10.04005859;0.708057952;-0.071852861;0.510457588;-7.377447792;-1.203698434;12.89562116;-0.778446005;22.61319712;29.77898805;91.10561482;6.107378208;-0.661041926;-2.350233159;6.837194174;-3.530624153;-0.207541678
-23.6891297;-2.854355946;-13.81443243;2.768534193;-0.144047032;0.529760259;-6.062253622;-2.144740723;10.65652236;-1.299501009;20.55923475;29.19092735;117.8658533;5.948199169;6.208195807;1.181513969;4.853820607;-4.08307728;-0.196823593
-28.47014466;-1.906658555;-14.34438411;3.076625538;1.217958648;0.506143165;-0.824171399;-2.944020938;8.46325958;-0.679245709;17.67230824;26.93243592;128.9753149;5.241767841;9.821559685;2.982945578;1.245962572;-4.275934579;-0.169022635
-24.89693015;0.546570808;-10.69963792;1.474284116;2.882111896;0.425788743;6.287452222;-3.070734258;7.570108962;0.690592569;15.55898244;23.16346505;116.4243166;3.952095636;6.519854954;0.782123514;-2.405394175;-3.015292946;-0.151131046
-12.92424665;3.720614372;-5.211959847;-1.619591418;3.310704216;0.312021001;11.96926276;-2.678419022;8.362291301;2.164249318;15.45859991;19.30412681;80.89607605;2.712548292;-1.691696665;-4.204868552;-3.908153701;-0.638164093;-0.160785428
3.581581462;5.540235199;-1.783292465;-5.474290365;1.730126863;0.208760784;13.40531252;-2.431294134;10.03339077;3.247481062;17.1448976;17.10733248;32.54075502;2.526216601;-8.594092644;-7.903428959;-1.831268261;1.439944927;-0.190005493
18.69016795;4.117514381;-2.938384597;-9.179380572;-1.136777554;0.151157074;9.747038286;-2.818997489;11.1674974;3.822515439;18.91123718;17.36411531;-12.71050984;4.010654077;-8.506174375;-6.636186022;3.42154064;1.971460392;-0.212757028
27.31952075;-0.765578301;-7.930359001;-11.73700992;-3.396043674;0.147866579;2.570430371;-3.560973883;10.82555698;4.099675146;18.80886527;19.26695627;-39.40569894;6.773800718;-0.578224575;-0.30745465;9.673337386;0.832659011;-0.209170999
27.4420046;-7.369211622;-13.32850005;-12.3438898;-3.235798994;0.184910622;-4.891570349;-3.700468615;9.285662367;4.392103211;16.22244458;20.94780457;-38.50717145;9.482981596;10.62992112;7.213515768;14.23067839;-1.080021973;-0.183895322
20.47269172;-13.1174473;-15.54630665;-10.86164702;-0.258690045;0.24054771;-9.307320429;-2.418623026;7.820808725;4.872877833;12.48567532;20.76489293;-10.68614864;10.67237967;18.5247179;10.9351195;15.51393461;-2.739197658;-0.161624206
10.02662158;-16.22997447;-13.31861199;-8.120127069;4.087779179;0.293822347;-8.781177098;0.078487461;7.663293511;5.430546351;9.9560987;18.33612033;33.92412084;9.735272683;19.04045642;8.555033005;13.94676347;-3.725757394;-0.164103702
0.14108816;-16.63796392;-8.323067043;-5.642207046;7.367288622;0.321284076;-3.618365602;2.419072552;8.981705343;5.680152635;10.22613293;14.57783645;79.13258798;7.361023568;12.97477446;2.185649071;11.52459604;-4.175864278;-0.190021973
-6.006421383;-15.63114847;-3.698133433;-4.782200846;7.759601197;0.293090543;3.971125935;2.937748083;10.70867069;5.146820664;12.88890274;10.84814964;108.124632;5.069997672;4.701613605;-3.339471811;10.42886969;-4.178578108;-0.216382064
-6.618138759;-14.72177053;-1.796219642;-5.827216064;5.303261708;0.182927894;10.96058791;0.964375885;11.37344087;3.575658839;15.85373716;7.977439115;109.3985529;4.170535639;-1.292559376;-4.146426221;11.68601128;-3.434706128;-0.219934018
-1.425689367;-14.7259023;-2.881811188;-7.792112904;1.881734245;-0.00878004;14.77894386;-2.506528505;10.26999035;1.213465603;16.95343085;5.940788948;81.36227243;4.888683297;-3.230662231;-0.046539321;14.73717788;-1.669319832;-0.198701376
8.156179436;-15.6819377;-5.498343544;-9.183976491;-0.066373345;-0.237733441;14.20079947;-5.392997809;8.012934807;-1.164117583;15.54844619;4.281750876;33.70098058;6.281914043;-2.373406218;5.718011185;18.05303061;0.594525351;-0.173664696
19.03212904;-17.37937448;-7.853514987;-9.223451548;0.777054127;-0.426592745;9.60532838;-5.998573836;6.033763332;-2.613603288;12.87217324;2.749910942;-15.64472397;6.966408463;-1.21028649;9.255375386;20.2041185;1.840761812;-0.169184717
27.11157991;-19.76125529;-8.968797689;-8.548138335;3.720789648;-0.505646564;2.688766927;-4.272709237;5.432738883;-2.633472853;10.91942381;1.525550195;-47.34659128;6.114152253;-1.379619691;8.93558639;20.61109832;0.474609467;-0.190428818
28.88355227;-22.73117289;-8.859074629;-8.746152985;6.581437384;-0.45786842;-4.139361224;-1.861159282;6.114420453;-1.613888143;10.84946026;0.887655967;-48.80974506;4.02395138;-2.91707087;6.157607292;19.59514485;-3.697470367;-0.218717652
23.26505626;-25.63524079;-8.001189037;-10.99479751;7.234770226;-0.333106165;-8.489773319;-0.874520373;6.886390845;-0.715722345;12.18914589;0.737940289;-19.82158701;1.909841307;-4.945548669;3.628947166;17.91833311;-8.718111622;-0.228978306
12.53770203;-27.15100406;-6.856557087;-14.87736239;5.111825902;-0.215777184;-8.743196404;-2.309210542;6.416583023;-1.129342932;13.3756583;0.502797682;27.20693974;1.094951822;-6.706117421;2.847147784;16.27993387;-11.39160092;-0.212997947
1.51200022;-26.00847389;-5.866178393;-18.41907842;1.609315069;-0.166310212;-4.670305194;-5.326966603;4.277691618;-3.163915274;13.06207049;-0.467861776;72.76405577;2.158394957;-7.893537606;2.945969415;15.08247352;-9.476771179;-0.186912533
-4.822283721;-22.13215166;-5.633916905;-19.46100957;-0.8436311;-0.179667407;2.325144302;-7.918175069;1.282489137;-5.849109859;11.07265519;-2.38253972;98.89423282;4.553750295;-8.290167259;1.732812526;14.44824163;-3.578283095;-0.176104623
-3.813689996;-17.20333847;-6.754487836;-17.3709463;-0.398792852;-0.193881418;9.581453979;-8.399168569;-1.093558285;-7.439926949;8.324288388;-4.85717813;96.74990294;6.887532013;-7.511100291;-2.151024629;14.29363859;2.85232118;-0.191643327
3.689300754;-13.91876989;-9.206966489;-13.69810939;3.009502735;-0.143700084;14.17866343;-6.588410231;-1.711941027;-6.561785445;5.963040809;-7.251361865;69.53360479;7.668164066;-5.444537106;-7.865975414;14.36340732;5.665165969;-0.220133853
14.14467561;-14.24032502;-11.90841532;-11.11220823;7.637710272;-0.018460387;14.19404628;-3.825795139;-0.45392253;-3.209831501;4.557189913;-9.142910492;29.90074728;6.122036266;-2.99343888;-12.92054273;14.30390802;2.890039063;-0.236282928
23.39365899;-17.87205966;-13.12209293;-11.32226501;11.03363566;0.121588751;9.599745557;-1.933293925;1.822851146;1.138049397;3.978753744;-10.48052045;-6.299698526;2.678779385;-2.093798313;-15.08358935;13.86870617;-3.759347362;-0.226394542
28.59745998;-22.22204424;-11.70330555;-13.58380441;11.50217069;0.185144504;2.304620546;-1.983516936;3.894034217;4.415250115;3.884577089;-11.30328397;-26.62090749;-1.111041713;-4.480871781;-14.03159333;13.16863242;-9.939681343;-0.200970996
28.98645697;-24.07637802;-8.253928196;-15.08463013;9.015196666;0.11719282;-4.705391004;-3.76290559;4.847263088;5.255504126;4.18603888;-11.37814508;-26.10434194;-3.229782817;-9.945924291;-11.42339477;12.71805663;-11.61105623;-0.184827003
25.40685126;-21.88086207;-5.067408255;-13.09923934;5.081662857;-0.056530701;-8.675485079;-6.163537386;4.426930726;3.786250854;5.025982491;-10.220163;-7.762950557;-2.174839905;-15.65955338;-9.447621476;13.11879254;-7.775974719;-0.194020244
19.45268365;-16.95378888;-4.618842903;-7.358590427;1.773573331;-0.241562248;-8.177726324;-8.020542718;2.981978034;1.421388064;6.364609569;-7.594755486;19.84445826;2.171330256;-17.58514962;-9.096744026;14.54250799;-1.089982976;-0.221044345
12.94106574;-12.65563465;-7.634715141;-0.750985164;0.56826205;-0.334950335;-3.532555112;-8.709751529;1.202578066;-0.117198378;7.701779786;-4.086842314;46.3485515;8.264742519;-13.33527934;-9.540532325;16.43414795;4.038083869;-0.241936902
7.809103262;-12.03770989;-12.32555889;2.392901785;1.669646169;-0.290791679;3.484693752;-8.198238794;-0.169920205;0.186991781;8.315516961;-1.149216054;63.10826748;13.48577343;-4.398229311;-9.008266539;17.77167113;4.45543446;-0.238574728
5.926479774;-15.6510598;-15.57811749;-0.645798751;4.094776115;-0.146205816;10.36763954;-6.762241548;-0.606267645;2.251023413;7.844708335;-0.407004887;65.64189346;15.41554445;4.199044228;-6.392404232;17.78718356;0.278595788;-0.215413245
8.417488611;-21.11529948;-15.32481628;-8.789858162;6.350981555;0.00683464;14.69851261;-4.766278842;-0.018304163;5.229985399;6.654784381;-2.610831058;54.58972356;13.17564242;6.932574754;-2.290697237;16.62368481;-5.376630726;-0.195209739
14.75851826;-24.76427607;-12.2421121;-17.5722296;7.258027068;0.080404229;14.87131429;-2.647851774;1.14279459;8.17118057;5.597471101;-6.978588539;35.16427975;8.044026112;1.546050871;1.292269799;15.36570638;-8.58813993;-0.197830977
22.46345054;-24.16632395;-9.340499167;-22.01487704;6.485494863;0.039140688;10.6369669;-0.91884512;2.075221913;10.45985237;5.349636962;-11.44378666;15.27253354;2.882318245;-9.185120738;2.332153236;15.32722711;-7.137814363;-0.221879219
27.97029118;-19.70764001;-9.652750341;-20.00217599;4.594509181;-0.089970749;3.347765343;0.033099416;2.116379144;11.8457004;5.930640544;-13.70683176;2.801904632;0.593675716;-19.08430778;0.23969263;17.07450381;-1.711177305;-0.246129108
28.45873102;-14.17028025;-13.79126934;-13.70693814;2.638455561;-0.244927594;-4.307358895;0.257312671;1.259569852;12.2384675;6.83837773;-12.4459271;2.891671028;2.468459657;-22.53381349;-3.641904998;19.9162981;4.779752422;-0.249312382
23.4872406;-10.73742814;-19.32484022;-7.978429775;1.566688841;-0.36817047;-9.199337663;0.309497868;0.269294903;11.59231078;7.652279963;-7.972046197;16.1281725;7.424707142;-17.98157461;-6.837786524;22.27853345;9.047763753;-0.22980969
15.30200039;-10.96285929;-22.5265293;-6.822127737;1.735835375;-0.431502625;-9.077038771;0.842968256;0.182670409;10.00433503;8.494721926;-2.00641502;38.33489617;12.65468741;-8.561274016;-7.313066638;22.7273275;9.162224468;-0.207018104
7.549156281;-14.1350431;-21.17579535;-10.54427057;2.76373226;-0.436389481;-3.716170215;1.959956552;1.478142991;7.875986278;9.871336824;3.212742336;62.05041963;15.32274949;0.454172003;-4.790697912;20.92352741;5.218037242;-0.20325079
3.248508768;-18.29476336;-16.26388762;-15.68398587;3.790220708;-0.398485212;4.781026658;2.926404749;3.557029363;5.90646305;12.01862059;5.978739024;79.16679339;14.27619307;5.340039063;-0.947899104;17.85118397;-1.142634187;-0.223057869
3.367931888;-21.89041942;-11.31494435;-17.79588941;3.999652228;-0.332516415;12.83661452;2.670871422;5.039863336;4.854877114;14.39834415;5.830351537;83.80130465;10.69439807;6.008040341;1.669909334;15.19502974;-7.759575361;-0.249132461
6.809550953;-24.67728051;-9.882186706;-14.99194678;3.110039063;-0.247411906;17.03798231;0.80847359;4.758125277;5.226065475;15.89067428;3.671496722;74.40548288;7.262307544;5.123322686;1.337114973;14.32268099;-12.83468952;-0.258481703
11.54304303;-27.23502653;-13.12780692;-9.534050857;1.538618592;-0.150501937;15.70966669;-1.668199005;2.705173385;7.083883471;15.60748032;1.290811325;54.3499107;6.397717603;5.218363058;-1.698124307;15.53415634;-15.32978473;-0.243754396
15.87634678;-29.71380022;-19.21857228;-6.195976252;0.135702121;-0.053418152;9.586290584;-2.793495368;0.150426657;10.05532051;13.65076141;0.479221152;30.69844769;8.674318257;6.261908616;-5.451064037;17.98237232;-14.97722168;-0.219943018
18.98520608;-31.08415166;-24.7978341;-8.552397397;-0.354654113;0.026272677;1.304330464;-1.047938684;-1.25915553;13.43714129;11.14222099;2.108109058;11.52780651;12.4587639;5.667013604;-7.754616713;20.20479715;-12.16108615;-0.210352081
20.61125161;-29.71018814;-27.2619296;-15.97683241;0.232703333;0.068889418;-5.891584276;3.229276397;-0.754963065;16.32003906;9.466659931;5.619660268;2.793977817;14.99467268;0.705973489;-8.04197744;20.88980166;-7.803087366;-0.224963691
20.54259598;-24.87249601;-26.15601218;-23.68867021;1.383150134;0.059992646;-9.482134661;7.651708078;0.938196628;17.76895791;9.348628255;9.27314808;6.089766264;14.22782514;-8.658720185;-7.934161919;19.48455465;-3.197719096;-0.251283564
18.52325229;-17.94315023;-22.90115871;-25.96744133;2.237262917;-0.00122054;-8.456362804;9.199465727;2.150073242;17.14628352;10.50198686;11.11725857;18.36512148;10.18539328;-18.89658871;-9.957710124;16.42670907;0.300309993;-0.266060614
14.66054128;-12.06164456;-19.41082478;-20.28381415;2.138283825;-0.095519181;-3.404606608;6.334229238;1.56029175;14.51491391;12.05393971;10.1726715;33.76056049;5.011342398;-24.86616934;-15.16303789;12.95753898;1.702102129;-0.256888926
9.817560135;-10.30945401;-16.84121785;-9.349952265;1.033386956;-0.18392797;3.856930853;0.237918335;-0.799564475;10.8317292;13.25903065;7.063670796;46.56094667;1.632153017;-23.28460413;-21.49965895;10.57772628;0.73591611;-0.233623123
5.451914434;-13.62698791;-15.31575618;0.457744675;-0.520960849;-0.219438858;10.85852597;-5.850058594;-3.64836675;7.622488215;13.82702643;3.611683695;53.62746121;1.914211241;-15.15908373;-24.54417473;10.30788952;-2.078368512;-0.219104287
2.896597098;-20.0379687;-14.48453614;3.257198414;-1.728762969;-0.169715399;15.13935168;-8.803740414;-5.561439378;6.15515447;13.65633375;1.601991524;55.01850018;5.499411078;-5.321772675;-20.51644293;12.06405925;-5.681622974;-0.227922057
2.642528192;-25.83709113;-14.13795893;-2.485157794;-2.039880749;-0.040973006;14.99674996;-7.718304438;-6.143761321;6.595397756;12.41749433;1.569568702;52.71408339;10.05907983;0.686556099;-9.582984434;14.54690948;-8.907628713;-0.252959288
4.223693067;-27.93735923;-14.27459348;-13.04910075;-1.442927799;0.113255324;10.20264834;-4.403545479;-6.284520524;7.806025033;9.606945324;2.494802674;48.60739887;12.7841762;0.196451607;3.192679212;15.88074867;-10.86178512;-0.27212761
6.775901226;-25.70401954;-14.72177386;-22.04055864;-0.411258631;0.210378517;2.35248065;-1.937433903;-7.291009251;8.079936297;5.18479057;2.649848029;43.31284719;12.13848354;-5.067776804;10.47429574;14.78404862;-11.09617747;-0.268922228
9.735198677;-21.01230753;-14.89389872;-24.57757943;0.423681857;0.180089111;-5.517222117;-2.418668236;-9.652633926;6.382072936;0.199564377;0.95870882;36.56261364;8.756568995;-10.52963999;7.430461912;11.57207323;-9.602788267;-0.247669157
13.0349202;-16.63347033;-14.09901428;-20.20374831;0.651769592;0.007216097;-10.09230915;-5.603105566;-12.49612862;3.193028711;-3.382915866;-2.172774964;28.61928219;4.951285612;-12.15110758;-4.648592145;8.209927642;-6.760135233;-0.229380156
16.66033485;-14.29260735;-12.18749264;-12.69591972;0.306580669;-0.251115736;-9.274193778;-9.337487188;-14.19929235;0.258909475;-3.814150673;-5.186497539;21.28592255;3.204487469;-9.18152655;-18.72680562;7.165807187;-3.330649587;-0.232182824
20.06297973;-13.87757203;-9.910309372;-7.161916831;-0.158693546;-0.488216511;-3.236249123;-11.28259492;-13.64599916;-0.631461468;-0.90336937;-6.572843623;17.43882258;4.642077789;-4.361064623;-26.47796239;9.685491538;-0.455163001;-0.254551855
22.11227898;-14.2355206;-8.548204496;-6.599578677;-0.101638497;-0.600228336;5.569165629;-10.50559921;-11.07394987;1.066595983;3.570587153;-5.977710701;19.27572018;8.443130191;-1.626673334;-23.85026762;14.67628245;0.527913743;-0.276852535
21.78161021;-14.65711341;-9.016773445;-10.22853742;0.984106194;-0.538774218;13.49926814;-7.800653165;-7.83477824;4.299329294;6.897279831;-4.36617641;26.62576003;12.47675439;-3.175894254;-13.76671018;19.12594777;-1.441669805;-0.279645509
19.05103179;-15.63185037;-11.1510841;-14.48116021;3.174668868;-0.334156034;17.34182809;-4.738586715;-5.321248717;7.260078125;7.272904504;-3.187012309;36.73413903;14.67173884;-8.060456232;-3.950367546;19.9595174;-6.491256349;-0.26168899
15.21767457;-18.18020687;-13.76520793;-15.69403712;5.97034948;-0.077978388;15.65221189;-2.440815501;-4.003669519;8.734030372;5.045715032;-3.27553229;45.82269003;14.22564694;-13.1546749;-1.413001013;16.1550078;-13.35912402;-0.240967731
12.23378311;-22.39929594;-15.45674126;-12.56530861;8.392433774;0.121959336;9.222731705;-1.11463713;-3.371628598;8.846415495;2.351491925;-4.36859751;51.32775029;11.96430811;-15.49516682;-7.603451285;9.633282108;-19.5695232;-0.237908265
11.4952944;-26.64301427;-15.52986577;-6.853483123;9.348459838;0.188494356;0.607706333;-0.543739706;-2.745720935;8.644482534;1.376963826;-5.514422398;53.17854823;9.757667419;-14.0886465;-17.68266289;4.211406027;-22.38900777;-0.256444069
12.98747655;-28.28842487;-14.34636061;-2.099375164;8.163113196;0.101900667;-6.944117486;-0.822711957;-2.149520908;8.94991694;2.60855422;-5.89702121;53.25343789;9.446298926;-9.966285615;-24.27850599;3.249337036;-20.20605762;-0.280482092
15.42989525;-25.6745509;-12.90661892;-1.368116758;5.03177148;-0.100002747;-10.6646352;-2.475004343;-2.39626862;9.541275275;4.463597756;-5.33026636;53.6;11.90721374;-4.840379708;-22.78295631;7.551555852;-13.5730654;-0.288941367
17.26791319;-19.68482874;-12.06583436;-5.412947327;1.110556245;-0.341668264;-9.179759828;-5.789152606;-4.273083227;9.416207783;4.600602373;-4.094044767;54.9289834;16.67648509;0.195857388;-14.29289939;14.91409665;-5.189991469;-0.275311761
17.70577129;-13.56410031;-12.00470116;-12.2118493;-1.905759755;-0.538484562;-2.963652644;-10.05962075;-7.550223445;7.903774916;1.857480853;-2.441774177;56.53508665;22.18988731;4.784985159;-4.294713954;21.55997015;1.33268858;-0.253587044
17.0081641;-10.89185432;-12.27618585;-17.99043253;-2.582178685;-0.625727746;5.764916266;-13.60681346;-10.75322915;5.605286551;-2.725118336;-0.369597984;57.50118883;26.45083884;8.42262776;1.536034173;24.43117332;3.323558826;-0.245166953
15.95628609;-13.12642318;-12.25688634;-19.13841105;-0.514926184;-0.581424955;13.73715985;-14.77585826;-12.01407383;4.24720791;-6.585600465;2.121505736;57.92753009;27.85593492;9.828206001;1.087199979;22.81653016;0.442662001;-0.258986205
15.04191025;-18.56089554;-11.57519068;-14.09796123;3.382480667;-0.435657382;17.80375459;-13.17879261;-10.39092168;5.462035502;-7.46104155;4.628512925;58.97213269;25.90754682;7.593582642;-3.480658192;18.38084663;-5.236562707;-0.283321248
14.12649962;-23.50191017;-10.22986406;-4.341030257;7.299932261;-0.258880548;16.2151998;-10.11337542;-6.610213671;9.469061804;-4.927455521;6.372706052;61.63104146;21.53622513;1.775756843;-8.062076078;13.81102272;-10.50302023;-0.296786861
12.79873176;-24.79247632;-8.44408582;6.106476102;9.467826503;-0.129304143;9.459905154;-7.707562365;-2.619176747;14.76422981;-0.551914687;6.786668795;65.41150869;16.79724798;-5.112125666;-9.724840761;11.14309798;-12.82287155;-0.288209608
11.0083458;-21.79477875;-6.489876477;12.53168351;9.08949615;-0.093256779;0.186310402;-7.40289203;-0.283160351;19.10767974;3.309835842;6.154882875;68.24358844;13.92224586;-9.069990446;-8.202227381;10.83831198;-11.55742284;-0.266910288
9.326582005;-16.42616286;-4.633492473;11.99801694;6.724092091;-0.142225131;-7.863024449;-8.984442886;-0.23383202;21.01691049;5.034989724;5.601178203;67.92124864;14.09798037;-7.277660688;-5.090687699;11.9777803;-7.907125621;-0.253933718
8.561979294;-11.39774497;-3.149420357;5.10119332;3.893449699;-0.224197378;-11.45359505;-10.95192211;-1.722700932;20.5658049;4.45676427;6.240452335;63.96274664;16.67111639;-0.484953064;-2.040798001;13.16394413;-3.801615173;-0.262475949
9.072958334;-8.171947465;-2.272377596;-4.131492549;2.156345333;-0.284576176;-9.232984532;-11.9262433;-3.502016701;18.90794614;2.464338657;8.13321509;58.28547053;19.40459572;7.035680794;0.274226924;13.40685033;-0.628951352;-0.285711848
10.4;-6.246334242;-2.071055373;-10.39053973;2.217865547;-0.308229913;-2.228064571;-11.91590344;-4.93977678;17.04623168;0.069409009;10.01668996;54.00781732;19.82317161;10.37746166;1.791586479;12.51955774;1.329029142;-0.303250589
11.54684983;-4.168235572;-2.372824624;-10.16559211;3.611639746;-0.329516884;6.70923885;-12.36551697;-6.439046994;14.99526178;-2.199178351;10.22673161;53.29;16.8955741;7.735875238;2.194515309;11.00437137;2.53915004;-0.300115772
11.65673914;-1.228409338;-2.851904322;-3.865386712;5.125760748;-0.399292119;14.1552626;-14.90749659;-8.858243598;12.08394784;-4.208616292;8.174626089;56.02550959;11.9008238;2.009094264;0.835421287;9.682310574;3.444896028;-0.280584039
10.49454586;1.71468505;-3.216737926;4.471498577;5.672289183;-0.532734915;17.44625236;-19.81854384;-12.47881955;8.078422714;-5.794471166;5.123565457;60.54280447;7.734376773;-1.274192404;-2.311674053;9.290916724;4.01337677;-0.264095427
8.353155147;2.991655034;-3.301357063;9.785290048;5.024347105;-0.681442874;15.55892481;-25.45773526;-16.44050692;4.016705581;-6.601989441;3.45078049;65.7455843;6.963641908;1.664230597;-5.763541218;10.13791224;3.932872837;-0.267142513
5.548458975;1.755515308;-2.9614778;9.21338549;3.938938173;-0.758453286;9.318467579;-29.20648002;-19.17380697;1.847729454;-6.4225623;4.809824589;72.74244292;9.919036036;9.545717428;-7.002273904;11.86869341;3.15967388;-0.28800993
2.044522025;-0.988315699;-1.930819441;3.71807983;3.588435302;-0.70334473;1.002834241;-29.25186559;-19.53951534;3.007646661;-5.65548327;8.613539672;84.25070161;14.22869945;16.55519421;-4.363569231;13.48582331;2.211658217;-0.308484216
-2.381915774;-2.921947449;0.077312262;-2.976301276;4.682078047;-0.538102299;-6.449183529;-25.88960931;-17.79781542;7.055708402;-5.320703915;12.14041407;101.8334181;16.27109347;16.50832044;1.160953361;13.75620362;1.87812955;-0.310838067
-7.544550344;-2.145974671;2.944064409;-7.284781482;6.875695489;-0.364781177;-10.39943336;-21.37895758;-15.62954552;11.56480954;-6.44113525;12.33722977;122.9745611;13.64042484;7.553573149;6.008447729;11.92152892;2.586384219;-0.294252046
-12.35786349;1.303593316;5.729147675;-8.300221929;8.895579367;-0.297781779;-9.408724153;-18.45773595;-15.12809793;13.52094759;-9.232568233;8.018909577;140.4949942;6.913081361;-6.226677427;6.389784458;8.315313919;4.005122364;-0.275461945
-14.96123636;5.403068673;6.809502972;-8.078630991;9.33922865;-0.376919818;-3.806172807;-18.58428141;-17.43632185;11.28902439;-12.79742829;0.789986838;145.3370201;-0.578710305;-17.57552671;1.252389891;4.394715208;5.265748594;-0.273135733
-13.49936169;7.614257327;4.804524962;-9.547236493;7.653240542;-0.529296666;4.324635074;-21.11432559;-21.96513989;5.724218646;-15.65569156;-6.027911512;131.3371583;-4.868994523;-21.05305569;-6.573370661;2.008349411;5.630556508;-0.290563191
-7.106148675;6.721680667;-0.177818339;-13.77308245;4.633517268;-0.616473834;11.8438715;-23.89951696;-26.73;-0.369446906;-16.76346297;-9.644075891;99.07611255;-3.922354437;-16.47125088;-12.19724824;2.278202132;5.035339746;-0.312709248
3.492322874;3.617491641;-5.95057012;-18.82208088;2.067037324;-0.538606176;15.75086781;-24.79554434;-29.58251442;-4.017379815;-16.25234967;-9.533350679;56.39771833;1.126992246;-8.36087565;-12.2155117;4.838916273;4.046184454;-0.320267099
16.05384518;0.498284437;-9.06545329;-21.16104657;1.681768509;-0.318407875;14.4115498;-23.01577907;-29.52541571;-3.822871716;-15.3233118;-7.443160269;15.32735654;6.866284752;-2.266558217;-7.231257384;8.006622923;3.292034055;-0.307577133
