Channel 1 - P4;Channel 2 - O2;Channel 3 - P8;Channel 4 - T8;Channel 5 - C4;Channel 6 - Cz;Channel 7 - Fz;Channel 8 - F4;Channel 9 - Fp2;Channel 10 - F8;Channel 11 - Fp1;Channel 12 - F7;Channel 13 - F3;Channel 14 - C3;Channel 15 - T7;Channel 16 - P7;Channel 17 - P3;Channel 18 - O1;Channel 19 - Pz
-10.38729809;-20.23638046;-16.33907261;-17.71223715;-22.46510732;15.20487543;70.8590875;13.36856078;-18.83015803;20.52424951;-26.81743479;-2.230029297;17.54364308;-25.44836958;-3.671098514;3.032146789;29.84456398;-30.39944543;3.440973018
-10.0696423;-20.41788318;-15.14668937;-11.42825771;-19.92303224;14.84148721;58.97791292;18.07524781;-5.985985797;18.8946118;-16.99383811;-10.62329781;26.54101638;-25.05431891;-5.785768018;1.376548607;26.5148279;-29.78179988;2.729785915
-6.43171115;-15.00269192;-9.130731957;3.335801245;-7.873701032;9.586646572;28.06532026;19.77857173;14.42799702;12.70757101;6.528899159;-17.4099421;25.50033386;-13.93280899;-3.466649537;1.247108819;14.92020813;-19.48731191;1.61289079
-1.342819194;-6.592784346;-1.126792886;17.42334331;6.737034676;2.277239211;-5.749405149;17.28123822;31.99850727;5.288779211;30.61814726;-22.34582735;16.43748351;0.818788424;-0.91942558;3.118461477;1.348123442;-4.8283856;0.470497565
2.359654952;0.296200321;4.561139872;22.74515426;16.22178611;-3.302066178;-24.80480676;12.09963169;38.53283658;0.17049801;43.18863606;-25.8061145;6.116794362;10.69810527;-2.143729953;5.43190026;-7.632797103;6.36755788;-0.360982676
2.79719726;2.155601342;5.142892957;17.93647821;17.1453863;-4.830618663;-21.60894547;7.493285465;33.30910915;-1.052267935;40.87539493;-28.10882174;1.303011077;11.53276392;-7.562051577;5.875162529;-9.222522186;8.849992571;-0.725945809
0.218081202;-1.394963924;1.178159343;8.689973317;11.94822632;-2.725073852;-3.29876589;6.305079449;22.96970288;0.742257765;30.13418613;-29.16687568;4.418834607;5.726720154;-13.78793658;3.327050447;-5.580078125;3.048231728;-0.682917453
-3.392485128;-7.703221025;-4.065949707;2.883963399;6.334109956;0.53282188;14.1164618;9.1189566;16.3373904;3.420104683;21.44617912;-28.73782678;12.54171772;-0.376542024;-16.62827224;-1.195558002;-1.578110496;-5.91893352;-0.43382498
-5.860794568;-13.14944859;-7.143260223;4.591742681;4.743842297;2.368120298;17.20003906;13.97575354;18.13391687;5.364217892;21.37845485;-26.9846248;20.0890335;-1.645835046;-14.63422675;-5.430374633;-1.057815058;-12.32760928;-0.200461467
-6.302452715;-15.54998139;-6.844109772;11.59734974;7.443778657;1.852694688;3.831520473;17.76430883;26.18789315;6.363387645;28.47824421;-24.77251152;22.90697721;2.259254711;-10.14520316;-7.863103708;-4.420661046;-13.80825705;-0.117229186
-5.462793157;-15.18709145;-4.705215069;17.94064226;11.18148443;0.00200793;-16.62706775;18.25936171;33.87575817;7.120757314;35.62290092;-23.34846303;20.74079962;7.411666398;-7.085512935;-9.085033787;-9.098199542;-12.30041752;-0.189916994
-4.819771469;-13.94534161;-3.410487894;18.96629722;12.42433788;-1.384199776;-30.98531857;15.41328031;35.54886328;8.103638327;36.35610183;-23.58979805;16.6;9.364140056;-7.650426083;-11.25455036;-12.10920538;-11.63546752;-0.32899731
-5.305231132;-13.49187022;-4.525851915;14.64173944;10.30634817;-1.260120863;-31.44814835;11.12396391;30.65149346;8.899384675;29.94560117;-25.40679927;13.97271267;6.813621113;-10.86915663;-16.0032293;-12.43334474;-13.99287391;-0.426232601
-6.691368185;-14.02185022;-7.402226375;8.726474292;6.968617886;-0.023029143;-19.79782763;7.791817078;23.57500512;8.617748969;21.39044218;-27.79870652;14.26233483;2.282232885;-14.15016127;-22.5216671;-11.38102792;-18.14014688;-0.425113591
-8.027803409;-14.43515997;-9.98428971;4.977923371;5.331438779;1.057559195;-4.44712936;6.750454819;19.77584747;6.844841337;16.89067002;-29.5573056;16.27159126;-0.399024439;-16.09527735;-27.54361664;-10.97823971;-20.69166713;-0.346167957
-8.611538657;-13.55921568;-10.66441438;3.896669852;6.431074402;1.034812498;6.277514536;7.611260403;21.48370205;4.167824919;18.79238459;-30.10181705;17.71452526;0.589075296;-17.74739395;-27.46969754;-12.00186101;-19.10096711;-0.259391288
-8.59035454;-11.24668974;-9.555942124;2.744093988;8.612078625;0.046702161;9.132185546;8.821504586;26.33335395;1.750766387;24.05163195;-29.82898829;17.19781173;3.736488512;-21.04783256;-21.11019443;-13.40003906;-13.81080269;-0.228812491
-8.713509289;-8.442684038;-8.193337609;-1.429470709;9.120398602;-0.931652429;6.092121544;8.888463866;29.68695886;0.369168658;27.10039011;-29.74643306;15.03740998;5.773113687;-26.09374417;-10.92276817;-13.47088184;-7.872556001;-0.268880279
-9.537982478;-6.303583669;-8.070146393;-8.581940223;6.5870204;-1.022183166;0.83460146;7.359827497;28.48387669;-0.176093705;24.43748115;-30.70392876;12.5132704;4.53939922;-30.10882896;-1.693820751;-11.61244778;-4.529581859;-0.340632536
-10.86344536;-5.256369679;-9.369124015;-15.16459003;2.251204361;-0.201683268;-4.6349097;4.954002033;23.48238854;-0.710407737;17.17329077;-32.80824807;10.52011026;0.654074701;-29.52737915;2.470627232;-9.033910761;-4.863123109;-0.386197595
-11.91958527;-4.83875326;-10.95847849;-16.76115563;-1.033247341;0.745644476;-10.40549929;2.898476735;18.32622745;-1.735952794;9.762657257;-35.41095557;8.909792316;-3.271279067;-23.55654387;0.717017068;-7.807440315;-7.359070299;-0.373576236
-12.12018114;-4.371165219;-11.5461292;-11.6610161;-1.069025762;0.968289245;-16.52891413;2.050767912;16.50532021;-2.795288224;6.350514298;-37.59239161;6.995822948;-4.947646828;-15.86214901;-4.199449032;-9.11607082;-9.51630838;-0.318295619
-11.6755074;-3.736507878;-10.87559454;-2.420073242;2.04909008;0.287123893;-21.09312683;2.41658151;18.79948569;-2.795772301;7.85118199;-38.72329037;4.562078957;-4.15569247;-12.37785187;-7.918610334;-12.22218336;-9.944217051;-0.267573123
-11.47931599;-3.484046433;-9.880019531;5.810567127;6.171619763;-0.700217768;-20.80234533;3.299405729;23.10869483;-1.06496785;11.8922569;-38.71740488;2.312397787;-2.547115689;-16.64115378;-7.349564236;-15.02050204;-9.176069711;-0.261407275
-12.33845071;-4.157759699;-9.70471119;8.786247688;8.823938344;-1.189754729;-13.76136569;3.852906013;26.46608205;1.790733224;15.19673324;-37.9055828;1.307588593;-1.935241895;-26.50609544;-2.479708338;-15.67779444;-8.715464539;-0.301761822
-14.2097251;-5.525341605;-10.54351953;5.767490204;8.909557379;-0.873442705;-1.923647257;3.59583743;27.34349443;4.037826656;16.1227258;-36.75167397;1.930404853;-2.744407977;-35.24862235;3.885926083;-13.98457487;-9.404837878;-0.353326885
-16.12297358;-6.520216374;-11.38803171;-0.5851631;7.097543478;-0.158635244;9.204895502;2.581530668;26.4002844;3.952490494;15.34923315;-35.65650275;3.369571875;-3.932185442;-36.48983751;7.995585988;-11.35753059;-10.67726995;-0.373748313
-16.88753393;-6.059782235;-10.93975536;-6.571245718;4.852970092;0.24744581;13.71481632;1.221028593;25.35305525;1.077344331;14.56957838;-34.8994864;4.137491001;-4.229038342;-29.05165145;7.277259667;-9.597133428;-11.29480676;-0.348080816
-16.00677841;-4.049623427;-8.862126901;-9.976470937;3.170446736;-0.019490097;9.017132622;-0.016991427;25.22588499;-3.388517631;14.73091197;-34.59585708;3.199218825;-3.377711703;-17.76155061;1.527496014;-9.496124932;-10.73772619;-0.299721758
-14.04265068;-1.620370906;-6.215188938;-10.88972964;2.113002903;-0.685662799;-2.579207813;-0.804227706;25.56301886;-7.362919513;15.43799135;-34.58927913;0.748713505;-2.220326908;-9.544326096;-7.191340057;-10.40713252;-9.819627304;-0.26980376
-12.13554071;-0.261691304;-4.627317958;-10.60502815;1.344021551;-1.123940454;-15.41547948;-0.984331431;25.13420092;-9.207287135;15.78581778;-34.39030524;-2.009865945;-1.701812535;-8.08393917;-15.54777907;-10.98774969;-9.876543509;-0.282753673
-11.0962652;-0.514714496;-4.891103316;-9.979142634;0.895210491;-0.929841743;-23.80481196;-0.527744721;23.29202503;-8.623507438;15.50841209;-33.36213613;-3.847475488;-1.904660085;-11.49999867;-20.22611231;-10.3697908;-11.27616946;-0.32657711
-10.84017873;-1.376494415;-6.222452642;-8.806130885;1.295593242;-0.265677501;-24.76992135;0.477596591;20.66236557;-6.56305696;15.19720836;-31.18182872;-4.398142867;-2.113307715;-14.82821091;-19.09228523;-8.757386916;-12.71326855;-0.363774482
-10.6314279;-1.062642178;-6.890161589;-6.591062491;2.92396874;0.313355717;-18.74447078;1.782480233;18.58121396;-4.398403862;15.44072881;-28.28684645;-4.227392363;-1.796133955;-14.9158329;-12.01854019;-7.065334418;-12.11189907;-0.36325886
-9.907663267;1.373566904;-5.745633968;-3.737842834;5.280367546;0.365802004;-8.527786713;2.962108348;17.87295086;-3.101207091;15.89658601;-25.87659724;-4.115279905;-1.415593636;-13.28925002;-1.119859276;-6.057385984;-8.49267004;-0.326363599
-8.953069557;4.900145826;-3.366351557;-1.833377923;6.998554991;-0.061584472;2.217543957;3.517153529;18.11636986;-2.989662897;15.37714343;-25.29340899;-4.266587858;-2.115037492;-14.42763293;9.870202398;-5.789098222;-3.188207492;-0.285246545
-8.803672877;6.936124855;-1.786635735;-2.623998847;6.735665865;-0.511532932;10.00698973;3.081682045;18.03506887;-4.000362861;12.97374582;-27.11734288;-4.170705028;-4.472212951;-21.03784696;17.07477223;-5.770809126;0.789252449;-0.275287093
-10.40897778;5.232808579;-2.934848648;-6.542198476;4.232670139;-0.549654126;12.19559465;1.625762701;16.61501136;-6.000467891;9.131304459;-30.64569483;-3.199652599;-7.543780375;-30.69131218;18.2303914;-5.572612318;0.907416181;-0.304946653
-13.71042876;-0.156774308;-6.986911147;-12.10772722;0.627721822;-0.150368038;7.758934895;-0.479697131;13.944617;-8.760749795;5.536326148;-34.23875753;-1.345608706;-9.298425216;-37.07158192;13.76445929;-5.241355016;-2.861956553;-0.348661957
-17.40734171;-6.42343466;-11.97541926;-16.81149385;-2.281738297;0.302321694;-1.879836799;-2.588027791;11.08722153;-11.69488166;3.783083627;-36.37165406;0.625360551;-8.277541572;-35.0181599;6.474485349;-5.162162589;-7.82292901;-0.368821474
-19.67053011;-9.621515852;-15.03986903;-18.84704578;-3.248914633;0.378573542;-12.83939675;-4.02861748;9.177784548;-13.81549628;3.994500764;-36.63478837;1.79020466;-5.069986722;-25.09500497;-0.058572231;-5.56700602;-10.42285612;-0.348121527
-19.33401797;-7.341983933;-14.42459173;-18.35093767;-2.309152319;-0.009185939;-20.34639047;-4.357674445;8.567755084;-14.19461027;4.714671278;-35.8985505;1.933310072;-2.159195864;-13.64067002;-3.329962931;-6.215025613;-8.826606084;-0.304598895
-16.71380236;-0.523396647;-10.74066617;-17.20851893;-0.524605911;-0.53653278;-21.4218982;-3.500864896;8.704211775;-12.68210668;4.266137254;-35.487047;1.882394298;-2.042565917;-8.048790408;-2.883606985;-6.566015455;-4.229012567;-0.27625
-13.45733946;6.98763482;-6.559871559;-17.60162769;0.93510965;-0.760384691;-16.92673162;-1.752587268;8.728102109;-10.25072184;2.38652527;-36.01271521;2.965942637;-5.102433434;-11.12513017;0.064532726;-6.271116616;0.093685811;-0.288191757
-11.51647416;10.91194034;-4.653611007;-20.39623708;1.56949063;-0.500586493;-11.18274248;0.341041173;8.187286566;-8.516548136;0.619895083;-36.83393729;5.980394649;-9.087215368;-19.20205171;3.808667566;-5.502086527;1.246965641;-0.330599217
-11.94377273;9.34258347;-6.161249725;-24.50874778;1.61743677;0.024921569;-9.011282717;2.166122274;7.277263861;-8.641297539;1.008977723;-36.6128525;10.47867761;-10.79958887;-25.50688427;7.116171775;-4.807239702;-1.185303303;-0.366784801
-14.30731213;3.914756646;-9.958268908;-27.61305965;1.541367724;0.41023391;-12.13512574;3.243896348;6.536886912;-10.40920603;4.184848336;-34.53594818;14.95056663;-8.700666849;-25.81662655;9.361493188;-4.636266154;-4.948648758;-0.364925171
-17.06464935;-1.447102757;-13.56608061;-27.61716293;1.52094097;0.410156738;-17.679339;3.399531608;6.397183018;-12.2496798;8.568732301;-31.1724534;17.7687798;-4.259755336;-21.55112207;10.10447811;-4.975517797;-6.871921546;-0.326154298
-18.58424834;-3.258714196;-14.84735554;-23.91594401;1.420783595;0.117546878;-20.12349563;2.830532652;6.988310081;-12.29884198;11.48040542;-28.20298991;18.19494379;-0.836657122;-17.78131232;8.893704456;-5.40685548;-5.163911269;-0.284273888
-18.11007813;-0.724226547;-13.2689895;-17.70281727;1.151232199;-0.165331344;-15.4436663;2.020165012;8.235784674;-9.772555709;11.26902183;-27.17382488;16.72835922;-0.933382447;-18.11678562;5.725866709;-5.49146865;-0.549461646;-0.276624253
-16.07028251;4.024591073;-9.952778349;-11.27527472;0.943601007;-0.217256967;-4.398366433;1.504758311;9.970181446;-5.625784574;8.639106503;-28.26450604;14.61300081;-4.070859725;-21.15836436;1.73456629;-5.091138539;4.470981769;-0.311056107
-13.61402122;7.720111973;-6.657394369;-6.82229356;1.19010966;-0.077838963;7.554387695;1.596690057;11.85841985;-1.96628805;6.006844602;-30.0896454;12.94540581;-7.097178236;-21.76974154;-0.808973523;-4.342432919;7.527991238;-0.358135528
-11.76810676;8.361666405;-4.535195423;-5.364676474;1.996070663;0.031301672;13.72686215;2.218119722;13.30620176;-0.614563539;5.434505279;-30.73469071;12.06194056;-6.746463592;-16.08565106;0.3537554;-3.373345083;7.980925754;-0.376282732
-10.8058564;6.473865382;-3.5294954;-6.35614035;2.938424219;-0.054760662;10.56293892;2.954408554;13.64588083;-1.848127764;6.943997814;-29.21774696;11.58846836;-2.386179556;-5.741913138;5.791757187;-2.114312201;7.12071894;-0.348544916
-10.22054398;4.415086057;-2.709517016;-8.106500866;3.355281478;-0.281825127;-0.185800623;3.302488332;12.65817755;-4.239097332;8.67859745;-26.21470125;10.99047221;3.305762441;2.662276229;13.53698812;-0.441357089;7.01115544;-0.298589884
-9.260614283;4.397930591;-1.162666619;-8.802376674;2.956970647;-0.437696457;-12.81632425;2.958165016;11.01391382;-5.689656337;8.739366685;-23.4860344;10.10990614;6.326230679;2.758325244;20.00960089;1.48761829;8.945060148;-0.270866385
-7.610801724;6.769449791;1.250036621;-7.588032287;2.176730538;-0.365177778;-21.3155168;1.959804416;10.08361477;-4.900886124;7.020452991;-22.5022891;9.262493312;4.431277417;-6.010144884;22.29351715;3.097224236;12.60994919;-0.291372399
-5.72423834;9.800924208;3.776274946;-5.072523528;1.861706941;-0.115836946;-22.61;0.611539223;11.01626686;-2.220253742;5.352185966;-23.39700474;8.878520418;-1.117500469;-17.26597694;20.12298256;3.707882615;16.40383507;-0.343525824
-4.561040836;11.05443181;5.308193473;-2.88621469;2.50935603;0.10106581;-17.44053479;-0.731701487;13.70768522;0.705015672;5.770886119;-25.06;9.049882715;-6.483424829;-22.28686205;15.97895437;3.109985002;18.51332655;-0.381476911
-4.899286036;9.245265639;5.166177973;-2.484815937;3.724531921;0.120021667;-8.894682673;-1.848213555;16.57829923;2.167684858;8.445012702;-26.2049265;9.401709454;-8.066781882;-16.76434514;13.0991819;1.895449338;17.96552136;-0.370416351
-6.68855538;5.229796518;3.60959315;-3.973392412;4.442002509;-0.025594953;-0.238986901;-2.686602165;17.55662794;1.612434515;11.16998197;-26.44479481;9.416835895;-4.983083021;-4.266673192;12.90326452;1.177661496;15.06058895;-0.318599143
-8.912766681;1.458325556;1.757738166;-5.841442965;3.80095311;-0.143857054;6.303098501;-3.281763711;15.65236331;-0.038190248;11.02097745;-26.46528937;8.94931507;0.613804029;6.458370822;13.90541689;1.8373131;11.09663944;-0.271706081
-10.1078033;0.355093879;0.967848077;-5.944488299;1.945881256;-0.080943747;9.46993576;-3.677366406;11.86683146;-1.136959068;6.851246219;-27.22;8.479211938;5.395511145;8.206852287;13.07224281;3.872202808;7.69726142;-0.272940958
-9.239229723;2.794194825;2.031173911;-3.138760895;0.02909443;0.114669516;8.476099397;-3.951147537;8.57698376;-0.568731202;0.504440192;-28.94086493;8.832834503;7.274253492;0.685303739;8.610854995;6.393579204;6.139108007;-0.323537074
-6.378309569;7.674153761;4.657519728;1.632229171;-0.657533102;0.220232486;3.12447488;-4.304802815;7.736341336;1.396983159;-4.380414509;-30.89012824;10.50431759;6.502133503;-9.692432067;1.936766652;8.298581461;6.933678376;-0.379660107
-2.715922179;12.75814755;7.570441099;5.726747683;0.262778936;0.039182838;-5.457861084;-5.074453489;9.287809888;3.254604465;-5.086008625;-32.07201374;13.06814206;4.846730468;-15.21722511;-2.877256506;9.085681825;9.739374866;-0.390320824
0.122697726;16.09049098;9.195879509;6.534343077;1.892910554;-0.408002358;-14.40953549;-6.557300763;11.13605056;3.29898241;-1.870940497;-32.21691727;15.19103855;3.826862713;-12.97377577;-1.91484388;9.15604844;13.57244636;-0.343719892
1.031389014;17.01266447;8.568965702;3.333745738;2.728074295;-0.879413718;-19.95933583;-8.72231381;10.81837131;0.827469206;2.304794582;-32.07542191;15.37626858;3.593427624;-6.7039297;5.581924313;9.373810515;17.22213077;-0.28005188
0.027927402;16.20797015;5.920146282;-2.137761637;1.829841964;-1.103054907;-19.33451539;-11.03088456;7.591648116;-3.315350693;4.143390128;-32.68212661;13.02645155;3.266080271;-3.162363724;16.31821591;10.27652795;19.70848915;-0.257277307
-1.86844346;14.9325666;2.563708945;-6.900808037;-0.4323538;-0.996970338;-12.50905144;-12.57720565;3.221861149;-7.214981622;2.531024766;-34.22660304;9.077827458;2.18013962;-6.211353823;24.8923917;11.60438975;20.58266683;-0.298752207
-3.364793866;14.09880773;0.134983089;-8.852832158;-2.6558089;-0.726152576;-2.458425147;-12.54253982;0.749003984;-9.057743633;-0.789755084;-35.61208212;5.631904725;0.764574859;-13.60971965;27.19297147;12.52273357;19.93677149;-0.369843633
-3.700350094;13.84894197;-0.352473248;-8.164553105;-3.450279742;-0.550998467;6.366825791;-10.69598248;2.141332291;-8.20881536;-2.842481628;-35.24767278;4.655367815;0.228300439;-19.04894418;22.8248831;12.31399712;18.16848351;-0.406657836
-2.986696017;13.794071;0.970068359;-6.869692084;-2.409133535;-0.60596973;10.33839133;-7.586423749;6.697470627;-5.493382847;-1.915761255;-32.52641824;6.535134625;1.380332556;-17.59316035;14.95151376;10.93458439;15.71019919;-0.373381036
-1.914139907;13.58483187;3.0406178;-7.000405243;-0.273716525;-0.80298013;8.242177658;-4.257002523;11.4929235;-2.53365914;1.106112423;-28.7375406;9.528764034;3.697131349;-9.949953006;7.885672745;8.986576141;12.93033099;-0.297013017
-1.129756361;13.29437481;4.625783006;-8.805544509;1.74507752;-0.935771418;1.375580703;-1.654567;13.53429537;-0.639025279;3.565279803;-26.50712765;10.66205106;5.513754146;-2.089778207;4.312463402;7.185130659;10.22557876;-0.246092403
-0.800480892;13.32153888;5.066258284;-10.53622213;2.857126568;-0.880356962;-7.485643629;-0.140692947;11.91803601;-0.03088514;3.203693072;-28.03313053;7.640039063;5.218608822;-0.601950462;4.059768887;5.829788467;8.11388086;-0.269699601
-0.668820543;13.94629127;4.50159204;-10.00242297;3.075890392;-0.706515405;-15.2807916;0.558552359;8.315824695;0.088572436;-0.124470595;-33.42211453;0.528275505;2.473632953;-7.580740325;4.979578523;4.74284078;7.121014077;-0.350723383
-0.473797003;14.9540158;3.496654508;-6.625975149;2.887714627;-0.604130282;-19.39566724;0.961083057;5.492019586;0.74435107;-4.487481343;-40.45253858;-8.027566487;-1.516494677;-19.06371319;4.935559118;3.683417819;7.473512648;-0.417560557
-0.3102469;15.68373584;2.456572162;-2.260391772;2.627945676;-0.699711934;-18.08329476;1.334151611;5.139295214;2.320193017;-7.439391857;-46.01699364;-14.33947594;-4.856792528;-28.07556365;3.302541829;2.805026937;8.867722311;-0.407147817
-0.579952001;15.50827912;1.3443095;-0.01592921;2.176565765;-0.935218375;-11.03606158;1.50863962;6.792791551;4.292400049;-7.725764401;-48.17970937;-16.01405803;-6.221048932;-29.70137798;1.058028315;2.691696026;10.60391617;-0.324213375
-1.570673661;14.39080904;-0.090050964;-1.947045785;1.217356664;-1.118769995;-0.080238711;1.152266365;8.598298489;5.757094649;-5.828327142;-47.29610503;-13.47882801;-5.564364256;-24.23131426;-0.243257106;3.900500512;12.07739599;-0.241487088
-3.050440071;13.06072634;-1.830923967;-7.409302112;-0.250289782;-1.097147902;10.75905935;0.260299287;9.139368765;6.306567865;-3.162778092;-45.38573324;-9.594763693;-3.869105469;-16.21598399;0.402898007;6.393563982;13.242966;-0.236637659
-4.276477144;12.60191164;-3.361943863;-13.39141191;-1.685274275;-0.89081348;16.60107656;-0.578308094;8.703568194;6.521176475;-0.841149538;-44.33;-7.615594046;-2.288220952;-10.59737106;3.014649376;9.354588122;14.58659374;-0.320143399
-4.471613856;13.68118288;-3.949816714;-16.57875333;-2.315319195;-0.67065006;14.2482832;-0.417690647;8.943669497;7.63538335;0.92657307;-44.3679227;-8.981289093;-1.425407742;-9.200703057;6.901675867;11.56555471;16.50560135;-0.42055246
-3.406426812;15.95266565;-3.243355979;-15.56319253;-1.720610784;-0.602112794;4.432268414;1.433660156;11.3133954;10.59165394;2.489077931;-44.06930505;-12.567402;-1.224607843;-10.2258945;11.12155122;12.06242137;18.56093646;-0.445067537
-1.60125148;18.11279574;-1.660535442;-11.55375313;-0.166245887;-0.701066817;-8.053658623;4.879344474;15.68426209;15.20153426;4.059278017;-41.74325071;-15.9012844;-1.359657412;-10.71825483;14.67264413;10.59213352;19.32218735;-0.364703363
0.050206202;18.65870111;-0.169532218;-7.178148767;1.616488222;-0.830090332;-16.94484044;9.003520787;20.328512;20.08325003;5.451304327;-37.0852358;-17.32701596;-1.651678787;-9.611918625;16.48254625;7.602038265;17.16451564;-0.246572567
0.96072185;16.89303465;0.429191658;-4.461173826;3.006612551;-0.832921679;-18.39736219;12.59623889;23.23480572;23.46741405;6.437241746;-31.70885741;-17.35103096;-2.152898075;-8.701709044;15.57062562;3.887497324;11.59634173;-0.199002352
1.291226499;13.48655808;0.160357265;-3.610351519;3.923912557;-0.680212785;-13.50688844;14.86644968;23.5995166;24.30437135;7.198331641;-28.12802419;-18.05364983;-2.926254596;-10.8237912;11.56159948;0.242533403;4.115899365;-0.27351007
1.784657547;10.15581225;-0.093813806;-3.441958445;4.754902085;-0.494194047;-7.481064282;15.83051889;22.26212604;22.88176012;8.245982987;-27.983824;-21.02645242;-3.820763657;-16.90727429;5.22983576;-2.664948335;-2.237053303;-0.411387507
3.106512601;8.606229235;0.72632215;-2.866695667;5.87280281;-0.433794345;-5.833903486;16.11604159;20.82977252;20.53790737;9.791054969;-30.86607861;-25.54666296;-4.477925705;-24.4601771;-1.494120056;-4.27090208;-4.565244342;-0.488574344
5.214331317;9.430388297;2.964438236;-2.025172245;7.201931321;-0.548644019;-10.24792856;16.36759022;20.35627723;18.72845489;11.21762543;-34.57143162;-28.59793677;-4.536392799;-28.84580119;-6.306018926;-4.178321227;-1.969700488;-0.425844663
7.274455353;11.73531466;5.852024182;-2.080754718;8.21677437;-0.734953329;-17.15953886;16.73025603;20.72454;18.14248485;11.34748142;-36.53513908;-26.92118391;-3.826971355;-26.45751464;-7.700174181;-2.393404481;3.770133937;-0.267754138
8.222913944;13.79931111;7.96407404;-3.928485227;8.365075224;-0.830206132;-20.22592919;16.79709119;21.13842157;18.45191402;9.463362312;-35.36412893;-19.62967534;-2.417620923;-17.41321438;-5.728255245;0.463188057;9.300873853;-0.153861129
7.559365729;14.33097209;8.225426375;-7.057889801;7.531674192;-0.757706953;-14.98205297;16.02192189;21.09252203;18.7499325;6.242601199;-31.460593;-9.365464433;-0.556047218;-5.761404793;-1.779492968;3.277480611;11.91582497;-0.198185282
5.771014427;13.43964827;6.726928005;-9.671127517;6.141570782;-0.590591254;-2.338944495;14.23428919;20.81422572;18.24273503;3.647596606;-26.4992284;-0.988300563;1.365268997;2.961846539;2.460248291;4.978935784;11.35768841;-0.379196874
4.058054039;12.58993451;4.736943109;-10.03766049;4.832977113;-0.481784112;11.6178392;11.83525398;20.77366118;16.67918956;3.623506284;-22.32453987;1.38279127;2.808548582;5.107840253;6.092074895;5.189240793;9.904740871;-0.543286689
3.555470251;13.52209071;3.88768318;-7.942824752;4.001726544;-0.52769769;19.40074372;9.531529549;20.83301229;14.33055583;6.520642612;-20.06932689;-3.083003299;3.186329487;0.947798239;9.342956752;4.489324062;10.64966943;-0.531280501
4.610665791;16.88085067;5.114883694;-4.944191435;3.600624398;-0.688625373;16.81020253;7.840511778;20.01379663;11.72329265;10.54;-19.91067448;-11.54945305;2.151710604;-5.858764662;12.97740646;4.032966302;15.18293634;-0.326257493
6.611307929;21.54534143;8.081013186;-3.132018952;3.320654324;-0.831707999;5.362545778;6.76514355;17.29139932;9.433711111;12.78930992;-21.32159342;-19.4715115;-0.045675363;-10.79037513;17.32059382;4.726596711;22.32381682;-0.090463811
8.434754482;25.18554431;11.4281842;-3.377626372;2.938470416;-0.84996085;-8.963555475;5.875037317;12.79238637;8.035018847;11.26461102;-23.43062999;-23.41206765;-2.461008986;-11.17807614;21.69867101;6.556714029;28.78496059;-0.044107284
9.151105015;25.70595154;13.61218999;-4.548178634;2.497326461;-0.746942012;-19.46701056;4.691623369;8.245200496;8.026622746;6.288704503;-25.27198817;-22.76246321;-3.844574637;-7.391786531;24.73573767;8.565330779;31.28056733;-0.274004647
8.485739793;22.6;13.72022852;-4.418614551;2.182490889;-0.615809297;-22.25568094;3.046415284;6.062755716;9.578466942;0.3104138;-25.99634313;-19.3829932;-3.376957386;-1.987948284;25.27265081;9.49762304;28.60674548;-0.63071364
6.795111255;17.29706893;11.79370691;-1.608499729;2.055094239;-0.54217848;-17.45899332;1.140061035;7.612173873;12.20387178;-3.777598223;-25.16846506;-15.75987618;-1.250264711;2.305023868;23.22200018;8.650209054;22.31996833;-0.812207488
4.697602301;12.2910276;8.601934534;3.034807179;1.931906788;-0.527194509;-7.986258344;-0.695784626;12.02896347;14.72605549;-4.526102769;-23.06091255;-13.23145007;1.386451312;4.261135583;19.75332662;6.32199907;15.67894677;-0.582990448
2.711532345;9.675895397;5.17017135;6.822850227;1.537857729;-0.501215522;2.615777624;-2.287551664;16.61405092;15.79769566;-2.651395852;-20.65140023;-11.52314693;3.154500157;4.448268167;16.69485011;3.593280096;11.68937661;0.038706954
1.145917357;10.0676969;2.401220643;7.21623606;0.779533783;-0.408548968;11.4973827;-3.702957596;18.61872456;14.77053096;-0.192550337;-19.14236098;-9.640424478;3.345576147;4.201161247;15.55117503;1.653233185;11.56697147;0.776517277
0.203493867;12.54278227;0.899911076;3.934393879;-0.137333456;-0.276465974;16.56464752;-5.085460973;17.08605197;12.28143653;1.085091262;-19.21764914;-7.126317962;2.326107543;4.267490216;16.73413012;1.171593415;14.46719533;1.284034631
0.064113348;15.46976635;0.889132436;-0.491028341;-0.876390139;-0.199155125;16.15158115;-6.432135921;13.3391985;9.972786314;0.754991101;-20.57196903;-4.582871901;1.152850465;4.236939312;19.42228186;2.090073242;18.37962236;1.382504802
0.785510747;17.54055739;2.110525062;-2.273095398;-1.277287477;-0.250209554;9.41725284;-7.55134494;9.773694256;9.373617523;-0.439220496;-22.13627229;-3.135550203;0.734090766;3.151587155;22.08278336;3.848699767;21.38882394;1.166478644
2.104579041;18.30935492;3.788579881;1.004412954;-1.508719238;-0.40616205;-2.466179619;-8.255330182;7.950698554;10.6936311;-1.610901755;-22.89322498;-3.438422259;1.223505594;0.719344061;23.34521603;5.778771514;22.49326682;0.903309936
3.396000313;18.04558745;4.856550145;8.581735805;-1.906589299;-0.55432813;-15.52424287;-8.606089608;7.504527519;12.4937179;-2.594815475;-22.65754588;-5.114307908;2.106241417;-1.953280521;22.75914625;7.38306636;21.69974727;0.817089663
3.958916306;17.24380414;4.502384566;16.87397761;-2.625980777;-0.580879869;-23.95616284;-8.961202172;6.666014331;12.62109608;-3.909329764;-22.16509781;-7.045875998;2.823866471;-2.843435456;21.0311503;8.416989351;19.65846422;0.933585375
3.506562125;16.28244903;2.766853094;21.76336799;-3.421103718;-0.462357274;-22.99175239;-9.733184881;3.877467646;9.813147102;-5.967041101;-22.35809486;-8.185577995;3.322922139;-0.48626777;19.59138922;8.859221326;17.26150475;1.10158687
2.484976799;15.43007813;0.719137123;21.22481094;-3.775508301;-0.282039766;-12.02333404;-11.03977061;-0.866128537;4.762220236;-8.369964166;-23.44556267;-8.190938644;4.009815353;4.634157157;19.69862141;8.869958649;15.39748139;1.153755679
1.891001223;14.9923476;-0.088337688;16.46101782;-3.309299327;-0.160959913;4.287187142;-12.54750597;-6.01074441;-0.253203793;-10.02001953;-24.56023744;-7.454211529;5.166591988;9.930944366;21.59433212;8.731595313;14.7689681;1.057687816
2.610601121;15.27026436;1.328619084;10.81961136;-2.144831162;-0.167229853;18.12345231;-13.67427773;-9.68902533;-2.99621221;-10.0069779;-24.37703182;-6.655995604;6.412741635;12.13133481;24.25785462;8.714219411;15.6426858;0.928574073
4.701634288;16.25983349;4.516216216;7.345308254;-0.927780551;-0.280184478;22.82490095;-14.02038582;-11.13033765;-2.968478399;-8.501272164;-22.24989994;-6.303516737;6.796532133;9.431886684;25.98860166;8.88819931;17.61101688;0.904884936
7.168073478;17.38656467;7.596498282;6.735888433;-0.463663735;-0.430165483;16.67811064;-13.69030305;-11.09280231;-1.853554042;-6.825702565;-18.93780252;-6.578870843;5.541954765;2.902565241;25.48988572;9.025368101;19.62099963;1.010415562
8.475859166;17.65091014;8.317607325;7.096876293;-1.222939198;-0.566102922;3.676296742;-13.23268485;-11.05530492;-2.293287817;-6.553270501;-16.26236689;-7.444322144;2.84579132;-3.957648376;22.7234231;8.724391655;20.42368963;1.132673243
7.529943355;16.23561685;5.532212704;5.554057834;-3.058582913;-0.685266221;-9.230775164;-13.22506718;-11.93926715;-5.866299503;-8.30675489;-15.88088762;-8.742005149;-0.012792807;-7.376219636;18.89715902;7.719699014;19.25480055;1.136059428
4.457403931;13.16612723;0.094709152;0.480096436;-5.311902695;-0.804961818;-16.47045745;-13.82364333;-13.4544332;-11.79281849;-11.22191852;-18.09065442;-10.16252775;-1.463616398;-5.803249667;15.55559371;6.136276073;16.28848639;1.001186542
0.623742937;9.457213188;-5.519110099;-7.263416386;-7.204623353;-0.916392456;-16.83430496;-14.64328035;-14.56026971;-17.38248242;-13.54157866;-21.5940804;-11.23158283;-0.788146822;-1.04218261;13.44291999;4.446276036;12.49944944;0.855041597
-2.179326049;6.523471156;-8.706397622;-14.88347493;-8.242996418;-0.976374237;-13.29633658;-15.08101768;-14.56500732;-19.93650443;-13.92881863;-24.41928069;-11.52401523;1.289234884;2.839235559;12.03533322;3.12119854;9.001699973;0.856125037
-2.850483619;5.231382404;-8.376808247;-19.52617151;-8.398156733;-0.949541979;-10.178713;-14.84126958;-13.87411341;-18.70792119;-12.51883745;-25.29296938;-11.05356298;3.080087891;2.182275451;10.1441283;2.264391318;6.358371142;1.035476641
-1.642707488;5.317471504;-5.618009264;-20.09474313;-8.009135292;-0.856905622;-9.975909923;-14.24536373;-13.74162292;-15.46383247;-10.90586585;-24.42364875;-10.47409041;3.165002087;-3.746981903;7.119031675;1.572088319;4.396969636;1.243877345
0.080580956;5.657424142;-2.914154707;-17.77337632;-7.525910087;-0.774609677;-12.11174745;-14.05747191;-15.23707138;-13.22682274;-11.03859123;-23.13892599;-10.74805562;1.452680834;-12.08835572;3.640464906;0.705213408;2.651421499;1.268210006
0.821310747;5.199773256;-2.444671052;-14.98600611;-7.263162602;-0.773746116;-14.19988073;-14.92461989;-18.28334774;-14.11210302;-13.78890576;-22.72801226;-12.37556695;-0.748807033;-18.0594421;1.374118641;-0.236116559;1.016469972;1.028488277
-0.030771584;3.818498389;-4.631129275;-13.61116036;-7.278490465;-0.853261548;-14.43087116;-16.83149351;-21.54132037;-17.82026929;-18.19592109;-23.43536506;-14.77417327;-1.706147052;-17.92673246;1.69301052;-0.601386361;0.00257046;0.684594118
-1.836190736;2.375669247;-7.918964322;-13.73249329;-7.399282562;-0.932201576;-13.03143965;-18.97937902;-23.22979907;-21.84038448;-21.92404947;-24.37294123;-16.44869806;-0.539563129;-11.38120868;4.49283197;0.353511502;0.313360992;0.545767815
-3.23298675;1.91994748;-9.910368281;-13.76261631;-7.360708392;-0.916856768;-11.74872725;-20.20500209;-22.26095864;-23.17812828;-22.65547694;-24.34332425;-16.02695245;2.147351612;-1.809596491;8.114866581;2.735874139;2.071969693;0.838072808
-3.151304056;2.671635729;-9.031920089;-11.79359073;-6.987116845;-0.78755575;-12.05540857;-19.67642678;-18.88755898;-20.37683168;-19.52426822;-22.84292524;-13.46239652;4.721002435;5.696365275;10.50209486;5.618323374;4.383376922;1.509820645
-1.584630498;3.652896032;-5.585070556;-7.193633579;-6.330790355;-0.625826665;-13.77582077;-17.41251455;-14.47890124;-14.4724625;-13.68068452;-20.42072038;-10.39674605;5.667862276;7.328062252;10.66935539;7.397275197;5.704000458;2.234513255
0.413981787;3.318500125;-1.503538904;-1.329155747;-5.681605418;-0.551480944;-15.32397322;-14.29600444;-10.67755824;-8.330732495;-7.63527273;-18.14524248;-9.198986847;4.575146979;2.69703133;9.270910657;6.755856457;4.841117221;2.618183348
1.475408749;0.725481816;0.942166078;3.101962226;-5.41022963;-0.619608747;-15.24766615;-11.5858578;-8.546862487;-4.911867916;-3.798632662;-16.67813616;-11.22793667;2.274736399;-5.133830131;7.796942189;3.565539876;1.848274293;2.457232668
0.846415835;-3.679442598;0.561099171;3.714735077;-5.710750556;-0.766919563;-13.6205066;-10.24207787;-8.199168242;-5.624089111;-3.124185156;-15.75276655;-15.59137971;0.150592958;-11.62908324;7.116299048;-0.952745471;-1.904370081;1.855246785
-1.141397447;-8.290306434;-2.154479849;0.007380998;-6.405496302;-0.857554125;-12.00072719;-10.45886063;-8.985834154;-9.718753272;-4.682075765;-14.48834787;-19.44863889;-0.801099151;-13.44829965;6.677461182;-4.95811549;-4.59984766;1.121492906
-3.35371335;-11.42075337;-5.537706999;-6.158035283;-6.973434841;-0.793085074;-11.9924976;-11.635809;-9.985063154;-14.91269845;-6.398246399;-12.2622641;-19.81055223;-0.48791614;-10.14717323;5.124219187;-7.096728256;-5.168967327;0.543749237
-4.635418184;-12.39452259;-7.896582115;-11.50891919;-6.829316802;-0.594764289;-13.722808;-12.7426402;-10.45406976;-18.6856156;-6.45426149;-9.402676926;-15.63612196;0.442635731;-3.984942042;1.8135159;-7.205231363;-3.928747018;0.215425387
-4.521295786;-11.82477738;-8.474416111;-13.21036137;-5.692908684;-0.388401386;-15.64804752;-12.83419057;-10.06392589;-19.44487721;-4.428149044;-7.111673716;-8.716681341;1.17782236;1.817476537;-2.158462754;-6.16626666;-2.208840887;0.036602731
-3.412482697;-10.93295638;-7.645334815;-10.51093445;-3.794288227;-0.30429561;-15.92530983;-11.44778651;-8.914247346;-17.01756513;-1.441221358;-6.646363783;-2.656587204;1.234623264;5.066095456;-4.486694411;-5.127945258;-1.293691495;-0.140632635
-2.174466244;-10.52500536;-6.376680993;-5.190513551;-1.756094279;-0.375068387;-14.15329047;-8.733143051;-7.400862369;-12.41908916;0.745506904;-8.36922837;-0.61261053;0.575761067;5.508734318;-3.476815929;-4.739347591;-1.523042119;-0.362736867
-1.511527175;-10.47174996;-5.472373613;-0.519367588;-0.222461449;-0.513208687;-11.88354378;-5.320039063;-6.003709621;-7.208898754;1.017875486;-11.37946233;-3.331084964;-0.582140259;4.249773106;0.329995055;-4.943194903;-2.22819574;-0.546238276
-1.569844379;-10.06135546;-5.145324043;0.669310356;0.506828683;-0.581300399;-11.33189249;-2.030659792;-5.06196274;-2.820560761;-0.350061035;-14.00006104;-8.779000072;-1.983774615;2.374107998;4.214962001;-5.342525585;-2.478947884;-0.578213427
-1.986684012;-8.831965257;-5.10641599;-2.354359289;0.583915808;-0.492877855;-13.33138503;0.432741775;-4.632806379;-0.119539373;-2.019829934;-14.77566646;-13.51620556;-3.376687462;0.021747747;5.199689616;-5.692589036;-1.95797031;-0.441429157
-2.253462293;-7.103335976;-4.941988462;-7.816870734;0.409807586;-0.263961111;-16.35237979;1.719684063;-4.524204606;0.738064538;-2.697231637;-13.2960049;-14.779219;-4.431302715;-3.31699043;2.416447236;-6.049656018;-1.206592279;-0.247179041
-2.069578093;-5.727847798;-4.407657786;-12.54953644;0.304250473;0.015499916;-17.6151728;1.919287987;-4.493763142;0.192705346;-2.145115702;-10.32242126;-11.8867767;-4.741193751;-7.620501758;-1.988342742;-6.508183611;-1.050706122;-0.148718728
-1.447208122;-5.295707716;-3.452960381;-13.92153853;0.313011819;0.253149329;-15.52849782;1.485535857;-4.466732587;-0.98623533;-1.291656705;-7.197589376;-6.209267829;-4.017892079;-11.44847184;-4.268502467;-6.88046045;-1.73683693;-0.215713476
-0.573217229;-5.527235312;-2.089026193;-11.40466328;0.282537327;0.404747195;-11.40471878;1.032565789;-4.581364172;-2.007367783;-1.342552606;-4.986955275;-0.001324849;-2.367680597;-12.37826185;-1.824868284;-6.722172124;-2.571746106;-0.380999173
0.378820706;-5.431291245;-0.338488031;-6.815643296;0.1008525;0.471417403;-8.794873532;1.080905519;-4.99980477;-2.297856132;-2.622048914;-3.920512901;4.930104839;-0.397531326;-8.696470091;4.812956096;-5.745604409;-2.432097363;-0.50326094
1.306553099;-4.135792554;1.633406423;-3.125825796;-0.129042369;0.465159941;-10.6622902;1.856754144;-5.643496239;-1.617971775;-4.125737393;-3.441592203;7.875162361;1.013532998;-1.086412525;12.31531942;-4.238405624;-0.745934615;-0.487491467
2.095105287;-1.68885675;3.356937533;-2.63029397;-0.145740014;0.387916323;-16.50366737;3.221313903;-6.122667212;-0.060049591;-4.226282874;-2.744116757;9.023542711;1.18747972;7.198923655;16.93804601;-3.032172614;1.904068712;-0.359084077
2.53275861;0.879634061;4.118032742;-5.637913257;0.227879171;0.244926353;-21.84463307;4.745770685;-5.994893737;2.010745699;-2.032450048;-1.383973349;8.880194969;0.065592371;12.15588505;17.11316886;-2.936187476;4.13841973;-0.233083385
2.365908937;2.335298742;3.330138763;-10.44797871;0.863481208;0.0702184;-20.89017413;5.886799712;-5.188687458;4.031874749;1.685472728;0.447734136;7.866916583;-1.717861587;11.71743696;14.28422999;-4.049661;4.887403419;-0.212218566
1.48871357;2.23668341;1.009247348;-14.51013644;1.323919462;-0.073505226;-10.68422944;6.191459684;-4.22138675;5.351073776;4.820892385;2.139247865;6.319791126;-3.172654033;7.305251313;11.46862643;-5.538927869;4.360999298;-0.304106665
0.114408326;1.321699677;-2.02305995;-15.92994901;1.105266946;-0.131084399;6.197327747;5.471298782;-3.941073229;5.410213329;5.370166557;3.175757189;4.665814004;-3.495420519;2.914464983;10.82309159;-6.132629093;4.026672089;-0.424134063
-1.239301739;0.936571307;-4.446793629;-14.36833412;-0.032838555;-0.096709036;22.53492495;3.906253479;-4.893678525;3.994525207;2.951045162;3.579536093;3.450863553;-2.488134852;2.236149611;12.17759625;-5.007955981;5.496287842;-0.473185172
-1.98309088;1.948175809;-5.138489111;-10.90790097;-1.866737219;-0.019518161;30.56428433;2.045447033;-6.769845166;1.432345537;-0.755195352;3.949410477;3.126070359;-0.616710753;5.923482463;13.58409931;-2.40003418;9.126794024;-0.418799463
-1.768420381;4.018521612;-3.822228219;-7.186538084;-3.764625346;0.036719483;26.62382843;0.672795176;-8.40818726;-1.417224474;-3.018956339;5.04838008;3.79346192;1.29366681;11.13472775;13.23163295;0.540334535;13.45539871;-0.313634487
-0.675035371;5.84195066;-1.237413386;-4.49170919;-4.965391773;0.044705301;13.27318184;0.534089017;-8.458312202;-3.462973495;-1.839205843;7.206408108;5.166328906;2.520762742;13.79382085;11.03574631;2.537903711;16.02280263;-0.244337225
0.84314281;6.174325315;1.301391069;-3.343988045;-4.931424596;0.027872862;-2.449134938;1.995954869;-6.302224186;-3.853100559;2.761442714;9.961814496;6.783878207;2.794444635;11.86271817;8.630058594;3.036676254;15.08747991;-0.260873007
2.206006922;4.844836402;2.668093091;-3.605963654;-3.607258554;0.024618247;-13.34949243;4.790429348;-2.591170888;-2.361736937;8.78180283;12.23692524;8.27084103;2.35645612;7.043344847;7.919851604;2.483190923;11.00302993;-0.344054042
2.988401197;2.949161964;2.522206848;-4.783605232;-1.47105707;0.038648282;-16.09057546;8.016982865;1.015835236;0.537776386;13.50066172;12.98868133;9.406345143;1.731821843;3.500694965;9.533386855;1.891811457;6.20346903;-0.428960111
3.083083809;2.064965505;1.386786661;-6.214456256;0.650678349;0.027202851;-12.42919394;10.47409743;2.779965083;3.941600431;15.01402867;11.92022606;9.985540339;1.368822128;4.555672497;12.45929199;2.078733249;3.720237713;-0.455899691
2.69312704;3.089470218;0.217294716;-7.140278721;1.946121346;-0.056865438;-7.240919791;11.20561908;1.883558076;6.935137451;13.06596628;9.746974753;9.696806971;1.363932619;9.959467201;15.02375129;3.153560591;5.222072433;-0.407627553
2.19934093;5.578308145;-0.209961364;-6.876045904;2.013163618;-0.207782476;-4.988546159;9.987338367;-1.131715037;8.905587773;8.835128207;7.784552791;8.246837105;1.430406118;15.95379306;16.20544701;4.591415418;9.930169435;-0.313899249
1.983390516;8.065023308;0.30172665;-5.170740185;1.086759895;-0.353057803;-7.058782344;7.469857046;-4.73259468;9.618826841;4.09106903;7.104728102;5.716033793;1.126520403;18.1229217;16.11694614;5.731261034;15.14772054;-0.232462377
2.269369433;9.096586626;1.373608783;-2.531822329;-0.063180621;-0.40479036;-11.49427713;4.868877163;-7.282656088;9.134041158;0.403284056;7.845749439;2.844369671;0.203157185;14.80713223;15.37449244;6.254874222;18.01084893;-0.222566166
3.024859922;8.213038779;2.371533133;-0.127034686;-0.563869641;-0.335273205;-14.90514817;3.357158176;-7.874424521;7.72187697;-1.227072154;9.186402025;0.910133684;-1.154493045;8.385597839;14.15098991;6.297819981;17.24514545;-0.315945047
3.960477248;6.191993748;2.789896967;0.869293137;0.01755613;-0.207559642;-15.0047729;3.49375367;-6.640634488;5.862470788;-0.429385799;10.01719788;1.140965384;-2.370320133;3.430312863;11.95468489;6.193926684;13.77476963;-0.485300465
4.657152256;4.454498584;2.480493346;0.113161248;1.364884735;-0.127517004;-12.06027874;5.002188422;-4.464884692;4.233803067;2.490328002;9.806419292;3.977684527;-2.816851365;3.207345019;8.391058987;6.138499565;9.889203977;-0.624868809
4.795485822;4.120730301;1.659340192;-1.552860936;2.580595328;-0.154853334;-8.474761785;6.994375545;-2.374766077;3.541785288;6.473424537;8.984451543;8.681455344;-2.261485303;7.259696969;4.113669156;6.056611709;7.667719167;-0.57416767
4.375075827;5.381708088;0.7582189;-2.619408693;2.767778219;-0.251730821;-6.980651603;8.475223469;-1.017483524;4.174901995;9.872052866;8.525380451;13.58243094;-1.12631421;11.8708216;0.873872349;5.733189153;7.781213721;-0.202865342
3.768219134;7.541772863;0.225473559;-2.01092372;1.652622828;-0.317897075;-8.725128975;8.823604251;-0.474220165;5.880446132;11.08608157;9.042671347;16.85211718;-0.348356914;12.90484032;0.365907101;5.036428039;9.392838626;0.475080915
3.522664219;9.579101293;0.34745604;0.072298983;-0.196061278;-0.283952592;-12.48608677;8.004147215;-0.419172171;7.745360397;9.471655362;10.13714064;17.35200952;-0.864366037;8.747329339;2.7415022;4.033196382;11.03020446;1.239425762
3.996874719;10.76039918;1.128748112;2.28657118;-1.733899941;-0.178720231;-15.50270522;6.457657662;-0.447023459;8.60289976;5.889528728;10.57881611;15.09468047;-3.000350122;1.200412977;6.138800715;2.93932884;11.65876836;1.72997563
5.062159853;10.91607103;2.268734157;3.199402803;-2.155668865;-0.105863428;-15.40269738;4.80243703;-0.355339234;7.674303934;2.325380346;9.254269554;11.12674454;-6.150430233;-6.04060167;7.829675585;1.999483849;11.18365256;1.638874251
6.104908777;10.30733606;3.272012572;2.417067005;-1.449822944;-0.145603504;-11.9983264;3.541718497;-0.244554186;5.041386243;0.648938851;6.16379401;6.980078125;-8.994627318;-9.860163325;6.217748416;1.409183025;10.16161029;0.922175046
6.376728656;9.308824484;3.683319897;0.823542184;-0.388797307;-0.268650716;-7.70541505;2.905501597;-0.415138728;1.622907201;1.310276626;2.639463419;4.012562263;-10.19231008;-9.251120142;2.105264035;1.293310895;9.130039063;-0.120288649
5.488478659;8.185833448;3.349935701;-0.293554063;0.036687946;-0.345104104;-6.100687995;2.839625293;-1.144021178;-1.342595444;2.953682395;0.509502586;2.915542805;-9.180467532;-5.144816322;-1.852618276;1.67603526;8.176161061;-0.979644161
3.716156101;7.0825151;2.555828098;-0.459816682;-0.678924522;-0.250505991;-9.33307473;3.082684292;-2.479899911;-2.968437091;3.322441897;0.757814779;3.515821242;-6.59901124;0.706495218;-3.137145027;2.413421629;7.06540006;-1.224204425
1.894033923;6.134342395;1.914011759;-0.437192853;-2.225562384;0.016986398;-16.04355292;3.272752398;-4.18622281;-3.119312195;0.858253349;2.678809885;4.8828756;-4.044138775;6.54416487;-1.234827533;3.164142625;5.728167253;-0.755814603
0.947847663;5.541581629;2.044260055;-1.376132618;-3.738530991;0.311487165;-21.41541794;3.062273784;-5.871554345;-2.329735848;-4.159537598;4.224915779;5.704559894;-3.230846043;10.65700894;2.096961955;3.506658341;4.605652011;0.138732019
1.367286399;5.517756744;3.211216301;-3.397681046;-4.426559055;0.436763212;-19.77103675;2.235386151;-7.216052098;-1.372562972;-9.762984658;3.381484784;4.847133637;-5.012483604;11.32097883;4.341279507;3.199178642;4.50072855;0.979331501
2.951198565;6.15798981;5.140885162;-4.963065152;-4.092495636;0.293737187;-8.372926641;0.801571271;-8.119038608;-0.80987952;-13.59120278;-0.378429632;1.916323551;-8.833291648;7.45527155;4.237296746;2.409014989;6.015425417;1.395057388
4.961479379;7.338895148;7.131306871;-3.845653729;-3.192363903;-0.039367936;10.03459946;-0.983549565;-8.640571354;-0.795089889;-14.35095387;-5.608819536;-2.456554318;-12.97689803;-0.145384964;2.653910114;1.688759024;9.011512463;1.329752166
6.54746706;8.727266584;8.39397795;0.875668282;-2.447608022;-0.359469895;27.93045735;-2.703222139;-8.781166804;-1.162339835;-12.41159986;-9.752051718;-6.831967622;-15.51599301;-8.240606827;1.671452855;1.639065039;12.52436747;1.019934245
7.153651382;9.891196247;8.429709194;7.460803494;-2.340391208;-0.482508532;36.9571034;-3.94484121;-8.31;-1.646422607;-9.246413384;-10.76780872;-9.662163137;-15.425933;-12.40350753;2.728833817;2.463461744;15.2161773;0.783650105
6.689363472;10.44937557;7.239416241;12.18093065;-2.852542408;-0.366091768;32.81753224;-4.462748827;-6.852899641;-2.055747261;-6.321065309;-8.413884747;-10.12221495;-13.18120311;-9.806768463;5.434543241;3.757174771;16.05886099;0.790153594
5.438478739;10.1931028;5.282954486;11.84896046;-3.572883098;-0.119833679;17.95771577;-4.250450742;-4.243955342;-2.332259758;-4.338302192;-4.329380161;-8.558715245;-10.43551773;-1.585198674;8.01164282;4.7304838;14.79510517;0.976212361
3.850659131;9.147767929;3.240433393;6.395444303;-4.017003938;0.094158891;0.150648146;-3.490857264;-0.877381279;-2.533901841;-3.283684289;-0.925067488;-6.229235365;-8.955635606;7.361174325;8.919215578;4.734365534;11.9233676;1.147437466
2.371859087;7.568377759;1.714811;-0.624399941;-3.898306812;0.182992581;-12.19164525;-2.430419579;2.289956862;-2.779930148;-2.958873028;0.107186288;-4.467633368;-9.483897798;11.48499711;8.200825887;3.70103991;8.308094093;1.15956226
1.368229069;5.873571764;1.014223867;-4.256186666;-3.199944088;0.171438822;-14.90639214;-1.262942543;4.211484167;-3.152584575;-3.330828276;-1.336901515;-3.831895475;-11.29114868;8.551675564;7.387975223;2.159796863;4.745420226;1.027542208
1.094260627;4.527920336;1.094629673;-1.615058472;-2.083314973;0.151508794;-9.970309964;-0.085685183;4.429290042;-3.556036147;-4.351319862;-4.014176556;-3.838281624;-12.74583923;1.364706683;8.063897194;0.817484198;1.761299274;0.887384989
1.645572072;3.897029484;1.667696803;6.008293446;-0.761188651;0.190317364;-3.324976535;1.070848854;3.442625876;-3.6215117;-5.546423518;-6.368667315;-3.479446645;-12.52490957;-4.301316922;10.35372209;0.039509391;-0.333763332;0.863204047
2.904846848;4.118870937;2.408242472;14.08770938;0.58184236;0.278965073;-0.416658637;2.186850932;2.408821054;-2.810977936;-5.984182401;-7.548821419;-2.137939056;-10.60914586;-4.127031221;12.66105409;-0.356616642;-1.327763964;0.962350093
4.544783586;5.040436614;3.14449071;18.20031615;1.828481638;0.358107757;-2.702556902;3.222185013;2.315464022;-0.780026855;-4.875681684;-7.719629136;-0.182693016;-8.315515589;1.422058095;12.89654302;-0.843072675;-1.125455465;1.083188581
6.12693196;6.252378824;3.91030209;17.21055758;2.957549382;0.384423897;-7.432940812;4.128102833;3.223090511;2.177864564;-2.372236374;-7.572264176;1.250720183;-7.293725824;7.577954151;10.18020401;-1.687554862;0.095078621;1.115796216
7.254898543;7.223346745;4.81081325;13.83319561;4.042137689;0.371043039;-10.45938865;4.881311501;4.199686096;4.974362265;0.229310641;-7.521739585;1.172007898;-8.195926243;9.238213194;5.618875888;-2.638912022;1.783291257;1.039114581
7.691941162;7.502790731;5.787998949;12.1770976;5.165149991;0.367295307;-9.638072166;5.504502539;4.071693491;6.139459408;1.265699962;-7.253673285;-0.356713266;-10.03206397;5.209473137;1.553988682;-3.052938472;3.177428434;0.930942516
7.390799572;6.930960962;6.485478082;14.28182977;6.262698184;0.403467479;-6.212785155;6.048065864;2.454712561;4.696333918;0.001813116;-5.959877111;-2.080321256;-10.77508449;-0.772310044;-0.067253151;-2.358450951;3.717405783;0.890358951
6.468023375;5.770196359;6.389677732;18.45482713;7.018058507;0.457117586;-3.375448109;6.532202829;0.237154533;0.954989368;-2.599647512;-3.065746849;-2.399807688;-8.860732414;-3.115981463;1.109552847;-0.49856591;3.4426329;0.948208385
5.191206165;4.668362554;5.230641618;20.73461917;6.95763323;0.472992707;-3.464668254;6.875578398;-0.946012427;-3.414195874;-4.385738493;1.105897855;-0.661881575;-4.505209453;0.983633965;3.929006098;1.981791243;3.037841951;1.04519923
3.988459771;4.411755391;3.373425688;18.24566833;5.765467948;0.415640604;-6.176025532;6.859032047;0.068964894;-6.251030663;-3.557683629;5.240461467;2.083163401;0.188705779;9.184157157;6.835372284;4.245007285;3.403902303;1.091456101
3.397199936;5.530497142;1.832952874;11.6684139;3.617809901;0.303772598;-9.110078125;6.178386385;2.977557515;-6.255700784;-0.111541929;7.621186358;3.537934878;2.529192447;15.86392419;8.97322639;5.620580438;4.991913404;1.048718304
3.862605283;7.940239908;1.745317557;4.7893585;1.243233076;0.195047725;-9.971187837;4.609341866;6.04857466;-3.908231198;3.989816819;7.063393135;1.662106286;1.086919009;16.63498794;10.41755667;5.900873327;7.368507677;0.960820913
5.424994854;10.8490529;3.543474715;1.504624952;-0.430139849;0.137907653;-8.452046697;2.233439805;7.265076459;-1.242102654;6.140503575;3.628861838;-3.758478313;-3.216438792;11.72304299;11.55609875;5.328098612;9.37293808;0.909109284
7.505351903;13.05534824;6.41295486;2.736656375;-0.854539933;0.136672448;-6.278047505;-0.408619186;5.769595881;-0.523364872;4.960505265;-1.315261662;-10.62490978;-7.609545736;5.441031689;12.39545548;4.362703111;9.824959492;0.937462191
9.033537093;13.53601402;8.536153435;5.774032283;-0.253150496;0.160383563;-5.54422849;-2.390176977;2.540708159;-2.68904807;1.297102492;-5.739817378;-15.5992089;-9.267951713;2.321170318;12.51211142;3.430078125;8.327170683;1.015515283
8.970843492;12.01019821;8.130233631;6.538545727;0.509225493;0.182198099;-6.892724638;-2.754067738;-0.227362613;-6.625858783;-2.40318607;-7.935956056;-16.13989783;-7.172504931;3.288313228;11.62830419;2.775425651;5.594010035;1.070310287
6.963599296;9.128356576;4.664573017;2.897275498;0.531263358;0.207688337;-9.086482045;-1.016306768;-0.603513191;-9.81695346;-3.855832158;-7.282801476;-12.1688152;-2.738115831;5.154142147;10.11127;2.428262332;3.041671071;1.05393066
3.679978818;6.139346072;-0.608367056;-3.665512803;-0.467702918;0.263963061;-10.23198248;2.473782373;1.825220357;-9.935533492;-2.474114326;-4.386254889;-6.208488622;1.205719359;3.796340226;8.749795896;2.225583389;1.89051753;0.984752705
0.523069848;4.216375553;-5.292690218;-9.298688393;-1.930185305;0.362322627;-9.480305359;6.590763121;5.820728559;-6.313398315;0.460887768;-0.560857183;-1.831439413;2.337525644;-1.816384346;7.917595226;1.885400405;2.390602115;0.9272158
-1.170977933;3.850371029;-7.332715234;-10.83840807;-2.855112419;0.474298882;-7.707848376;9.947912814;9.512890107;-0.332265311;3.028668214;2.975920488;-1.421812688;0.319608969;-8.321547593;6.959982397;1.16361401;3.708633356;0.931774268
-0.944126854;4.676106763;-6.354236455;-8.147171934;-2.513282113;0.547680892;-6.65410734;11.59360734;11.729608;5.436501566;4.233334363;5.671950926;-4.745212811;-3.148019785;-10.58431973;4.589354344;0.072470413;4.550811943;0.990777023
0.525790356;5.804682858;-3.897041992;-3.928221958;-0.953834694;0.54880291;-7.357603987;11.44852947;12.60487697;8.679169121;4.63080206;7.64048432;-9.280748463;-5.626731013;-6.034153218;0.193392151;-0.978019694;4.073696208;1.048554932
1.919796746;6.403986034;-2.320868347;-1.353712165;1.053943123;0.490054932;-9.288067484;10.18808315;13.05779452;8.415568575;5.562693479;9.179521573;-12.05262816;-5.595921678;3.00126487;-5.004575627;-1.292892569;2.437381811;1.053589118
2.188570424;6.134502152;-3.127321325;-1.596505575;2.561477604;0.414815117;-10.89011043;8.660152003;13.66623993;5.148190845;7.696631615;10.24663794;-11.6653473;-3.317852013;10.99038042;-8.124333988;-0.295142387;0.62599255;1.004001054
1.237705189;5.195180195;-5.894188269;-3.28204298;3.037631215;0.353574386;-10.98948516;7.276737209;13.94290919;0.242990816;10.13145687;10.3422951;-9.135783783;-0.426761195;13.51537575;-6.380171933;1.996740673;-0.30462188;0.946417541
-0.088592463;4.032609072;-8.597783456;-4.134377176;2.604209898;0.294464305;-9.792508885;5.844663607;12.67070423;-4.848577557;10.85589932;8.914457354;-7.003574718;1.311032084;10.5911142;0.706349226;4.779513322;0.009470053;0.931957134
-0.684078603;2.983642626;-9.091806406;-3.224591424;1.814042863;0.198889218;-8.628358689;3.954239934;9.055326998;-9.019488888;8.250330789;5.953971369;-7.436719211;1.118161517;6.252783044;10.35046766;6.796618374;1.006511049;0.970812395
0.000796905;2.109717725;-6.664152654;-1.818079152;1.218184421;0.049260781;-8.721140807;1.580261911;3.735367824;-11.54317364;2.476719087;2.259350307;-10.73031941;-0.506408594;4.885080219;17.78409885;7.060158068;1.629201624;1.025625334
1.594034508;1.286066477;-2.544636927;-2.13660237;1.062095284;-0.117506417;-10.11065429;-0.652947603;-1.256508927;-12.02538101;-4.334602818;-0.913755167;-15.23979504;-2.353038943;7.515296322;19.13021187;5.503989024;1.077966653;1.047137591
3.121684239;0.410590031;0.978143984;-5.197919292;1.267104655;-0.226743062;-11.65915349;-1.836554319;-3.687023232;-10.52749041;-9.29445224;-2.607044851;-18.69065286;-3.35861184;11.23354523;13.95296899;3.093239143;-0.647808129;1.018131504
3.729900192;-0.453409379;2.151628344;-9.669108389;1.601207829;-0.222833018;-12.0920806;-1.531246411;-2.64964067;-7.764780625;-10.52639008;-2.751076926;-19.8074007;-3.131810391;12.1241718;5.65622556;1.266329336;-2.757085611;0.966563079
3.260690008;-1.085706918;0.897641;-12.75;1.849316406;-0.116628002;-11.12163078;-0.287287437;0.715455499;-5.030979036;-8.275833257;-2.123418346;-19.04746943;-1.924032067;9.024696555;-0.638066487;1.058260906;-4.156132641;0.93837837
2.291032316;-1.222909212;-1.285180672;-12.34026207;1.893837405;0.02040167;-9.670614051;0.575623367;3.896989896;-3.644939918;-4.629078231;-1.700415717;-17.99013869;-0.282059212;4.731698469;-1.328187378;2.489580616;-4.058727951;0.95642138
1.670168031;-0.685783015;-2.49712115;-8.670601664;1.752232055;0.112080496;-9.037902721;-0.132874821;4.65259773;-4.16231089;-2.090278298;-1.927841686;-17.9845005;1.242055999;3.53818877;3.495326033;4.618588814;-2.358179718;1.002140473
1.936749588;0.527430631;-1.773871309;-4.079298241;1.622983766;0.134590212;-9.771384399;-2.539157322;2.465197148;-5.93091518;-2.005321292;-2.506057941;-19.17428508;2.16907984;7.239790251;10.35439491;6.186365239;0.371997215;1.034341877
3.021120177;2.183383621;0.366677664;-1.193176183;1.876846634;0.124347014;-11.23334975;-5.482480402;-1.205389062;-7.433961657;-3.845648318;-2.842968651;-20.6191748;2.101961073;13.15999816;14.84245375;6.390058594;3.15313156;1.026093772
4.371964185;3.812730077;2.460110083;-1.050588165;2.871296771;0.131672836;-12.20024758;-7.247496597;-4.022546737;-7.299226836;-5.728892507;-2.734015607;-21.28951782;0.871860944;16.07428582;14.48859594;5.283040665;4.986576209;0.986705449
5.338885135;4.83366803;3.208683186;-2.629358139;4.598402378;0.165780702;-11.93151239;-6.752729242;-4.404168816;-5.294518725;-5.743300061;-2.60554797;-21.01341645;-1.197331085;12.56608282;10.13571581;3.613457313;5.243462605;0.951194166
5.526174684;4.838415128;2.330437378;-3.975017885;6.415234287;0.184857943;-10.76763423;-4.305421421;-2.515858432;-2.561908728;-3.191900943;-3.037006106;-20.56094174;-3.183890941;4.179105461;5.085324906;2.30770038;3.994728175;0.948870007
4.942285213;3.937611622;0.614270628;-3.819564286;7.191526557;0.142140266;-9.771925482;-1.337111234;0.034603603;-0.871182324;0.98987283;-3.963490667;-20.83690341;-3.893640923;-3.38937279;2.791430058;1.982510393;2.157754723;0.979304044
3.951362604;2.90669941;-0.712661403;-2.337988723;5.962734067;0.044061285;-9.778302271;0.681104331;1.496002666;-1.409662997;4.825789175;-4.34786547;-21.93492788;-2.556177732;-4.579323394;4.727052335;2.746913291;1.269251973;1.015062703
3.119413805;2.899811938;-0.758297673;-0.608588256;2.726662137;-0.03830711;-10.69678154;1.297801995;1.259810882;-3.989279863;6.47804647;-2.800246224;-22.9166293;0.556410149;1.636601862;9.725126891;4.29110968;2.795963508;1.026378514
3.011284027;4.762608413;0.626994597;0.490553073;-1.245461461;-0.022176358;-11.65722053;1.289674219;0.19531356;-7.240478507;5.29293449;1.197378397;-22.5366662;4.114279356;10.8;14.98769624;6.092819957;7.209846255;1.005406737
3.94614021;8.330759777;2.932481428;0.853464009;-3.982134732;0.113025082;-11.81626795;1.880310322;-0.151703995;-9.610768889;2.12352295;6.454443959;-20.29982861;6.470429472;16.2850227;17.90588344;7.600473146;13.37694587;0.970605624
5.76158942;12.24643943;5.332019897;0.774010903;-4.022661269;0.29842777;-11.09109194;3.633177895;1.171578476;-10.3844029;-1.213153323;10.48011432;-16.93459989;6.728813175;14.32178147;17.49496199;8.377294168;18.81246966;0.950007324
7.735983245;14.56681819;7.010504928;0.213602169;-1.446783095;0.425627307;-10.18908718;5.943676995;3.773534075;-9.96186831;-2.99030305;11.0698606;-13.86363804;5.382452447;6.819786773;14.69099931;8.243452577;20.89092684;0.958818265
8.829092762;13.89359858;7.375417747;-1.375847129;2.084027753;0.436014195;-9.946590621;7.551939191;6.236949985;-9.256336645;-2.509143779;7.982328044;-12.12010219;3.992593697;-0.170771031;11.53951202;7.381798457;18.40852588;0.988931127
8.227047782;10.31183398;6.221096586;-4.393437986;4.401854332;0.373416667;-10.58655553;7.63930802;7.226064375;-8.77458635;-0.388967829;3.363188225;-11.64607208;4.050700988;-1.12972156;9.896520609;6.287524579;12.49;1.016601688
5.907816997;5.462961946;3.876560748;-8.269187776;4.292505959;0.351422203;-11.54375306;6.569941503;6.503480134;-8.180194726;1.912799744;0.398825409;-11.58213473;5.798205614;4.711264727;10.38978175;5.490881368;6.11238085;1.020600964
2.813509661;1.626931634;1.208701355;-11.46013053;2.262545462;0.458498753;-11.98392917;5.622148808;5.064820902;-6.708764584;2.998413736;1.034114939;-11.28404566;7.883343141;12.72723841;12.12612019;5.17387799;2.395491234;0.997305702
0.401121533;0.378680818;-0.689795303;-12.53385223;0.029282774;0.678563618;-11.53919055;5.900169193;4.290181219;-4.07418412;2.256569912;4.418790934;-11.13532785;8.189340428;16.20010189;13.21877649;4.968011337;2.70064175;0.963106912
-0.229265339;1.699719869;-1.093310424;-11.51147457;-0.86697968;0.894237465;-10.6174672;7.327253325;4.777196986;-1.069358339;-0.007200264;7.340373216;-12.35885152;5.33595395;11.04431039;11.84574056;4.164172505;5.801815669;0.943335072
0.930481873;4.114418252;-0.173991457;-10.20035973;-0.236306187;0.972684978;-10.03610094;8.594003065;5.779811162;0.718102755;-3.008807644;6.481308759;-15.88389518;-0.1682192;-1.410621257;7.329719166;2.269488509;8.722065118;0.954691455
2.740214132;5.707323753;0.974591243;-10.97074279;0.721892386;0.866459592;-10.3155489;8.172725076;5.731124874;-0.047040654;-6.055604378;0.945758802;-21.18855785;-5.966901858;-15.33238382;0.697590891;-0.473301704;8.694700503;0.991969414
3.638852227;5.295562192;0.982714995;-14.77351339;0.518308231;0.650366551;-11.24296944;5.622668341;3.507113643;-3.391111366;-8.765029305;-6.788494015;-26.16275004;-9.15244725;-24.06793642;-5.628181355;-3.042419716;4.932415233;1.028591484
2.699445567;2.999735602;-0.827373648;-19.99260885;-1.30506743;0.467846172;-12.06346309;2.130711121;-0.498925402;-7.778713677;-10.81172568;-12.26261982;-28.27481593;-8.023447781;-23.95085026;-8.948318246;-4.197911678;-0.958232386;1.033503499
0.292620486;-0.042660506;-3.825118758;-23.21067279;-3.720133848;0.431274493;-12.11797988;-0.198648923;-4.332081236;-10.91258791;-11.55997825;-11.87776002;-26.26923513;-3.172383874;-15.89152278;-7.69640716;-3.308887947;-6.110114794;0.995704506
-2.110857063;-2.470678572;-6.317708471;-21.48400206;-4.994429937;0.551871675;-11.38429912;0.184042869;-5.588591345;-11.07494365;-10.10774661;-5.258756647;-21.13401663;2.81112266;-4.201899074;-2.373030589;-0.856492783;-8.210058594;0.93857524
-2.874811413;-3.401454945;-6.580195391;-14.47449167;-4.067460313;0.745184933;-10.48003906;3.13109184;-2.980661162;-8.113519976;-5.934083481;4.436511652;-15.57269714;6.845492204;6.096796345;4.579896266;1.788967459;-6.750367223;0.908507057
-1.24217075;-2.676098587;-4.005427513;-4.824515534;-1.407487689;0.897315443;-10.14438564;6.838574198;2.70615449;-3.438723498;0.264417378;12.40504026;-12.32374394;7.128171618;11.6407225;9.974363586;3.205020249;-3.002044469;0.93968952
2.193121366;-0.719772329;0.417108207;3.514747773;1.321334594;0.936638828;-10.63688735;9.034668951;8.942677685;0.906787509;6.323889744;14.97686713;-12.52302905;4.087418685;11.6386612;11.51081547;2.804878736;1.039666774;1.019388419
5.857737803;1.688560954;4.638267849;7.745628434;2.480500292;0.863610277;-11.54040296;8.444814665;12.89938898;3.43886749;9.455818504;11.52047008;-15.24280508;-0.018148374;7.404293556;8.934583646;1.171864999;3.846563411;1.085917114
8.127370995;3.576122048;6.754285994;7.693523544;1.581030723;0.731786068;-12.11298972;5.512703555;13.09104555;3.919107434;7.888529835;4.459490545;-18.43348578;-2.527844413;1.297281164;4.070986907;-0.36431204;4.908886091;1.071579587
8.214244816;3.978623095;6.100249049;5.371266355;-0.53073693;0.607387168;-11.8918203;1.959774988;10.18508437;3.203423653;2.26538708;-2.329541467;-20.46834072;-1.913078157;-4.215233996;-0.237368575;-0.584582409;4.530458697;0.964615965
6.522032198;2.35383464;3.57153913;3.225851659;-2.457754635;0.537564144;-11.06210353;-0.389059773;6.492755535;2.507438726;-4.304496847;-5.588740367;-21.13108231;1.48486919;-7.175982554;-1.642564608;0.916782146;3.33627172;0.838240601
4.355050545;-0.899430606;1.050268578;2.545936948;-3.279429608;0.537149875;-10.30183131;-0.649659232;4.508368366;2.659993696;-7.851482084;-4.084486148;-21.41816816;5.847959771;-6.582918183;0.590006104;3.599369318;2.001062351;0.809574333
3.223175869;-4.257228792;0.354612989;3.133647944;-3.005177392;0.586898546;-10.23129652;0.830529218;5.433404636;3.781762972;-5.955079134;1.123307404;-22.47514707;9.036909146;-2.738737646;5.385614192;6.397242393;1.270606814;0.944540637
4.114648631;-5.640920464;2.321725369;4.142831955;-2.231891251;0.638297508;-10.90721131;2.926010782;8.568866869;5.426177637;0.577945644;7.340889792;-24.59222641;9.753520968;2.697086005;10.55298592;8.332687646;1.932918668;1.177870231
7.030882544;-3.650991666;6.440268337;5.052893146;-1.482723393;0.6306535;-11.76852812;4.441375034;11.8629889;6.909457487;7.951211737;11.36761859;-27.02299955;8.073855216;7.23521146;13.89194899;8.935742074;4.442087159;1.32207347
10.93223169;1.277572349;11.09983995;5.853643433;-0.887289927;0.524414906;-12.09003906;4.586112482;13.18558301;7.55566958;11.5003796;10.72963371;-28.66944314;5.183700062;8.648053011;14.14300793;8.317350359;8.360370634;1.180315053
14.12611618;6.738636489;14.27652521;6.458725095;-0.415315147;0.335916379;-11.59495825;3.090228416;11.52066327;6.813989203;8.40878318;4.756228613;-29.01072574;2.613593254;6.148059863;11.40588937;6.995924611;12.17927522;0.693920925
15.01311217;9.610143577;14.39406759;6.198630561;-0.270498542;0.143011865;-10.72835171;0.155176568;7.416612488;4.395971634;-0.686559589;-4.863676468;-28.54141947;1.458672693;0.943442955;6.953914457;5.649941746;13.94401906;0.013614383
12.93765561;8.055175007;11.0864689;4.166990521;-0.890036621;0.042781458;-10.33494157;-3.569633153;2.54616754;0.527013132;-12.17058937;-14.49445976;-28.43526204;1.944378618;-4.285411681;2.602144867;4.878202305;12.46122599;-0.572999199
8.723330141;2.922921693;5.557533569;0.278991042;-2.437004375;0.081021319;-10.95181523;-7.039706431;-1.254727456;-3.835069822;-21.61474301;-20.09955323;-29.74284788;3.434796219;-6.817420702;-0.093290806;4.963848488;8.256088713;-0.820562725
4.484927679;-2.547936433;0.258959209;-3.971952886;-4.281830063;0.206537739;-12.27589264;-9.106338847;-2.882196539;-7.12360224;-26.18933625;-19.37738738;-32.70620377;4.778429477;-5.452723923;-0.487412674;5.680678592;3.457937418;-0.687520342
2.632363148;-4.691565385;-2.160388694;-6.023183985;-5.12171607;0.295267264;-13.29180386;-9.089936978;-2.354250843;-7.794405682;-25.84762474;-13.28830172;-36.59441486;4.821888955;-1.259631122;0.932695667;6.28899479;0.530173184;-0.359472555
4.507430661;-1.788792027;-0.244351756;-3.947714846;-3.868117564;0.237019864;-13.05310852;-7.323712224;-0.60559087;-5.226236161;-22.73953237;-5.82129164;-40.06323607;2.931232012;3.013878415;2.890539648;5.86366269;0.677609277;-0.112869788
9.468653697;4.782363168;5.308898943;1.872895876;-0.671638698;0.021419121;-11.54353967;-5.180766994;1.091034792;-0.305301069;-19.50221333;-1.823727537;-41.75557971;-0.644184709;4.586211903;4.088892984;3.88789019;3.098305821;-0.118887443
15.10751927;11.44961174;11.82833576;8.56384467;2.837375933;-0.248963907;-9.873982308;-4.363584312;1.737984675;4.837352776;-17.68647765;-4.065514348;-40.84024136;-4.745093939;2.375884039;3.997456416;0.765586165;5.666277705;-0.334397392
18.61111074;14.79647538;16.09481494;12.49528569;4.489223897;-0.436042847;-9.514532707;-5.802761209;0.997886223;7.954426614;-17.26399336;-11.42555514;-37.32867875;-7.724743799;-2.273600937;3.182914075;-2.176088088;6.55178062;-0.559254988
18.486214;13.7374279;16.25702962;11.85103486;3.124441473;-0.475714092;-11.0526674;-8.918872767;-0.747318557;8.050463232;-17.260255;-19.50392018;-32.12561;-8.22257849;-6.395474697;2.948457571;-3.347344698;5.559416531;-0.60843976
15.51746369;10.05005859;13.01658146;8.135533068;-0.418905784;-0.428454823;-13.48638632;-11.85248601;-2.619736043;6.078766641;-16.78768424;-23.36341457;-26.79388047;-5.927560899;-7.27545736;4.490969204;-1.885883831;4.183401231;-0.458667081
12.26739615;6.990317689;9.215326031;5.365701024;-3.724180558;-0.42449161;-14.79543213;-12.60448682;-3.634772869;4.411359876;-15.64238529;-20.61016314;-23.03962409;-1.859930322;-4.205767274;8.118662813;1.682400685;4.378161904;-0.254211979
11.39591806;7.05;7.994933014;7.354289092;-4.41266911;-0.545520834;-13.55609705;-10.34094105;-3.119958047;5.330855959;-14.15397182;-12.76157653;-22.04675992;2.095485001;1.059491554;13.03543049;5.630058594;7.0240222;-0.174831459
13.90532197;10.42162348;10.71280913;14.92889064;-1.801209492;-0.742825369;-10.38681273;-5.956374771;-1.029010494;9.491548384;-12.64395439;-4.056999613;-23.95613252;4.216424876;5.488865196;17.797769;8.01786997;11.25727594;-0.281687593
18.48985732;15.10650836;16.0264657;25.04740911;2.620701084;-0.866026892;-7.890596915;-1.510432504;1.965650894;15.36795636;-11.1123932;1.339917796;-27.81268796;3.931766561;6.817101252;21.08685146;7.859633069;15.11094192;-0.471310245
22.41078821;18.39180593;20.78042172;32.46778481;6.228554381;-0.785119628;-8.779961895;1.035387231;4.667006218;20.06943139;-9.468620839;1.751232417;-32.07696302;2.129116221;5.047518558;22.27128928;5.682301347;16.89220895;-0.572468977
23.27050728;18.55184106;22.08160471;32.8715911;7.014543106;-0.507095561;-13.37930234;0.880325443;5.801470602;20.98991479;-8.054444646;-1.541354356;-35.42582535;0.550679854;2.375128017;21.47931104;3.119289859;16.22718778;-0.498243285
20.47887362;15.6749315;19.13954336;25.39901534;4.769102087;-0.188134613;-18.50066856;-1.434054066;4.569135487;17.23051225;-7.876602809;-5.779441936;-37.34;0.65649558;1.609007669;19.31860483;1.856217976;14.08044846;-0.320233467
15.48923591;11.30207254;13.66358703;13.04716439;0.928844607;-0.026123559;-18.96614366;-4.692272811;1.063416748;9.948635518;-10.15580373;-8.801156243;-38.11155552;2.706651425;4.235168633;16.60106494;2.676440077;11.92128072;-0.20173518
10.7782251;7.394182749;8.663128719;0.868580109;-2.614003478;-0.116898471;-11.13315741;-7.876091095;-3.65595748;1.563039272;-15.36793869;-10.12811361;-38.33150865;5.663879314;9.478148162;14.27;5.214282095;10.81213992;-0.250555563
8.367153948;5.411090114;6.581935782;-6.72338751;-4.721797441;-0.387827096;3.950751209;-10.55038518;-7.92101707;-5.514871022;-22.44827036;-10.5017891;-38.3052854;7.942475175;14.93755673;13.37901308;8.453178324;11.07887509;-0.42223601
8.858144771;5.929442933;8.029119633;-7.88818271;-5.376150529;-0.658634431;20.24331514;-12.59524276;-10.13;-9.780171059;-28.84745206;-10.61554441;-37.86570136;8.448937454;18.21441975;14.81863459;11.47155815;12.58506687;-0.559726478
11.44569805;8.694670962;11.78492287;-3.633504004;-5.1478586;-0.776138797;29.90449679;-13.71825065;-9.453314762;-10.77775588;-31.61732133;-10.31392825;-36.69244406;7.197496903;18.30241214;18.73719679;13.85176315;15.10386726;-0.5349096
14.63981672;12.78612347;15.80035979;3.296171053;-4.456283464;-0.713998988;28.09456595;-13.34505229;-6.24010509;-8.754677111;-29.00216271;-8.923390643;-34.80817412;5.139714446;15.85402803;24.04774696;15.54946374;18.33;-0.36633158
17.06535634;16.77442237;18.33564471;9.926504138;-3.343351568;-0.56525179;16.11479642;-11.08841163;-1.914387318;-4.375751332;-21.60116146;-6.263159962;-32.78360395;3.427514714;12.38981647;28.59554005;16.51062927;21.59458131;-0.206633481
17.8832141;19.03846795;18.54873149;14.07281516;-1.873146613;-0.44882237;0.61806938;-7.403054642;1.614998408;1.22165441;-12.34261798;-3.268873615;-31.45711527;2.688349884;9.269140741;30.18610696;16.49619077;23.77737554;-0.207321906
16.83485325;18.39790227;16.46455073;14.63728855;-0.610537734;-0.418699128;-10.65213949;-3.777112583;2.768625353;6.294562719;-5.177702381;-1.553010107;-31.40491269;2.788161904;7.200665992;27.95451894;15.30825742;23.79089125;-0.378700161
14.18772501;14.86028029;12.7174943;11.51602329;-0.546533189;-0.449901938;-13.64947437;-2.129594403;0.961865216;8.793591541;-3.152658566;-2.225325445;-32.59746576;3.128912904;6.394311106;23.09484989;13.17559584;21.41664553;-0.571502958
10.74477498;9.939227992;8.398988529;5.518538724;-2.39171868;-0.497434345;-10.03864603;-3.722159162;-3.176261572;7.277741159;-6.896866641;-4.98770907;-34.47980318;3.145554346;6.850517516;18.25959989;10.86091376;17.77833117;-0.603365505
7.77603013;6.090335315;4.939573832;-1.646035105;-5.825951508;-0.557360018;-5.206798539;-8.324169181;-8.107496844;1.971831335;-14.34727172;-8.293082433;-36.32213198;2.617275871;8.320921983;15.88367579;9.282606803;14.86823583;-0.42505124
6.620231372;5.390039063;3.717278481;-7.603906933;-9.438376051;-0.664146366;-3.975329481;-14.23490094;-12.04386692;-4.892183847;-21.85064106;-10.43939196;-37.48411253;1.662576698;10.05024544;16.58264683;8.894712761;14.28014869;-0.179918975
7.967825217;8.229548529;5.322626952;-10.03001953;-11.55180009;-0.828050611;-7.27851116;-19.17016629;-13.65309516;-9.989152621;-26.03790244;-10.68571128;-37.41130258;0.569571493;10.85114411;18.8464136;9.331146635;16.03869299;-0.094998464
11.25030343;12.94638142;8.915459145;-7.697238443;-11.35738492;-0.982431126;-12.12405847;-21.43063839;-12.5214045;-10.72676701;-25.46670928;-9.511358692;-35.54499032;-0.330965052;9.819962455;20.32580101;9.643906489;18.47708145;-0.284887652
14.69385722;16.75747736;12.33154449;-1.298825052;-9.467983275;-1.008274331;-14.51176152;-20.62748732;-9.229396064;-6.858144994;-21.18639937;-7.928406684;-31.48146449;-0.711051675;7.239487911;19.75;8.98533343;19.36795227;-0.630223874
16.22011557;17.45113232;13.18575882;6.567935008;-7.430759425;-0.830997602;-12.77221705;-17.61444311;-5.06832051;-0.739691228;-15.98756701;-6.572339018;-25.45555698;-0.33500133;4.726893308;17.9367637;7.210058594;17.52190742;-0.839902309
14.72288884;14.72337943;10.40879063;12.44228627;-6.57353869;-0.508534497;-8.692991682;-13.83278259;-1.539898988;4.048847912;-12.8093455;-5.407362024;-18.76240684;0.730930843;4.125705953;17.01094809;4.930359658;13.65236316;-0.660053711
10.85134687;10.26491143;5.12928372;13.61316634;-7.094693619;-0.223052265;-5.767806527;-10.5855783;0.180811463;4.863563263;-13.20050981;-4.222025546;-13.54682055;1.937973714;5.797703661;18.3923684;3.007865305;9.838538366;-0.071572469
6.676333473;6.574819678;0.118651099;9.447207081;-8.092803298;-0.1641291;-6.242876103;-8.639931649;-0.343789441;1.50813494;-16.64550969;-3.29556316;-11.7701741;2.390375814;7.813787291;21.20615121;1.925872619;7.997735329;0.678534862
4.38978231;5.353442239;-1.967553948;1.690916916;-8.452903661;-0.386506754;-9.449605017;-8.193878189;-2.655162182;-3.872474401;-21.04118956;-3.439952;-13.88687205;1.409867858;7.116456084;22.56310849;1.565454852;8.539989485;1.239762262
4.914127674;6.56656596;-0.353163477;-6.414611977;-7.816909813;-0.756510998;-12.65381966;-8.9847261;-5.560039063;-8.335586106;-23.95749294;-5.241854425;-18.21439848;-0.770196178;2.1279757;19.71482429;1.538558551;10.21096582;1.39344663
7.397738348;8.730718315;3.392034308;-11.69523915;-6.835480971;-1.036577199;-13.49110491;-10.35328961;-7.584872314;-9.959740435;-23.91361522;-8.17015984;-21.6761211;-2.76733667;-5.225433977;12.50563044;1.7315674;11.17826662;1.186415915
9.935333317;10.085718;6.563870873;-12.42445826;-6.532656202;-1.048071557;-11.83471233;-11.30716195;-7.571836167;-8.693527334;-20.97083191;-10.47607331;-21.64274938;-2.674569232;-10.06998513;4.118414548;2.519687813;10.45788703;0.870881611
10.95331509;9.758040094;7.323600581;-8.843817202;-7.364608127;-0.789645202;-9.602928727;-10.76680932;-5.170600795;-5.822615018;-16.41668685;-10.19854423;-17.69369919;0.670688055;-7.859257961;-0.715870855;4.402263994;8.570497689;0.707702002
10.22991922;8.145675607;5.975221729;-2.700277787;-8.791789321;-0.424477031;-8.870796011;-8.056131527;-0.991840765;-2.704828203;-11.87833558;-6.603051704;-12.01888132;6.60549431;1.848082012;1.064467597;7.341727726;6.987144482;0.787688198
8.836947866;6.398568317;4.556514825;3.761401556;-9.728202435;-0.154314903;-10.05682102;-3.412226249;3.663240616;0.122062482;-8.495651736;-0.902285843;-8.060887076;12.63958677;14.17302202;8.522355914;10.40511116;6.888646488;0.999184934
8.133619619;5.500854692;5.086690806;8.697292914;-9.48347066;-0.083888665;-11.74476694;1.879885803;7.366632045;2.818036486;-6.636812827;4.398865603;-8.253204443;15.76245253;21.69468903;17.07179891;12.11673441;8.242194523;1.148392321
8.648253069;5.63739852;7.855148374;11.02606023;-8.402335051;-0.177023855;-12.16058303;5.966460773;9.135824436;5.401769228;-6.18346921;7.101186335;-12.39552475;14.3249944;19.57890947;21.37725333;11.36504184;9.858084131;1.122982765
9.713075544;6.204239895;11.09058874;10.28884491;-7.661252272;-0.322667591;-10.86931988;7.346893666;8.743071919;7.104821902;-6.992407526;6.648919639;-17.77868789;9.227548762;9.305257493;18.79;8.220434559;10.27723608;0.968738667
10.0819359;6.325190495;12.26128642;6.390701141;-8.37356108;-0.439244877;-9.14960653;5.708459968;6.662022847;6.61943601;-9.063966687;4.219780027;-20.93475637;3.514397324;-2.03921637;10.9040945;4.022721;8.744807498;0.830948816
8.98818343;5.447730941;9.994889053;-0.40345192;-10.70808979;-0.524646618;-8.766276172;2.133702875;3.76244667;3.119326033;-12.26040362;1.606094885;-19.7684835;0.547464394;-6.701308257;2.202395107;0.610610028;5.582383173;0.823509182
6.796043682;3.653341241;5.157821735;-9.179649766;-13.70385915;-0.618903199;-10.31414124;-1.482357298;0.96848336;-2.784472109;-15.86445129;-0.109379582;-14.6465346;1.944918293;-1.916888175;-3.11458962;-0.796220511;1.835856528;0.938832097
4.766221521;1.582622905;0.317973168;-18.12774624;-15.91027129;-0.729154499;-12.65156417;-3.460714221;-0.961121339;-8.997629802;-18.48096097;-0.995609226;-7.861459908;6.663573717;7.989685941;-3.775071158;-0.283534254;-1.38568551;1.06691564
4.161389091;0.097804003;-1.95113564;-24.76709301;-16.35816792;-0.797593718;-13.91648712;-3.190172947;-1.519425332;-12.95146892;-18.56652071;-1.594661562;-2.0559251;11.8134602;14.7678985;-1.743611631;0.970669331;-3.376062771;1.096929164
5.390058594;-0.135011186;-0.659620945;-26.78510155;-15.15501411;-0.747810774;-13.18217273;-1.31946453;-0.496385636;-12.99438432;-15.36546444;-1.903318782;1.198696009;14.59211946;12.3866291;-0.207867852;1.624321494;-3.927227231;1.010208842
7.789260277;0.998500904;3.180507001;-23.14677288;-13.32299895;-0.56759282;-11.25886185;0.752852051;1.946796949;-9.221515665;-9.625166297;-1.079557753;1.807693591;13.99251548;1.571887138;-0.95430237;1.128837259;-3.232346239;0.888756336
10.11464953;2.884504607;7.414365906;-14.82234452;-12.06715052;-0.348135429;-9.946295966;1.710039063;5.212492099;-3.257837897;-3.502042718;1.767536384;0.575352241;11.18436931;-10.65744447;-3.134350583;0.046506328;-1.818804393;0.838977746
11.29985426;4.304633453;10.08564618;-4.601575759;-12.0273944;-0.235158635;-10.43911726;0.959981337;8.328164347;2.71759262;0.427680656;6.410979988;-1.632021726;8.464761731;-16.05485209;-4.195548462;-0.445015392;-0.497354338;0.900145649
10.94420158;3.917295144;10.29926038;4.025854768;-12.99639681;-0.324640421;-12.31946993;-1.215105111;10.21180101;6.967583819;0.513553377;11.12517562;-4.2736536;7.652347159;-10.97060979;-2.054810208;0.552643558;-0.130708455;1.014720012
9.300770918;0.960150054;8.22205139;8.37286914;-14.19439731;-0.586397818;-14.00481648;-3.956206035;10.07768112;8.651492269;-3.093293366;13.6506041;-6.946983124;9.061514336;1.348438162;3.248407728;3.022567258;-1.157293795;1.081603178
6.943677556;-4.192138366;4.570029297;7.642837817;-14.81580302;-0.878584013;-14.19743868;-6.290528116;7.79;7.732487933;-8.581510724;12.8805978;-9.064173075;11.62734448;13.46011675;9.603885796;6.066862183;-3.152097757;1.04365818
4.454319981;-10.02844714;0.187515288;3.051317414;-14.45975725;-1.043200469;-13.00787152;-7.485123685;3.963874676;4.727369969;-13.52702404;9.905482209;-9.886228057;13.86921041;19.1301232;14.36109993;8.511204569;-4.881068788;0.935001062
2.306862747;-14.60138351;-4.018872964;-2.997008362;-13.234724;-1.009189011;-11.76555268;-7.195855129;-0.259380663;0.604737824;-16.16540764;7.435395148;-8.972355294;14.86519546;17.32554975;16.0388505;9.599570225;-5.028780269;0.850101342
0.8707937;-16.59498146;-7.038480181;-8.132899377;-11.58745411;-0.827385987;-11.74342304;-5.486703703;-3.660460213;-3.256223085;-16.12308941;7.881950553;-6.632578143;14.58192299;12.08777055;14.96509231;9.309099363;-3.200917001;0.862675607
0.355992246;-16.09374055;-7.992467008;-10.95664511;-10.04437735;-0.618895629;-12.9927157;-2.822125522;-5.404755315;-5.368692508;-14.27118135;11.50078731;-3.917724666;13.52042552;8.871446453;12.59038588;8.156407201;-0.427370382;0.962963813
0.670650092;-14.49792694;-6.66935025;-11.26889402;-9.015324887;-0.484905234;-14.34354444;-0.0347791;-5.324872731;-4.808829048;-11.96390793;16.04634185;-2.077780465;12.15180704;10.4518503;10.24960652;6.743122172;1.366183539;1.065421577
1.358944805;-13.57933839;-3.909649395;-9.666118088;-8.694396849;-0.448065943;-14.53410489;1.826636216;-3.931377795;-1.880128176;-10.25180953;18.28475033;-1.883461703;10.64816378;15.40309115;8.398324975;5.416954824;0.681747268;1.080306396
1.794008809;-14.29186183;-1.332410881;-6.921898179;-9.02641637;-0.461028378;-13.40124231;1.837136681;-2.176655141;1.839371454;-9.528696829;16.30036078;-3.30959856;9.031434938;19.81749594;6.745351967;4.248424798;-2.37249865;0.990137668
1.57722215;-16.16954829;-0.39440189;-3.598443913;-9.725029959;-0.461386489;-12.03233894;-0.364492806;-1.076413368;4.336672727;-9.661207071;10.91439622;-5.746094644;7.459287872;20.44893988;4.881352348;3.227697172;-6.005337998;0.867549603
0.844665706;-17.7570707;-1.412254774;-0.065583955;-10.36691492;-0.421905045;-11.75197438;-4.278910789;-1.330009766;4.440905918;-10.32452703;5.182376712;-8.459726243;6.29150262;16.75697344;2.698186735;2.424496378;-7.950683948;0.817931051
0.174447591;-17.7750758;-3.350126011;3.230964282;-10.5709941;-0.360093994;-12.89003906;-8.639870591;-3.082558512;2.607865189;-11.25387167;2.338745698;-10.88628832;5.84887512;10.66461329;0.28775899;1.940697504;-7.139491534;0.891338026
0.088314256;-16.1680207;-4.641652106;5.580078125;-10.19989463;-0.311198557;-14.46911586;-11.94613094;-5.929067216;0.535958757;-12.33617589;3.648804642;-12.5932368;6.102099216;4.80938686;-2.368890968;1.71748741;-4.579654095;1.035138497
0.516475494;-14.240361;-4.465996917;6.133838137;-9.46439683;-0.296045687;-15.0952995;-13.18867563;-9.159597267;-0.180652931;-13.63866015;7.630832728;-13.13350884;6.605308158;0.971019527;-5.400357658;1.421234663;-2.714496049;1.129426964
0.704161115;-13.73596373;-3.453483429;4.333774663;-8.840425488;-0.3102672;-14.23124621;-12.35509501;-12.11178418;0.66339584;-15.42668329;11.0964641;-12.12096841;6.765309958;-0.316613494;-8.605869497;0.581201216;-3.653640269;1.082573703
-0.263957449;-15.49035966;-3.185950007;0.371694467;-8.819016014;-0.336020746;-12.68528174;-10.38531159;-14.41779351;1.72487476;-18.06132592;11.2213886;-9.581855167;6.235277608;0.713328741;-11.03787745;-1.068264976;-7.5370643;0.913629327
-2.653265808;-18.62169651;-4.817957185;-4.642656437;-9.624298397;-0.358516788;-11.87399177;-8.583455453;-15.99216664;1.281226123;-21.64707762;7.268210842;-6.251841969;5.116746856;3.457765639;-11.21522886;-3.290620718;-12.23238223;0.752326141
-5.614582476;-20.87791588;-7.905235351;-8.983150344;-11.06559281;-0.372389609;-12.53710847;-7.847894597;-16.79858085;-1.170166154;-25.54587668;0.948549439;-3.402572221;3.827175462;6.839425553;-8.068301679;-5.3538802;-14.6167389;0.746685982
-7.509841795;-19.97185507;-10.43743648;-10.98233894;-12.61234487;-0.378573782;-14.07687163;-8.210302857;-16.62509845;-4.214454297;-28.18872711;-4.648037657;-2.135884839;2.772263273;9.213943575;-1.973969931;-6.396147358;-12.57232977;0.940717217
-6.901083605;-15.06280996;-10.16185685;-9.757747893;-13.64857198;-0.381472892;-15.11557995;-8.965950757;-15.11721778;-5.401144778;-27.62314532;-6.800798148;-2.593885262;2.101887974;9.012452067;5.035592207;-5.938224081;-6.352050078;1.215159692
-3.54872639;-7.436518104;-6.259953056;-5.620369068;-13.76353332;-0.390364416;-14.75184339;-9.264928587;-12.10931883;-3.114832303;-22.75329419;-4.57193421;-3.727422907;1.720323385;6.020242538;10.26927979;-4.2054027;1.545277609;1.345608121
1.297842051;0.054284143;-0.118331384;0.044958729;-12.9244902;-0.41826268;-13.36680528;-8.713734017;-8.001713029;2.019567704;-14.54218521;0.788624713;-3.915521488;1.48415866;2.178313005;11.98663763;-2.034691092;7.819881978;1.148373362
5.561498958;4.458421869;5.414290621;5.368840607;-11.4518841;-0.471396716;-12.25413187;-7.551276782;-3.808965429;7.372711718;-6.153740433;6.534711493;-2.077290162;1.373380898;0.766885462;10.43896622;-0.419618067;10.14845427;0.615467696
7.528989153;4.243989569;7.77674912;8.77399956;-9.826653235;-0.535275074;-12.42622571;-6.308983234;-0.708212171;10.1119429;-1.535733495;9.792524208;1.505295284;1.479995258;4.08210499;7.509381727;0.014802229;8.225857158;-0.060311993
6.786985394;0.01679497;6.22498651;9.593961047;-8.443661378;-0.574181288;-13.69480785;-5.277189375;0.672361574;9.243943548;-3.066188212;8.936144201;5.265183791;1.848646484;11.24173563;5.192759592;-0.72102483;3.601960384;-0.595805871
4.315654626;-5.910974592;2.122534791;8.293798781;-7.444874706;-0.553940022;-14.86103853;-4.249992721;0.696669379;6.338884685;-9.792361053;4.326489332;7.293228119;2.342504945;18.08342778;4.099471293;-2.111475464;-1.38409938;-0.792273619
1.750230265;-10.79894477;-2.09676543;6.237305639;-6.714869881;-0.475019625;-14.8288886;-2.77752521;0.486530274;4.366471869;-17.66579324;-1.950310404;6.493811308;2.677250348;19.69770449;3.180158637;-3.529507745;-4.842623761;-0.654590994
0.366321771;-12.86768748;-4.470287183;5.102219565;-6.026578694;-0.385996468;-13.61450348;-0.707299918;1.097300695;5.523055559;-21.91207428;-7.237116753;3.186304213;2.609055961;13.97771586;0.894579815;-4.599524211;-6.099883584;-0.372599645
0.456042002;-12.05933934;-4.499686511;6.134060408;-5.23780339;-0.356919968;-12.32903466;1.482558096;2.693486066;9.693093604;-20.09405293;-9.75;-1.170957367;2.126788625;3.489566342;-3.145276703;-5.292275013;-5.74123882;-0.180987386
1.407370144;-9.81740241;-3.079377891;9.479484421;-4.411562555;-0.425524825;-12.1583011;2.911962562;4.390908275;14.66955334;-13.74428723;-9.478969505;-4.839920415;1.496335739;-5.964468023;-7.455018879;-5.736262338;-5.065539725;-0.200916224
2.288218392;-8.080963073;-1.644492406;13.87867173;-3.787359146;-0.558508488;-13.27884658;2.969063261;4.957678214;17.88211609;-7.306809597;-7.97576172;-6.636739304;1.121807504;-9.207861157;-9.557147711;-5.944860437;-5.28776402;-0.376289793
2.452922757;-8.105108192;-1.2604718;16.97332283;-3.633721513;-0.66564957;-14.70067758;1.884062317;3.875547872;18.24766101;-5.026713401;-7.152206807;-6.29712494;1.31604664;-5.139717912;-7.826782592;-5.707990347;-6.859251021;-0.543034627
1.79297809;-9.789642732;-2.208572426;16.3;-4.091905643;-0.664221099;-15.17354109;0.681378206;1.915166;16.74497275;-7.97448992;-7.904919666;-4.346765892;2.116917757;2.817352959;-2.837828466;-4.751218542;-9.208104945;-0.568940812
0.59362687;-11.8834092;-4.117404113;10.66354125;-5.114855099;-0.546412462;-14.32261564;0.462251076;0.701005769;15.38847101;-13.36975454;-9.545785755;-1.738471294;3.239568885;9.532730028;2.910058594;-3.039843477;-11.04604691;-0.45251745
-0.76655516;-12.89943825;-6.324700151;1.195094996;-6.518435353;-0.393275651;-12.97772806;1.54475711;1.527223798;15.53720639;-16.70788755;-10.45457513;0.504821193;4.178844617;11.95455214;6.728783996;-0.974309365;-11.12509348;-0.308588866
-2.014251231;-12.13358976;-8.17094348;-8.68108918;-8.068622657;-0.317617073;-12.40466215;3.171497367;4.319605663;16.91780361;-15.10583012;-9.447961084;1.592748699;4.42246347;10.88066203;7.60617423;0.713047418;-9.037046394;-0.262133652
-2.999989412;-10.10923793;-9.175443059;-14.68690556;-9.514662057;-0.376237312;-13.14995244;4.087582681;7.584393015;18.05961619;-9.367097048;-6.785581004;1.255571458;3.704954534;9.46193389;6.739409325;1.336687165;-5.534787436;-0.343530977
-3.636507579;-8.146247106;-9.194274904;-13.97997604;-10.56046079;-0.520659175;-14.5547282;3.583000378;9.440948678;17.65148526;-3.252007058;-3.998929995;-0.055504377;2.202721139;9.914072555;6.337878336;0.681734847;-2.090039063;-0.47106886
-3.877175677;-7.353693671;-8.55655877;-6.994876574;-10.86538388;-0.628496469;-15.37152783;2.15992648;8.972546047;15.62441133;-0.583838703;-2.666643115;-1.267084513;0.553060238;11.36777324;7.69168187;-0.807836883;0.082938619;-0.529341661
-3.742189228;-7.768881369;-7.993980509;2.459985794;-10.17117588;-0.594516677;-14.90777448;1.221859947;6.848016152;13.08710756;-2.460772049;-3.130107752;-1.208434122;-0.376080274;10.75715299;10.09906851;-2.215667039;0.864829911;-0.471440559
-3.306759162;-8.29103062;-8.211459428;9.197831964;-8.531004412;-0.412129799;-13.64678607;1.949181241;4.720848643;11.26391474;-6.697707181;-4.218194005;0.642632703;0.091717504;5.994779778;11.54314792;-2.61837001;1.27276984;-0.356187434
-2.604126989;-7.501046129;-9.265469936;9.698162859;-6.464836387;-0.182391899;-12.78738089;4.225918;3.880267503;10.41888428;-9.819526435;-4.233255133;3.698457533;2.03962974;-1.366032883;10.55770689;-1.565157989;2.600943741;-0.291089876
-1.52476086;-4.79647086;-10.24285072;4.284707165;-4.838167524;-0.043858053;-13.13771025;6.523968913;4.236424724;9.708459715;-9.910420054;-2.395822679;6.519098177;4.840141279;-6.482375744;7.702022577;0.692288487;5.270171998;-0.334386322
0.141104387;-0.994484943;-9.68031384;-3.092605683;-4.431533145;-0.077201533;-14.38320969;6.946379696;4.46762484;8.063498755;-7.998249617;0.465111285;7.73046164;7.448187541;-4.63572833;5.330427892;3.329665339;8.3;-0.443807683
2.470649177;2.096879217;-6.638111952;-7.465154367;-5.433641909;-0.255253131;-15.3929195;4.704400681;3.229946404;5.302823473;-6.899803674;2.587028723;6.987672147;8.964813689;4.858588251;5.720358603;5.352253299;9.903771974;-0.516699783
5.139919122;2.891011041;-1.709597606;-6.158061235;-7.230220643;-0.470782689;-15.26913213;0.894376456;0.465745953;2.488557062;-8.546117651;2.788011324;5.238094911;9.125153295;17.43291829;9.022394335;6.058710375;8.840600302;-0.484498769
7.386235746;1.167018903;2.915790064;-0.535548902;-8.715176775;-0.614303229;-14.16789684;-2.088983943;-2.259356829;1.191208814;-12.04826524;1.567793031;4.018400881;8.392818612;25.97386508;12.76706717;5.354515194;5.510883248;-0.376246516
8.34858726;-1.697369787;4.645838128;5.067088703;-8.982752232;-0.640804046;-13.14029359;-2.147657768;-2.721174141;2.263411869;-14.1569278;0.849071029;4.273967266;7.60783416;25.65801653;13.52345873;3.792733985;1.900382097;-0.293397066
7.636212986;-3.60845661;2.2771346;6.493382657;-7.937922907;-0.580801423;-13.15284365;1.056181898;0.371380915;5.135673374;-11.81729432;2.513809712;5.603396209;7.444743458;17.38888363;9.596896823;2.336001562;0.321643277;-0.317394268
5.734140731;-3.150699627;-2.884268901;2.760536928;-6.362318816;-0.498824664;-14.19843587;5.839322642;6.319403454;8.209812705;-4.80629226;6.879867883;6.532412452;8.052744491;7.249909788;2.713433735;1.932484255;1.829305254;-0.432511082
3.892417055;-0.514484947;-7.52963424;-3.236067999;-5.339928387;-0.440215849;-15.31591997;9.629633206;12.68237379;10.02056986;3.664802416;12.32398361;5.620579805;9.085367627;2.307213659;-2.744679528;3.067876151;5.463677478;-0.53483904
3.478970198;2.677965096;-8.327065892;-6.779934843;-5.428704965;-0.407084868;-15.49068208;10.66337786;16.6598427;10.22499515;8.926050103;16.34381465;2.547193412;10.026121;5.776092265;-2.613344143;5.486709206;8.871675343;-0.523154606
5.174088947;4.48654484;-4.100656055;-4.62564199;-6.188105659;-0.372987572;-14.5957222;9.039990003;16.66628496;9.656426075;7.962575293;17.22574027;-1.64712332;10.52648997;14.99779287;4.030414549;8.241944197;9.836185475;-0.393835426
8.539867116;3.89441224;3.317105495;2.841514455;-6.440571835;-0.314139118;-13.50218757;6.451277274;13.10517367;9.470774589;1.389170392;15.06403156;-5.296730495;10.53122814;23.5745757;13.8879651;10.10571136;7.610019531;-0.254810766
12.27127485;1.33491762;10.21684098;12.02717169;-5.108796355;-0.228431962;-13.26265869;4.89447964;7.969950712;10.14360481;-7.075005595;11.46551811;-7.191778571;10.18682196;25.99069695;21.31092295;10.18186129;3.17371207;-0.240485693
14.97642627;-1.758856668;13.39254881;18.64525476;-2.031512234;-0.131939011;-14.12948018;5.366263269;3.672321376;11.14951786;-13.10660126;8.332502679;-7.164148207;9.694523697;21.34300269;21.82629436;8.403917618;-1.605132554;-0.394231215
15.97392591;-3.934997016;12.14345945;20.39066227;1.839675114;-0.044367529;-15.31959017;7.428351481;1.871471929;11.53988219;-14.36276462;6.752281937;-5.836979703;9.240562722;13.60419727;14.93930447;5.607138039;-5.15231909;-0.61518504
15.59598364;-4.488544089;8.54570466;17.91483384;5.011975143;0.020005035;-15.74187717;9.792473135;2.890423195;10.86965729;-11.40402485;6.758299504;-3.92831654;8.981200935;8.453218952;4.345298624;3.079987451;-6.846566185;-0.715858355
14.83952952;-3.560819179;5.879686855;13.70044238;6.382536853;0.051564972;-15.00988156;11.32448148;5.83102179;9.649807291;-6.613281558;7.884513457;-1.809567627;8.974667677;9.155288218;-4.509440321;1.826627808;-6.872159551;-0.548625442
14.64922072;-1.707178642;6.380255576;10.01682554;5.872708588;0.04353962;-13.79942444;11.68248156;9.136628165;8.929018383;-2.239846868;9.796588028;0.343926144;9.047069788;14.50110876;-7.784402058;1.992809229;-5.673690949;-0.106118812
15.33173439;0.559593059;9.874862525;7.622530356;4.35091368;-0.002634667;-13.22003906;11.24077409;11.28181075;9.360333693;0.883720616;12.38493669;2.132846334;8.751281281;20.14204413;-5.27298096;2.840855448;-3.632317448;0.475172386
16.46007813;2.864707344;14.14974648;6.005650154;2.960535185;-0.068742645;-13.78495533;10.56811617;11.37298118;10.55232636;3.210882864;15.36924447;2.869051568;7.60117196;22.11057218;0.078766148;3.310300257;-1.18761279;1.001057029
17.26389063;4.769512105;16.6292519;4.575474132;2.378531625;-0.120725897;-14.93691065;9.999764052;9.515468148;11.27917856;5.420944912;18.0074303;2.118841395;5.534762104;19.78297629;4.547797793;2.791382494;0.934029058;1.323914053
17.19003906;5.66956035;16.10403521;3.52968364;2.522584869;-0.125508206;-15.57122737;9.606515517;6.793894432;10.4238161;7.529865094;19.39035184;0.400295185;3.250109821;16.09061121;6.080977437;1.56692865;1.881728397;1.392810425
16.25982556;5.088214272;13.36022255;3.622640564;2.839769953;-0.073671444;-15.07012782;9.417434658;4.765362788;7.926057624;8.885873187;19.15584903;-0.758483558;1.995483035;14.93038489;5.171752255;0.594098491;1.314862668;1.233424945
15.03428428;3.216294951;10.4495844;5.192669928;2.870633806;0.011664359;-13.88538006;9.539295763;4.600465588;4.982552381;8.85878637;17.92567013;0.247133101;2.751281157;17.83855435;3.834593597;0.769188809;-0.000647613;0.900191323
14.26579285;1.181776354;9.275704512;7.50439925;2.623771905;0.090587712;-13.12321856;10.00907709;6.319353946;3.307176944;7.455807535;16.91795526;3.733088704;5.302195881;22.5215525;3.7266418;2.207910082;-0.314111271;0.452861867
14.46946583;0.622967324;10.49585308;9.121264421;2.5053684;0.136634583;-13.51270439;10.58007813;8.663733385;3.964624156;5.296338247;16.93348512;8.063395193;7.97938042;24.42166558;4.912783132;4.081490999;2.087110808;-0.031320295
15.64062934;2.670376779;13.33766047;9.012497869;2.923058463;0.157375338;-14.7161656;10.7794419;9.818362487;6.602607015;3.063423955;17.57402434;10.45064402;8.504473681;20.19916974;6.066772581;5.151196149;7.561054472;-0.445198675
17.23007813;6.997446616;16.22859516;7.38559546;3.917947135;0.187941158;-15.62900793;10.31858153;8.59609826;9.616273014;1.030968804;17.46489435;8.850690297;5.541259309;10.53569379;5.71066327;4.625694109;14.50357361;-0.678543327
18.37003906;11.69321522;17.68541106;5.481918599;5.111879318;0.262402986;-15.39959;9.526053665;5.281384492;11.12426799;-0.884593933;15.41664095;3.589885244;-0.123443657;0.101343603;3.374660816;2.716545989;20.04716423;-0.680696121
18.26243371;14.20172835;16.94618008;4.534852019;5.980264882;0.3860735;-14.2259118;9.324583089;1.482886905;10.10141584;-2.681247531;11.57997299;-2.606713246;-5.769592208;-5.424875104;-0.200692913;0.482785735;21.7151664;-0.508347341
16.58468079;12.81013176;14.1613771;4.855384853;6.213772022;0.529857676;-13.1833748;10.59753922;-0.961423244;6.95190682;-3.984893954;7.538713356;-6.376908574;-8.390340648;-3.223872189;-3.808385337;-0.919492348;18.92724053;-0.305889396
13.72690041;7.724690706;10.2385938;5.856683717;5.897567981;0.648402072;-13.23132723;13.34752865;-1.257811882;3.212455628;-4.304357491;5.12480404;-6.061880266;-6.755887128;4.660289944;-6.700282288;-1.027617331;13.3108158;-0.217425934
10.69234799;1.004946747;6.481488454;6.903355884;5.407613228;0.705250653;-14.31226283;16.34847717;-0.16816315;0.632423711;-3.63333112;4.858212082;-2.88516371;-2.406362367;12.63596472;-8.903521008;-0.327631634;7.621991314;-0.291166862
8.627150369;-4.617946661;4.090466931;8.059030729;5.139031708;0.686620994;-15.38365964;17.71292969;0.62523233;0.220166206;-2.780410004;5.340455276;-0.051120898;1.250551722;15.28621243;-10.77403856;0.19037721;4.066662711;-0.451610778
8.173712642;-7.272307441;3.611636695;9.905807758;5.276307365;0.599664209;-15.36804793;16.10185332;-0.183817865;1.796927071;-2.976050751;4.233818101;-0.412068845;1.20494072;10.88089938;-12.32448054;-0.181682877;3.184710786;-0.56462448
9.027196784;-6.857406983;4.570374206;12.56277767;5.744751577;0.465086778;-14.1554414;11.73929943;-2.550116819;4.249863858;-4.948506308;0.162008146;-4.439890684;-3.099158242;2.26055213;-13.01049792;-1.33787763;3.96391131;-0.545137973
10.04014353;-4.821772785;5.607993871;14.93943565;6.332296305;0.313750546;-12.73209556;6.442895999;-5.135440337;6.267544232;-8.20372932;-5.958678859;-9.982138016;-9.3885607;-5.38849914;-12.17816259;-2.456139552;4.914468726;-0.421168373
9.912239963;-3.05905796;5.234224715;15.20091289;6.862180987;0.184787968;-12.30440403;2.554493701;-6.302309136;7.101698891;-11.17174718;-11.28542982;-13.89497881;-14.13245136;-8.124360665;-9.736254028;-2.612989041;5.196138649;-0.303709697
8.083895049;-2.70706013;2.853509588;12.3373259;7.292062361;0.114871258;-13.21056701;1.460254762;-5.25210753;6.926740392;-12.21303574;-12.93926519;-14.23677183;-14.91286594;-5.59736495;-6.405600362;-1.430142399;4.99412154;-0.290401347
5.228006442;-3.607148149;-0.632475394;7.55415213;7.688975231;0.11640456;-14.61422077;2.71224113;-2.480504177;6.619093961;-10.76499451;-10.0439688;-11.37920208;-11.89914198;-0.635508407;-3.292778106;0.710386428;5.020279634;-0.385240345
2.924481286;-4.67020859;-3.217315065;4.06495021;8.116796374;0.159993377;-15.26244576;4.354688191;0.677105879;7.112080231;-7.75976804;-4.400511019;-7.351249419;-7.453846292;3.309498447;-1.162722577;2.978043729;5.684998422;-0.500718111
2.639416151;-4.790905083;-3.098853259;5.054265089;8.523216992;0.183411306;-14.61576975;4.2238677;2.937809536;8.728219912;-4.997169717;0.684387067;-4.142245788;-4.306668363;4.707905909;-0.061783607;4.629207673;6.6412595;-0.537045817
4.659692445;-3.651271205;-0.079948758;11.1772308;8.711489845;0.132388794;-13.31670024;1.343461927;3.700009766;10.9135316;-3.957271772;2.528315292;-2.402009992;-3.730642507;4.570339942;0.39163134;5.350268017;7.01139382;-0.467911109
7.748497403;-1.902615202;3.997375724;19.58891922;8.434618694;0.008351577;-12.57257711;-3.477997291;3.070589922;12.56431333;-4.934219908;0.638242179;-1.472487335;-5.007325249;4.923330074;0.375215173;5.223479257;6.05668132;-0.35925672
9.847398904;-0.657804806;6.27366304;25.49257387;7.57267265;-0.117326314;-13.02884702;-8.164842654;1.509750167;12.75887899;-7.066515192;-3.279965495;-0.478488179;-6.369352966;6.669818973;-0.432665017;4.474860119;3.77561093;-0.307816126
9.424213019;-0.662065049;4.796045793;25.26680215;6.281140962;-0.144016789;-14.17728011;-10.60538292;-0.453788494;11.41263362;-9.11740747;-6.661786199;0.645128575;-6.486693205;8.736737558;-2.431995309;3.311538685;1.050362811;-0.355811473
6.566269389;-1.69197881;0.03503476;18.92462056;4.982080853;-0.01539385;-14.84551525;-9.819966652;-2.237840081;9.380512572;-10.32757407;-7.682433758;1.117314888;-5.294209062;9.17552364;-5.298144526;1.993318697;-0.702512269;-0.456713006
3.033329144;-2.585713699;-5.161362346;10.08037564;4.149651295;0.228801736;-14.30861882;-6.436688079;-3.168926206;7.878376237;-10.72190539;-6.066401167;0.199813278;-3.666806438;7.133534913;-7.615924546;0.984585329;-0.17000061;-0.519784922
1.171348761;-1.931686744;-7.295118068;3.467122055;3.992757211;0.467680766;-12.98249247;-2.318237548;-2.718361266;7.581213954;-10.78347571;-2.843287876;-1.920707976;-2.454772181;3.855861307;-7.526162947;0.899405285;3.197674436;-0.491441628
2.380529936;0.961759849;-4.538313986;1.87769492;4.256961601;0.576314394;-12.04604908;0.369155408;-1.000621995;8.038618763;-10.91658726;0.441917229;-4.156399576;-1.830893376;1.746691175;-4.108790417;2.134316061;8.739645283;-0.400790788
6.163583151;5.411311737;1.933708961;4.741153847;4.337945631;0.509952069;-12.33951913;0.160438383;0.920499691;7.886479574;-11.19035137;2.396633055;-5.469701799;-1.461524409;2.258058136;1.540183707;4.429498072;14.56814247;-0.330735029
10.4034537;9.501253452;8.554117185;9.165265958;3.695726312;0.331623714;-13.56985486;-3.054025154;1.414285889;5.793881102;-11.49238647;2.082547051;-5.866609678;-1.16812663;4.471039652;6.555635757;6.780230193;18.15550955;-0.34276802
12.69007813;11.07287255;11.55984207;12.34894078;2.308584288;0.162601988;-14.57695299;-7.964246093;-0.666016718;1.52993635;-11.81108833;-0.830717493;-6.44621712;-1.292794726;5.715845489;7.97583535;7.922157534;17.47293733;-0.423403085
11.8137839;9.061577771;9.324727601;13.36609802;0.812909315;0.09599103;-14.4239618;-12.39480882;-4.957759972;-3.617241635;-12.28724686;-5.824879583;-8.344485941;-2.32338411;3.846465;4.79077265;7.150039063;12.22448189;-0.498797168
8.454196405;4.357201425;3.302804996;13.09494439;0.157054521;0.141463538;-13.29166254;-14.28594705;-9.47547995;-7.437156033;-12.97020432;-11.35181263;-11.43984135;-4.127298676;-0.697842465;-1.14036512;4.878602565;4.40759007;-0.50233158
4.662346687;-0.464932139;-2.983700645;12.74186574;0.956878898;0.240472038;-12.32243954;-12.70039362;-11.71842675;-8.079087247;-13.5649222;-15.1433818;-14.0009049;-5.621926196;-4.859231866;-6.120853054;2.450134368;-2.408978876;-0.433532687
2.543494801;-2.536757563;-6.167350795;12.51151558;3.008206578;0.330977307;-12.53729815;-8.357049562;-10.34430168;-5.189908167;-13.50824434;-15.2106042;-13.73481455;-5.38889085;-5.165700654;-7.019429173;1.225856087;-4.965099251;-0.35633809
3.035988621;-0.436641115;-4.980672242;11.61724164;5.349069817;0.400991637;-13.83508126;-3.34239842;-6.194487425;-0.148944058;-12.40498566;-11.09289593;-9.51754039;-2.867834464;-0.521661305;-3.399392229;1.578807813;-2.322932876;-0.34014662
5.540078125;4.850843825;-0.726287729;9.443504035;6.877794285;0.484894036;-15.03621278;-0.063861677;-1.830586497;4.753069066;-10.47509085;-4.464869697;-2.448499934;0.876047945;6.638501747;2.165117534;2.559847514;3.364726766;-0.397817433
8.527525149;10.47936007;3.870914268;6.575125241;7.100348012;0.611235891;-14.97042523;0.018823151;0.168791363;7.633986688;-8.578348127;1.540320636;4.666692377;3.604396935;11.83255726;5.865663565;2.561201123;8.074860952;-0.475892895
10.61975765;13.54414897;6.525187998;4.584385313;6.450135126;0.755835043;-13.61094019;-2.852945628;-1.06155493;7.974557474;-7.698975713;4.049332269;9.090188171;3.411529348;11.59129505;5.302632634;0.553847717;8.526777158;-0.504233902
11.39;12.9950625;6.710761744;4.706407907;5.92646967;0.848590922;-12.16993801;-6.965057363;-4.18134105;6.642156682;-8.233027001;2.126916135;9.883193763;0.190213291;5.80527852;1.132230003;-3.005988771;4.478520391;-0.459127701
11.42373931;10.34269626;5.684097742;6.651305698;6.318237912;0.831610722;-12.01036217;-10.19556748;-6.729137094;5.084313777;-9.631303275;-2.743690011;8.330409369;-4.123120891;-2.365432888;-3.431663927;-6.321304063;-0.971481186;-0.383195776
11.71209002;8.605643873;5.363497341;8.737930206;7.60798969;0.716379714;-13.34967519;-11.22790778;-6.936610949;4.328638978;-10.71680145;-7.717136273;6.807594691;-6.815787747;-8.840866913;-4.870728358;-7.419284749;-3.452850341;-0.345506875
12.86540182;10.16172909;6.913307297;9.328049316;9.015916905;0.585000315;-14.97971743;-10.14691755;-4.916298025;4.465288267;-10.4931108;-10.41447537;7.012060661;-6.288295775;-11.35171122;-1.748789253;-5.536766605;-0.423083145;-0.379108501
14.67180395;14.97475104;9.949708265;8.298443066;9.639472841;0.528840443;-15.32771589;-8.104938639;-2.410515003;4.85505814;-8.881447147;-10.235417;8.884309992;-3.152604368;-10.50284095;4.426949775;-1.724069934;6.887795281;-0.452378877
16.23530689;20.45907278;12.79147446;7.176961151;9.173502092;0.574670539;-13.92980058;-6.394156864;-1.41543347;4.768283131;-6.858421638;-8.323161997;10.9245938;0.294664122;-8.552053521;10.38262386;1.79662285;14.14400099;-0.498942998
16.54595873;23.1262703;13.51299562;7.736045477;8.139385983;0.662283746;-11.94448282;-5.626473385;-2.791318586;3.920923765;-5.879259461;-6.397171811;11.506865;1.81840848;-7.113270571;13.35027038;3.088633639;16.78974779;-0.477942629
15.10884883;20.91263394;11.13048814;10.25509154;7.455636693;0.694928092;-11.1602433;-5.552887942;-5.845308002;2.564251013;-6.952611347;-5.458951427;10.10182985;0.879325953;-5.754211382;12.79098089;1.754512613;13.13885777;-0.410015869
12.27990951;14.60609709;6.251496778;13.03668211;7.714261242;0.62127501;-12.34048842;-5.520127951;-9.016538527;1.188974393;-9.952270647;-5.318007475;7.529075778;-1.065420433;-2.607662835;10.43134634;-0.883209568;5.480864396;-0.357388327
9.152142624;7.419049776;0.859910674;13.70506503;8.750801491;0.479947463;-14.42756736;-5.101411413;-10.96473811;0.173377442;-13.5905082;-5.112734371;5.202169138;-1.77556012;3.587644621;8.750929148;-2.769371081;-1.553260399;-0.367188564
7.066382402;3.028290922;-2.633198092;11.22891536;9.834327273;0.369234804;-15.41705956;-4.394979915;-11.21778615;-0.350975529;-16.07764632;-4.210870275;4.078562491;0.008925895;11.76411146;9.132618987;-2.543269717;-4.149420477;-0.429570462
6.981490681;3.409085024;-2.588776805;6.905333997;10.2849024;0.36792091;-14.19500986;-3.839205713;-10.08319219;-0.414724609;-16.11063051;-2.703465991;4.11428939;3.586834563;18.60137617;11.0093324;-0.401348583;-1.729813891;-0.487763024
8.991901717;7.839132358;1.010510482;3.383436989;9.98725141;0.473218742;-11.67346125;-3.808555148;-8.194514937;-0.114336349;-13.66564188;-1.204335637;4.489361916;6.780701046;20.46183925;12.50413055;2.160537655;2.996641218;-0.489917866
12.22513198;13.57192022;6.499484864;2.496209545;9.386152148;0.604999502;-10.09474997;-4.37982077;-6.24093413;0.334910097;-10.16678966;-0.31113853;4.244292402;7.456181089;15.81848561;11.95106274;3.467217761;6.199173254;-0.435451703
15.19911189;17.56206495;11.32003906;3.735708603;9.006845555;0.668428123;-11.00694547;-5.425845125;-5.03081083;0.467980681;-7.897615401;-0.290928656;2.769946578;4.931296787;6.446490619;9.120573081;2.81159381;5.591345418;-0.374537333
16.5053589;18.05824354;13.28354461;4.69252325;8.94393312;0.620475493;-13.70315147;-6.854945961;-5.541859499;-0.39946721;-8.891212661;-1.200919989;-0.105257956;0.314934828;-3.450207118;5.305642443;0.846643645;1.689407476;-0.362173363
15.49657006;15.1743887;11.65057997;3.103652756;8.76809131;0.488567172;-15.64380977;-8.692243082;-8.560963906;-2.832564375;-13.83058002;-3.153435622;-4.256213118;-4.330440475;-9.585417212;2.324300361;-0.968661619;-3.03;-0.408843164
12.61379708;10.36719095;7.441276357;-1.237680672;7.921521629;0.335386415;-14.67295635;-10.89599795;-13.99660084;-6.785313625;-21.56162305;-6.299260872;-9.319705712;-7.284001168;-9.905534551;1.258064471;-1.39664814;-6.163335891;-0.471958845
9.15538988;5.428991965;2.808402696;-6.342327474;6.247991718;0.208887505;-11.14931569;-13.11458043;-20.47654479;-11.35062679;-29.57288058;-10.45959719;-14.59947067;-8.006671723;-5.510882964;1.842512011;-0.185801438;-6.949047844;-0.494944329
6.602332244;1.706567082;-0.147746336;-9.75416647;4.196878756;0.121331666;-7.987124017;-14.7049627;-25.83489846;-15.07372086;-35.28919159;-14.80526061;-19.05549465;-7.092165773;0.217067948;2.859826099;1.889830213;-6.308175761;-0.458111032
5.884168299;-0.151322101;-0.417564296;-10.62388123;2.531057759;0.065865577;-8.289632672;-15.12181605;-28.43049916;-16.76040292;-37.51565497;-18.05895063;-21.63145261;-5.584713031;3.62360233;3.133130922;3.633394634;-5.62409797;-0.395640498
7.005319118;-0.090826553;1.608987303;-10.31092382;1.790382528;0.041239759;-12.40274367;-14.42472144;-28.44564073;-16.28910067;-37.19027139;-19.25287337;-21.84546922;-4.276332163;2.739454341;2.346045472;4.185072546;-5.475981635;-0.364119115
9.211169934;1.481803861;4.646599053;-10.99657876;1.949765936;0.05201743;-16.95185875;-13.46976422;-28.11919684;-14.83338035;-36.94448851;-18.50106479;-20.21418185;-3.42942659;-1.809305029;1.133938878;3.447335877;-5.387864913;-0.391585201
11.51814034;3.749763439;7.390156177;-13.55044216;2.517991864;0.084219501;-16.98867773;-13.53863149;-30.54850296;-14.25092316;-39.6797284;-17.10233697;-18.0819672;-2.928224471;-7.295539884;0.485046469;2.000793415;-4.641197504;-0.452911887
13.21905495;5.602558292;9.142268442;-16.5675112;2.941438393;0.089386059;-9.836599247;-15.58501844;-37.7762469;-15.97390251;-47.00082082;-16.77150903;-16.85485516;-2.556591257;-10.43877772;0.980078125;0.689845025;-3.248112351;-0.493050763
14.05856146;5.997668856;9.85519622;-17.47915059;2.949040502;0.007036309;2.335263796;-19.60126486;-49.49239692;-20.12035273;-58.45727537;-18.52321916;-17.15053304;-2.138969487;-9.190719244;2.444936948;0.198465856;-2.099534326;-0.476624315
14.07452065;4.494085587;9.745643139;-14.81203222;2.585328451;-0.183824976;13.39232318;-24.5570429;-63.28657285;-25.43190163;-72.02031767;-22.06522097;-18.50974505;-1.535595673;-3.860813229;4.210403162;0.828162979;-2.108417299;-0.419238006
13.36574814;1.616356307;8.944083489;-9.623436278;1.99658395;-0.430843132;17.14856075;-28.96591074;-76.25047593;-30.08861254;-85.40927074;-26.17220881;-19.90761096;-0.658258581;2.999232505;5.69303395;2.488682968;-3.127021849;-0.372887818
12.05279635;-1.28975265;7.51479794;-4.810175668;1.249948819;-0.633345966;11.51833873;-31.69893262;-86.73615237;-32.84798135;-97.34165994;-29.70827685;-20.66289983;0.397056953;7.922547612;6.800723474;4.797657965;-3.684959968;-0.379131744
10.44956444;-2.730318962;5.761707079;-2.815208692;0.380125003;-0.717442035;-0.132905674;-32.51644179;-95.00788891;-33.73929092;-107.8944244;-32.42997696;-21.00225984;1.216837408;8.386103765;7.858256128;7.20987337;-1.935540857;-0.432162262
9.1927048;-1.894933881;4.40843566;-3.666729181;-0.427214649;-0.700863123;-11.37966304;-32.02234568;-102.4256732;-33.87213553;-117.8335805;-34.90407413;-21.79975038;1.159036556;4.18528506;9.162967776;9.172020704;2.835154035;-0.484500158
9.049550873;0.86688327;4.318778916;-5.045885845;-0.794764515;-0.685131594;-17.02701786;-31.1587773;-109.9355611;-34.54661036;-127.5022808;-37.65150224;-23.6846431;-0.255386272;-2.460774867;10.58146118;10.31188114;9.32384994;-0.489705752
10.40255971;4.216588019;5.857404746;-4.36996297;-0.418887511;-0.769707185;-16.16107125;-30.63558555;-117.1159673;-36.32442971;-136.1321579;-40.31436745;-26.24770098;-2.857764427;-8.130510379;11.55349933;10.60369679;14.72973618;-0.443710612
12.76628331;6.522163923;8.399421307;-1.145705456;0.527383971;-0.953726886;-11.94356006;-30.65097192;-122.4977766;-38.70298794;-142.0938961;-41.64;-28.03312691;-5.639104435;-10.01497948;11.52321756;10.39178145;16.41310801;-0.388079987
14.79964266;6.654557467;10.49072287;2.425598464;1.250490708;-1.112031578;-8.685708008;-30.986368;-124.8132425;-40.56330178;-143.9153304;-40.3798548;-27.40389651;-7.110840539;-7.267960967;10.44966116;10.19803552;13.5628033;-0.372705507
14.97880457;4.461651737;10.68897961;3.173611676;0.719017726;-1.078221306;-8.662382114;-31.29189886;-124.1058978;-41.00247572;-141.365858;-36.40066314;-23.68477603;-6.112422781;-1.195449493;8.954787901;10.38376804;7.717278891;-0.411403038
12.58089283;0.741891796;8.540625669;-0.351962838;-1.58768895;-0.778441723;-11.0063157;-31.3116394;-121.8032745;-39.92392402;-135.8745803;-31.08853469;-17.75491174;-2.608425893;5.635789547;7.932666681;10.87110584;1.799162637;-0.469833829
8.3023666;-3.1810047;4.961129423;-6.429782677;-5.10158189;-0.310124632;-13.14283199;-30.93376279;-119.7249351;-37.9961304;-129.9879244;-26.66598392;-11.65139069;2.052138197;10.67784099;7.873169101;11.129944;-1.649401632;-0.496205164
4.001004442;-6.037824278;1.6829563;-11.1808759;-8.270777356;0.104156825;-13.22967596;-30.13407392;-118.8353568;-36.09385349;-126.158362;-24.8952668;-7.44440076;5.661881919;12.33734152;8.414273404;10.47878269;-1.848812034;-0.46729645
1.638891644;-7.112000281;0.134819904;-11.30605583;-9.399578599;0.260982398;-11.52708892;-28.95050507;-118.6990539;-34.70788583;-125.5297765;-26.09495798;-6.126240998;6.253776826;10.29016753;8.511653245;8.536624308;0.055722855;-0.409009724
2.095839996;-6.490847621;0.562712733;-6.449882056;-7.715164255;0.112229771;-9.791724265;-27.54515356;-117.9917855;-33.77619272;-127.3709944;-29.11150801;-7.194566494;3.201391393;5.376756431;7.173328668;5.55034948;2.018780385;-0.373376866
4.659058333;-4.97669039;2.024998811;0.574730851;-3.933355824;-0.209469793;-9.519436637;-26.27768857;-115.5976921;-33.00264592;-129.4628566;-32.13970678;-9.104831867;-2.295605097;-0.633887942;4.269172898;2.387435712;2.520302865;-0.39245865
7.543236081;-3.661543293;3.218606535;5.777756692;0.091636325;-0.492881982;-10.68429465;-25.65966198;-111.4306189;-32.31564255;-129.2606388;-33.71028657;-10.21912565;-7.662301462;-5.40571502;0.823723104;0.178804151;1.452333344;-0.449880001
9.07288193;-3.3256441;3.459275175;6.624478275;2.426732233;-0.596467784;-11.97318993;-26.13409401;-106.4116904;-32.01428787;-125.251729;-33.19276518;-9.655284326;-10.17603333;-6.74559067;-1.468744422;-0.209155641;-0.012692193;-0.495133102
8.701056131;-3.975942753;3.056418353;3.402186245;2.149056714;-0.529703091;-12.1146488;-27.76907595;-101.7156371;-32.43568593;-117.7877357;-30.68279234;-7.616505298;-8.383820515;-3.682349097;-1.230790966;1.388484657;-0.361896394;-0.488111473
7.186247323;-4.844118458;2.851033252;-1.45532514;-0.205959846;-0.413093129;-11.01223987;-30.05639717;-97.91195058;-33.41662089;-108.8902438;-26.64299362;-5.149307231;-2.968700221;2.601241293;1.743429771;4.298203819;1.179466153;-0.434710463
5.88169885;-4.918402845;3.377913583;-5.288580415;-3.055578913;-0.361096202;-9.712047613;-31.98783225;-94.62130538;-34.0506973;-101.0659967;-21.71808791;-3.563101292;3.454616306;8.821010688;6.315417995;7.242327102;4.098776055;-0.382057881
5.722490165;-3.698474369;4.393428595;-6.826620392;-4.714552168;-0.389036708;-9.355109035;-32.44408015;-90.86658633;-33.05475623;-95.77860609;-16.78;-3.821299057;7.606009047;11.0707636;10.59928294;8.862610478;6.865023643;-0.377272066
6.655111941;-1.629169298;5.153236867;-6.471167623;-4.285058807;-0.416498146;-10.13958687;-30.7463113;-85.80522372;-29.58311874;-92.53270761;-12.8983974;-6.138523755;7.266510143;7.155879793;12.91272367;8.328058148;7.818036123;-0.42573523
7.852559484;0.167003626;5.149299203;-5.423705069;-2.036886787;-0.354229463;-11.2113097;-27.08909228;-79.33126217;-23.93192172;-89.24508535;-10.96394194;-9.907220262;2.534198787;-1.676977917;12.48082386;5.759223857;6.149503365;-0.485641769
8.440932223;0.725785327;4.611214175;-4.632222987;0.820447406;-0.193203265;-11.50098575;-22.58105936;-72.19909451;-17.58340659;-83.77223025;-11.09828408;-13.97669885;-4.147032958;-10.99488534;9.533537162;2.23506362;2.412725275;-0.504146798
8.120723287;0.024134363;4.295495718;-4.376276022;2.765641712;-0.018645695;-10.69058784;-18.79321984;-65.65659125;-12.47612335;-75.62064601;-12.35077576;-17.19079814;-9.289678238;-15.59452489;4.894606385;-0.692204186;-1.745589317;-0.463965258
7.236340745;-0.950626841;4.736606988;-4.521700777;2.676157879;0.05958707;-9.445464507;-16.99187037;-60.84015466;-9.943433353;-66.61261069;-13.10494505;-18.95187037;-10.30894366;-12.69561749;-0.526526118;-1.794429979;-4.513079678;-0.399554884
6.344423499;-0.991449373;5.641184529;-4.880573704;0.348648156;-0.002565369;-8.764606523;-17.46496046;-58.2585717;-10.02329138;-59.90752723;-12.08606188;-19.50305746;-6.986601113;-3.803536791;-5.975738132;-0.871863352;-4.990132833;-0.367933466
5.722196589;0.240762801;6.012315572;-5.220180755;-3.357170619;-0.149297884;-9.087212015;-19.36835607;-57.60372333;-11.59884667;-57.93498551;-9.308918668;-19.72225956;-1.561325295;6.097469646;-10.78827997;1.069762251;-3.773504234;-0.398723238
5.233329677;1.719264081;4.956833961;-5.04692118;-6.845473143;-0.27311259;-9.954994726;-21.25094134;-57.95790436;-13.2476913;-60.65614768;-6.231156339;-20.50640337;2.628377698;11.55745943;-14.27544267;2.351606285;-2.64;-0.466926298
4.594908154;1.647417;2.500881223;-3.666940549;-8.524235145;-0.301328817;-10.47810322;-21.98419959;-58.28465364;-14.18189851;-65.4371269;-4.903166639;-22.1251846;3.122722256;9.88361614;-15.83926179;1.616793172;-3.454973436;-0.5131988
3.723125849;-1.195372353;-0.319645225;-0.764236904;-7.669067187;-0.248128917;-10.13173923;-21.50203641;-57.94434367;-14.61853055;-68.70235762;-6.644942293;-23.99777874;-0.275909185;2.458328084;-15.32234478;-1.296145291;-6.946382158;-0.495358289
2.802441486;-6.355344527;-2.233044261;2.91189624;-4.936054018;-0.192501473;-9.165818258;-20.8128656;-56.93864965;-15.36229794;-68.22679899;-11.15102795;-25.08582364;-5.539438412;-6.573452355;-13.2997571;-5.172764349;-12.13225906;-0.426732986
2.031130766;-11.75274361;-2.752922921;5.50742062;-2.115687312;-0.205685873;-8.312896272;-21.20827267;-55.72315171;-16.97572706;-64.42590428;-16.63010015;-24.65414601;-9.775909101;-13.13086962;-10.97327115;-8.099857964;-16.81502178;-0.366814641
1.339733096;-14.9447888;-2.569528338;5.030693011;-1.123824837;-0.290700701;-8.118359181;-23.17925035;-54.70403241;-19.2095332;-59.73543456;-20.85557438;-22.85425802;-10.9934084;-15.4952044;-9.604949383;-8.608231234;-18.8683157;-0.370333236
0.422873854;-14.73041741;-2.929576425;0.800043945;-2.76767486;-0.381532325;-8.510252403;-25.83155455;-53.78490233;-21.14356854;-56.60693913;-22.39768748;-20.68220166;-9.153534872;-14.65003906;-9.81330451;-6.563463596;-17.50217348;-0.437962744
-0.884680157;-11.92130111;-4.484540888;-5.742965612;-6.104157431;-0.39780945;-8.950783082;-27.30608211;-52.34078181;-21.91998795;-55.67356292;-21.25884921;-19.30615626;-5.945001561;-12.80865466;-11.22565737;-3.236370097;-13.69466519;-0.512632851
-2.235561812;-8.70486926;-6.586439633;-11.6567992;-8.927942889;-0.30766068;-8.96649037;-26.00501764;-49.69883047;-21.47483484;-55.457696;-18.62159426;-19.22659405;-3.570202895;-11.54124727;-12.76845071;-0.521454811;-9.540019531;-0.52734703
-2.825457231;-7.079344741;-7.691777389;-14.29951887;-9.186325651;-0.150234444;-8.547270052;-21.79413389;-45.78568627;-20.66217692;-53.74770526;-16.0260701;-19.86739413;-3.416416532;-10.95114969;-13.42262351;0.17448178;-6.988336427;-0.464928718
-1.961559053;-7.527326215;-6.623720282;-13.06744779;-6.41500002;-0.00560647;-8.0818115;-16.28818354;-41.39761486;-20.63100086;-49.46566754;-14.57561327;-19.89448853;-5.425522716;-10.27396709;-12.91837328;-1.335129875;-6.818015645;-0.376970022
0.258730755;-8.878983693;-3.684600918;-9.775566282;-2.173766478;0.060025787;-7.948564064;-11.92999591;-37.77872248;-21.90398816;-43.52227826;-14.59321173;-18.04707364;-8.405102321;-9.069952488;-11.87281345;-4.075850346;-8.443533262;-0.342136253
2.758179923;-9.381132062;-0.65843656;-7.350874319;0.904875639;0.033115222;-8.173551545;-10.43775328;-35.72992949;-23.8638588;-38.04077513;-15.74951011;-13.92421899;-10.89998818;-7.830136684;-11.27664266;-6.631421396;-10.52954177;-0.396852061
4.061800504;-8.082355621;0.400323312;-7.773785666;0.86564541;-0.046455961;-8.454092036;-11.68389274;-34.90392575;-25.07169855;-34.67029012;-17.40014118;-8.231245254;-11.99221349;-7.505271145;-11.7150539;-7.992899958;-11.85950796;-0.498706339
3.315560606;-5.471354193;-1.294865048;-10.7678876;-2.218411106;-0.115035273;-8.477389505;-13.79925539;-33.88671246;-24.22710996;-33.39360171;-18.87158577;-2.377688075;-11.60804006;-8.499275917;-12.90344318;-8.011479711;-11.86369141;-0.558359386
0.988657093;-2.962972447;-4.595863027;-14.15882481;-6.255148562;-0.121447079;-8.201629103;-14.44299733;-31.10970799;-21.09336832;-32.73511342;-19.61559189;2.271131257;-10.32828684;-10.12779566;-13.88126219;-7.274285586;-10.60931483;-0.517019069
-1.333535228;-1.747314332;-7.178482111;-15.55880522;-8.52253994;-0.049911789;-7.843770168;-12.36069089;-25.98433614;-16.71976428;-31.06614221;-19.29402045;5.030626035;-8.978392977;-11.07742556;-13.71385443;-6.613666929;-8.504019314;-0.403296842
-1.997586057;-1.956547801;-7.177693962;-14.07126462;-7.484038495;0.076760978;-7.625587179;-8.167405815;-19.42644347;-12.79350679;-27.83444182;-17.84794597;6.111895949;-8.266314197;-10.48218185;-12.17118166;-6.61953863;-6.079383056;-0.315671564
-0.441224318;-2.749494133;-4.469527278;-10.77205394;-3.78171817;0.210435502;-7.554757956;-3.863445728;-13.35036744;-10.57367905;-23.72698574;-15.51848019;6.390439695;-8.557947324;-8.688463893;-9.869569937;-7.400442851;-3.962832069;-0.339010386
2.395481408;-3.117107122;-0.654913849;-7.711809649;0.246752661;0.301356353;-7.454129495;-1.4818234;-9.465639268;-10.14458935;-19.7884302;-12.76069049;6.913094781;-9.756169129;-7.058387326;-7.767864529;-8.606778893;-2.828485347;-0.464514712
4.732988773;-2.659032261;2.182795519;-6.298992771;2.143684473;0.324504046;-7.186254443;-1.825730221;-8.223062476;-10.47758026;-16.42964794;-10.06883065;8.376357963;-11.28251337;-6.977230655;-6.403387403;-9.600523518;-3.097538733;-0.586926681
5.214910514;-1.705636662;2.946698501;-6.318769563;0.891567403;0.296476766;-6.826868511;-4.10803949;-8.632803322;-10.20807209;-13.26651426;-7.818909066;10.76109115;-12.24800046;-8.859252282;-5.465795402;-9.687055832;-4.482142769;-0.590648576
3.845423964;-0.795685143;2.113266226;-6.275764415;-2.564705712;0.269595594;-6.605783987;-6.618655008;-9.021441039;-8.552160808;-9.863184409;-6.221026591;13.25666661;-11.86704533;-11.87957401;-4.068783171;-8.398022741;-5.805132245;-0.45635956
1.925491011;-0.08109321;1.091889992;-4.713843102;-6.07710721;0.300146945;-6.678325315;-7.857116799;-8.127600352;-5.741847052;-6.544246985;-5.361030235;14.55825315;-9.973211617;-14.52487425;-1.55101212;-5.788985015;-5.482147317;-0.292296635
1.065242914;0.76411404;0.993030815;-1.462945756;-7.709030938;0.407290549;-6.963069168;-7.354193645;-5.762503888;-2.747995536;-4.348740302;-5.221426373;13.50549747;-7.300561939;-15.44624548;1.796965199;-2.596896891;-2.553618787;-0.251001983
2.023662437;2.070681292;1.839489548;2.123853135;-6.830144185;0.552605729;-7.211927687;-5.740198627;-2.670849243;-0.568806202;-4.031270315;-5.615446347;9.827100688;-5.227967379;-14.01224629;4.686979311;-0.049690251;2.413794328;-0.39233736
4.213034074;3.625111901;2.784586452;4.100171896;-4.26407611;0.661226315;-7.24257513;-4.172699057;0.154072705;0.384124523;-5.008994718;-6.112618564;4.578358285;-5.00977779;-10.37243593;5.610411968;0.721063875;7.336031218;-0.611820297
