Channel 1 - P4;Channel 2 - O2;Channel 3 - P8;Channel 4 - T8;Channel 5 - C4;Channel 6 - Cz;Channel 7 - Fz;Channel 8 - F4;Channel 9 - Fp2;Channel 10 - F8;Channel 11 - Fp1;Channel 12 - F7;Channel 13 - F3;Channel 14 - C3;Channel 15 - T7;Channel 16 - P7;Channel 17 - P3;Channel 18 - O1;Channel 19 - Pz
1.555637821;-27.70202564;-3.40229502;-19.98140012;-11.6124495;3.98896744;-61.64999934;-52.96864401;-64.12046654;-20.03063059;-41.35503984;-52.53376686;-44.33187353;-26.08352354;3.829315599;14.91039909;-19.85958771;-18.17129911;-19.69
8.007775714;-40.23976058;0.309024376;-31.53929318;-13.52524813;2.218281708;-103.0659233;-105.8756826;-93.41465054;-39.13868442;-53.65497585;-64.72435596;-52.88934679;-34.21891048;7.039069902;20.72156885;-30.03547465;-32.2801159;-21.4261091
12.81299198;-23.49793266;7.210427674;-23.52295652;-11.65416117;-0.059731239;-95.31141199;-108.4277174;-91.99031123;-43.84634768;-53.73163276;-46.78143804;-41.2381378;-23.61674877;9.657345343;24.48553451;-20.07722597;-19.44567038;-13.42271851
15.33783767;13.61055059;15.46768064;-2.453273983;-7.504155733;-1.521609611;-49.70748708;-66.26294451;-67.58965785;-35.15371831;-45.77230301;-9.855223141;-18.3;-1.531587097;11.28313651;26.6;3.848927413;13.42020291;-1.095065444
15.46405079;48.34855672;22.40101958;16.64479239;-3.777634569;-1.548858479;-0.752095291;-12.61682989;-41.41423332;-21.54909203;-38.25443173;23.22335314;0.386468035;17.25782675;12.49834568;27.90276854;27.24325374;46.14698351;7.903034537
13.85433239;60.86576731;26.20756065;21.81873708;-2.373624901;-0.554987626;19.64208565;17.16989585;-32.63125807;-12.58613574;-37.84631508;34.37567764;3.982680677;21.25996446;14.35532187;28.83340721;37.45656502;60.21290255;9.115293925
11.9407121;48.06894812;26.89350627;12.59938752;-3.153898331;0.453189442;4.090147202;10.29435569;-45.68025527;-12.72883911;-45.31113867;22.1641124;-6.573147057;10.1773691;17.24506252;29.163971;31.75258316;51.45378501;3.993238778
11.3747187;24.32;25.86768097;-0.949705426;-4.348495768;0.68707504;-28.26042058;-17.91346003;-69.46551108;-19.77968953;-56.15872471;0.573623364;-20.71921408;-5.880971318;20.20325811;28.47927264;17.76289965;31.29659709;-1.946156359
13.12485566;9.225725647;24.71582485;-7.057139244;-4.158722768;0.116475016;-49.50293376;-39.7642583;-87.89879082;-28.2718762;-64.95142196;-13.2987099;-27.26299204;-14.75110808;21.45426924;26.9062924;6.824408005;16.59380912;-3.734392049
16.81552793;12.70145669;24.19754306;-1.422305115;-2.218413009;-0.640144699;-45.14068672;-38.09707038;-92.66356421;-34.41917553;-69.51809961;-12.22913176;-22.75200753;-11.27724417;19.91705197;25.35921472;5.773843482;16.80744538;-0.564171094
20.85850532;28.90575516;24.13974519;10.43856556;0.216739076;-0.91355382;-23.1531671;-17.89393719;-88.20648256;-38.52187697;-71.85785039;-2.477052417;-12.88886942;-0.172624509;16.41909673;24.98962814;13.21978753;28.49139437;4.259321849
23.39285547;42.86222672;24.06194317;18.84256624;1.395063844;-0.540707563;-4.342183723;1.074170699;-86;-43.35535508;-75.52768083;3.706317568;-6.685392194;8.893438764;13.42181242;26.24843485;22.24595065;40.33856053;6.565669533
23.42676185;43.35552225;23.81583267;18.27408165;0.508497172;0.061809916;-3.737275874;2.447531243;-93.89653031;-50.56545825;-82.16056491;-0.651054232;-8.809366773;9.374621981;13.23863531;28.36182053;26.49752284;43.44068907;4.818682717
21.38428235;31.32831982;23.67375599;11.42162638;-1.725403076;0.314937519;-19.04924438;-13.60482944;-109.7407399;-58.52669796;-90.15089542;-11.87023227;-16.45322316;2.443192312;16.08806144;29.74386441;24.58254132;37.92442385;1.030446173
18.68628738;17.59998491;23.92036144;6.060739102;-3.72929616;-0.010755076;-34.82538241;-32.44730182;-124.0514067;-63.50398765;-96.38302311;-20.03185546;-22.73083162;-5.123080055;19.65841493;29.12238261;19.84101437;31.12696584;-1.350508865
16.7130993;12.89205464;24.4714075;8.024564009;-4.337218879;-0.625953018;-37.16779981;-38.81838753;-128.6761556;-62.91800353;-99.19532659;-18.48452471;-23.05164048;-7.281940033;20.75470333;26.54849481;16.58416751;29.99402147;-0.491082456
15.93508033;19.08467202;24.94978502;16.4232999;-3.599620267;-1.009602674;-25.56257963;-29.67308625;-123.6448393;-57.7255952;-99.86670906;-9.787587477;-18.81229391;-3.641490453;17.87424902;23.49885885;16.44249541;34.8847841;2.47913372
15.81414088;28.75024484;25.13522406;24.87247795;-2.528309371;-0.871895397;-12.03963069;-15.38655392;-116.6001131;-51.81520342;-101.4038772;-3.092628214;-15.54590291;0.95851298;12.6555633;21.94884561;17.70645654;39.9770556;4.770562165
15.44336641;32.49913246;25.29664649;27.19011137;-2.108796271;-0.385979968;-9.512081943;-9.500254154;-115.8545049;-48.95712924;-105.8362338;-5.695434631;-17.62568566;1.28476616;8.905329442;23.07137679;17.60529193;39.24652639;4.500361097
14.33384951;27.20820441;26.01167087;22.45617504;-2.478712614;-0.00779792;-20.26262665;-16.8326382;-123.3946393;-49.9039509;-112.4415669;-16.43982902;-24.37877518;-3.583846321;9.805732556;26.49063282;15.06814009;32.21312322;2.201605306
12.71793086;18.09022426;27.57971708;15.30900609;-2.946278509;-0.066904877;-34.55970669;-30.20772414;-133.7124775;-52.01400071;-118.3736736;-26.72267706;-30.86328382;-9.732284666;15.41758244;30.58779206;11.53636343;24.30261234;0.08935779
11.20692012;13.38916142;29.55961858;11.67199832;-2.751375306;-0.493431532;-39.87443294;-37.73873869;-138.9888283;-51.59086132;-121.0144272;-28.02908026;-32.3037353;-12.20997468;22.45261884;33.5722123;9.449677639;21.79085788;-0.048515552
10.19135699;16.87597955;30.89935313;13.86470952;-1.842189101;-0.904847057;-31.92989814;-33.41301687;-135.7686395;-46.92122279;-119.959109;-19.3072789;-28.11467802;-9.549582072;26.55178774;34.51127338;10.06913501;26.11363731;1.646839182
9.539451028;24.80959868;30.61927593;19.16750481;-0.974056611;-0.953719549;-17.82974552;-21.60511144;-127.4052969;-39.56913189;-117.0260908;-7.851208047;-22.11154407;-4.996120758;25.35369691;33.63321788;12.59339167;32.64500506;3.472409082
8.827502576;29.70285687;28.51654694;22.62872787;-1.061732321;-0.621987718;-9.089301063;-12.27960838;-120.5992709;-33.05756292;-114.500653;-3.130115124;-19.05074611;-3.519010817;20.04080171;31.83334495;15.09060202;34.85946549;3.883921311
7.841713515;27.19279128;25.3237499;21.31233072;-2.365465204;-0.215376097;-11.36606453;-11.98173168;-119.4974167;-30.19762027;-113.3017843;-9.016091909;-20.77345658;-7.392091582;14.2762129;29.9029337;16.12657372;30.02386216;2.880659632
6.865502667;19.84736657;22.21121171;16.33090664;-4.213583851;-0.085191469;-20.11732058;-18.81395718;-122.5850194;-31.24537972;-112.6430841;-20.97519208;-25.26026398;-14.24523659;11.473746;28.10795656;15.60167264;21.42216209;1.807145162
6.487850238;14.73479709;20.063929;11.31811937;-5.486594764;-0.334482466;-25.57733076;-25.24427293;-124.7459308;-34.1636455;-111.2760818;-30.29478998;-29.04989989;-19.19107586;12.53711326;26.34471366;14.33581901;15.39501737;1.879869823
7.112360716;17.13145792;19.11603471;9.15237676;-5.445855006;-0.757477302;-21.9899554;-25.31410548;-122.2044831;-36.46972085;-108.9730965;-31.41789413;-30.47117269;-19.05662308;15.66021225;24.58;13.18433824;16.05403879;2.930831432
8.608144629;25.94250734;19.17;9.953984672;-4.228991186;-1.040622137;-12.58142833;-19.33505218;-115.7637263;-37.00801973;-106.8007641;-26.10515125;-30.66603142;-15.02178647;18.04975871;23.09150901;12.70035955;22.32745332;3.59319044
10.40160852;34.6670042;20.09832331;11.82833989;-2.645304106;-1.027779072;-6.078243874;-12.23970106;-109.6344235;-36.32589426;-105.9635514;-21.21471806;-31.69101238;-11.46633557;17.99266041;22.28558508;13.48528621;29.61010339;2.734460219
11.91074628;36.84435431;22.09805111;13.20054163;-1.490235055;-0.817327592;-8.387295452;-8.001270096;-107.2571592;-35.66641609;-106.3691836;-22.44514894;-33.80137201;-12.12107094;15.67339519;22.30742986;16.42488842;34.09187125;0.7258369
12.93574612;31.22090991;25.43755459;14.33320705;-0.958142994;-0.629266313;-17.20621073;-5.952823912;-108.0924545;-35.68889253;-106.3262633;-29.57546375;-34.72727097;-16.83769443;12.41198775;22.85924796;22.06127039;35.65491532;-0.733117489
13.68845507;22.4112173;29.93864568;16.70662882;-0.595448428;-0.58872103;-24.30595336;-2.458639078;-108.2277446;-36.02601319;-103.7336757;-37.04178848;-31.76543279;-21.63755103;9.338641216;23.43176523;29.39847634;36.87845525;-0.156710215
14.48398318;16.84066268;34.71656576;21.12230062;0.236993026;-0.630580961;-23.09757968;4.152678014;-104.0596605;-35.86676213;-97.7564924;-38.91205073;-24.74675415;-21.888432;6.786813386;23.74147709;35.39325634;39.45958019;2.219214317
15.40850946;17.62329137;38.49653409;26.53505984;1.81380518;-0.598423763;-14.45121359;10.72029175;-95.59;-34.84168844;-89.54365998;-33.73741054;-16.99003906;-15.94832379;4.761399503;23.94440972;36.14289691;41.71731298;4.414258441
16.26089801;22.55247452;40.32046079;30.73947088;3.83368864;-0.423585855;-5.621353028;11.65294736;-86.3903578;-33.35877543;-81.39259952;-25.29437167;-13.1035973;-6.427372618;3.690466544;24.38351888;29.36821003;39.70035852;4.310117167
16.77885471;26.44573753;40.09668965;32.12572498;5.643413967;-0.203156224;-3.545423982;4.486384933;-80.40385679;-32.17605364;-75.10575454;-19.06175526;-15.35808617;1.697454565;4.410570036;25.06263917;16.42192687;30.94089935;1.536542469
16.88610882;25.46490603;38.547177;30.69441468;6.648125445;-0.103790281;-8.754721079;-6.836398173;-78.5575026;-31.71717361;-70.91607475;-17.84287559;-21.7312489;4.419615339;7.194760522;25.33056565;2.066593407;17.34850411;-2.040952555
16.69373989;19.77793895;36.58533461;27.3501771;6.580259907;-0.191183588;-15.27961387;-14.46813901;-78.17631684;-31.78395672;-67.76914606;-20.23884504;-27.36485137;0.949941707;10.75704634;24.12661265;-8.15434842;4.446366995;-3.741047779
16.25068423;12.77064869;34.60905491;22.31461195;5.500336454;-0.356442554;-16.30135805;-13.04568149;-75.55732758;-31.84987252;-64.53074186;-22.79383652;-28.2761882;-6.455776443;12.43034552;20.67607859;-11.21507665;-2.570451615;-2.247373651
15.3078195;8.020678695;32.24654822;14.48080533;3.653346708;-0.414951916;-10.19337098;-4.276248555;-69.25217675;-31.55354243;-60.95037214;-23.3963077;-24.27160713;-14.41828921;9.776084711;15.12113194;-8.213017936;-2.628298057;1.28718607
13.37289628;6.77415184;28.72060485;2.661245989;1.370959134;-0.284548209;-1.563586511;4.52439928;-61.12507019;-30.89209172;-57.56613734;-22.78147713;-18.74114519;-20.35995777;2.534915408;8.582525976;-3.170969452;0.773143459;4.158854512
10.06912277;7.703792492;23.52029413;-12.25792924;-0.931186921;-0.069932089;3.292279868;6.769737609;-54.39695657;-29.99446798;-54.78288791;-23.10692975;-15.67439524;-23.20164021;-6.696669382;2.576759431;-0.06007843;2.707656835;4.291935227
5.51198327;8.523615143;16.86930613;-26.39354586;-2.77726618;0.033616103;2.079223209;2.215645731;-50.60859886;-28.80526473;-52.1026732;-25.35591856;-16.4927025;-22.93066052;-13.81975423;-1.789009009;-0.340001221;0.758373415;1.861860777
0.36936786;7.685136268;9.683824898;-34.48692399;-3.791945221;-0.06799508;-1.834371034;-3.116035057;-48.28532912;-27.07470539;-48.2803136;-28.18510804;-19.25423852;-19.97818657;-15.77977145;-4.266534351;-2.714013305;-3.56487746;-0.960789556
-4.472943015;4.860788219;3.114465868;-33.21181656;-3.942837154;-0.261628202;-2.959292519;-2.547137938;-44.41497044;-24.6912054;-42.27154259;-29.18627828;-20.62731173;-15.08039865;-12.47132202;-5.290936773;-4.904152287;-6.840229031;-1.873362123
-8.380174935;0.39670313;-1.967548626;-23.69274102;-3.651342576;-0.314779937;1.173021138;5.201528571;-37.28594474;-21.99641809;-34.11054662;-27.13985454;-18.7169422;-9.449258334;-6.620610194;-5.414236238;-5.694257845;-7.061434926;-0.318440599
-11.19779798;-5.204856945;-5.226389136;-11.17212293;-3.599177317;-0.087314497;8.048287286;14.88140788;-28.10408618;-19.69982602;-24.95589555;-23.00867134;-14.33655969;-4.630868255;-1.814776283;-4.858203167;-5.52833482;-5.204964199;2.161289445
-13.08441686;-11.1661207;-6.804223629;-1.927360087;-4.295606566;0.323043203;12.88418392;19.35643803;-20.02970495;-18.3904211;-16.32964228;-18.818221;-9.900252271;-1.818722506;-0.218818298;-3.529096233;-5.423472346;-3.815926922;3.296343514
-14.14655978;-16.12868079;-7.114679432;0.351883451;-5.702299236;0.64042193;13.10452019;15.71264714;-15.61984491;-18.05539861;-9.272648643;-15.70221991;-7.219166205;-1.126984407;-1.615724282;-1.395364813;-5.483181235;-4.224257609;1.966293167
-14.24416138;-18.49520552;-6.669361269;-3.80151244;-7.216812315;0.634255303;10.28141716;7.432762659;-14.97420249;-18.05528281;-4.109831175;-13.14600223;-6.243863799;-1.568674286;-4.222762045;1.188084361;-4.542413485;-5.183659769;-0.977701905
-13.16299986;-17.50525319;-5.982279074;-10.85520308;-8.060106495;0.316095612;8.010669216;1.007817713;-16.0757136;-17.62270868;-0.84694701;-10.14937072;-5.677966968;-1.911425892;-6.331955192;3.545211903;-1.307101034;-4.242600761;-3.521437251
-10.98751978;-14.09884011;-5.480553806;-17.0594044;-7.798288708;-0.062925672;8.195778977;0.386660862;-16.76594388;-16.49592827;0.39995065;-7.007459927;-4.582237379;-1.739915473;-7.363219904;5.079857164;4.103935177;-0.480476729;-4.125922937
-8.286714817;-10.51694172;-5.373059637;-20.58557708;-6.617851375;-0.215540762;9.549630633;4.312914182;-16.43012173;-15.17860484;-0.501495326;-5.705380601;-3.293993086;-1.789400618;-7.682680495;5.624496163;9.716352095;4.09519474;-2.796938907
-5.861407304;-8.690252211;-5.54470901;-21.74716745;-5.164481861;-0.04996366;9.613188297;8.538373279;-15.95645337;-14.62848969;-3.167319819;-8.267748537;-2.843050133;-3.234441212;-7.730869315;5.385051002;12.87846115;5.956524348;-0.806011002
-4.191209672;-8.745571078;-5.603472631;-21.76888024;-4.092030404;0.266751361;7.887039196;10.23476885;-16.27803158;-15.62720732;-6.379903789;-14.51135737;-3.614517874;-6.563215192;-7.521769796;4.514496454;12.12607476;3.093552836;0.515462555
-3.02530921;-9.064502035;-5.119312117;-21.55591452;-3.674533419;0.462958785;6.557368206;10.13705227;-17.09638331;-18.28325681;-8.525818501;-21.44774076;-4.740967468;-11.04838086;-7.005152834;2.734368568;8.183112156;-3.069231721;0.778113274
-1.501218005;-7.984112275;-3.924451768;-21.44506201;-3.750285507;0.396117793;7.917140736;10.61491471;-17.05329765;-21.94267394;-8.593448758;-25.20881235;-4.9238073;-15.27263166;-6.756259101;-0.556371397;3.300102352;-8.675870264;0.540671416
1.224845154;-5.618693944;-2.255293862;-21.68598466;-3.979987912;0.16403198;11.26726331;12.19401256;-15.08583217;-25.44569023;-6.882079592;-24.0282967;-3.889038967;-18.19756917;-8.0124691;-5.649067817;-0.443954108;-10.53950092;0.509527133
5.272596622;-3.99083909;-0.610820913;-22.69800535;-4.16080396;0.004475591;12.96273388;12.63870187;-11.50730122;-27.49323626;-4.685778344;-19.68578698;-2.957544075;-19.79047655;-11.68778461;-11.83816971;-2.425655569;-8.626630051;0.811061023
9.785217498;-5.125531636;0.580425169;-24.60165918;-4.337154507;0.080191643;10.17841095;9.896335831;-7.655043492;-26.97751437;-3.077991937;-16.03231302;-3.989719432;-20.68398261;-17.10613868;-17.31093437;-3.363022183;-5.766967684;1.023479942
13.3362112;-8.736042582;1.232012676;-26.54734126;-4.662487562;0.341097742;4.805136854;5.77479581;-4.412129747;-23.29924033;-1.788386682;-15.75121997;-7.535690699;-21.28644182;-21.72029241;-19.88307529;-4.10435671;-4.920262211;0.8365505
14.72020523;-11.7528656;1.595420458;-26.80779577;-5.188498194;0.579368008;2.960484192;5.791316016;-1.092717438;-16.6948599;0.788855583;-18.10259543;-11.89404337;-21.27611345;-22.4231409;-18.2073498;-4.552350819;-6.494202993;0.578466098
13.58772189;-10.48118155;1.981951453;-23.93400836;-5.794577407;0.618986258;9.369570089;14.06736871;4.09370595;-8.412250321;6.312577163;-19.59557461;-14.08686039;-20.00368518;-17.69245924;-12.65855812;-3.728160692;-8.102297069;1.0016175
10.53019585;-3.79844401;2.436746778;-18.12260352;-6.307370756;0.466223641;21.17765759;27.47713366;12.28351523;-0.449862736;14.9056323;-17.01385571;-12.07847968;-17.39201736;-8.926098888;-5.247032965;-0.859069391;-6.907217021;2.483567028
6.640157877;5.351504781;2.641000552;-11.48770679;-6.666304442;0.29053661;27.4577029;35.20675039;22.49502626;5.240932056;24.58098977;-10.20460667;-6.411648981;-14.37482513;0.22187568;1.446156263;3.589336054;-2.366725633;4.427639137
2.921773291;11.68751591;2.149527405;-6.736853454;-6.9519803;0.262180689;16.48996777;25.89247949;31.89670478;7.752072376;32.25160549;-2.291638585;0.131064144;-12.31484023;6.17197862;5.646715878;7.954167719;3.119501368;5.525365606
-0.047386451;11.39112423;0.808975115;-5.169484966;-7.242024409;0.399443148;-14.06849171;-2.4382126;37.72809637;7.756987164;35.63269747;2.771643093;4.572238192;-11.83783807;7.718984715;7.20010669;10.51179913;6.225801175;4.764849853
-2.075119741;4.99019686;-0.954578695;-5.645081941;-7.445243339;0.562812494;-52.59349292;-38.04949715;39.28982963;7.103377289;34.62607038;3.153598798;5.796561206;-12.16570544;6.553936689;7.34164326;10.73258618;5.536943822;2.348246308
-3.117128964;-3.016245144;-2.220817562;-5.463407065;-7.304276979;0.594648479;-79.42108919;-61.67430331;38.31440723;7.611416998;31.19349358;0.1601614;4.97744897;-11.67486397;5.629463301;7.657600336;9.575034622;2.662746804;-0.30815752
-3.121099783;-7.494854705;-2.024265861;-2.508621511;-6.602626424;0.470085449;-79.9139276;-59.61878032;37.43546011;9.869229647;27.91558229;-3.304480039;4.180120148;-9.319330947;6.68973084;8.985664887;8.602862984;0.686366427;-1.560465574
-2.068248296;-6.277916268;0.101456968;3.084583599;-5.40361426;0.318130243;-55.00301832;-33.92424031;38.1196137;12.90855446;26.39792895;-5.237829853;4.486784096;-5.719354559;8.93595186;10.97541125;8.731600872;1.407364636;-0.734605813
-0.095715773;-1.207900151;3.840219008;9.101051555;-4.086495562;0.294441071;-20.85531818;-1.285651539;39.82989219;15.03503058;26.66220392;-5.765052246;5.27707943;-2.919292252;9.861145379;12.51840349;9.677791754;3.87097003;1.430815427
2.49453845;3.965109183;8.274014307;13.06583345;-3.102977463;0.425264906;2.421556076;18.90102286;41.01493713;15.21223794;27.74797288;-6.243491386;5.149540405;-2.926495335;7.524481038;12.65326279;10.49032343;5.438752967;3.431232018
5.397591971;6.80937507;12.42935387;14.16728227;-2.628229864;0.56948314;4.523193193;18.21170817;40.86487273;13.95011166;28.78328565;-7.416379841;3.481524107;-6.192813968;2.378521795;11.27344374;10.5580016;4.328766906;4.167766074
8.492157198;7.779664801;15.83626522;13.72259551;-2.400555069;0.538620775;-9.22439472;3.971168673;40.15337132;13.00906634;29.5644983;-8.545830002;1.138279058;-11.26229567;-2.858814014;9.170039063;10.1136355;1.266341993;3.6820331
11.84572501;9.013339707;18.71665054;13.92940571;-1.911927133;0.27064998;-23.86749846;-8.225005006;40.42820268;14.13694174;30.30833216;-8.327816665;-0.267100446;-15.8268295;-5.20576023;7.440901483;9.803174745;-1.224697892;2.913429957
15.48614478;11.76228843;21.65518843;16.08473483;-0.823726485;-0.097534651;-27.17612958;-7.619227139;42.40310391;17.79545641;31.05481871;-6.542183425;0.21949019;-18.27380665;-3.702724493;6.7249921;9.813158711;-1.163733427;2.780560493
19.1208025;14.98242838;24.97065985;19.77799568;0.721501154;-0.32669888;-18.26442971;3.914266531;45.14850875;22.8254353;31.45346807;-4.628996171;2.178614658;-18.48310317;-0.171781285;6.80048529;9.474344549;1.108089139;3.415675126
22.07702152;16.37599598;28.25103159;23.57261825;2.159248611;-0.261350335;-6.172182556;15.40270852;46.8964907;27.26682558;31.17802658;-4.442679122;4.427794282;-17.37870599;2.148168936;6.798119927;7.792010462;3.325928541;4.169167974
23.58486904;14.81045136;30.44511428;26.35244033;2.909711861;0.051106773;-0.733704561;17.78051858;46.71841757;29.68475695;30.5087814;-6.291496585;6.289067618;-15.84577601;1.029248071;5.85225767;4.441636604;3.437389809;4.286853776
23.23869869;11.72106383;30.52511105;28.04241026;2.822353153;0.405154301;-4.136352438;12.23990046;45.47396839;30.02790695;30.3962756;-8.21649135;8.217791107;-14.08369814;-3.113087827;3.731350777;0.276601631;1.438283157;3.598047038
21.29590518;10.04229641;28.29101191;29.1684667;2.304728846;0.602191581;-10.17580483;8.478582869;45.08301787;29.46957724;31.79566247;-7.429215197;11.13467808;-11.90916648;-7.58896709;1.027466728;-3.200087891;-0.803063099;2.612259662
18.56305666;11.53476646;24.71212267;29.90377716;2.023337023;0.594194769;-11.01501969;14.58582949;46.73814319;29.46672883;34.78319009;-2.815960472;15.09786615;-9.529741045;-9.463469473;-1.20466679;-4.999047085;-1.514823606;2.002310199
15.9234245;14.94611205;21.46979529;29.7070925;2.400783049;0.491443291;-4.772615641;27.90635071;49.69756523;30.78735074;38.24696455;3.708678578;18.66912575;-7.841853304;-7.679455834;-2.099452216;-5.416468555;-0.847210863;1.999388275
13.83902217;16.80807965;19.93293243;27.98126196;3.295256187;0.442095495;2.951878597;35.5399215;51.81258809;33.15147843;40.50428772;8.354584976;19.7619888;-7.807147064;-3.707457236;-1.47770705;-5.680237441;-0.727218372;2.257996052
12.18926195;14.36234632;20.26054968;25.06357649;4.10580994;0.498324491;4.651239127;24.72127657;51.37623361;35.58146195;40.42132581;8.324344568;17.39483429;-9.434963059;-0.31569942;0.139235281;-6.715088875;-2.776784461;2.27519961
10.55717392;8.168854594;21.30759351;22.42658899;4.215965483;0.584181989;-1.830734024;-5.510462957;48.66021544;37.05687504;38.18455881;4.067533766;12.84993103;-11.39390197;0.552980101;1.986606227;-8.084281202;-6.229555319;1.930839345
8.73402973;2.11238299;21.46925;21.67982435;3.433147702;0.581477579;-11.07156461;-41.48556037;45.75719918;36.98849397;35.16120982;-0.956984547;9.126410396;-11.78264815;-0.785170029;3.637795468;-8.079748306;-7.936296525;1.625673108
7.045783295;0.669404031;19.90285667;23.16427013;2.100063477;0.445230261;-14.82041841;-63.87045944;44.84876501;35.32673634;33.01441053;-2.823404158;8.971114928;-9.534920829;-2.016012135;5.271203349;-4.994603895;-4.743163213;1.891145307
6.237564068;5.582251106;17.24301886;25.4586967;0.820635922;0.242123203;-9.327341065;-61.54875358;46.41921981;32.45696399;32.76980404;0.086099029;12.9731709;-5.291507517;-0.535896287;7.411677186;1.392756633;3.657492872;2.84244673
6.983269617;14.56690752;15.25435679;26.40235495;0.036465373;0.083603717;1.350019531;-39.39788907;48.96963348;29.10301663;34.44583539;6.240452324;19.18030697;-0.965071975;4.637726744;10.33634595;9.31449513;13.89401533;3.987942747
9.367430497;22.99183643;15.6339648;24.87755969;-0.220659431;0.023155811;8.906525882;-13.94285722;50.43401264;26.26560559;37.31480406;12.5116883;24.47627881;1.670014648;12.07025503;13.6157011;15.92958465;20.99515193;4.578720341
12.71197728;27.08912256;18.81154492;21.82860793;-0.245260063;0.015371466;7.900311055;-0.707624401;49.99;25.03072219;40.39225977;16.61434311;26.60222178;2.1940093;18.72073704;16.1939782;19.00066518;21.8386596;4.19680142
15.88054214;26.18439844;23.60706029;19.56859693;-0.362633152;-0.028458978;0.097832043;-3.504927425;48.64691483;26.13751165;42.75091441;18.39069209;25.33029159;1.581327238;21.76166171;17.01764518;18.11513745;17.24500539;3.078920165
17.86735697;22.44454219;27.97514909;19.88689677;-0.689333878;-0.145035091;-7.563177869;-13.74764082;48.13689934;29.46868227;43.62;19.13224296;22.12770671;1.121532898;20.19628013;15.77862692;14.63794671;11.09213743;1.918913567
18.29618819;18.73665645;30.27488778;22.53746285;-1.131010902;-0.275793729;-9.240784054;-19.30263892;49.18041036;33.84774382;42.51427173;19.9007091;18.8773187;1.239633412;15.27885627;13.19940188;10.57217602;7.26035473;1.344011203
17.53078174;16.55103443;30.15819413;25.40031309;-1.569434865;-0.316436679;-4.953507918;-14.829119;50.73235546;37.43898873;39.52137906;20.5198839;16.78921743;1.258836066;9.574434039;10.5933244;7.264917614;6.912648842;1.511099792
16.36133688;15.53911815;28.51609125;26.19370239;-2.02611678;-0.213146583;0.202708766;-5.118714276;50.89277396;38.65565221;35.51562769;20.03346984;16.17785259;0.242209986;5.357786233;8.982119601;4.868945439;8.185604935;2.118251881
15.49350399;14.61859991;26.65544495;24.29958286;-2.631361799;-0.017471278;1.240589432;0.473543333;48.63764934;37.07454919;31.90223208;17.9258713;16.86581951;-1.943221886;3.401535867;8.422701952;2.771475256;8.268232579;2.744174139
15.16124493;13.31350922;25.40692106;21.18923738;-3.429360551;0.148915819;-2.1399668;-3.157804218;44.79234234;33.76261267;29.81968776;14.74518608;18.51162304;-4.369321567;2.865154933;8.072256071;0.457510751;5.924657339;3.172368838
15.07446714;12.08069204;24.79750419;19.14709674;-4.223518071;0.186968802;-5.716329679;-12.63992855;41.37558718;30.74555137;29.29351089;11.51452378;20.50799835;-5.84045241;2.235111098;6.963976556;-1.936498273;2.360848508;3.437580027
14.69161689;11.54906062;24.37703867;19.4180016;-4.647741738;0.08953204;-5.192311873;-19.66872839;39.91914013;29.88226332;29.08296028;8.645038171;21.78618398;-5.983013985;0.591319329;4.895402096;-3.731032284;-0.063204116;3.63392388
13.62242783;11.64926268;23.7644326;21.31931973;-4.446231431;-0.067971031;-0.52344603;-18.57189592;40.26717064;31.79044073;27.53794648;5.606196278;21.10167121;-5.595451066;-1.688338286;2.709708343;-4.246449993;0.082105072;3.740759317
11.91545739;11.58195395;22.90501467;22.95691223;-3.733741308;-0.198467448;3.993958432;-10.98859719;40.88487537;35.45099981;23.94713725;1.807868345;17.8755564;-5.916155657;-3.244142918;1.705315547;-3.275017986;2.281280423;3.658066831
10.07296344;10.61598508;21.90627824;22.80830764;-2.986222303;-0.268574821;3.863795363;-3.836482842;40.32319614;38.72517489;19.32373452;-2.195033969;12.92935195;-7.481342413;-2.811203824;2.604119504;-1.15349855;4.844616886;3.389068227
8.792645105;8.84209493;20.74893093;20.79470705;-2.718559054;-0.305735797;-1.248090958;-2.881076551;38.4701816;39.50037322;15.88709536;-4.569396519;8.288050896;-9.632410879;-0.274493839;4.890317218;1.506245928;6.531278849;3.135507313
8.575279619;7.082007224;19.24617168;18.04844897;-3.080078125;-0.354209793;-7.100915963;-7.870309361;36.47691985;36.83893633;15.49866849;-3.600375658;5.926237352;-11.12907683;3.057393494;7.073757577;4.137626215;7.445546798;3.157729589
9.40104079;6.04260609;17.30422846;15.78120509;-3.703354811;-0.431803311;-8.821469813;-13.35363612;35.50327631;31.51077982;18.20525632;0.483250007;6.324306853;-11.29116284;5.17544376;7.715322781;6.366176376;8.473561689;3.507944285
10.64791197;5.585778636;15.16849835;14.3643615;-3.967205178;-0.528206696;-5.490988382;-13.99042405;35.50953526;25.62346524;22.05313142;5.024738532;8.045507459;-10.59344463;4.618746475;6.440501951;7.979456944;9.97340129;3.906952951
11.31804904;4.869956023;13.31278143;13.3687289;-3.502179603;-0.63515484;-1.043310315;-9.290783549;35.23949143;21.54131272;24.38867464;6.573566308;8.81616995;-10.14704961;1.417914621;4.158833468;8.851364715;11.09935452;3.926798233
10.49102735;3.231490161;11.99146215;12.3131319;-2.543626033;-0.763153401;-0.578384296;-3.627418371;33.39993471;20.66569718;23.69218784;3.531866581;7.338335627;-10.55345581;-2.889712963;2.322348028;8.909351436;10.45550874;3.353965612
7.796160951;0.908435237;10.87220613;11.22735774;-1.822404643;-0.916764553;-5.481393628;-1.881776496;29.91300803;22.73219805;20.55485416;-2.380419682;4.369589736;-11.23408284;-6.179753259;1.80948171;8.123587365;7.445539618;2.414029957
3.657269921;-1.156458446;9.179821822;10.43160852;-2.033194996;-1.0526102;-11.89281267;-4.967738654;26.04482132;26.00593474;17.07267966;-7.24357733;2.130014648;-10.92934614;-7.005124823;2.306751661;6.47421335;2.996992128;1.635583193
-0.845453934;-2.275661653;6.342375531;9.825213261;-3.268914122;-1.07531731;-14.02848318;-9.289579811;23.25564736;28.25452638;15.16163251;-7.932679028;2.456608146;-8.978152572;-5.427233021;2.648617428;3.931739701;-1.071627355;1.445061253
-4.45479778;-2.778382863;2.62116424;8.546915797;-4.871905139;-0.898670555;-9.405685838;-10.36807894;21.81020838;27.93061347;15.1042686;-4.639223951;5.186738723;-6.218104346;-2.944792551;1.803588605;0.5374398;-3.484186299;1.831632517
-6.313785897;-3.744765533;-0.875688778;5.53256383;-5.857124767;-0.533043961;-1.264637822;-7.074225862;20.43727622;24.88521582;15.39775104;-0.848382379;8.10264106;-4.611907091;-1.612125791;-0.308575939;-3.413349693;-4.424171461;2.371230374
-6.321458812;-5.872579361;-2.913255336;0.568488858;-5.62304672;-0.119322324;4.014960068;-2.564485127;17.4085369;20.24848134;13.93098652;-0.725272872;8.515845824;-5.801222339;-2.883001902;-2.81404453;-7.242709086;-5.102454377;2.588693851
-5.067435597;-8.547907233;-3.043792459;-5.163331908;-4.42343172;0.139485687;2.225193632;-1.227118815;12.14836417;15.65716632;9.54356959;-5.951427239;5.256477435;-9.752949246;-6.808403385;-4.652883379;-10.02506532;-6.409494551;2.343157549
-3.403902414;-10.11454718;-1.940638001;-9.694486996;-3.228457553;0.113291793;-5.287394349;-4.612727882;6.010399795;12.40374945;2.855722039;-14.45836333;-0.460456448;-14.63420382;-11.97349297;-5.444257598;-11.02129729;-7.946555916;1.907970542
-1.94460769;-9.268618705;-0.824112573;-11.63888362;-3.051921975;-0.15473143;-13.00664262;-10.08673472;1.565507685;11.04870305;-4.069222623;-21.92601568;-5.885568472;-18.04347386;-16.1702586;-5.722714945;-10.1609397;-8.376747953;1.692763827
-0.817707512;-6.399325687;-0.429080022;-11.16162265;-4.22436198;-0.46809996;-15.96;-13.27189978;0.985586983;11.61433122;-8.801884071;-24.72218133;-8.551954506;-18.61056693;-17.46765118;-6.37241266;-8.186516348;-6.792974758;1.870338955
0.194788588;-3.6044019;-0.392663233;-9.654857629;-6.139521804;-0.611311346;-13.49378484;-11.86130659;4.790434029;14.01199341;-9.574045064;-21.98190776;-7.661619115;-16.71433724;-15.17204966;-7.767793894;-6.26513678;-3.818979702;2.242344736
1.287967476;-3.191051326;0.388670641;-8.348283068;-7.654516434;-0.499183366;-8.949248553;-7.299315131;11.80896104;18.2253702;-5.773093889;-15.46952827;-4.151218146;-13.85375093;-10.20340015;-9.365782325;-5.278629264;-1.356684196;2.448318902
2.358342865;-5.812715411;2.718154498;-7.071622473;-7.84688269;-0.226706616;-5.951322926;-3.004560338;20.14367319;24.07632859;2.035659849;-7.776702917;0.325981856;-11.33082045;-4.650329307;-10.09839774;-5.291656153;-1.103520974;2.308656916
3.05244754;-9.794024099;6.276050349;-4.328622025;-6.586100966;0.016598657;-5.022430849;-1.064466669;28.19639668;30.8562543;12.26339971;-0.598430701;4.506768647;-9.39124066;-0.666195767;-9.233563974;-5.598580939;-3.094680716;1.980422238
3.087883464;-12.26569706;9.753167265;1.267905304;-4.539743296;0.095809051;-3.654096434;-0.599099133;35.00478535;37.29277051;22.53806558;5.615448123;7.894114375;-7.449484652;0.727276864;-6.984384039;-5.314753188;-5.552224729;1.790684728
2.55114993;-11.24496276;11.84886965;9.369502293;-2.664128154;0.023607056;0.500855062;0.803408052;39.95296315;42.05016713;30.2205765;10.81289719;10.39493578;-5.024540491;0.205890162;-4.370270527;-4.056065689;-6.215095214;1.916085259
1.882302339;-7.027551922;12.26735105;17.4996462;-1.587841273;-0.071118232;6.657903424;4.206697956;42.51132008;44.45823555;33.31244986;14.53202032;11.85;-2.439280251;-0.355308683;-2.462623494;-2.196043417;-4.063104638;2.216364428
1.52238386;-1.851836591;11.82608647;22.36033;-1.320271303;-0.06269708;11.20416928;7.970560611;42.47515043;44.88668864;31.42592289;16.0788014;12.0087496;-0.656549827;0.78227414;-1.644837417;-0.547728514;-0.037526743;2.378488366
1.509729012;1.782379264;11.5699816;21.91996985;-1.420196938;0.069065292;11.07623221;9.31132817;40.4615328;44.41306594;26.13225717;15.4192423;10.89287874;-0.474472042;3.903764564;-1.472941419;0.220369268;3.755754211;2.231665589
1.391722416;2.735228164;11.68691799;16.71811584;-1.40408428;0.236278632;6.943196329;7.246100101;37.9683004;44.00521947;20.21756008;13.65639114;9.027061273;-1.869715618;7.50053098;-1.199770383;-0.048701008;5.604744156;1.929083736
0.573571084;1.588595791;11.23098068;9.43638908;-1.044151251;0.332434343;2.995050651;3.957968885;36.61740762;43.86299132;16.13484162;12.34096291;7.159185593;-4.06695603;9.25161278;-0.481711091;-1.088850459;5.208006002;1.812077848
-1.159244503;-0.287686718;8.959421911;3.123634477;-0.375705153;0.329169027;3.318129299;3.075838043;37.02762729;43.44711716;14.64932369;12.10349387;5.678041893;-6.184370001;7.704603818;0.32421433;-2.572910426;3.44124928;2.066177323
-3.400960019;-1.953523723;4.576455673;-0.579815949;0.480139346;0.295987886;8.1378517;6.337224645;38.27404159;42.13989942;14.66131778;11.93986884;4.329236884;-7.785505291;3.431720408;0.479533582;-4.355775858;1.300167362;2.477089237
-5.426639437;-3.343631203;-0.742010156;-2.023201806;1.432660034;0.331248297;13.47474258;11.76122732;38.52491722;39.92964092;14.35088751;10.02190165;2.594477688;-8.842386101;-1.266197244;-0.518487097;-6.383209486;-0.916790586;2.517801596
-6.833938463;-4.769923421;-5.086064458;-2.762345189;2.349829135;0.470309174;14.66752105;15.17915962;36.45551197;37.48461326;12.75131701;5.48879496;0.432024842;-9.273080649;-3.972433292;-2.553201082;-8.423947335;-3.501679335;1.715454469
-7.983535339;-6.226739998;-7.251036151;-4.236943804;2.915962517;0.652044066;10.60877784;13.88566965;32.30685903;35.52751206;10.49519446;-0.375608285;-1.363430055;-8.67795819;-3.902709257;-5.018828485;-9.980524233;-6.585349617;0.009866135
-9.794904195;-7.331353318;-7.661477683;-6.927209454;2.655625559;0.768982134;4.794257999;9.138870499;27.68911905;34.06972211;9.140039063;-4.799617216;-1.655124215;-6.685499783;-2.431451096;-7.285940022;-10.55805596;-9.628289868;-2.172268402
-12.96518094;-7.966942536;-7.962217;-10.39894455;1.223260551;0.752753165;2.160357772;5.180489374;24.27388656;32.23314861;9.655771341;-5.663336561;6.21998E-05;-3.631475478;-1.94533296;-9.071920831;-10.08680902;-11.7420321;-4.16564643
-17.20598661;-8.873471604;-9.59854064;-13.88422653;-1.223276021;0.620445743;4.562231635;5.558904251;22.47542468;28.89879579;11.3654588;-3.377005305;2.674890932;-0.827507382;-3.897465974;-10.44010213;-9.082549999;-12.54948095;-5.428522221
-21.17509515;-11.38810504;-12.6005078;-16.78421972;-3.906485448;0.447785257;9.039126392;9.996369044;21.23409062;23.68312794;12.26312422;-0.830997297;4.455666348;0.060342297;-7.614642166;-11.53057406;-8.319145437;-12.70352902;-5.761016836
-23.28606065;-16.3442036;-15.63119827;-18.80591643;-5.769904511;0.300897442;10.49107402;14.59292637;19.05978143;17.40738619;10.48190517;-1.313355059;3.715109944;-1.809658913;-10.84797365;-12.35915915;-8.232086715;-13.46362091;-5.284400658
-22.86058866;-23.0358949;-17.26068058;-19.89551382;-6.114838909;0.189846206;6.345315882;15.19033241;15.40670708;11.61352928;5.721579134;-6.017201491;0.302573112;-5.66693906;-11.65625946;-12.89858008;-8.562089801;-15.62219236;-4.287625192
-20.72972215;-29.26342343;-17.33331034;-20.22992396;-5.086703694;0.07974282;-1.052040481;10.91146078;11.18889156;7.483555593;-0.519080995;-13.14309434;-4.321143007;-9.481136932;-10.09462026;-13.31843603;-8.590349085;-18.73165839;-3.103800739
-18.73343638;-32.62465553;-17.17785737;-20.25661019;-3.615741836;-0.060655483;-6.506991693;4.775821051;8.026317628;5.04589748;-6.058590096;-19.2891898;-8.139069783;-11.29822787;-8.288202034;-14.05643179;-7.815329433;-21.37103454;-2.068601798
-18.40092073;-32.13124673;-18.40421189;-20.53610612;-2.801847199;-0.223917562;-6.60172529;0.94937007;6.924867142;3.330691868;-9.544180283;-21.94185489;-9.985416637;-10.55995468;-8.760571657;-15.53966151;-6.506533742;-22.27982572;-1.480373525
-19.77533216;-28.87356187;-21.29329545;-21.29083943;-3.164456375;-0.373660014;-2.623361436;1.186362343;7.548414667;1.335554208;-11.1303352;-21.04417982;-10.19640132;-8.381642189;-12.32878826;-17.74362807;-5.626115881;-21.39998769;-1.482331535
-21.30832532;-25.18099244;-24.21252599;-21.98217728;-4.307392319;-0.482888335;0.863461939;3.651032043;8.6586894;-1.032660893;-11.86534278;-18.51023528;-10.05700222;-6.607482661;-17.27994066;-20.00782845;-6.118877663;-19.92494026;-1.921168947
-20.97061844;-22.92833293;-24.67520171;-21.43791478;-5.252938589;-0.55766756;0.410553676;5.042267232;9.236617897;-2.858887831;-12.45110294;-16.33792085;-10.60680286;-6.455064611;-20.54589908;-21.36766415;-8.11590525;-19.31361421;-2.347215126
-17.78607365;-22.30985832;-21.27702991;-18.69467543;-5.19558714;-0.621049751;-3.096981827;3.900887279;9.229643016;-3.055668925;-12.54209444;-15.07596822;-11.85248183;-7.84544418;-19.98783861;-21.22044202;-10.70821001;-20.12055302;-2.257734952
-12.6394051;-21.98965134;-14.96440239;-14.02717775;-4.105196846;-0.675554196;-5.428317469;1.954729287;9.288174211;-1.408426375;-11.20908797;-13.90557637;-12.99625507;-9.860707083;-16.00036975;-19.80833118;-12.51329534;-21.62939374;-1.468543295
-7.73719891;-20.41221447;-8.591163637;-9.259208911;-2.726544957;-0.686581632;-3.258625555;2.265432968;9.840270332;1.093885135;-8.109124647;-12.03402988;-13.35133433;-11.77592692;-11.19030958;-18.09784964;-12.62885793;-22.55296332;-0.326270785
-5.123467247;-17.16873833;-5.089853059;-6.859443257;-1.988751333;-0.609291069;2.37645592;5.987667392;10.47533655;2.964724852;-4.24;-9.918301189;-13.02600704;-13.66224134;-8.429911964;-17.11534347;-11.25939753;-22.14088263;0.463241124
-5.367095257;-13.361146;-5.671675805;-8.297936418;-2.289480835;-0.436866585;6.807018335;10.89577411;10.28902929;3.390465499;-1.499773287;-9.085271778;-12.72848837;-16.03049761;-8.85894118;-17.25945313;-9.559979055;-20.73100806;0.324237321
-7.383915519;-10.77525502;-9.379402504;-12.87118861;-3.204525354;-0.223047888;6.109054422;13.20779436;8.890455005;2.874003324;-1.3194269;-10.70488168;-12.90183399;-18.92182138;-11.37957298;-18.1444315;-8.843910869;-19.33095851;-0.735198184
-9.45614534;-10.59847256;-14.16318259;-17.99288395;-3.833384898;-0.052465682;1.086985363;11.1254883;7.08893612;2.781577027;-3.47718996;-14.28688188;-13.04683706;-21.38588493;-13.91099641;-19.08300949;-9.755666922;-18.68832212;-2.078608879
-10.58626649;-12.66526356;-18.43728981;-20.86044333;-3.499132178;0.019285196;-2.99355995;6.795056697;6.516049169;4.136662241;-6.104870455;-17.78879112;-11.9386712;-21.93554724;-15.23421447;-19.76713143;-11.97345134;-18.71088606;-2.88020001
-11.10526679;-15.68311453;-21.82086619;-20.29731953;-2.26058883;0.003584316;-0.923916186;4.715182447;8.4;6.64434014;-6.942252148;-19.13167024;-8.629827872;-19.65871652;-15.8527306;-20.52982638;-14.55358786;-18.70313663;-2.729819914
-12.10279352;-18.11314047;-24.62147392;-17.37953807;-0.858217778;-0.039695758;7.678875609;7.839795286;12.51805813;8.760313802;-4.890643958;-17.81762278;-3.393833399;-15.03815477;-17.21800629;-21.93755951;-16.56065825;-18.10275799;-1.93040141
-14.21765905;-18.99395476;-26.77848661;-14.39016205;-0.158600228;-0.060612079;17.76029914;14.82463964;17.25636209;8.783060837;-0.695284123;-15.22323191;2.232607476;-9.750802814;-20.09582895;-24.06338827;-17.50683206;-16.97166716;-1.242584549
-16.8308706;-18.21797338;-27.41162815;-12.96457358;-0.533436723;-0.064077059;23.09358053;20.98753262;20.76973288;6.133273009;3.695155288;-13.31312653;6.403877593;-5.588301403;-23.56026233;-26.10424555;-17.38407532;-15.79658916;-1.271308389
-18.34617833;-16.28454112;-25.47317428;-12.90741921;-1.629911953;-0.099997571;21.66125689;22.28794751;22.28105889;1.84429768;6.509718902;-12.91496936;8.172507715;-3.377859971;-25.51919964;-26.74464541;-16.43107695;-14.86253813;-1.982118733
-17.33873893;-13.88925077;-20.90466421;-12.57106512;-2.667263189;-0.208284454;17.25827103;18.8682431;22.44258159;-2.091434007;7.194204496;-13.06729985;8.000150952;-2.740412212;-24.33571951;-25.04163722;-14.91810551;-13.88358795;-2.734634193
-13.64894967;-11.65661178;-15.16333451;-10.38996953;-2.997914327;-0.371056968;15.78905666;14.95513768;22.50319785;-4.011402105;6.415536023;-11.98089315;7.213371635;-2.765874048;-20.17269287;-21.14359947;-13.08906866;-12.30524525;-2.804274919
-8.557683294;-10.0570843;-10.50003906;-6.250210624;-2.505153449;-0.518473464;19.61067727;15.07095228;23.06043432;-3.567960594;5.223944258;-8.730609585;6.906894656;-2.91040999;-14.93552799;-16.25923581;-11.17357491;-9.998247728;-1.97076733
-3.926427314;-9.375677216;-8.4772783;-1.579850382;-1.577071153;-0.584736544;25.1810907;19.82706498;23.5126517;-1.759822617;4.182082003;-4.185303993;7.198937389;-3.310555707;-10.87273457;-11.88513634;-9.320407967;-7.624599482;-0.702907136
-0.994436634;-9.644711737;-8.922849843;1.843199717;-0.738928355;-0.563031549;26.33685955;25.10592705;22.68273386;-0.0860049;3.152036351;-0.395442987;7.380019531;-4.319896828;-8.988451361;-8.887192922;-7.453655321;-6.218992025;0.201258587
0.252537621;-10.59270912;-10.18870645;3.314628555;-0.266499314;-0.507649236;20.3112199;25.59855327;20.04086201;0.516019217;1.768362716;0.985374721;6.724056205;-5.811809415;-8.517583624;-7.125415885;-5.227122019;-6.274059957;0.225116603
0.734150855;-11.70670987;-10.50587494;3.677325903;-0.070684895;-0.480106514;10.88332446;19.81738825;16.42910496;0.231226599;0.039235091;-0.118393122;5.218894103;-6.979253811;-7.786060542;-5.846662658;-2.234376338;-7.153502871;-0.487118673
1.326521626;-12.41799997;-9.329555427;4.511134726;0.105174028;-0.489299765;5.465526169;12.17479597;13.62724546;0.133459239;-1.507957022;-2.350555409;3.620009766;-6.858741766;-5.657051168;-4.450132597;1.597015587;-7.454080996;-1.266683932
2.113750427;-12.3217931;-7.61490547;6.76842432;0.383343636;-0.483384883;8.474926036;9.937458632;13.09447795;1.39307851;-2.236164768;-4.133255149;2.844703912;-5.109520503;-2.386066031;-2.977130765;5.726007759;-6.130608134;-1.447182347
2.396541193;-11.33965265;-6.885456536;9.978652984;0.610600993;-0.404066035;16.99737672;17.10995378;14.90740994;4.444611247;-1.951042089;-4.82040944;3.252625874;-2.342295844;0.682238375;-1.978480423;9.117931766;-3.485770206;-0.868048824
1.35792353;-9.796614556;-7.940973434;12.6030844;0.485426443;-0.254197938;23.02684424;30.08194705;17.72678384;8.575499799;-1.092591211;-4.872996505;4.383245342;0.289128407;2.151153914;-1.97594997;10.76224198;-1.15548763;0.013681576
-1.220026855;-8.400465245;-10.2730969;13.16841849;-0.167118082;-0.112743225;20.72565398;38.83254389;19.76963779;12.13522404;-0.42071361;-5.109148362;5.297278998;1.863908947;1.416474349;-3.053634331;10.25650731;-1.005276847;0.454378682
-4.763472199;-8.057689842;-12.58328181;11.25267864;-1.207043803;-0.07544667;12.32452663;33.3370081;19.99189184;13.27545918;-0.488777567;-5.878570432;5.208081597;2.190092773;-1.25839764;-4.926455463;8.039026885;-3.750078125;-0.073408534
-8.330717207;-9.465452898;-13.86326876;7.631649186;-2.233135287;-0.167615046;6.959769461;10.77950172;18.61711105;10.90459866;-1.327857901;-6.92284989;3.954865936;1.697198815;-5.232788452;-7.338126334;5.099114781;-8.367422217;-1.564356884
-11.25135058;-12.59597051;-14.10838342;3.623368551;-2.839621221;-0.30607144;12.69304575;-21.62408072;16.75520604;5.404335897;-2.518077222;-7.888726751;2.081801386;0.973906701;-9.89;-10.31574071;2.377574187;-12.77215266;-3.528818868
-13.46868264;-16.4374736;-14.15697188;0.240956772;-2.882946674;-0.350654046;28.18681175;-50.34223286;15.55947664;-1.323343978;-3.483017628;-8.797153516;0.577990109;0.451830928;-14.55828327;-13.96317291;0.279917287;-15.25065333;-5.31293032
-15.37998094;-19.37752969;-14.93096189;-2.236440378;-2.564361825;-0.210628848;41.48991165;-63.35361146;15.59364183;-6.648072415;-3.730766713;-9.892389721;0.456656763;0.453700328;-18.20917935;-17.96824675;-1.394748145;-15.58975802;-6.443184576
-17.38380547;-20.21547774;-16.78003906;-4.116359629;-2.274433299;0.077906073;37.91828541;-56.90506859;16.73932838;-8.540595995;-2.935658653;-11.0427836;2.30769131;1.344637722;-19.5332988;-21.35805652;-3.133275642;-15.10028264;-6.794602765
-19.51969036;-19.1802233;-19.3903681;-5.854374383;-2.316060678;0.367780827;11.44421885;-36.96320528;18.47825106;-6.711364189;-0.974092556;-11.44007813;5.922617077;3.385354435;-17.64726042;-22.89305791;-5.278424356;-15.57645926;-6.54434543
-21.43028029;-18.05915121;-22.13131388;-7.70295516;-2.700684712;0.500347408;-29.32839059;-14.85165562;20.19200944;-2.799142319;1.960826105;-10.11525109;10.16159599;6.263858042;-12.96693517;-21.92670987;-7.776970344;-17.97919013;-6.005643168
-22.58651242;-19.03239391;-24.38128973;-9.61215554;-3.151234158;0.413361398;-65.66652403;-0.318985343;21.3184619;0.629403713;5.242581104;-6.93615243;13.28223817;8.789990505;-7.405672555;-19.06114444;-10.19997608;-21.75118565;-5.461512101
-22.55726813;-22.84751956;-25.56980196;-11.31251753;-3.297291723;0.176922265;-80.68900009;3.454798142;21.47590399;1.705971279;7.931605022;-3.122089857;13.77524641;9.292732367;-3.46586881;-15.97279424;-11.93963889;-25.15922612;-5.06407023
-21.16510182;-27.7417796;-25.11742827;-12.45975161;-2.918991914;-0.064104179;-70.05257227;0.178990052;20.68079553;0.441311902;9.255494821;-0.593311037;11.35366047;6.689790216;-2.70621892;-14.39249043;-12.4473465;-26.35754969;-4.810097656
-18.52056247;-30.22556193;-22.61816932;-12.79531188;-2.071243983;-0.191115022;-43.6910909;-3.358942441;19.54384383;-1.37472578;9.222350069;-0.505905673;7.430264977;1.475190494;-4.69544477;-14.92799441;-11.45065035;-24.46830346;-4.584414515
-14.99376613;-27.48519751;-18.28699147;-12.29739468;-1.009933883;-0.179510188;-17.92759571;-2.221902441;19.15496854;-1.497353985;8.882344673;-2.173454898;4.566992757;-4.284958571;-7.30523061;-16.61941812;-9.129230504;-20.06276807;-4.256690112
-11.13021614;-19.72980764;-13.23292525;-11.21802801;0.017994501;-0.091571719;-4.399771102;3.86929811;20.53737893;1.18940893;9.890245072;-3.401272529;5.037554316;-8.170353232;-8.19700206;-17.61118765;-6.174326774;-14.83361437;-3.792212117
-7.470895993;-10.54907444;-9.06917577;-9.878353841;0.963743347;-0.014861104;-3.951822195;11.25860463;23.96782863;6.000464831;13.52340855;-2.112904675;9.373327966;-9.033961004;-6.421234729;-16.48149219;-3.599589806;-10.67977447;-3.30582166
-4.307725943;-4.696190149;-6.912034733;-8.27248506;2.003003797;-0.002229335;-9.027360853;15.57936043;28.7107377;11.16099075;19.78697731;1.997589793;15.94062363;-7.771597651;-2.955175778;-13.25695517;-2.264880763;-8.687525479;-3.000910754
-1.543325204;-4.74669144;-6.500110665;-5.808774844;3.372990901;-0.054470968;-11.31998269;15.00438769;33.47701988;15.29258756;27.26425083;7.160859886;21.96;-6.556259818;0.158735658;-9.372297685;-2.323922132;-8.534836038;-3.01421664
1.153779814;-9.164188163;-6.28643487;-1.5784203;5.132716051;-0.142334305;-8.025798084;11.34833283;37.32452024;18.46280202;33.86833142;10.86050252;25.32576258;-7.08816013;1.334059914;-6.634549407;-3.004063843;-8.677260824;-3.280558289
3.91072812;-13.40404397;-4.655365408;4.819991678;7.023920412;-0.234323729;-2.282521294;8.503854002;40.28273527;21.95979564;37.99261608;11.70875829;25.92706038;-9.254779576;0.439447429;-5.989896428;-3.019502004;-7.308644306;-3.546941227
6.243017104;-13.36436939;-1.40527685;12.44696751;8.550144063;-0.304468756;1.244391342;9.521182719;43.14870353;27.00847774;39.26835149;10.32453208;25.489319;-11.2984775;-1.388744142;-6.997321549;-1.481995554;-3.62697968;-3.560603367
7.099531348;-8.566816912;1.776081672;18.98235036;9.24203537;-0.325155743;0.935161946;14.45963004;46.58591786;33.51719605;38.45420234;8.535791645;26.05555357;-11.3542378;-2.790842981;-8.328718754;1.291610863;1.375144555;-3.299490054
5.505882344;-2.543972338;2.442653095;21.83571276;8.940780001;-0.268881416;-0.99207485;20.47526816;50.288386;39.91307779;36.64790231;7.671771678;28.27958805;-9.07472145;-3.134914696;-8.825892735;3.746198328;5.240203253;-3.043740146
1.442803416;-0.062678853;-0.591860771;19.83076722;7.907954137;-0.129883266;-1.438932645;23.96668036;52.96929821;44.21489767;34.48617387;7.46611259;30.85543709;-5.986028195;-2.65549935;-8.272738573;4.013839715;5.488756997;-3.187949343
-3.727415436;-3.342160955;-5.943299588;14.22299153;6.681537667;0.052836091;0.238024504;23.13759424;53.25323423;45.46307353;31.92040456;6.502233771;31.5207113;-4.291257305;-1.866058039;-7.344050649;1.242722815;1.34871607;-3.906576407
-7.76731164;-10.26534637;-10.25760415;8.092655654;5.768194016;0.201976629;1.753941368;19.0913326;50.75843112;44.33469388;28.62559352;3.73159098;28.83986083;-5.145691578;-0.957479063;-6.881421735;-3.633679214;-5.43386074;-4.93575073
-8.818865124;-16.00228613;-10.47245235;4.32790933;5.369564728;0.246837017;0.452763673;14.72646473;46.44939545;42.45499514;24.58442708;-0.36391038;23.3753848;-7.847642612;0.199528352;-7.150304542;-8.335670791;-11.43086928;-5.679499863
-6.591264799;-16.72747778;-6.109794993;3.597453563;5.308694276;0.177211641;-3.842176541;12.39499287;41.92800529;40.9968573;20.30657386;-4.058672057;17.35870049;-10.57223572;1.508257894;-7.67233967;-10.66467994;-13.62184583;-5.605894858
-2.610479253;-12.45558205;0.177536691;3.884114853;5.179113161;0.059604186;-8.504483167;12.21071116;38.22627957;39.73411693;16.52084133;-5.887853359;13.15507768;-11.94538183;2.211839741;-7.705001232;-9.927199778;-11.36329847;-4.653859107
0.707144596;-6.795798732;4.303203449;2.037073213;4.593183071;-0.00603016;-10.54049567;12.31284315;35.09575266;37.31574803;13.6528845;-6.013737386;11.72435578;-12.07204347;1.166117711;-6.916289463;-7.317522186;-6.82422726;-3.33124158
1.526328771;-3.966926581;3.466246241;-3.785826947;3.363448778;0.03860316;-9.36010499;10.75172976;31.37628775;32.50693233;11.56116839;-6.186157495;12.20963249;-12.17390783;-2.260679584;-5.692912143;-4.980462279;-3.514650329;-2.40152577
-0.437620738;-5.598711772;-2.116024637;-12.67826856;1.530319929;0.161922801;-7.226677364;7.3128373;26.11928503;25.35745957;9.742027999;-8.261035256;12.84768729;-13.25134851;-7.411110882;-4.868980301;-4.468656198;-3.929991725;-2.371688816
-4.106314394;-9.881756617;-9.682551549;-21.69019931;-0.725256617;0.262927371;-7.018339492;3.681355507;19.51338877;17.3456606;7.796245549;-12.52978747;12.38025575;-15.03505729;-12.45908981;-5.139446987;-5.755057754;-8.010223161;-3.157633366
-8.133003454;-13.55983982;-16.11264364;-28.10604146;-3.178216315;0.248201147;-9.481706759;1.827233601;12.84489851;10.4039377;5.750414678;-17.31649371;10.85542674;-16.18954709;-15.5067007;-6.63248447;-7.501757829;-13.5008245;-4.178156567
-11.96280379;-14.88429587;-20.05517544;-31.44399952;-5.5930809;0.10674134;-12.57045157;2.095813693;7.548173641;5.629607345;3.995566271;-20.23158532;9.307317876;-15.56817935;-15.89130491;-8.924549076;-8.289274741;-17.84509543;-4.804501664
-16.00067665;-14.96635676;-22.41344264;-33.55594865;-7.710461813;-0.075989391;-13.43049254;2.792193575;4.151480877;2.69420381;2.955260413;-20.05688361;8.731463239;-13.35463327;-14.67585281;-11.39901524;-7.777609079;-20.07528894;-4.822008821
-20.81477641;-16.47092608;-25.00622159;-36.78447705;-9.253485324;-0.176032069;-11.10422828;1.723581052;1.974910816;0.356608066;2.79877209;-17.69909681;9.262612307;-11.02583242;-13.87767896;-13.61062475;-6.881895637;-21.23295253;-4.555324354
-26.13106082;-20.92381932;-28.6750919;-41.74749955;-9.991489322;-0.116526038;-7.415073468;-1.649215463;-0.219213833;-2.400083008;3.411995725;-15.43939182;10.17166626;-10.13918767;-14.96995858;-15.39345835;-6.886645431;-23.08417286;-4.571676315
-30.55221884;-27.04257467;-32.43148056;-46.61665202;-9.824679373;0.082518652;-5.265808608;-5.454554715;-3.199157948;-5.527429973;4.564998063;-15.13046609;10.55575821;-11.01641942;-17.77724205;-16.72258165;-8.287146855;-26.29315839;-5.20042603
-32.31453856;-31.5326813;-34.25250731;-48.48772784;-8.816318966;0.322956876;-6.00952858;-6.871343614;-6.682034616;-7.97151995;6.049473171;-16.83232732;10.05718966;-12.50383061;-20.60367609;-17.54338669;-10.32948054;-29.63301932;-6.240833662
-30.50657052;-31.63369026;-32.74042702;-45.68918284;-7.140715612;0.495597176;-8.351009065;-4.604590548;-9.581400775;-8.492759201;7.648709007;-18.95110722;9.02500595;-13.03708543;-21.5;-17.75361643;-11.59959152;-30.91279969;-7.077104622
-25.76547866;-27.24226584;-28.22724954;-39.12034641;-4.996058686;0.543629896;-9.720768918;-0.131624401;-10.77781952;-6.555238692;9.030460392;-19.66528417;8.080810614;-12.07790176;-19.72467778;-17.32887816;-11.13210757;-28.8415085;-7.107360592
-19.88217899;-20.88454669;-22.48934589;-31.56983105;-2.56686479;0.481345029;-8.726512493;3.532727979;-9.76288713;-2.644085917;9.768077154;-18.40058816;7.549666755;-10.65437844;-16.33274682;-16.43151123;-9.1093569;-24.24962383;-6.164130754
-14.63012172;-15.68042414;-17.44693008;-25.66889104;-0.067386897;0.366008265;-6.339859467;4.565429184;-6.745038456;2.107869089;9.567727968;-16.17889948;7.256589885;-10.5210157;-13.49933719;-15.37465083;-6.609690504;-19.60975692;-4.624999817
-10.74156013;-13.07661184;-13.99679587;-22.21512796;2.199036014;0.252969461;-4.763374877;4.094908483;-2.329041178;6.583496992;8.533738427;-14.68294317;6.799722078;-12.65986572;-13.10446071;-14.47437536;-4.679727471;-17.20336819;-3.151749389
-7.790542514;-12.16685673;-11.85978042;-20.16743689;3.870500498;0.166574674;-5.164988188;5.252087852;2.813019396;10.11780915;7.197767553;-14.9260592;5.98441176;-16.40835906;-15.58627703;-13.93500246;-3.544617539;-17.40335069;-2.262948599
-4.965399475;-10.95297543;-10.35016338;-18.1042268;4.682286344;0.097995485;-6.517890002;10.18739811;8.008038334;12.48905237;6.205842029;-16.62401914;5.009948468;-19.94036249;-19.79421502;-13.85924446;-2.596126533;-18.46044575;-2.042843608
-1.995263333;-8.284792448;-9.20270575;-15.70641741;4.652290859;0.019678398;-6.671067996;17.69763355;12.49367808;13.6415087;5.867782421;-18.64794657;4.276032363;-21.65739656;-23.81566958;-14.31784451;-1.096289651;-17.97198524;-2.164582681
0.567030564;-4.81773879;-8.678226187;-13.93160077;4.131588088;-0.09795865;-4.594986897;23.75395088;15.47736137;13.47815447;5.937785718;-19.99865408;4.028191842;-21.29981742;-26.10198965;-15.32868812;1.070876552;-14.86868895;-2.171424689
1.888731801;-2.349781549;-8.955083657;-13.82916653;3.631681906;-0.272520616;-1.594585551;24.70110614;16.45900211;11.91444043;5.837260103;-20.40383644;4.171452794;-19.89443735;-26.12608312;-16.69212901;3.263801762;-10.35890937;-1.794449956
1.675136695;-2.317561595;-9.530412929;-15.21268201;3.518052451;-0.496727946;-0.256127246;20.40003906;15.58228312;9.117227255;5.164568818;-20.11909107;4.387703218;-18.70205604;-24.25622145;-17.8278861;4.650184741;-7.109650673;-1.09584687
0.491425874;-4.794974863;-9.340849066;-16.51345772;3.792107554;-0.730117177;-2.063646987;14.4457133;13.64902562;5.700484387;4.075999909;-19.29541395;4.410319303;-18.16615246;-21.13139835;-17.85417445;4.937233632;-7.317290941;-0.37949335
-0.711006291;-8.685823188;-7.60582599;-16.0192181;4.142732315;-0.906786768;-5.918066562;11.11486249;11.68670551;2.692786384;3.206581003;-17.63054798;4.2025232;-17.76947258;-17.12462815;-16.00675365;4.600009766;-11.13769717;0.024427961
-1.434571512;-12.68295662;-4.668636088;-13.39692435;4.246188024;-0.965942336;-8.978632646;11.7192604;10.36846191;1.241846891;3.171805083;-14.67181054;3.919255633;-16.81451594;-12.30790112;-12.1968538;4.407519816;-16.60831071;-0.065404143
-2.072033912;-16.03746985;-2.036557862;-10.10329034;4.086274843;-0.892351531;-9.083071109;13.75736938;9.743970413;2.15469287;4.041560464;-10.46550452;3.742581249;-15.29744253;-6.870888191;-7.304996746;4.677180186;-21.0347832;-0.643964915
-3.514105151;-18.61302344;-1.473454485;-8.265309792;4.032470296;-0.736545568;-6.529319736;13.80664959;9.473499301;5.446182209;5.209121831;-5.896479276;3.760539313;-14.0074595;-1.56193093;-2.910600538;4.929957835;-22.76411195;-1.594948541
-6.230599893;-20.51308329;-3.79906225;-8.974529708;4.5950557;-0.591109341;-3.607892039;11.5267491;9.30440095;10.10461093;5.765148256;-2.33666104;3.961367112;-13.75735284;2.310636469;-0.531809167;4.267364781;-22.09092942;-2.778307039
-9.608736627;-21.89605431;-8.303813849;-11.45404632;6.034512147;-0.531571771;-2.386186541;10.74650137;9.320468754;14.2715444;5.092783198;-0.841274363;4.275609555;-14.49657405;3.448744171;-0.823284799;2.164882102;-20.7789904;-4.051989363
-12.15142434;-23.16509828;-13.19597438;-13.77351956;8.126307209;-0.563520463;-2.867681031;15.95874685;9.737409227;15.90716223;3.246301567;-1.523020279;4.576492436;-15.18842871;1.389384148;-3.251216107;-0.983284072;-20.68843057;-5.234810579
-12.44506646;-25.09406106;-16.70178806;-14.42627563;10.26494807;-0.619950677;-3.247440494;26.85887837;10.48454218;13.7466445;0.868363405;-3.56834642;4.654311779;-14.63114497;-2.982752819;-6.456726459;-4.02614743;-22.53159937;-6.085533626
-10.17661874;-28.39053131;-18.00553519;-13.37121244;11.82549398;-0.616249368;-1.946616743;36.0083308;11.04846085;8.07417584;-1.243808791;-5.823170325;4.271396079;-12.51937746;-7.664492391;-9.051432805;-5.800303765;-25.54033053;-6.364228271
-6.425720695;-32.83947732;-17.45068529;-11.69782879;12.50455432;-0.521814683;0.619922574;32.74023107;10.81313602;0.79138573;-2.590561914;-7.458809499;3.348281572;-9.7916143;-10.47684058;-10.31138856;-5.872271891;-28.11109606;-5.962992006
-3.009518377;-36.84749911;-16.04669943;-10.3547494;12.39614856;-0.389217489;2.340699264;11.25635448;9.627028457;-5.412542482;-3.166446978;-8.263164976;2.162793179;-7.923967665;-10.2016498;-10.34954344;-4.72616085;-28.86777126;-5.01179453
-1.360319086;-38.11193551;-14.77923466;-9.204393994;11.78671171;-0.313612734;1.552877409;-23.26072375;8.048261973;-8.410824591;-3.363642493;-8.485153903;1.343194501;-7.759247157;-7.20667071;-9.749066857;-3.308738352;-27.43;-3.855675386
-1.722480964;-35.19184033;-14.18258133;-7.290019531;10.87992151;-0.353323517;-1.045185469;-55.99329355;6.962705338;-7.717499476;-3.728352749;-8.503972829;1.550078125;-8.869630492;-3.134798843;-9.012842582;-2.333606042;-24.48487751;-2.881976507
-3.165915231;-28.7877178;-14.26387158;-4.005207517;9.695021129;-0.477841584;-2.68721394;-71.3013629;6.845114508;-4.608029504;-4.718160904;-8.614873642;3.011148081;-9.981118178;0.166483775;-8.254118334;-1.870463616;-21.23361246;-2.29551923
-4.303248831;-21.53751253;-14.59040985;0.025951948;8.202629032;-0.589201342;-0.955808849;-62.97706652;7.311579979;-1.212928031;-6.500917591;-8.985038195;5.261592056;-10.06520379;1.776239846;-7.300127485;-1.452462145;-18.62100141;-2.001563997
-4.150058594;-16.27644729;-14.40367607;3.283418067;6.536003086;-0.601286635;3.85752433;-38.31344376;7.411532241;0.785146372;-8.787671281;-9.636319923;7.347451668;-9.147114724;2.130950426;-6.035160267;-0.5163306;-16.81215989;-1.699729482
-2.577801653;-14.06261125;-12.84576481;4.656698842;5.046742408;-0.510878463;8.742329203;-12.79269286;6.467774012;0.974754543;-10.76940112;-10.35970132;8.405981955;-8.165929493;2.476850223;-4.649661706;1.203218682;-15.20153691;-1.142902817
-0.185795155;-13.59779764;-9.425279017;4.503587636;4.12209273;-0.399141363;10.51346056;0.673543519;4.753463383;0.089603242;-11.31249854;-10.66546058;8.218748733;-8.069999821;3.771610008;-3.587951943;3.563948726;-12.93193451;-0.3789557
2.180029297;-12.57175566;-4.577445051;4.403242566;3.910482247;-0.360717;8.698462101;-0.119358008;3.381445311;-0.806310002;-9.486440971;-9.953519344;7.321065447;-8.978109585;5.872650351;-3.261205951;6.148462233;-9.605104592;0.218915576
3.890768215;-9.814637776;0.144749435;5.728064622;4.202458056;-0.4203398;6.091071801;-7.013750561;3.434596779;-1.099656074;-5.228390268;-7.910650399;6.580889425;-10.12770787;7.631291844;-3.775778822;8.443853884;-5.722555009;0.187261322
4.745532935;-6.403013257;2.65706035;8.291321626;4.589822111;-0.509162823;6.320486293;-9.401457649;5.032987225;-0.815209072;0.297256703;-4.863412812;6.572145387;-10.60119992;7.807065784;-4.885586033;9.9497718;-2.518993564;-0.675103771
4.920500845;-4.737225574;1.574332233;10.34197158;4.782469787;-0.522704566;10.52837892;-2.968442443;7.126115213;-0.251389337;5.035298666;-1.744418981;7.221210853;-10.14434698;6.063275125;-6.177365116;10.25789904;-1.227532195;-2.096691616
4.773163169;-6.375735966;-2.689778214;10.00852551;4.81626578;-0.411929167;16.17579702;7.660146181;8.216055488;0.415450173;7.044925781;0.401697586;7.972348114;-9.358686914;3.231247914;-7.324468904;9.189056786;-2.237624032;-3.446067456
4.614701509;-10.5250691;-7.862410655;6.968402707;4.970956357;-0.229411024;19.17219848;13.91748295;7.447378838;1.108075851;5.623493714;1.0436588;8.295231907;-9.150039063;0.619337541;-8.231380914;6.952194808;-4.759041448;-4.11988112
4.522147431;-14.53362543;-11.06603265;2.849672355;5.46624225;-0.090174832;17.50805575;11.13668703;5.197176271;1.481269746;1.794253131;0.430085449;8.099464111;-9.974598242;-1.066069546;-9.014176036;4.159144811;-7.304731201;-3.942902615
4.260537852;-15.98488338;-10.6615351;-0.05124212;6.201866103;-0.079748413;13.11831242;2.423668494;2.71686892;0.731448362;-2.249800586;-0.727099007;7.733915129;-11.55123972;-2.277302817;-9.887984765;1.576120125;-8.705582428;-3.284548148
3.391192789;-14.57813236;-7.382021657;-0.654332;6.779162371;-0.187235743;10.20961565;-4.457562963;1.153079822;-1.996757146;-4.448759898;-1.888544832;7.619370178;-13.22895195;-4.161505637;-11.05470916;-0.279980163;-8.913796085;-2.788384447
1.571839;-12.18062826;-3.859030094;0.07938874;6.805816827;-0.319510734;11.47128534;-4.063976864;0.750976995;-6.783184868;-4.076667356;-3.098903535;7.864639674;-14.58662658;-7.429962067;-12.61767108;-1.395841163;-8.94288303;-2.895501814
-1.097074515;-11.06360306;-2.793749882;0.155007596;6.240824734;-0.38278628;15.58245023;2.168971376;0.840430989;-12.39786598;-2.033261453;-4.823547512;8.197471023;-15.67200796;-11.5064004;-14.497132;-2.12173636;-9.932872477;-3.506098113
-3.93578793;-11.9373661;-5.063121499;-1.461022515;5.49078371;-0.360499615;18.34805976;7.668307655;0.532293122;-16.69371074;-0.056114711;-7.369749022;8.239168036;-16.686802;-14.71886901;-16.353046;-2.710279667;-12.04981685;-4.034300564
-5.939661885;-13.53964802;-9.14244622;-3.624701207;5.161787252;-0.321202219;16.53081258;6.951046407;-0.501481403;-17.84039971;0.548841191;-10.42624118;7.84603131;-17.49175125;-15.4635279;-17.59815741;-2.920542991;-14.13118877;-3.826913841
-6.342828974;-14.08906361;-12.26225096;-3.736663687;5.643084705;-0.352131897;10.9261061;0.62561062;-1.779831037;-15.54211695;-0.261092723;-13.15543806;7.200152402;-17.49051064;-13.45180586;-17.59325983;-2.078653948;-14.45;-2.647600232
-5.142332757;-13.20544403;-12.42659441;0.088064053;6.827126845;-0.478717007;5.804232748;-5.285493082;-2.406735409;-11.26383644;-1.426200667;-14.78264562;6.579359113;-16.08124998;-10.03723812;-15.99756351;0.373853056;-12.07556933;-0.877492499
-3.198019886;-12.47567004;-9.799768951;7.175165134;8.158361969;-0.64107295;5.103278237;-4.967827398;-1.695225117;-7.208780341;-1.731503668;-15.18288513;6.038427505;-13.29507099;-7.321964538;-13.07736381;4.256271353;-7.776157747;0.709756722
-1.789630725;-14.09128332;-6.486633477;14.34477822;8.952920164;-0.746916852;8.792661129;1.789695292;0.490745254;-4.792154909;-0.768065712;-14.96387394;5.317452058;-10.01371139;-6.705302184;-9.718488464;8.495706575;-3.705800279;1.432890298
-1.898642189;-18.76487602;-4.960068359;17.91073655;8.749707236;-0.752413585;12.82077938;9.341511826;3.844639643;-3.798162188;0.81314574;-14.98067412;4.086227683;-7.498325652;-7.976472027;-7.041260235;11.65913132;-2.040521973;1.104818978
-3.686253371;-24.82165939;-6.36086796;16.1009016;7.473371784;-0.698258026;12.87487259;11.3068647;7.927036302;-2.878758485;1.880941295;-15.6992078;2.322104497;-6.564367572;-9.614669663;-5.801631478;12.83283854;-3.551503428;0.086795072
-6.491750653;-29.32914345;-9.886132283;10.0672503;5.367074543;-0.668751583;8.611023013;6.408566222;12.32472213;-0.960607939;1.714537676;-16.92740269;0.478715163;-7.059715086;-10.00679675;-5.959763012;12.1989002;-7.153712913;-1.006341531
-9.292823663;-30.30812615;-13.56905278;2.831606393;2.821288857;-0.710560783;4.351722617;-0.322623677;16.56501846;1.624839326;0.487950911;-18.08142082;-0.741138003;-8.055537319;-8.603793317;-6.725048958;10.86603951;-10.70744412;-1.709510037
-11.25865649;-28.11227442;-15.70420326;-2.852785965;0.248994659;-0.784187487;5.290739562;-2.166313676;20.00670297;3.246820432;-0.98746424;-18.68454639;-0.871894731;-8.566262306;-6.152687789;-7.066110305;10.08778221;-12.4004889;-1.934227701
-12.02681822;-24.8307505;-15.80293909;-6.015183228;-1.952720987;-0.792859302;12.41651342;2.982419885;21.96971844;2.251109649;-1.980296187;-18.63327252;-0.070123663;-8.200230131;-3.929742539;-6.33808074;10.47195433;-11.6692025;-1.899188718
-11.61633149;-22.34765178;-14.4833414;-7.358019833;-3.429932715;-0.665475756;20.88370921;10.44312391;22.09801844;-1.626901019;-2.38768381;-18.03613623;0.907902133;-7.25364671;-2.685990219;-4.593955567;11.76047795;-9.094955772;-1.874384948
-10.18966594;-20.85876459;-12.60478816;-7.966953984;-3.965140344;-0.42212642;23.81190975;12.95672397;20.65833409;-6.854099089;-2.672344378;-16.86055313;1.153319156;-6.268099441;-2.16606306;-2.390763283;13.26435822;-5.590994261;-1.96372246
-7.939668108;-19.15029777;-10.49252443;-8.180814063;-3.606788865;-0.164594555;18.6302506;7.723160642;18.47227626;-11.01484271;-3.281803739;-14.80170897;0.194125876;-5.50934156;-1.504489432;-0.288952805;14.50235736;-1.712279966;-2.081042
-5.177855111;-16.2664506;-7.882772463;-7.600949216;-2.708288257;0.001925019;10.35932893;-0.135468109;16.4828735;-12.315814;-4.07706597;-11.55496504;-1.65098592;-4.82126755;-0.059099438;1.533841968;15.47013974;2.334547565;-2.098606458
-2.452314606;-12.89315401;-4.517647777;-6.028557479;-1.777114159;0.051154947;8.29468424;-1.315805894;15.28110165;-10.53678047;-4.279388666;-7.259208377;-3.372907232;-3.91164986;2.057811171;3.254811517;16.34955066;6.15060434;-2.015310228
-0.47254402;-11.06440809;-0.761010902;-4.228848353;-1.182491738;0.054214142;18.04106862;9.320301129;14.94786221;-6.812455567;-3.005199079;-2.67935095;-3.75986893;-2.72855409;4.138851543;5.026937265;17.00171821;8.776407035;-1.998827674
0.188405042;-12.39191809;2.361680518;-3.62810651;-0.91300916;0.120394403;35.23770603;26.7617278;15.27128147;-2.598836959;0.029911547;1.097966815;-1.989493599;-1.546955299;5.485446029;6.613147238;16.7906447;9.029984741;-2.275196774
-0.600433321;-16.44678001;3.757526437;-5.119777305;-0.577015202;0.310672938;46.69897451;37.79407142;16.06421386;1.247304617;4.200299812;3.258037899;1.986401294;-0.704575407;5.870227802;7.383878201;14.9738797;6.378276254;-2.961848356
-2.479796201;-20.85110163;3.000494411;-8.073547112;0.322660196;0.594528933;39.15508727;30.17811402;17.25620599;4.602775214;8.306047374;3.687203056;7.431018146;-0.273452606;5.492749024;6.711091205;11.3547201;1.583204552;-3.972128907
-4.868493279;-23.11302961;0.607884393;-10.54855859;2.012933221;0.881372331;9.556355472;2.305891189;18.71046935;7.535834821;11.30564332;2.919534684;13.14474912;0.002229967;4.587609505;4.441764587;6.610146318;-3.541700106;-5.052602402
-7.3292755;-22.64589013;-2.343593257;-10.67765149;4.232449813;1.094815423;-30.93164031;-34.22856403;20.03603641;9.775992207;12.8997442;1.680911261;17.9282654;0.452138295;3.158396359;1.052618453;1.954858398;-7.206683388;-5.916263924
-9.726866948;-21.20719162;-4.932094197;-8.135453677;6.325935568;1.225273648;-62.82787013;-61.47105613;20.6961503;10.76919125;13.55595744;0.416365668;20.96542479;1.174359714;1.131851741;-2.650180777;-1.631667634;-8.770453312;-6.381045325
-12.06924808;-21.37071705;-6.878924275;-4.470727732;7.590627045;1.319833308;-70.42898795;-66.54270606;20.40811784;10.2502389;14.01032233;-0.848388025;21.99007813;1.983500461;-1.246413609;-6.038576778;-3.999646652;-9.045031975;-6.438582136
-14.22869094;-24.36344712;-8.490247854;-2.000038147;7.650187263;1.42480619;-51.69287676;-49.45229523;19.48368659;8.726609353;14.67720337;-2.271346749;21.23753835;2.653712344;-3.243402047;-8.955629691;-5.767962953;-9.555274774;-6.232585363
-15.86609136;-29.11841751;-10.19707356;-2.138175091;6.631149974;1.53583968;-19.03556903;-21.99328707;18.7323803;7.331338359;15.4378347;-3.840155501;19.28511354;3.198701218;-3.977668843;-11.5647549;-7.682322995;-11.35880378;-5.973727033
-16.69581425;-33.27529708;-12.13576439;-4.478945373;5.063552544;1.600063477;9.25402199;0.818957821;18.90921861;7.08737862;15.9413824;-5.198243966;16.89826456;3.892204507;-3.047627847;-13.9242317;-9.952120728;-14.35003906;-5.837253262
-16.88144833;-35.14388855;-14.11374713;-7.289705816;3.60130712;1.566287031;20.65929195;10.12329723;20.11957528;8.175663991;16.11959498;-5.75609144;14.9179484;4.991224242;-0.898971277;-15.71115647;-12.12077673;-17.52602999;-5.887308369
-17.16203769;-34.88079292;-15.92592288;-8.923856419;2.739938586;1.436620428;15.06846913;6.955029432;21.68707589;9.812319263;16.43682668;-4.972674499;14.13018437;6.425890718;1.449597061;-16.39411759;-13.53919526;-19.8853023;-6.059949195
-18.47309808;-33.9560423;-17.6633906;-8.968726702;2.667648649;1.273008505;2.4744348;-1.161873049;22.62919727;10.8236092;17.61709663;-2.623948709;15.0456004;7.768857294;3.158775567;-15.73942276;-13.97982789;-21.15829699;-6.215123073
-21.24086563;-33.58085746;-19.66187324;-8.265208899;3.279309928;1.152835941;-5.560841877;-6.914405315;22.37477285;10.4431232;20.03579499;1.051618063;17.62398587;8.543069967;4.199685775;-14.18880687;-13.82123461;-21.79704659;-6.233710014
-24.85436666;-33.64189854;-22.06636835;-7.926651741;4.296004559;1.112289973;-3.936947658;-7.703031775;21.15443599;8.737057202;23.27709051;5.362097975;21.12539564;8.610039063;5.337575078;-12.69201263;-13.63981832;-22.33950364;-6.102522904
-27.76926945;-33.07856324;-24.36711409;-8.281321993;5.406832403;1.125527822;3.952219763;-5.304263218;19.78411806;6.444661968;26.2741862;9.349722322;24.3014311;8.299731021;7.475523209;-12.01769373;-13.59559389;-22.78331794;-5.926897678
-28.27710487;-31.19204312;-25.36857956;-8.62805113;6.371041971;1.135274075;10.61144338;-2.420247265;19.07890363;4.503145324;28.00997854;12.17147102;25.96407626;8.170181644;10.89658156;-12.0516142;-13.19418975;-22.52577815;-5.853971542
-25.49;-28.49417369;-23.77140914;-7.932980981;7.053568242;1.105800294;10.98003906;0.072429886;19.409194;3.667545286;28.28997579;13.56931995;25.66808086;8.604329731;15.01153629;-11.69667574;-11.67026324;-20.87174246;-5.957291283
-19.90957474;-26.21490882;-19.06345583;-5.801635916;7.399171484;1.051337258;5.920551539;2.942365037;20.70695491;4.37503757;27.98117782;14.14533315;24.05381435;9.570680897;18.77772529;-9.575700688;-8.671764898;-17.61040349;-6.171077866
-13.20419475;-24.96205037;-12.09368368;-2.888394578;7.380058594;1.01633122;0.552858621;6.543793349;22.76692631;6.686189892;28.46606366;15.12568311;22.53106522;10.70267919;21.40111908;-5.097549384;-4.642155003;-13.15456542;-6.330568407
-7.329743143;-23.91048272;-4.820153148;-0.43006958;6.972136053;1.027087082;-0.454056587;9.67417983;25.42879093;10.13305109;30.65108253;17.58446214;22.41716359;11.5712805;22.74843733;0.906698054;-0.557463952;-8.184410489;-6.290703643
-3.528571324;-21.41738699;0.74413672;0.689637651;6.202308791;1.059498853;3.480573915;10.83923737;28.42481138;13.60834167;34.24951166;21.57453583;24.07874014;11.90220964;23.20874443;6.517204708;2.753348939;-3.192251375;-6.027820879
-1.785132684;-16.56757691;3.76;0.61890961;5.250876039;1.053481811;8.956083289;10.55097565;31.12138034;15.65149633;37.9107487;25.86777045;26.69992081;11.61147333;23.23671111;9.860728349;5.107426972;1.636567985;-5.640525649
-1.004576589;-10.19869086;5.109840595;0.506501453;4.518920689;0.964034458;11.81743945;11.82021051;32.5935553;15.26668151;40.16;28.69224059;28.88616286;10.73936502;23.028439;10.25407143;6.858139386;6.153900693;-5.252517152
0.249852675;-4.387605846;6.785662407;1.862348916;4.549932957;0.806357674;10.53175095;17.5310809;32.18104985;12.84131067;40.47863224;29.07722106;29.68154454;9.427487214;22.5596938;8.521450269;8.305692276;9.946032328;-4.907467564
2.909662179;-0.81648331;10.42697997;5.777832053;5.774590901;0.65536759;7.037822448;26.59041302;30.1226908;10.35990119;39.68859659;27.77632768;29.22151312;7.954227795;21.81626505;6.258789589;9.201028394;12.38523934;-4.553130648
6.901201886;0.488471229;15.98397207;12.43096187;8.194582809;0.595774612;4.73602626;32.57641354;27.61031499;10.41775315;39.27665748;26.86983164;28.4880614;6.696537432;20.882105;4.619810014;8.840039063;13.05271458;-4.127708584
11.22524468;0.891243252;21.50574734;21.01023947;11.22341133;0.658572599;5.570058594;27.076804;25.98319323;14.44479314;40.09093916;28.11657619;28.33740597;5.923542535;19.7774519;3.568674715;6.710662953;12.14871606;-3.661461601
14.536278;1.657199319;24.33252738;29.95892801;13.85263657;0.791890684;8.604246031;5.998888947;25.54986209;21.34991291;41.3750213;31.24160911;28.58894666;5.543958369;18.29647832;2.17700732;3.138225563;10.47625242;-3.286545795
15.89299068;2.730989954;22.95663437;37.41279813;15.11135887;0.889718773;11.02003906;-25.87463049;24.99831031;27.73369385;40.93814289;33.64016041;27.97520831;5.086387657;16.17046647;-0.288763962;-0.659651508;8.968183827;-3.133300707
15.26907073;3.014113497;18.24564852;41.76666989;14.56728685;0.860168217;10.46345933;-56.1459284;22.03239767;29.78054183;36.46945629;32.04;25.09560541;4.061417749;13.54406671;-3.390997812;-3.211147429;8.159328049;-3.205675643
13.5369319;1.876733047;13.07495597;42.27536701;12.55310197;0.686829546;6.781663034;-71.79080323;14.92176868;25.65929584;27.14767101;25.10044029;19.68536527;2.488898807;11.31398411;-5.499331407;-3.643826415;8.06172623;-3.360665515
11.92565127;0.331219725;10.51840136;39.45740269;9.96399236;0.441890301;1.924783084;-67.30780309;3.841423339;16.7637045;14.41780538;14.9812501;13.18;1.110864061;10.82659832;-4.83280378;-2.109008767;8.512877786;-3.425997713
11.27300819;0.499426643;11.82143014;35.00745989;7.757573554;0.242743997;-1.655440995;-48.25260701;-9.067582223;6.880496857;1.342573799;6.474360863;8.032444397;0.968191977;12.93007813;-0.825055347;0.488190612;9.597674555;-3.354405912
11.54723209;3.630183115;15.60820031;31.11084152;6.485393135;0.1808424;-2.71144916;-27.54762155;-21.03288977;-0.146532777;-9.079104394;4.063303697;6.186531051;2.550925033;17.04686421;5.226111037;3.144777636;11.65595717;-3.263035989
11.97007813;8.467907066;18.92299403;29.43211692;6.14367595;0.267914558;-1.764853109;-17.14499296;-30.39516115;-2.620964359;-15.51325739;8.932098002;7.792181406;5.197533361;21.13526683;10.76650612;5.237416401;14.79275434;-3.304100092
11.67638758;11.69896586;19.36850031;30.33466915;6.383021019;0.431496361;-0.338474195;-20.8858045;-37.44026999;-1.60292283;-18.76993181;18.12760644;11.11125138;7.348466563;22.83618747;13.47245521;6.520814686;18.34397327;-3.479888613
10.44777487;10.42248209;16.78216166;32.8087755;6.858484357;0.559677638;0.3288545;-33.31237438;-43.72997928;0.296441547;-20.92353309;26.54915171;13.69777963;7.613173213;21.12540052;12.5958094;6.844939483;20.89755523;-3.59372006
8.963943603;4.659090184;13.23295812;35.152548;7.433266379;0.565399638;0.051001749;-44.70694238;-50.54784714;0.848630807;-23.77576202;30.33411507;14.00341433;5.884896211;17.22786492;9.263089867;6.030369502;21.04144583;-3.424909669
8.339207283;-2.351092387;11.38620527;35.97044244;8.111919752;0.431293447;-0.498683285;-48.2345795;-57.75692431;-0.575314262;-27.75017026;29.17541555;12.2741977;3.580537559;13.96321638;5.596449534;4.097490993;18.3502619;-3.001729091
9.250914081;-6.516369408;12.50658385;34.88352425;8.823833213;0.210951291;-0.583243857;-43.9949631;-63.96341169;-3.176119465;-31.89658039;25.96886751;10.16730505;2.708983301;13.85904623;3.350905322;1.576582911;13.82306119;-2.712510981
11.31341892;-6.042791184;15.60374315;32.59011615;9.295943849;-0.009186316;-0.060250769;-37.56862582;-67.75828236;-5.793283589;-34.83241441;24.2562047;9.46538948;4.417305729;17.38489281;3.027202195;-0.567968988;9.35138212;-3.086789354
13.20962093;-2.704187007;18.29923988;30.35647926;9.154064047;-0.159730826;0.591452403;-34.88659588;-68.93;-7.806559956;-35.81852743;25.55246178;10.86749809;8.138490673;22.65811517;3.964659355;-1.53869249;6.555835885;-4.351453325
13.53444637;-0.143918378;18.65456921;29.31843969;8.174186221;-0.21827257;0.794069812;-37.68072514;-68.6365941;-9.217781944;-35.20075792;28.5614532;13.6686517;12.02584053;26.87547525;5.144694541;-1.399937035;5.845006406;-6.101515194
11.74974806;-0.710440439;16.51091022;29.96834784;6.465384152;-0.204314105;0.440620506;-42.78027293;-68.46623309;-10.14446594;-34.04054027;30.63987488;16.40527063;14.33345927;28.36875855;5.961375187;-1.192221606;6.375248851;-7.402376816
8.542891971;-3.627130532;13.37111952;31.99165114;4.424144237;-0.149652572;0.033548819;-45.23429653;-69.26346679;-10.45828198;-33.38357198;30.07422452;17.85485577;14.63852551;27.67071455;6.377427368;-2.195374579;6.864076289;-7.338836533
5.325330005;-6.090880299;11.06627769;34.42748999;2.497079121;-0.070717413;0.297020486;-42.38765187;-70.72346137;-9.997487119;-33.78235625;27.2481315;17.64443076;13.95125259;26.76186607;6.489590068;-4.835143744;6.546331433;-5.663572956
3.261107777;-6.223155057;10.37915628;36.0676481;0.945873816;0.035432924;1.584389659;-35.70928928;-72.00932337;-9.051199438;-35.33194954;23.90550337;16.15871292;13.70007813;27.14484761;6.041137071;-8.165000925;5.516474407;-3.069224944
2.558113819;-5.073662254;10.70746647;35.99875348;-0.211093362;0.171410977;3.545800801;-29.29533029;-72.721442;-8.434629188;-37.9761027;21.39812221;14.01602931;14.50572677;28.36372257;4.419976714;-10.48598364;4.287646104;-0.842119677
2.515251576;-5.713739537;10.88276506;34.11337181;-1.074878889;0.317235907;5.311240494;-26.62215331;-73.28626437;-8.861434307;-41.65445451;19.57884782;11.62530878;15.77441144;28.23920169;1.199285573;-10.7140078;3.087625445;-0.095232121
2.202991586;-10.15804732;10.28649775;31.29742389;-1.71247915;0.429627015;6.054742146;-28.22215696;-74.43946961;-10.10867875;-46.12667828;17.26181622;9.124235289;16.36802644;24.68472298;-3.249718819;-9.368736618;1.598197944;-1.092524065
1.176059779;-16.97565383;9.253151672;29.03376602;-2.12986632;0.468235038;5.523770492;-31.87052909;-76.36622758;-10.85749421;-50.73405327;13.66508425;6.596841741;15.65015627;17.6412317;-7.656808072;-8.24849043;-0.619106882;-3.121792823
-0.338403622;-21.99219411;8.498628636;28.47842555;-2.380296257;0.428639934;4.146618483;-34.73407462;-78.39384298;-9.609994645;-54.50518835;9.367708227;4.25598151;13.92400985;9.514918697;-10.45025907;-8.920019531;-3.447724433;-4.986254132
-1.832570775;-21.74183748;8.241589994;29.52302411;-2.663991177;0.351888949;2.649553956;-35.53040088;-79.59743788;-6.086101566;-56.70938139;5.83285469;2.396495595;11.90947448;3.670720498;-10.6676828;-11.23811693;-6.001171721;-5.757572232
-3.041159302;-16.71852408;7.942011318;30.56742654;-3.268300381;0.296773029;1.491237373;-35.05457306;-79.77481634;-1.898196193;-57.47319426;3.959109928;1.200482647;9.852349495;2.093928645;-8.525155627;-13.24579796;-7.187984551;-5.279487995
-4.082118367;-11.40925564;6.943185253;29.38424527;-4.350196782;0.292640324;0.568161107;-34.96607964;-79.82482799;0.274402524;-57.87497356;3.099129184;0.617788444;7.224754484;4.023631347;-5.239100639;-12.75745511;-6.658218231;-4.126429035
-5.112593382;-10.7724001;5.378152448;24.67832165;-5.736347671;0.311089042;-0.565514135;-36.11709966;-81.04899742;-1.412507448;-59.26602404;1.599018915;0.437375674;3.400019531;6.620601766;-2.251818852;-9.477188467;-5.323047861;-3.120087891
-5.89517082;-15.9780468;4.370183869;17.28468872;-6.942809745;0.284565919;-2.141288512;-37.87230523;-83.88385841;-6.404188379;-62.20913283;-1.516937316;0.454059778;-1.309535858;7.146597827;-0.424974551;-5.869696209;-4.914367914;-2.784818983
-5.782972243;-23.06040941;5.165346586;9.99978787;-7.455420126;0.163519171;-3.76222945;-38.85331591;-87.17416291;-11.82627991;-65.8370401;-5.263266889;0.55290274;-5.331759032;4.964072196;0.273394293;-5.811626809;-6.805624509;-3.098347716
-4.243355906;-25.8091654;7.85951703;5.911243859;-7.091143637;-0.030616236;-4.531345788;-38.30453886;-88.7370483;-14.30240853;-68.21922372;-7.154401823;0.65624668;-6.755037773;1.834014091;0.4804171;-11.77014329;-10.93340912;-3.631936142
-1.495972903;-20.66905168;10.8815632;6.222187763;-6.169088736;-0.202059953;-3.693008983;-36.84039547;-86.90563152;-12.23607059;-67.59114285;-5.260572888;0.65593448;-4.877334174;0.34225718;0.871363354;-22.54194368;-15.63613847;-3.901871323
1.350211109;-9.670361533;11.8585392;9.097562486;-5.343632258;-0.237558412;-1.309387279;-35.95573923;-81.87066586;-6.86982172;-63.60322162;-0.200352128;0.476965366;-1.074837583;1.737149639;1.74820543;-33.3630034;-18.57738585;-3.665144759
2.905396179;1.002053662;9.324087079;10.50168171;-5.19835213;-0.086662677;1.595141293;-36.74848533;-75.71877213;-1.335812792;-57.65769828;4.748350826;0.248482977;1.887302922;4.877089607;2.980965385;-38.55026202;-18.15255628;-3.00370741
2.458037601;5.613762294;3.936643554;6.661753515;-5.874845227;0.193778713;3.61;-38.91897193;-71.06045893;1.578738291;-52.03193396;5.795981229;0.374603673;1.718064016;7.071957383;4.177681444;-34.98212164;-14.46020236;-2.218178682
0.536126248;2.931214517;-1.826554872;-3.383843529;-6.982291681;0.467445082;3.856458626;-40.83265142;-69.2463907;1.296676141;-48.37816328;1.520160573;1.322148341;-1.772713065;6.112208126;4.845718967;-24.07497814;-9.248345835;-1.647583669
-1.414181383;-3.409938256;-5.342278293;-16.84265933;-7.833960743;0.602743201;2.572464628;-40.5680101;-69.49071148;-0.360583989;-46.66193939;-5.815763723;3.198174967;-6.572908834;1.888893834;4.457840936;-10.95739167;-4.932943762;-1.51185881
-2.029565112;-8.215432999;-5.620215073;-28.50455237;-7.844861854;0.554893361;0.921088871;-37.14784155;-69.51285801;-0.672817609;-45.28758117;-11.70179535;5.451268472;-9.973212883;-3.6175268;2.541709976;-1.478369668;-3.33091974;-1.812547965
-0.960166461;-8.781405827;-3.838108226;-33.55501503;-6.84891119;0.388019142;0.16790871;-31.10245154;-67.16326862;1.981739333;-42.29441705;-12.6322512;7.02289197;-10.47397959;-7.902022623;-1.077723079;0.92945961;-4.831391513;-2.305022509
0.968210162;-6.424987336;-2.283930664;-30.14811831;-5.17949145;0.223175887;0.847024728;-24.08851677;-61.8208455;7.048627844;-36.74519213;-8.736145743;6.949223771;-8.614813132;-9.789360494;-5.968162776;-3.37490609;-8.384669268;-2.572343065
2.448965131;-4.615829579;-2.606698261;-20.25561998;-3.50993048;0.151866843;2.514447002;-17.96801044;-54.62098064;12.25506441;-29.32884983;-3.742160928;5.022991915;-6.203331777;-10.14573144;-11.00905152;-11.15256543;-12.2053179;-2.219470519
2.673976715;-5.685883314;-4.746458456;-8.452040758;-2.557139562;0.177502631;4.204374366;-14.01399277;-47.4986385;15.11603799;-21.80923657;-2.22963955;2.016493105;-4.7595224;-10.95036614;-14.77829309;-18.49189058;-14.7456747;-1.126783466
1.848877031;-8.990810249;-7.256401272;0.480627882;-2.774248794;0.22354616;5.170311322;-12.63538223;-41.84969701;14.42673601;-15.78619434;-6.179237497;-0.733014768;-4.554470256;-13.50839383;-16.29133817;-22.7465789;-15.4206239;0.392317055
0.922536736;-11.78274503;-8.55926292;3.718948922;-4.136668733;0.196880091;5.340483405;-13.5252408;-37.74426174;10.91425489;-11.67656378;-13.37432803;-2.094273301;-4.954225826;-17.22308726;-15.61022348;-23.22799211;-14.72727259;1.684269688
0.850556984;-11.60296753;-8.00608934;1.299945849;-6.105658486;0.057109745;5.22789605;-15.88064121;-34.09213667;6.887326702;-8.585374982;-18.82433191;-1.724444894;-5.528450037;-19.88500381;-13.81812126;-20.74555242;-13.71937645;2.107590171
2.026619197;-7.94289469;-5.949476069;-4.411405084;-7.823679382;-0.156337566;5.494067348;-18.49402752;-29.47460484;5.236393309;-5.056786262;-18.1624117;-0.089764543;-6.702471577;-19.26517183;-12.27614525;-16.74782783;-13.15390974;1.447710371
4.27248688;-1.999412248;-3.013384325;-10.12768739;-8.512410077;-0.352353285;6.565755878;-19.85907709;-23.02961557;8.240558786;-0.10216339;-10.58458141;1.995675734;-9.233917594;-14.81854953;-11.64809016;-12.70268676;-12.86299325;0.101954802
7.239088888;4.70923271;0.574034936;-13.12500566;-7.909442943;-0.445241413;8.521500659;-18.57837157;-14.9254737;16.52129357;6.195468313;0.679971991;3.888392685;-12.99997089;-8.232268273;-11.42246847;-9.820261904;-11.83484754;-1.134191839
10.73484581;11.23209824;4.912019307;-12.22873657;-6.484316037;-0.39989635;11.1464693;-14.11029957;-6.313869607;28.44388473;12.80941881;10.55589134;5.309004172;-16.35231051;-2.412485813;-10.33159699;-8.877059942;-9.05280453;-1.56976353
14.64638912;16.8525804;9.776762925;-8.07596951;-5.23708178;-0.240521914;13.94799362;-7.44326845;1.103781045;40.32574131;18.41144437;15.32800481;6.182690658;-16.88262764;0.362731401;-7.383843737;-10.00706122;-4.553076018;-1.073299671
18.57928924;20.37291732;14.17648544;-2.701036101;-5.124716064;-0.027623079;16.11906711;-1.071576444;5.715586372;47.68713502;22.03896809;14.68;6.417429439;-13.17519168;-0.183042486;-2.726474342;-12.62302947;0.147076192;-0.155140474
21.67;20.34487992;16.72239717;1.357443565;-6.441521352;0.173910365;16.67279481;2.035256805;6.670685136;47.27051024;23.41664387;11.3656478;5.904200659;-6.139388075;-2.361400463;2.335812688;-15.68683465;2.78195233;0.390419112
22.89342262;16.43688178;16.60542028;2.116530874;-8.576337935;0.316114321;14.9168982;0.068276918;4.35080421;38.8870413;22.88995244;8.996580518;4.726214137;1.267286744;-3.877739344;6.188920134;-18.25147159;1.912729863;0.03573614
21.72273288;10.57272112;14.29984094;-1.02300398;-10.35980748;0.374746582;11.06775192;-6.362389377;0.360012207;25.90506892;21.17389162;9.596533152;3.293830232;5.835350491;-3.493843573;7.964972078;-19.87735679;-1.76181513;-1.118415616
18.62488707;6.262138516;11.27068482;-7.045026138;-10.80995982;0.348870995;6.477108741;-14.26869413;-3.106762945;13.79457034;19.1257765;12.51047613;2.16543851;6.078805051;-1.800443739;7.992200807;-20.58103887;-5.500846432;-2.407695519
14.94106505;6.134868471;8.844740584;-13.80855372;-9.77573348;0.259183125;3.074329179;-19.77712077;-4.288382098;7.354926742;17.59427857;15.18484661;1.643560132;2.914727706;-0.586946885;7.3284412;-20.41863216;-6.244285121;-3.028838548
12.17675067;9.651819152;7.213448328;-19.02064875;-8.019130393;0.143140168;2.231643042;-20.23401101;-2.698395817;8.241960843;17.27290926;15.08780323;1.522548758;-1.339740649;-1.326981959;6.813743553;-19.20396742;-2.892878645;-2.523422859
11.1985296;13.26494736;5.491441225;-21.18699608;-6.666999969;0.042207272;3.854813254;-15.60095048;0.782966143;14.35520231;18.51412015;11.4303885;1.295637419;-4.686479615;-3.933629888;6.448958811;-16.75766789;2.568326952;-1.016461643
11.90444978;13.33454151;2.837836704;-20.07154441;-6.423810702;-0.016676682;6.491335599;-8.245098933;4.660355426;21.46;21.18384691;5.649652324;0.720902976;-6.465189911;-6.724182129;5.598314965;-13.50443854;6.165320538;0.89567527
13.54657278;9.508113196;-0.346736949;-16.5212796;-7.115139374;-0.034258541;8.50518599;-1.309397046;7.893628217;25.9098083;24.69866997;0.490521842;0.258582798;-7.045002202;-7.632276531;3.792119321;-10.73656065;4.702654607;2.483253149
15.3769088;5.491838944;-2.292490458;-11.8908961;-7.882842605;-0.035313709;9.444197081;3.191082112;10.49806453;26.62094027;28.2942108;-1.635866995;0.911698893;-6.812302978;-5.774817428;1.38665189;-10.01425242;-1.725668105;3.223169087
17.08687251;6.188063139;-1.070294987;-7.465667289;-7.863234411;-0.048120182;10.44239175;5.268940414;13.23820064;25.07942369;31.38862199;-0.007250101;3.470058594;-5.626858661;-2.205887531;-0.535375309;-11.96237724;-9.420889839;2.980738057
18.75880558;13.41208378;3.776499153;-4.146772123;-6.825939438;-0.081047434;13.20816678;6.376900242;16.70034065;23.64050098;33.79740066;4.07309339;7.700346062;-3.292087279;0.720773711;-0.977060413;-15.45727162;-13.38760597;2.004807247
20.49752764;23.91425257;10.54641887;-2.392272287;-5.303017258;-0.114051609;18.34378908;7.957313805;20.53499322;23.57652729;35.64263351;8.046510339;12.16139499;-0.431391297;0.932635098;0.12638746;-18.10430029;-10.73062027;0.793889681
22.15758631;31.65162565;16.29938356;-2.245912851;-4.144413453;-0.111993298;24.41302202;10.32373191;23.52125307;24.34966756;37.03354789;9.454372509;14.89519518;1.364277161;-1.988449819;1.762256107;-17.89933956;-2.707303327;-0.100944171
23.43098915;32.5591659;18.74261735;-3.345796268;-3.870665427;-0.049754662;28.67029639;12.68391546;24.42522736;24.49133044;37.7917297;7.104300617;14.57216135;0.587844928;-6.638386439;2.557328741;-14.84743644;6.074020868;-0.288936546
24.17972141;27.73;17.65215289;-4.974606686;-4.321237973;0.069661195;29.01698333;14.12003906;22.96837938;23.18270145;37.48219586;1.472064144;11.30019553;-2.727471266;-10.91981034;1.798886961;-11.12899452;10.72774738;0.289887132
24.65043804;22.16666007;14.78101423;-6.282566957;-4.836951738;0.216396149;25.66453819;14.56928809;20.1338376;21.16321613;35.77843361;-5.747004699;6.544340137;-6.572524789;-13.57990307;-0.05583946;-9.482868242;9.194987835;1.321938999
25.31750899;20.16743792;12.42585022;-6.685694099;-4.794233903;0.351112057;21.12226409;14.92229199;17.57834045;20.24360198;32.90405985;-12.55733795;2.253278184;-8.252267694;-14.96719495;-1.776199313;-11.00513923;3.192298834;2.268746712
26.45369096;21.51969874;11.84479878;-6.228113349;-4.063361798;0.443985498;18.44487083;16.1822101;16.61649197;21.86389903;29.78122708;-17.50126694;-0.1734288;-6.559874409;-16.43765407;-2.314905821;-14.20458594;-3.47617368;2.667199071
27.79514248;22.0598508;12.706731;-5.618256953;-3.06500951;0.482655419;19.09867823;18.47184188;17.52362561;25.86023996;27.68381086;-20.0444112;-0.422498647;-3.001116704;-18.91470898;-1.543981829;-16.22481953;-7.743695497;2.414700129
28.60621369;18.19882246;13.78690014;-5.822611744;-2.43506383;0.46798793;22.12247753;20.80356298;19.5734198;30.36810929;27.54093443;-20.48892891;0.893681952;-0.806886971;-21.80036308;-0.213005969;-15.31064332;-9.047088944;1.838471475
28.11746871;11.18961935;14.09514672;-7.421294084;-2.592387966;0.406424549;25.17563872;21.83294478;21.62327501;32.87755605;29.31891305;-19.64600698;2.790797235;-2.275656608;-23.18695833;0.754394329;-12.42211395;-8.905962648;1.470537994
26.00328798;6.825239192;13.4147153;-10.14488912;-3.526297865;0.30754999;26.4970517;20.92659769;22.71714131;31.64079028;31.91331607;-18.49977662;4.399917191;-6.535851629;-21.3;0.973614536;-10.49945137;-9.050361682;1.661466571
22.54521714;10.25698453;11.94462382;-12.93299436;-4.901535771;0.187210425;26.09638666;18.59319333;22.33635733;26.50917588;33.68245752;-17.92990522;5.171473798;-9.711984888;-16.09602573;0.719432734;-11.87199335;-9.911909053;2.304709359
18.39564047;20.29768587;9.644934317;-14.51708368;-6.327191984;0.069337962;25.26732938;15.91805958;20.35789825;18.81853994;33.3396316;-18.44679469;4.90878447;-7.65660365;-9.742484534;0.418148059;-16.01452154;-10.73808063;2.884484621
14.16965247;28.62435416;6.119045838;-14.17042826;-7.554529509;-0.019251418;25.0531346;13.57402236;17.02172976;10.62025415;30.67305652;-19.95973827;3.82380017;0.708333503;-5.501797144;0.044201227;-19.72394494;-10.97593034;2.830363985
10.18984277;25.43053441;1.236122179;-12.14286206;-8.488591233;-0.05919645;25.21213978;11.38662491;13.04426379;3.845794059;26.65468518;-21.74804983;2.602403145;12.05252296;-5.735170887;-0.978701674;-19.78289065;-11.37650303;1.931046802
6.534735198;7.401415309;-4.15959277;-9.496106511;-9.080778589;-0.046337757;24.68416482;8.89903871;9.663026391;-0.208079049;22.8775961;-22.81103631;2.257509164;20.48706558;-10.42380729;-3.254568247;-15.9398115;-13.56792319;0.508241287
3.274234142;-18.63298801;-8.326508661;-7.440898014;-9.248969509;0.008842836;23.04901149;6.369480472;8.284725655;-1.064404369;20.67649058;-22.52580968;3.627841233;21.36494006;-17.24779145;-6.744552866;-11.55218218;-18.35867416;-0.777684712
0.645908808;-39.88332364;-9.688127881;-6.597135209;-8.902904299;0.088228164;21.41776667;5.098986146;9.724007092;0.903907749;20.46209169;-21.21142076;6.731356602;14.29291907;-23.13879772;-10.58831756;-11.08436578;-24.37543875;-1.355139852
-0.983535171;-46.73604111;-8.106699651;-6.652675248;-8.029956056;0.172532197;21.6550295;6.515899763;13.49795476;4.525174279;21.62935577;-20.11636184;10.46561752;3.224818349;-26.18336443;-13.64042521;-16.36969595;-28.53725803;-1.107634159
-1.329916749;-39.64825149;-5.249823642;-6.654678684;-6.74548941;0.242835596;24.45682541;10.65157779;17.79454889;8.060301122;23.01341453;-20.69250968;13.02426077;-6.285660834;-26.56734844;-15.31029148;-24.79747813;-28.31080652;-0.439345285
-0.408491388;-28.21862286;-3.595900762;-5.772355304;-5.267024542;0.279988499;28.10562468;15.43368793;20.32666491;9.708541453;23.5407913;-23.58762447;12.88587844;-10.5524809;-26.01832272;-16.00233919;-31.15615057;-24;-0.013047339
1.388614597;-23.1980699;-4.76077817;-4.051373521;-3.855535966;0.268155008;29.36839461;17.75040662;19.59781646;8.27395197;22.67272484;-28.10612887;9.73621101;-9.509158704;-26.30215089;-16.76794562;-31.81532383;-19.02991379;-0.342571255
3.390697187;-28.0106867;-8.439935151;-2.634653352;-2.784107089;0.203933866;26.13;15.74;15.72349542;3.676081976;20.46387815;-32.61423807;4.658759183;-5.829967563;-27.93343293;-18.43712666;-27.81471056;-17.68078657;-1.49098769
4.873327597;-36.69347579;-12.78561355;-3.2103622;-2.331617023;0.103896951;19.57465111;10.48829441;10.23716211;-2.993985498;17.35914248;-35.644369;-0.55209863;-2.523782405;-29.96996424;-20.93277821;-24.14679642;-21.85623508;-3.035874991
5.334523068;-39.71974471;-15.8674173;-6.934480562;-2.738954448;0.000744814;13.76300515;5.507599494;5.061158473;-9.9254308;13.98270957;-36.85838568;-4.441973138;-1.008965858;-30.88207046;-23.31405474;-25.62072949;-29.43270914;-4.299635232
4.734729026;-32.56939426;-17.00736247;-13.4794296;-4.091385444;-0.073620438;12.53865835;4.093593274;1.425709961;-15.32148787;11.05571654;-37.09626369;-6.547474866;-0.909630777;-29.72996064;-24.48943656;-32.63591333;-35.63762057;-4.710087891
3.580838071;-19.7553574;-16.96751701;-20.89153696;-6.191566102;-0.10712257;16.16288268;6.579434774;-0.520750709;-18.07650423;9.35325847;-37.47141183;-7.252398247;-1.219770021;-26.78370255;-24.00569764;-40.44029778;-36.53203658;-4.107201903
2.733533048;-11.06893803;-17.00362439;-26.49963883;-8.556553917;-0.112765794;20.70588995;9.912314462;-1.288629267;-18.13998223;9.515908477;-38.28578935;-7.117529243;-1.476774954;-23.25569766;-22.29980611;-42.66512311;-31.93959153;-2.842598852
2.934246386;-13.4849951;-17.7425887;-28.42241002;-10.61256847;-0.113839258;21.16828248;10.26340487;-1.337137337;-16.46624223;11.68149349;-38.71629781;-6.334157599;-1.911551475;-20.48829012;-20.28341302;-36.36575069;-25.51926965;-1.608257893
4.272225232;-25.69308799;-18.86852355;-26.72750693;-11.99624844;-0.120164301;16.06683456;6.758534421;-0.724615794;-14.5663729;15.17445632;-37.5697043;-4.73818821;-2.711963525;-19.23147774;-18.6739761;-24.46029905;-21.90239184;-1.058793144
5.975206787;-39.65792188;-19.74193413;-23.40267392;-12.74284445;-0.116196934;9.538152313;3.08199878;0.689589631;-13.77569112;18.60818455;-34.45170632;-2.243478568;-3.386473851;-19.42349037;-17.62774215;-13.54526074;-23.14059359;-1.419096715
6.80138328;-47.38027781;-20.17340446;-21.03268581;-13.18785103;-0.073603186;8.59862675;5.039478566;2.862638929;-14.49374619;20.54048649;-30.28712528;0.835068146;-3.000311403;-20.43832084;-16.88571709;-8.888743823;-27.25995641;-2.320429928
5.908476862;-46.69135748;-20.48940378;-20.98928632;-13.6241057;0.019827343;17.09556131;15.41063454;5.501921384;-15.80359403;20.38028101;-26.66641837;3.935352332;-1.083119273;-21.48805039;-16.16658;-10.74092529;-30.02774395;-3.010909128
3.63669292;-41.22214616;-20.8316256;-22.37892727;-13.97478132;0.138775439;31.01935664;30.05801283;8.402852916;-15.84347734;18.92381538;-24.54604247;6.707542695;1.728713013;-21.92250547;-15.37597455;-14.94003906;-28.46588414;-2.852598825
1.552278271;-35.28604523;-20.52302726;-22.57;-13.76808501;0.226401025;39.44917305;38.94175906;11.76898592;-12.93533661;18.0211463;-23.46347915;9.243242825;4.031838184;-21.38871818;-14.47533393;-17.08080098;-23.26254485;-1.785747082
1.537033633;-29.10590038;-18.39589748;-19.05921576;-12.48240132;0.226123689;31.3880453;32.26108204;16.02667441;-6.901162552;19.43689684;-22.02825476;11.7407741;4.742850965;-19.92843537;-13.26490642;-16.4224903;-18.14895844;-0.403503854
4.427806697;-19.29103876;-14.06382231;-11.46108699;-10.02907682;0.116255021;4.023139803;7.818635129;21.13917372;0.349665617;23.59484604;-19.31205567;13.87965139;3.941698357;-18.0134127;-11.45481533;-15.95587703;-16.77177234;0.476749061
9.160458423;-4.211605914;-9.049047904;-2.239776844;-7.000405342;-0.078078647;-33.72330256;-25.85042128;26.02184798;5.590809396;29.08902127;-15.88431657;14.59066471;2.663208279;-16.4031033;-9.085371069;-18.49560432;-19.60914355;0.472502056
13.13443018;11.18705888;-6.513516017;4.395755116;-4.46120674;-0.302913627;-65.51750194;-53.498215;28.74790469;6.143972509;33.38975016;-13.4644381;12.6550591;1.800534586;-15.76557621;-6.912496889;-22.38592859;-23.4368325;0.018029943
13.68012681;16.65743241;-9.390852628;4.784079562;-3.397610235;-0.507173786;-77.36167751;-62.20345742;27.63479747;1.670142139;34.34807941;-13.3792502;7.788337287;1.143366137;-16.23737458;-6.260569235;-21.10194685;-23.80546092;0.108635709
9.681139754;4.192349625;-18.15944276;-2.138198904;-4.194217163;-0.663836092;-66.22726819;-49.45553193;22.49018521;-5.441153929;31.50393059;-15.18468139;1.255729294;-0.499105519;-17.27767722;-8.243406474;-7.89417319;-18.59710292;1.52034706
2.235872666;-24.10305997;-30.0484192;-14.25446764;-6.486414765;-0.769292258;-41.63201589;-24.66766889;15.01101221;-11.54359397;26.30336473;-16.83537237;-4.730336506;-4.113506661;-18.04757742;-12.8543098;17.84381365;-9.887733842;4.071756726
-6.086572423;-55.0118578;-40.51736014;-27.38278558;-9.45092468;-0.830479652;-19.15235031;-2.992481988;7.90059901;-14.16349293;21.09;-16.50966018;-8.603586434;-9.263710253;-18.13195002;-18.67626148;47.81129195;-2.678574701;6.542977595
-12.82299801;-72.11307086;-46.07198631;-37.26893464;-12.28478141;-0.857796129;-10.4975895;4.292994423;3.277946008;-13.66201277;17.60672324;-14.64053369;-10.82970921;-13.98042587;-18.04723507;-23.57081372;68.60266132;-1.470262629;7.413069664
-16.87434944;-67.1468316;-46.33350406;-41.26193721;-14.52598221;-0.870366185;-16.96373342;-3.754258439;1.554975516;-12.84956553;16.07253672;-14.2543786;-13.81746062;-15.98833091;-19.0196732;-25.93652007;69.98485374;-7.236629109;5.936444672
-18.61074316;-45.98856042;-43.78465449;-38.92065781;-16.04677511;-0.901505875;-30.33452424;-18.58047645;1.60837212;-14.75124926;15.43688943;-18.92573376;-20.13155165;-14.34431992;-22.03979183;-25.62214053;51.82035714;-16.93533745;2.758708964
-18.93458709;-24.2413003;-41.43331366;-31.60423039;-16.83494606;-0.987004634;-39.82815893;-29.0838717;2.030857547;-20.14362719;14.51226662;-29.65655792;-30.18988541;-10.17252034;-26.83248679;-23.79978533;24.47464471;-25.70610626;-0.434392118
-18.21616003;-15.63058747;-40.29946816;-21.62127669;-16.82588502;-1.135237993;-39.6337981;-29.29807786;2.378810448;-26.71979092;13.04350487;-43.13662899;-41.2379895;-5.903858823;-31.59093169;-21.91227452;2.241085267;-29.96682506;-2.023986702
-16.02924079;-22.17988269;-38.75902621;-11.46333742;-15.94833756;-1.301928041;-31.78678865;-21.39958613;3.378273289;-30.55095971;11.87553658;-53.06189891;-48.60232133;-3.635930563;-33.85453702;-20.55184346;-5.565556152;-29.18235641;-1.520222565
-11.85459724;-33.72066093;-34.24016705;-3.262391799;-14.3094004;-1.398820813;-23.08254926;-12.52760351;5.975538289;-28.78654576;12.13474521;-53.93745761;-48.54325451;-3.891113462;-32.05735927;-19.17330985;0.393430905;-25.33222975;0.203979599
-6.048460587;-36.78390219;-25.82505562;1.645385964;-12.29359604;-1.343105665;-19.16999631;-8.561398006;10.13036299;-21.60960781;14.13648762;-44.78594918;-40.74329761;-5.635060223;-26.68417203;-16.83679182;11.53823629;-20.91031297;1.659761334
-0.135464272;-25.50156126;-15.56691426;3.069481633;-10.42395985;-1.118431876;-20.56682305;-9.867769885;14.47697393;-12.06109912;16.94191773;-30.04722778;-28.62186949;-7.336452407;-20.14901191;-13.30020352;18.35965794;-17.20847993;1.868860138
3.925007277;-5.851563813;-7.396566961;1.99701712;-9.06102123;-0.800450153;-23.22973897;-11.94293203;17.22117981;-3.979206088;18.95416322;-16.89547229;-17.20641747;-8.061819051;-15.38354502;-9.484275227;16.86960935;-14.07559546;0.9958818
4.950106343;9.709198811;-4.468018607;0.060726732;-8.187869117;-0.520048828;-22.51796658;-9.790822843;17.55125431;0.328959506;19.10205545;-10.78423498;-10.05814508;-7.749266428;-14.06154691;-6.875407705;10.02881618;-10.94522863;0.036932914
3.242264304;12.35197135;-7.041595184;-1.434809509;-7.482812227;-0.384182134;-16.99261373;-2.143976138;16.35704869;1.013324095;17.6816187;-12.29608785;-7.399865668;-6.670498971;-15.67617152;-6.357438994;3.904506056;-7.92482692;-0.113974707
0.223637974;3.358653616;-12.52003906;-2.345405725;-6.645404054;-0.41038817;-9.152750304;7.765054534;15.59882228;-0.23208907;16.18508354;-17.37219603;-6.643723823;-4.830406052;-18.08707798;-7.476335204;2.277698794;-5.901395761;0.584261681
-2.681416944;-7.918233202;-17.48683196;-3.719613433;-5.716586065;-0.524831262;-3.01397292;15.05831437;16.78717048;-1.898067225;16.23028571;-20.52513889;-4.727726394;-1.997899483;-19.09940426;-8.789412469;4.086715587;-5.661737146;1.363467209
-4.982914332;-12.30296698;-20.03643707;-6.879267808;-5.117393655;-0.626224453;-0.913154409;16.98461682;19.78481458;-3.681977369;18.39086794;-18.58383763;-0.422631853;1.683244665;-17.9124641;-9.022917719;5.277253575;-6.956242095;1.403022397
-7.139049272;-8.096149291;-20.59603608;-12.15;-5.347974901;-0.666119033;-2.164840299;14.53122286;22.89397825;-6.072198477;21.79169712;-12.3705246;5.029510305;5.232865337;-15.42;-8.054187011;2.911642225;-8.450973714;0.617309203
-9.721083864;-1.611231797;-20.80351852;-18.21742733;-6.566938421;-0.682231573;-4.310452997;10.95303921;24.16228441;-9.09745896;24.74483211;-5.435640436;9.188530418;7.181265652;-13.23426153;-6.868511889;-2.174534281;-8.667070764;-0.215273046
-12.53052983;-1.121578167;-21.61880611;-22.69917363;-8.382263572;-0.758721108;-5.495904852;8.916256141;22.8803502;-11.55427752;25.9302548;-1.148090288;10.40329801;6.604926694;-12.26136322;-6.521026252;-6.258794007;-7.100351766;-0.090516078
-14.48296121;-9.755836793;-22.3523724;-23.61855842;-10.0341297;-0.946430686;-5.824576021;8.808135301;20.1254434;-11.54044001;25.25784086;-0.421309716;8.925524498;3.977712688;-11.95900544;-7.014989195;-6.089105669;-4.555120954;1.368870622
-14.37384729;-23.24018315;-21.35528531;-20.74057718;-10.85286968;-1.208953119;-6.724908038;9.353256975;17.98491501;-7.911953468;23.83;-1.569162641;6.420019531;0.982321661;-10.84744533;-7.123148687;-1.680241688;-2.427599211;3.57600685
-11.85255553;-33.8541122;-17.62317786;-15.78681302;-10.66426733;-1.439653961;-9.204642396;9.48943551;18.10599439;-1.418399657;23.10378166;-2.034255841;4.459959903;-0.727461162;-7.862690834;-5.400449443;3.744222946;-1.589807443;5.438738145
-7.744697394;-36.72622167;-11.8291118;-11.36133757;-9.852711926;-1.537111685;-12.70827059;9.505811393;20.66146732;5.504215369;23.89886436;-0.435268822;3.309337383;-0.868444653;-3.482739659;-1.600391261;6.389475321;-1.843356734;6.214983718
-3.439076451;-33.08126422;-5.898761109;-9.363526183;-9.047813685;-1.478974217;-15.54780707;10.448847;24.4061725;10.20477353;25.937311;2.579983147;1.918759893;-0.830666519;0.287388757;2.70989182;4.735291456;-2.371818602;6.039252793
0.118696243;-28.18042656;-1.572946657;-10.00031855;-8.674622367;-1.335658404;-16.36633406;12.63960661;27.63684618;11.44657528;28.15369021;5.064435009;-0.991368344;-2.58982595;1.141443838;4.959804459;0.286453155;-2.717339151;5.6948847
2.940673629;-26.38398107;0.73685157;-12.00338362;-8.695995558;-1.213922872;-15.22102766;15.00548243;29.26484841;9.985909782;29.46379582;5.282433386;-5.716441735;-7.026240033;-1.928198962;3.301933424;-4.114108351;-3.345298088;5.860934689
5.581789669;-27.87545058;1.834697283;-13.74428686;-8.719554945;-1.175932496;-13.34608241;16.02504535;29.27736584;7.757879332;29.41818553;2.822512936;-11.17362732;-12.98270337;-7.798772188;-2.023924959;-6.719313803;-5.242850951;6.502519089
8.207499034;-29.57529585;2.584385083;-14.35165326;-8.366225174;-1.197084043;-11.93417206;15.35796955;28.42990613;6.407820278;28.33372287;-1.33180833;-15.55191648;-17.84763;-13.78075447;-8.74269423;-7.968195495;-8.881211272;6.927166403
10.05272208;-28.80059597;2.862987158;-14.08201839;-7.609268633;-1.192817882;-11.14472144;14.41893233;27.5618933;6.315592674;26.9062326;-5.574180973;-17.43662082;-19.25900879;-17.23804829;-14.00875297;-9.530470011;-13.47715837;6.438376103
9.867135382;-25.96850723;1.633675433;-13.87103051;-6.825055067;-1.089565851;-10.24863672;15.10915158;27.06181422;6.730019531;25.64293152;-8.621920463;-16.58858413;-16.66095303;-17.19035634;-16.22117452;-12.41454296;-17.27793074;5.001625971
7.061184974;-23.93277791;-1.91704714;-14.59176319;-6.517380646;-0.882814075;-8.69307012;17.77210333;26.74511276;6.685343318;24.50963304;-10.08488755;-13.9418296;-11.59379248;-14.82989546;-15.88650633;-15.90046506;-18.73350309;3.339673289
2.573145847;-24.90495866;-7.245860331;-16.61479254;-6.920896897;-0.639836508;-6.989157116;20.3898571;26.06621752;5.822411539;22.98771112;-10.51231018;-10.98898504;-6.599990801;-12.62352401;-14.96888555;-18.13007813;-17.64155108;2.377903163
-1.405118951;-28.1193596;-12.43759081;-19.85078377;-7.781282511;-0.450714063;-6.495895933;20.0588727;24.44505644;4.482294655;20.45899386;-11.06323719;-9.056410827;-3.642862643;-12.62962797;-15.29432693;-17.65639738;-15.32250681;2.519371223
-2.822306104;-30.50648199;-15.45605093;-24.00892418;-8.487334514;-0.369619278;-8.218683984;15.66385352;21.55882346;3.166070693;16.66097087;-12.98366801;-8.862779558;-3.171917855;-15.17914899;-17.22218852;-14.51543731;-13.64497819;3.361554712
-1.308983733;-29.65934322;-15.67791222;-28.72437711;-8.480636362;-0.389698701;-11.6944714;9.356079946;17.54729868;1.983462063;11.94852655;-17.02133095;-10.42817815;-4.326895202;-18.79954108;-19.51103674;-9.98836663;-13.65109943;4.073067497
1.337867008;-26.19293195;-14.42579604;-33.4927174;-7.665452581;-0.462735482;-15.0261298;5.271267727;13.07465883;0.614273078;7.222750068;-22.94837369;-13.18852633;-5.864729719;-21.38928047;-20.36823079;-5.474821673;-14.86027498;4.084618749
2.212717879;-23.22084181;-14.01304991;-37.64369475;-6.526265935;-0.539273858;-16.1563541;6.30425109;9.148723964;-1.249311141;3.560251303;-29.45062597;-16.19799286;-6.971938456;-21.78075378;-18.8249798;-1.608667235;-15.78579077;3.503279526
-0.753626942;-23.43377486;-16.02849581;-40.56205163;-5.847870664;-0.595029461;-14.39102181;11.60839886;6.67503532;-3.469168951;1.723883216;-34.576021;-18.42432818;-7.442596111;-20.56474535;-15.42835033;1.667097229;-15.22577709;2.928173347
-7.309433314;-26.52865415;-20.19890168;-42.04836414;-6.201254734;-0.62897409;-10.93698136;17.06434343;5.939452991;-5.47620301;1.801768161;-36.62676741;-19.14886952;-7.361304098;-19.58044227;-11.82312571;4.378687631;-13.27852921;2.873763553
-14.9140202;-29.40311576;-24.67594676;-42.45858088;-7.527684212;-0.64588676;-8.018577709;18.49442214;6.379666084;-6.709417193;3.168797284;-35.02703212;-18.34154111;-6.804174954;-20.43766525;-9.612075157;6.072977167;-11.27134923;3.32702002
-20.28219582;-28.95158516;-27.44155445;-42.37854411;-9.10432783;-0.646169506;-7.290963186;14.99043697;6.898084494;-7.044683805;4.79914918;-30.63080711;-16.76494076;-5.879709701;-23.15631377;-9.333823517;6.188127604;-10.67773691;3.811617557
-21.39083206;-24.89548519;-27.67950219;-42.02056048;-9.932115809;-0.632118986;-8.802173693;9.534396012;6.585779396;-6.807531343;5.756903061;-25.28070527;-15.65309595;-4.953103646;-25.95923297;-10.22547946;4.854726174;-11.90960677;3.863809652
-18.61494126;-20.06302471;-26.08973096;-40.8716697;-9.308589359;-0.618954546;-11.24842039;6.384400188;5.359648064;-6.381524733;5.581934857;-20.93908104;-16.0898929;-4.650353438;-26.4478144;-10.85139167;3.200019531;-13.96175059;3.465820512
-14.30742425;-17.88205303;-24.05251706;-38.00717999;-7.224214576;-0.632411324;-13.1844643;7.508942951;4.009988729;-5.81571029;4.3616924;-18.96020158;-18.45222789;-5.46915202;-23.38027033;-10.12573297;2.644324528;-15.19625081;3.043262478
-11.20772066;-19.37664348;-22.46423405;-32.94106559;-4.338697236;-0.68882074;-14.11758002;11.18329015;3.581999249;-4.827938039;2.501774716;-19.84991056;-22.25972256;-7.283875064;-17.78549589;-8.071408793;3.67411697;-14.64669621;3.041576741
-10.79419722;-22.359579;-21.22206133;-26.36442644;-1.575137073;-0.773890398;-14.61470968;13.91693598;4.551445725;-3.210343439;0.417995775;-23.39584854;-26.48640043;-9.238943558;-12.55623835;-5.879040616;5.196216763;-12.81587263;3.478196809
-12.61954902;-23.47088308;-19.67546593;-20.105019;0.382154375;-0.842223569;-15.46108609;13.85709381;6.442455268;-1.244237521;-1.601048757;-28.80338372;-30.07572066;-10.2389403;-10.71159929;-5.256067735;5.188528109;-11.34240597;3.884936567
-14.92012472;-21.13920944;-17.51147183;-16.19907614;1.359955211;-0.843970755;-16.71873678;12.44646645;8.186465067;0.300020142;-3.29778509;-34.67511382;-32.31688645;-9.707451739;-13.46682893;-7.434078337;2.262869407;-11.78831759;3.703450445
-15.94116037;-16.78517825;-15.22697751;-15.67311969;1.602064814;-0.761187707;-17.56585405;12.72075178;8.913596233;0.638063943;-4.291887176;-39.08513412;-32.93163102;-8.000318867;-19.41315681;-12.3690134;-3.086968239;-14.4611759;2.793875062
-15.04027488;-13.2777982;-13.77882173;-17.90641194;1.444056498;-0.625869893;-17.06390473;15.83487297;8.521729479;-0.445079688;-4.114240843;-40.12635869;-31.98357225;-6.110253518;-25.35989856;-18.57790094;-8.594658313;-18.13439066;1.615339746
-12.90615596;-12.18512779;-13.75425114;-21.04399108;1.039050737;-0.504228089;-15.1561841;19.26927909;7.588629363;-2.376679422;-2.488585491;-36.90714989;-29.8069553;-4.886810126;-28.25505592;-23.74891707;-11.65153326;-20.83616676;0.916281017
-10.88949402;-12.39821963;-14.80652249;-23.16647983;0.334489272;-0.457305702;-12.97369949;18.82193527;6.783135615;-4.120168086;0.365442154;-30.36150134;-27.00328846;-4.404024953;-26.89066178;-25.85597444;-10.96366155;-21.09517016;1.182225601
-10.00989005;-11.3498821;-15.84029013;-23.39732553;-0.732190248;-0.505396844;-12.09629744;12.94554614;6.360483233;-4.791496948;3.743190319;-23.0576681;-24.36124419;-3.976202008;-22.31254161;-24.19511156;-7.19952806;-18.7482648;2.279569413
-10.32822557;-7.609699613;-15.78154995;-22.23249864;-2.035585186;-0.619441769;-13.30137929;5.404455135;6.203380507;-4.126296684;6.896339921;-17.79278738;-22.55490903;-2.768493186;-16.80835346;-19.74053263;-2.254287325;-14.80835212;3.559764554
-11.0433982;-2.386505722;-14.30237368;-20.98605714;-3.263472602;-0.741706584;-15.79433102;3.166963611;6.309047888;-2.528578085;9.62;-15.77602127;-21.70618091;-0.461625398;-12.32470436;-14.57114966;2.14321274;-10.61459396;4.316085708
-11.15867587;1.465856919;-11.95789527;-20.85095318;-4.123783356;-0.818378097;-17.57661078;10.47194282;7.151345028;-0.773108287;12.47107637;-15.76084952;-21.13941614;2.572590759;-9.456998904;-10.68106991;5.343745461;-6.976039716;4.230744975
-10.21361123;1.995891395;-9.703747153;-22.23159161;-4.565040969;-0.822676114;-16.73995641;23.78829045;9.428903443;0.365107931;16.30670595;-14.96631783;-19.63462671;5.667929072;-7.598222523;-8.901756467;7.634859036;-3.927596977;3.502486404
-8.590402466;-0.123124574;-8.233705346;-24.67651284;-4.793908497;-0.758475104;-12.76079074;32.45274867;13.30311103;0.350301136;21.37580963;-11.28459281;-16.14589919;8.419383441;-5.904821094;-8.611764783;9.42862476;-1.166096824;2.623044241
-7.228364017;-2.279425961;-7.637164229;-27.27101869;-5.051144033;-0.649054497;-6.856293497;25.59826294;17.799429;-1.010087891;26.65454527;-5.149053287;-10.54943275;10.89036309;-4.171207854;-8.380804134;10.6653599;1.314028377;2.024079033
-6.979710885;-2.345408738;-7.540780398;-29.12304051;-5.332784213;-0.521908908;-1.153165235;0.713040505;21.03604933;-3.507156469;30.06417175;0.46970151;-3.879728545;13.32891224;-2.906891482;-7.04577554;10.96677092;2.985093957;1.854227362
-8.054024658;-0.559018038;-7.506042776;-29.68620284;-5.313255556;-0.397303956;2.714315804;-32.81372891;21.29584003;-6.516451539;29.59883636;2.099322133;2.159309698;15.71666129;-2.661643221;-4.432302033;10.27192037;3.173680907;1.986752649
-9.905574006;0.879489581;-7.331414801;-28.89787913;-4.567601828;-0.282781036;4.559716884;-58.53293855;18.1982876;-9.147206801;24.65261144;-1.635413719;6.092044056;17.61093274;-3.298900085;-1.245770181;9.216896692;1.74499973;2.175063759
-11.60014284;0.075054737;-7.093622233;-27.2062386;-2.92901934;-0.174255852;5.483188816;-63.28622347;13.03208395;-10.62809328;16.56817111;-8.868332518;7.356223678;18.43855171;-3.939105655;1.674006772;8.796088396;-0.520458503;2.215249686
-12.38105125;-2.618413659;-7.02456646;-25.47655929;-0.681503015;-0.065093361;6.752359792;-45.81315326;7.900779463;-10.77879266;7.912004052;-15.76722504;6.331204585;17.95938681;-3.685937511;4.045663386;9.571075489;-2.249673339;2.041712209
-12.05106853;-4.879332413;-7.407015544;-24.6888833;1.595084413;0.038401225;8.589013811;-17.41043678;4.263947915;-10.23155683;0.902590676;-19.31523698;3.783112579;16.456739;-2.53483035;6.182836427;11.16247568;-2.351716385;1.760976647
-10.95463231;-4.73363586;-8.547908905;-25.44329319;3.425105365;0.104393404;9.797237775;5.774572522;1.961497941;-10.15511829;-3.917165148;-19.47605049;0.233177839;14.47592086;-1.651278867;8.36487807;12.52381683;-0.845181908;1.633599274
-9.645945681;-2.747932889;-10.73242022;-27.52062345;4.76448483;0.080029297;8.553979341;13.15292405;-0.541975781;-11.58747126;-7.804341151;-19.0777378;-4.248171905;12.36538945;-2.683702527;10.13539375;12.7796575;0.977972187;1.974984538
-8.534460874;-1.948591626;-14.06229807;-29.84993435;5.9806241;-0.080214355;3.818314703;5.432562488;-4.889041588;-14.81748881;-12.64478939;-21.52896708;-9.732958526;10.06453332;-6.559759406;10.21778637;11.88622696;1.229896232;2.959130184
-7.76271053;-5.334745445;-18.23861263;-31.02063246;7.488172734;-0.374764539;-3.674196831;-7.850107303;-11.49723288;-19.25050982;-19.34880291;-28.15815926;-15.97600687;7.347763967;-12.66809924;7.232987466;10.53144579;-1.45714807;4.408094993
-7.339665718;-13.07945492;-22.48299003;-30.05774205;9.331803388;-0.732596562;-11.6080208;-16.3282936;-19.11730632;-23.81431524;-26.98737271;-37.2019885;-22.26606261;4.293944854;-19.07522677;0.720467812;9.387406604;-7.085518372;5.742912811
-7.328275889;-21.91383351;-25.73750699;-26.91132997;11.06380302;-1.033259682;-17.40310341;-15.93256914;-25.50853187;-27.5251901;-33.27216799;-45.10890448;-27.73049822;1.516489543;-23.6593166;-8.321912579;8.422658382;-14.24456978;6.225873797
-7.859682805;-27.35768915;-27.06770835;-22.28;12.03515456;-1.166799983;-19.7414518;-10.16656446;-28.63373573;-29.73810149;-35.9789263;-49.00720771;-31.80580618;-0.112853713;-25.35830074;-17.80711293;6.930078125;-20.85333269;5.417276638
-8.937335897;-26.99812764;-26.0157661;-16.91061975;11.88511457;-1.098250934;-19.20373153;-5.570956738;-27.51359535;-29.95610051;-34.25561435;-48.38841264;-34.44059246;-0.057090426;-24.65705076;-25.56726826;4.274840758;-25.18251916;3.551603255
-10.22870751;-22.10244646;-22.68923604;-10.96726246;10.84602288;-0.89066131;-17.55014651;-5.809510396;-22.31496415;-27.55536533;-28.9295802;-44.85812856;-35.86388588;1.467863018;-23.02235874;-30.27658245;0.702935753;-26.51929881;1.518084074
-11.10154084;-16.28993218;-17.59853142;-4.033086424;9.614581395;-0.665507659;-16.20474398;-9.214794513;-13.9257515;-21.92176125;-21.74840478;-40.45298198;-36.17353652;3.613277655;-21.77173031;-31.71508609;-2.531063774;-25.15403028;0.379892398
-10.97320085;-12.50130883;-11.45760325;4.218162185;8.871971984;-0.524552878;-15.13819783;-11.17609319;-3.579527358;-13.10724892;-14.27478899;-36.10375761;-35.17597453;5.469827477;-21.23728476;-30.38929442;-3.889406901;-21.86798002;0.719809775
-9.753315841;-10.88575194;-5.138250068;13.24118741;8.802434946;-0.488051731;-13.05849688;-8.650058594;7.180939743;-2.513375885;-7.294853477;-31.48809988;-32.66431041;6.630891104;-20.79624416;-27.01824004;-2.582120478;-17.40745335;2.27079336
-8.02277529;-9.301329077;0.262981259;21.43880168;8.959631231;-0.494160205;-8.7778682;-2.724145521;16.4318734;7.135813768;-1.042158208;-26.15590773;-28.87593257;7.310396506;-19.64204658;-22.36720205;0.894820331;-12.33099464;4.11120378
-6.747159075;-5.775674986;3.491682454;26.83787834;8.57275912;-0.458667005;-2.625922784;2.658625378;22.13662108;12.84330791;4.191064359;-20.67355333;-24.64478558;7.969995709;-17.61979155;-17.43432842;5.102367947;-7.222907691;5.292188029
-6.669839831;-0.606671664;3.528264737;28.17880934;7.07409275;-0.347796523;3.342971969;4.228930396;22.88412183;12.89621612;7.759316972;-16.60451219;-20.99494627;8.817230346;-15.45664829;-13.55195666;8.575513674;-2.91768624;5.440078125
-7.798485298;3.764591667;0.185517766;25.61489079;4.493583094;-0.207195426;6.669845896;1.892376067;18.67572029;7.86759089;9.00846861;-15.3014417;-18.43276304;9.609055637;-14.24034097;-12.00278583;10.61535336;-0.371056614;4.904112891
-9.365188843;4.890591187;-5.515625336;20.50287313;1.481734554;-0.125806567;6.374272293;-1.764633418;11.10275265;0.255927742;7.922141764;-16.64423511;-16.53056024;9.892551997;-14.60120664;-13.25837689;11.45003906;-0.154097187;4.380078125
-10.31530449;2.446366996;-11.60767767;14.46477822;-1.022400817;-0.165663192;3.857133106;-4.086352774;2.619755546;-7.095861762;5.400663574;-18.96007813;-14.22533721;9.424941881;-16.26397702;-16.44675247;11.80531681;-1.947589499;4.342059202
-10.00430933;-1.582476143;-16.09548094;8.440497033;-2.25638663;-0.315088381;1.96589439;-4.477328355;-4.688891883;-12.72924435;2.799404979;-20.31205059;-10.68369773;8.383291255;-18.31212833;-19.63717051;12.33196084;-4.51724175;4.732974499
-8.636794577;-4.76028309;-18.04133155;2.402759861;-1.975583227;-0.501964661;2.840601284;-4.249259093;-10.02156244;-17.21596381;1.01229598;-20.08752435;-6.081927282;7.194745472;-19.92895952;-20.93268546;13.30482172;-6.331755622;5.119792105
-7.167807639;-6.353635771;-18.108399;-4.158499644;-0.526155962;-0.653479438;6.22694685;-4.715597142;-13.85093651;-22.27659427;-0.179881384;-19.4948504;-1.663279644;6.167562104;-21.00818562;-19.66388247;14.66024929;-6.474340272;5.128658399
-6.754039073;-7.803866558;-18.14614227;-11.46859962;1.341236707;-0.751172495;9.65703101;-5.647173782;-17.11032608;-29.0745866;-1.958545294;-20.49458603;1.012127158;5.261953725;-22.14458359;-16.7978139;16.15282472;-5.209860936;4.769520208
-8.118906468;-11.13490854;-20.02715151;-19.05003906;2.806923483;-0.836131853;10.40510463;-5.630354466;-20.30024151;-37.00774932;-5.622716747;-24.06104379;1.056686443;4.184707662;-24.01522472;-14.22133003;17.43078775;-3.769017119;4.392964306
-11.20187927;-16.81597342;-24.45795371;-25.91763683;3.326261536;-0.96263198;7.628467003;-3.844382219;-23.23332708;-43.92376798;-11.71401315;-29.28100831;-1.288037821;2.691066211;-26.64682708;-13.41469374;18.05450084;-3.476880142;4.355692955
-15.23370727;-23.07970538;-30.5086202;-31.12543875;2.853885588;-1.141873676;2.897862845;-1.328355947;-25.52874381;-47.58456699;-19.76090608;-34.09394377;-5.064893774;0.814678824;-29.16086774;-14.49900252;17.6161486;-4.851990918;4.707423466
-19.10977118;-27.33772528;-36.11992604;-34.1735309;1.856740611;-1.324228612;-1.3351542;-0.32898259;-27.29090033;-47.25233766;-28.73393535;-37.0494746;-9.495505945;-1.148656172;-30.22699045;-16.32725241;15.9965588;-7.327753579;5.160179336
-21.80826824;-28.39813951;-39.20669817;-34.98934418;1.095832033;-1.433948132;-3.980953638;-2.258353235;-29.24743236;-44.19350325;-37.70028018;-38.53825379;-14.55342977;-2.834699608;-28.91579808;-17.45230428;13.55850014;-9.761063111;5.333281658
-22.66110841;-27.44407872;-38.63458339;-33.60889232;1.262610072;-1.425244262;-6.215918253;-6.229337055;-32.11470259;-40.73026668;-46.05103701;-40.35720332;-20.67872273;-3.975622811;-25.33199683;-17.13965891;11.01940944;-11.27487014;5.03633948
-21.43550637;-26.84974304;-34.5182721;-29.91691173;2.64838393;-1.311749175;-10.11077401;-9.647508258;-35.68060792;-38.55441879;-53.14327954;-43.88569749;-27.84136236;-4.413021687;-20.55873193;-15.6377817;8.993719412;-11.73541146;4.354895286
-18.29362074;-27.871475;-27.8058827;-23.69602158;5.027460636;-1.146135661;-16.09792556;-10.36312981;-38.42260771;-37.53782724;-57.82112204;-48.38744214;-34.77498845;-4.026157562;-15.94169299;-13.60271561;7.540078125;-11.50102062;3.510303467
-13.71019112;-29.28596643;-19.58102271;-14.93510003;7.814905969;-0.970467983;-21.60364195;-8.329398923;-38.1221992;-35.87733624;-58.47654928;-50.95313578;-39.15723954;-2.727075268;-12.22126317;-11.29051689;6.137186567;-10.72415843;2.66733661
-8.379635909;-28.23282816;-10.61265708;-4.143984179;10.38445133;-0.782270279;-22.3679286;-5.132197355;-33.17358447;-31.44118923;-53.86951095;-48.32462214;-38.80451974;-0.567460673;-9.133327862;-8.272652605;4.194536364;-8.895790598;1.87547472
-3.101220642;-22.58998879;-1.393554051;7.542197927;12.33177451;-0.545815246;-15.69499823;-1.842669306;-23.72270883;-23.36627504;-44.20469934;-39.31465188;-33.1190471;2.167881248;-5.763495702;-3.908342842;1.722181576;-5.127835741;1.162537206
