Channel 1 - P4;Channel 2 - O2;Channel 3 - P8;Channel 4 - T8;Channel 5 - C4;Channel 6 - Cz;Channel 7 - Fz;Channel 8 - F4;Channel 9 - Fp2;Channel 10 - F8;Channel 11 - Fp1;Channel 12 - F7;Channel 13 - F3;Channel 14 - C3;Channel 15 - T7;Channel 16 - P7;Channel 17 - P3;Channel 18 - O1;Channel 19 - Pz
-1.746222275;-65.88174572;-13.7179407;-45.9197043;-4.177837304;0.048430373;-153.9902785;-142.7423001;-99.56020869;-9.951926624;-24.1231444;-97.88363064;-83.79517287;-52.52638591;-18.17879899;-6.795300757;-34.99025918;-70.78784;-11.30952165
-1.96708506;-51.90059235;-8.365100531;-41.05731272;-1.572207863;0.470404953;-134.8071084;-116.3707281;-74.00926635;-10.33700973;-12.26936779;-79.16901948;-62.73578728;-40.95680323;-8.56702078;6.034746802;-22.48706328;-53.45021042;-9.099204237
-5.448370102;-30.71978409;-6.404273578;-29.02904889;0.091034803;0.826700303;-80.68330923;-58.67597177;-37.96922311;-11.3280041;-11.09031952;-49.48505759;-33.1697778;-19.14334881;-0.609506852;9.39902157;-10.49506074;-31.12408572;-4.280193389
-11.46048924;-13.07942525;-8.389299562;-15.95967913;-0.040432794;1.007730858;-21.88873282;0.722393961;-5.255815306;-12.72204281;-16.07078463;-23.08452816;-6.75163793;1.635069777;3.169796324;4.517029206;-2.958128858;-13.03819784;0.512110415
-18.12111596;-6.727618745;-12.93986236;-7.594880811;-2.141350302;1.002480175;13.72190457;34.59358674;13.56351328;-14.3505212;-20.32644025;-10.23767949;7.821058934;12.80878618;1.95704304;-3.003280435;-0.777933524;-4.588840354;3.012002528
-23.37432343;-11.95426377;-17.63258953;-6.328934808;-5.456966358;0.888661594;17.33861737;34.6815769;16.61858395;-16.25517334;-19.50387071;-11.75981809;9.339708799;13.26130605;-2.406109611;-7.184228483;-2.072930018;-5.026307601;2.636014103
-25.94163132;-22.28733895;-20.33512412;-10.59572479;-8.521134491;0.767728382;1.013497563;14.18775941;10.10174849;-18.50985958;-14.36741467;-20.36274182;3.49438991;8.480058594;-6.26436753;-5.486786307;-4.113865269;-9.302357842;0.57024344
-25.73359418;-29.43963034;-20.19900242;-16.56335408;-9.828703667;0.695046998;-14.76579424;-4.520048828;2.805231108;-20.84230976;-9.329775089;-26.9622495;-1.940063477;5.423890811;-6.515141146;0.222608378;-5.302870254;-12.22897502;-1.28686471
-23.61581322;-28.71431427;-17.81168922;-20.68360563;-8.640400413;0.65526214;-16.91602938;-6.790872196;0.255392266;-22.47171135;-8.349018613;-26.82048337;-2.378629896;7.368493677;-2.855657931;5.892526357;-5.768225087;-11.74120614;-1.665253958
-20.80041451;-21.19147263;-14.55899051;-21.4633169;-5.438507371;0.595284469;-7.101713891;5.547715591;2.438865528;-22.47023041;-11.57674003;-21.32037961;1.504246377;12.45168453;1.917013676;8.656885708;-6.4309141;-9.209463065;-0.600078125
-18.25198233;-11.76045275;-11.70054832;-19.67953491;-1.695345458;0.482734492;3.306220655;18.97;5.851513769;-20.50661717;-15.37683093;-15.07242858;5.804042786;16.34949593;4.009269423;8.670949567;-7.643034727;-7.250894916;0.905653641
-16.36381393;-5.113534171;-9.747707202;-17.32972438;0.975458206;0.340688129;4.602056237;21.16240467;7.349765054;-17.39979914;-15.51774137;-11.55925246;7.283337738;16.30151975;1.658132336;8.208197398;-8.693884623;-7.258639655;1.815637674
-14.95043094;-2.86925599;-8.447151505;-16.17743995;1.794163948;0.231936204;-3.508294407;10.99450204;6.513523721;-14.91214418;-10.78353986;-10.96264454;5.844714883;13.07673462;-3.289576231;9.115758827;-8.555404957;-8.628651472;1.81847885
-13.47018735;-3.549068771;-7.242712377;-16.69140674;1.297717953;0.208168224;-13.28906625;-1.951577027;5.124261931;-14.7333008;-4.004039611;-11.30593214;3.899387052;9.634476165;-6.608519743;10.96481845;-7.067005788;-9.896130675;1.395017751
-11.35870915;-4.678491331;-5.804114639;-17.80105555;1.002967119;0.26725898;-16.80251001;-6.618130468;4.96506002;-17.27845382;0.292514088;-11.07742888;3.683027178;8.125641451;-4.895835357;11.47246465;-5.372032793;-10.35728112;1.275177979
-8.350557;-4.879892014;-4.239554738;-17.52017629;2.459516706;0.353794944;-12.66541074;0.12237881;6.236314546;-21.19195182;-0.394268857;-10.61932114;5.116534966;8.049591827;1.723252628;8.741751628;-5.119104393;-10.59300357;1.803683484
-4.654435424;-4.374787532;-2.892980052;-14.17738103;6.309094188;0.402040724;-6.229557915;11.72588917;7.825861554;-24.0274799;-4.521447179;-11.21397632;6.035935663;7.050268906;9.521406205;3.300520583;-7.078185992;-11.56610815;2.713409594
-0.872323828;-4.003810118;-1.947545664;-7.679289936;11.94826952;0.386462439;-3.981547081;18.57499134;8.752415499;-23.73630812;-7.824103974;-13.17216247;4.389298693;3.383642909;13.79734517;-1.896437241;-10.37944972;-13.35718497;3.413234042
2.32635229;-4.08632619;-1.188244294;-0.033188319;17.95519539;0.339761551;-7.735937262;16.5218879;9.147090481;-19.97219969;-6.835980756;-15.07871516;0.314451084;-2.285672179;12.14982362;-3.600479753;-13.07520666;-14.86786222;3.489254104
4.586297171;-4.237274972;-0.137097861;5.435702697;22.91356794;0.325130979;-13.62455549;9.908452435;9.864956668;-14.31545764;-1.694983868;-15.03;-3.752516426;-7.316956177;5.89755619;-0.821472238;-13.59963097;-14.80675065;3.004828333
6.024603688;-4.079957966;1.526348973;5.993385935;26.04031792;0.385710743;-16.11852161;6.948502891;11.32423546;-9.276299489;4.045517497;-12.61147001;-4.9770666;-9.236348666;-1.276493525;4.301020822;-11.93445552;-13.00386614;2.402501473
7.01098067;-3.888148747;3.586207497;1.443726103;27.25038735;0.511052541;-12.95191025;12.09634656;12.92699456;-6.783858517;6.405611882;-9.556685765;-2.3419892;-7.614356611;-6.133775058;8.058193681;-9.53538754;-10.76949885;2.139398975
7.709891622;-4.384184417;5.279243089;-5.315992996;26.76738235;0.645512252;-6.561812306;22.28701172;13.7393655;-7.166581939;4.312591489;-8.266175899;2.692731906;-4.090713412;-7.7934737;7.951527224;-8.110967349;-9.901849107;2.36239394
7.764436605;-5.900376574;5.725736751;-9.833008453;24.72091648;0.730078125;-1.250642945;30.08350468;13.74289931;-9.196604642;0.59041816;-9.453340246;7.531795152;-0.714338153;-7.393062498;4.504551361;-8.283375569;-11.20323083;2.849412484
6.453752853;-7.831050015;4.544173636;-8.959540209;21.10356659;0.744157854;0.870036621;30.5323908;14.29600129;-10.99495992;-0.166660772;-11.14179733;10.52069479;1.761794302;-6.194008275;0.706902397;-9.216077728;-13.82341661;3.215815161
3.300068359;-9.034778691;2.219396456;-3.110164558;16.0789306;0.715978921;1.391592363;25.46378174;17.14676141;-11.0905658;4.858822223;-10.1214676;11.96640303;4.093087408;-4.114277379;-0.422209144;-9.449740482;-16.00329444;3.202165436
-1.305366016;-8.8734176;-0.078696578;3.824293017;10.28480809;0.696163329;3.525270249;21.55258158;22.75663016;-9.016842109;14.48261865;-4.760087891;13.34935927;7.212507246;-0.088230838;1.797479229;-8.184338065;-16.54036044;2.838946449
-5.998216393;-7.879982068;-1.168891466;7.058161827;4.768855177;0.716898589;8.714738933;24.12067093;29.46755474;-5.316367046;24.23975767;3.240853188;15.58172904;10.75812168;6.191707761;5.24607599;-5.9246971;-15.68087079;2.40083589
-9.067803819;-7.342642624;-0.615798267;4.252201676;0.529860534;0.76792676;15.16055467;32.306536;34.40105271;-1.221469349;29.38564269;9.756983757;17.93493522;12.95582867;12.9817793;6.743793519;-4.001615463;-14.70123714;2.208360747
-9.466720703;-8.120975485;0.930867434;-2.819277111;-1.98711411;0.805214971;19.41714249;39.79212931;35.46372899;1.717621881;27.89079363;11.19429611;18.58319244;12.05014652;17.11102319;4.568312824;-3.44499077;-14.63841815;2.413864427
-7.505373069;-9.789782957;2.066260129;-9.560363145;-3.020705895;0.782840166;19.35220127;40.27053565;32.81984005;2.042458779;21.36587451;7.131612283;16.25625205;7.999898979;16.20827069;-0.21812239;-4.19159829;-15.36741357;2.897858099
-4.698478482;-10.96404638;1.445840398;-11.88624403;-3.134124735;0.683325809;15.74059576;32.78928193;28.61244929;-1.0526036;13.56605311;0.562086942;11.54938747;2.859501667;10.65126779;-4.596722843;-5.261477907;-15.85058325;3.331462266
-2.822454383;-10.58245576;-1.422726398;-9.115576614;-2.67744783;0.526452279;11.30419612;22.45445096;25.21097104;-7.109239315;7.864005353;-4.363949725;6.770325213;-0.590395808;3.474128454;-5.845023504;-5.679302392;-15.27148532;3.372181992
-2.823690234;-9.005869133;-5.907718345;-4.272851368;-1.547219416;0.354902549;8.410134446;16.16617573;23.50281997;-14.18777614;5.540941388;-5.207958175;4.448508065;-0.854807837;-1.786494046;-3.443514934;-5.305597622;-13.95084459;2.88606362
-4.335888472;-7.89621566;-10.65296616;-1.647135662;0.535878481;0.21115839;7.612149269;17.24104817;22.63169113;-19.50672387;5.77892648;-2.517144587;5.691316121;1.29697417;-3.508709508;0.758551809;-4.878268148;-13.16453044;2.060039063
-6.117410158;-8.915713096;-14.36105512;-3.54821675;3.479631976;0.122296896;8.058574139;23.38700128;21.23973145;-20.8835966;6.829424225;1.207573476;9.594392916;3.666557752;-2.635729351;4.099310389;-5.284226259;-14.01859801;1.312946725
-7.044274744;-12.35921156;-16.44143455;-8.743420986;6.527481354;0.098887443;8.871792873;29.29493878;18.92565972;-18.18736576;7.156999804;3.65208881;13.98854436;4.508772914;-1.125257592;5.069804343;-6.735122064;-16.41782361;1.031574989
-6.906185422;-16.91516013;-17.13264527;-13.65073687;8.568723622;0.141889001;9.868204232;31.16060923;16.50398842;-13.71967135;5.798666861;4.065323777;16.7914274;3.853009768;0.237793216;4.186056359;-8.558245409;-19.08003906;1.29
-6.43878695;-20.74761042;-17.0882544;-15.17667646;8.895302259;0.247465967;11.01309941;29.19376276;14.84377902;-11.00156479;2.128679909;2.99341385;16.94882795;3.216745928;2.532743304;3.237140449;-9.743531596;-20.58527997;1.757528688
-6.623611001;-22.90576635;-16.7711616;-12.88585861;7.830489624;0.405280801;11.550949;26.40311393;13.46938453;-12.57538791;-4.271044554;1.091172877;14.49725274;4.082271968;7.191488142;3.669209786;-9.737759707;-20.5016842;1.898465005
-7.826399985;-23.78594478;-16.08868812;-8.886180788;6.687704712;0.594032837;10.128101;25.34487322;10.40336459;-18.29028198;-13.27354727;-1.579097853;10.05152873;6.521330548;13.73003906;5.450259054;-8.807177936;-19.57398118;1.360213301
-9.422716193;-24.26648482;-14.48659285;-5.751310415;7.003555187;0.780937387;6.045097689;25.98557575;3.603312296;-25.36818298;-23.78817811;-5.112826299;4.332204779;9.117822826;19.05696611;7.247338861;-7.70950091;-18.84167579;0.280401928
-10.1525456;-24.40011128;-11.38556916;-4.347411609;9.552345413;0.927863497;0.332427293;26.30576115;-7.211784998;-30.34400446;-33.98235621;-8.892435488;-1.956625867;10.14140806;19.39788388;7.633598993;-7.021407034;-18.55327114;-0.735288608
-8.900730486;-23.00980307;-6.635482195;-3.352754159;13.83797151;1.000974791;-4.744321332;24.51485201;-20.08527688;-31.58226325;-42.38357477;-11.52270932;-8.077446241;8.867565346;13.46264547;6.254126079;-6.724599201;-17.92889349;-0.990673147
-5.339145007;-18.72919302;-0.70534738;-0.723606805;18.41482639;0.978797911;-7.634723005;20.45597228;-32.35916833;-30.56400813;-49.19623265;-11.98243384;-13.36490011;5.929065699;4.107673913;4.012696489;-6.369484532;-16.01776631;-0.185410534
-0.050179335;-11.64799717;5.453230505;4.274814435;21.77861782;0.856583603;-9.150464875;15.00220417;-43.0507075;-30.96013127;-56.6885718;-11.00748439;-17.52493981;2.544712745;-3.233228577;2.215335192;-5.601699322;-12.84187282;1.344685834
5.821908124;-4.02083419;10.72480431;10.22774051;23.16773491;0.64834198;-12.02126257;8.523856816;-53.92573224;-36.09193196;-67.99396059;-11.18354396;-20.81637167;-0.525960298;-4.401886767;1.463747805;-4.539428953;-9.699545155;2.827811915
11.0409;0.830043945;14.13666094;14.56198248;22.72970936;0.387659451;-18.40289841;0.447652647;-68.00514604;-46.55363649;-84.8542638;-15.20911757;-23.82049448;-3.311651972;0.357256213;1.241878742;-3.670466639;-8.242174212;3.567731166
14.55597163;0.755226936;15.0577287;15.4401753;21.02791011;0.124879446;-27.43747561;-9.393902257;-86.39864858;-59.6573466;-105.802811;-23.50440908;-26.90350394;-6.036771507;6.598921051;0.505882613;-3.39887005;-9.077885966;3.397502567
15.55906553;-3.581237307;13.315018;12.95404212;18.36898631;-0.083488126;-35.2224268;-19.09042502;-106.0363225;-71.05428119;-126.2191559;-33.21251558;-29.84138202;-8.327818676;9.156137913;-1.266790515;-3.679494246;-11.15100003;2.743405476
13.53619758;-9.053956292;9.277268541;8.73821915;14.5297411;-0.193137284;-37.55735293;-24.81930288;-120.5406717;-77.3695372;-140.5234093;-39.73608807;-31.99106814;-9.125236292;6.133717289;-3.478540295;-4.068546578;-12.51184384;2.261209149
8.496047155;-12.25929754;3.880203685;4.532510828;9.098206359;-0.190265806;-33.29988314;-23.36296411;-124.180572;-78.06166394;-145.2921114;-39.90210114;-32.88447857;-7.496307406;0.198133859;-4.769299096;-4.11732283;-11.86574107;2.330987028
1.292719243;-11.87743985;-1.503874078;1.048247138;2.126695271;-0.097754848;-25.42198052;-15.0210105;-116.2656649;-75.37327143;-141.3288739;-34.36571245;-32.6757138;-3.626063041;-3.819660461;-4.02642487;-3.727293669;-9.567584989;2.796325745
-6.283340726;-9.385172266;-5.414127463;-1.935979378;-5.463582679;0.037462198;-18.72657537;-4.146225514;-102.5665634;-72.61;-133.2802548;-27.28422683;-31.95955215;0.984020343;-2.93284309;-1.205948429;-3.145347704;-7.181066583;3.13289505
-11.93871582;-7.599491472;-6.787546467;-4.549392165;-12.09758243;0.169762667;-16.08716725;3.61274408;-92.20560029;-72.04656537;-126.92;-23.37275296;-31.0767626;4.406974622;1.750304657;2.701317238;-2.634000645;-5.97971636;2.893641893
-13.79260266;-8.264659961;-5.368022471;-6.04822663;-16.28165835;0.276513225;-16.4110129;5.31363631;-91.75256614;-73.8129223;-125.7321713;-24.52935741;-29.58244729;5.584806352;6.336502681;6.49885273;-2.160510819;-5.726589621;2.072435113
-11.33257954;-10.64237509;-1.81520215;-5.183708858;-17.37527872;0.361303748;-16.04269069;2.606669567;-100.5553387;-76.27326045;-128.9098647;-28.58498328;-26.50459232;4.948743874;7.751869768;9.682942158;-1.42453632;-4.863977704;1.110487839
-5.818511531;-12.23007813;2.56284426;-1.47646331;-15.89423736;0.437899538;-12.30049021;-0.146322468;-110.7944731;-77.37440608;-132.0303169;-31.08178718;-21.32722824;3.855137135;6.440774344;12.6370253;-0.215594158;-2.021493507;0.561104717
0.206572731;-11.00851342;6.326405096;3.807591283;-13.16969939;0.509630278;-5.975528876;0.143584517;-112.5675999;-75.94938818;-129.9905742;-28.65258737;-14.88942955;3.350429467;5.813982838;15.96082676;1.232011105;2.438689114;0.687750024
4.121800053;-7.397186645;8.425190308;8.058316172;-10.60629397;0.562796975;-0.600307699;2.778144793;-100.6851143;-72.21369215;-120.3638421;-21.42588197;-9.30875405;3.343251986;8.978066405;19.53647377;2.238740792;6.231683727;1.297992133
4.518046697;-4.330332061;8.511068685;9.024930718;-8.999438078;0.580499213;0.776877518;4.477390868;-78.4510221;-67.35780055;-105.0560345;-12.76506312;-6.779016675;2.869124904;15.66518252;22.20180707;2.08322745;6.613826294;1.909955152
1.849066294;-5.330999964;6.962203798;6.552514104;-8.274912906;0.564534029;-1.652373292;3.112993398;-55.66130469;-62.69135612;-89.20639764;-6.758627169;-8.070328147;1.146326695;22.10424142;22.424875;0.506087403;2.413610839;2.091857302
-1.932384824;-11.98863762;4.661714538;2.898974445;-7.716872357;0.543912896;-4.654812145;0.360469395;-42.09343803;-58.93085889;-78.02939089;-5.488386358;-11.91610542;-1.571213632;23.99480782;19.5198445;-2.081811365;-4.967543892;1.713555318
-4.547701346;-22.67627373;2.624962018;1.221107515;-6.474014492;0.558245618;-4.874160199;0.569749552;-41.01475857;-55.99846949;-73.62881925;-8.024946193;-15.83940128;-4.125462846;20.01954058;14.41421428;-4.842281859;-12.38697426;0.959655692
-4.698140603;-33.41597397;1.574490651;3.261918835;-4.034750067;0.626019705;-1.782314659;6.665234411;-47.30391605;-53.35663293;-73.85309727;-11.58301095;-17.83286077;-5.442473133;12.84054081;9.240114729;-7.005153537;-16.99253206;0.156707967
-2.749332792;-40.27476917;1.582777081;7.947066088;-0.450442829;0.723484777;1.987895804;16.81149505;-51.51692691;-50.63550864;-73.93770566;-13.65923325;-17.61223347;-5.471686902;6.702724588;5.918979777;-8.251108546;-17.9269318;-0.415272413
-0.408811589;-41.67389306;1.945656634;11.9550384;3.739323611;0.794766405;3.13523577;25.14240887;-46.93912429;-48.17904311;-69.83245179;-13.5117733;-16.51181342;-5.220186347;3.722034;4.748295353;-8.75666974;-16.51766196;-0.602845193
0.388233887;-39.1602668;1.434633377;11.87124094;7.777617588;0.790019531;0.651197713;26.28903157;-34.4725052;-47.14828374;-60.96605072;-12.17332224;-16.19811751;-5.845115806;2.097413509;4.094559145;-8.966370007;-14.99897474;-0.361998984
-1.307877389;-36.28125819;-1.077936625;6.402665714;10.99292519;0.70439261;-3.435890523;19.90894756;-21.77343673;-49.0047374;-50.56563762;-11.4148466;-17.31124649;-7.611546875;-2.163934683;1.521191532;-9.332912415;-14.89540784;0.262198341
-4.90182119;-36.39701971;-5.886472883;-2.844563698;12.99185476;0.58671653;-6.071483619;11.18061624;-17.29003906;-54.54736957;-43.32038447;-12.65085517;-19.12133605;-9.636591875;-11.46038005;-4.402953097;-10.19874487;-16.28630932;1.10611136
-8.690713668;-40.79899081;-12.06325036;-12.43007813;13.67781457;0.508315648;-5.91454516;6.646389809;-23.64758615;-63.04590246;-42.02463818;-16.41462257;-20.35926599;-10.63350399;-24.01164172;-12.92484167;-11.79198442;-18.3030384;1.859618461
-11.00463334;-48.16285131;-17.77007813;-19.11792845;13.1294444;0.513286216;-4.208907604;8.895607795;-35.34606202;-72.12119085;-45.55538071;-22.31861215;-20.37458521;-9.985053107;-34.75556854;-21.44341554;-14.19662914;-20.19301931;2.135760211
-11.29422696;-55.49579158;-21.22289555;-21.49749629;11.44828263;0.587452742;-3.095622561;14.67684789;-42.53201682;-78.67;-49.59464009;-29.11852464;-19.56389708;-8.202800367;-39.0655775;-27.13826599;-17.23910751;-21.95824434;1.6585148
-10.43621077;-59.91156949;-21.77624041;-20.29439043;8.696211233;0.670177796;-3.187835161;18.04900143;-38.05320757;-80.44168841;-49.55437021;-34.80523054;-18.75206409;-6.397196518;-36.24072417;-28.71677936;-20.40445726;-24.11237621;0.45939661
-10.0486573;-60.20432167;-20.39716883;-17.48429665;4.972793016;0.700574106;-2.911534178;15.73102294;-22.53499992;-77.30886043;-43.60531547;-37.05012555;-18.20290694;-5.269186304;-29.90416174;-27.03999467;-22.95159673;-26.93359613;-1.080041504
-11.28885313;-57.39728936;-19.11208696;-15.03678429;0.567892287;0.662900981;-0.306407405;9.882071397;-3.722822089;-71.33148966;-33.6856226;-34.22327786;-17.27457787;-4.542536805;-25.02038677;-24.25486456;-24.24955403;-29.97661425;-2.410793794
-13.97892922;-54.04303975;-19.69171848;-14.10022138;-3.952155555;0.596483345;4.552751158;5.905318469;9.317305727;-65.45953033;-23.87628585;-26.5718475;-15.10889845;-3.33440124;-24.01458193;-22.18267224;-24.13180026;-32.27978133;-3.122120343
-16.69021454;-52.72856785;-22.42488342;-14.88705926;-7.837238138;0.563251145;9.098902204;7.406369254;12.68825367;-61.69095752;-17.44200526;-16.62697633;-11.7268357;-1.103228136;-25.13688009;-21.21837861;-22.9902781;-33.04181323;-3.161338717
-17.74422382;-54.65613524;-25.85799272;-16.9804703;-10.40991499;0.599010867;10.50103944;13.0169145;9.981377022;-59.94848412;-14.72503843;-8.171619717;-8.436492951;1.707129418;-24.27769586;-20.50826909;-21.50702749;-32.16428784;-2.815415229
-16.42457957;-59.10419934;-27.75411166;-19.6588832;-11.33794299;0.686608037;8.563102027;18.01933635;8.888745555;-58.46562201;-13.3216566;-4.132866681;-7.007447434;3.930587303;-18.60083962;-19.10911923;-20.21410528;-30.24641113;-2.481494184
-13.52374018;-64.03552683;-26.65625184;-22.08358734;-10.74678638;0.770893023;6.367652069;19.16848105;14.98467944;-55.37883087;-10.20427254;-4.755778033;-8.177099829;4.634751506;-8.990827306;-17.05848517;-19.22042714;-28.12496399;-2.407390436
-10.81196955;-67.41035405;-22.95922723;-23.46634321;-9.103074311;0.8018885;7.705243257;18.00657047;27.5879596;-50.32747283;-4.056921735;-7.447977184;-10.74961688;3.92989695;0.549075617;-15.41930024;-18.30170512;-26.38374278;-2.585742487
-9.790810637;-68.33243561;-18.69590507;-23.34361631;-6.961085034;0.770804999;13.4509437;19.28845721;40.7343376;-44.86767803;3.901984127;-8.568187307;-12.17329875;2.9108216;5.850627152;-15.27198191;-17.23276454;-25.16098584;-2.842881405
-10.61731771;-67.31352812;-16.15126169;-21.86474515;-4.748719053;0.71062599;20.33091013;25.8038894;48.10887945;-41.41607731;11.03342614;-5.971304375;-10.30181784;2.763283544;5.397568161;-16.5486436;-16.0333555;-24.24226804;-3.005160667
-11.97083482;-65.59479275;-16.28118316;-19.82925005;-2.709290493;0.662422025;23.53819794;34.60152465;47.74358091;-41.54336152;15.25699376;-0.490326589;-5.034626313;3.786945059;0.890588601;-17.76813605;-14.89302212;-23.21730517;-2.987472589
-11.96100808;-64.13693066;-18.08031863;-18.3070899;-0.968106801;0.636123691;21.05377025;38.73533212;42.8017794;-44.87710752;16.31186547;4.712626611;1.447266021;5.152167214;-4.525448709;-16.99732226;-13.85757375;-21.57480903;-2.75282719
-9.435421214;-63.06959164;-19.36285562;-17.99317254;0.407804592;0.598189667;15.66609702;33.63650216;38.27261046;-49.33845788;15.49175467;6.415286442;6.072465725;5.576842724;-8.609902561;-13.33591206;-12.60818481;-18.82643463;-2.230760992
-4.773876335;-61.93984719;-18.37963499;-18.70648403;1.451861586;0.49630175;12.52893058;22.4862125;36.82980455;-52.40493735;14.35963779;3.540696275;6.872417194;4.339641183;-11.02865462;-7.748210329;-10.60439649;-14.78137348;-1.321376136
0.363315376;-60.40114574;-15.07079481;-19.40077469;2.400606268;0.301596574;14.2199244;15.05959089;37.54299062;-52.40628893;13.67731369;-2.251155016;4.121221432;1.793940056;-12.5437469;-2.542176253;-7.53158481;-9.863974626;-0.014486718
4.129174403;-58.63529486;-11.02324357;-18.71891255;3.713198501;0.035699283;17.91070521;19.87194474;38.27968535;-49.02126171;13.38888979;-7.854915284;-0.127050028;-0.998871939;-13.54899147;0.155322786;-3.684793967;-5.140196229;1.484967875
5.666448823;-57.10142153;-8.173859378;-15.75253936;5.903339884;-0.237485906;17.73109211;35.70192591;39.10756738;-42.91306927;13.42860977;-10.78756513;-3.613983373;-3.154700357;-13.47137015;-0.199532038;0.075381055;-1.819383934;2.774858978
5.604856454;-55.88361489;-7.244700018;-10.54285449;9.23778661;-0.44803786;10.71411014;50.08855845;43.027849;-35.09928804;14.37688484;-10.51003906;-5.304520426;-4.613008504;-11.49114166;-2.306118883;2.822182617;-0.438311758;3.45857535
5.619882948;-54.33848611;-7.102509281;-4.054493482;13.49466225;-0.557339299;0.957592408;47.32714481;52.9212772;-26.65336601;17.20995903;-8.242664874;-5.666204659;-6.041857083;-7.676451516;-4.026287078;4.155274949;-0.335212275;3.404910362
7.405392231;-51.50566081;-5.545680951;2.297296356;17.9627775;-0.57154119;-2.502247314;20.63038004;67.43391018;-18.77925486;22.32766529;-5.723810644;-5.793235233;-8.143105352;-3.279823159;-3.840501143;4.424693425;0.054747258;2.860428505
11.71473809;-47.02261481;-0.957036235;7.245173128;21.69850335;-0.526397835;6.631452349;-20.98423259;80.09429085;-12.79919925;28.81013171;-4.02308767;-6.242212129;-10.96662929;0.144195855;-1.671749223;4.413616053;2.151278305;2.304662237
17.97812207;-41.7332978;6.382781809;10.08069617;23.87528272;-0.459528026;24.75784283;-57.09922865;83.50168778;-9.671835058;34.73057155;-3.204808003;-6.52962845;-13.76914996;1.932496164;1.420831019;4.746757679;6.159248876;2.137062728
24.59657165;-37.34134289;14.27850205;10.75853377;24.01641397;-0.391807123;38.39882162;-69.04276816;75.78996932;-9.245349635;38.43254678;-2.772488788;-5.572078131;-15.4622553;2.648214725;4.268012434;5.506100248;10.833787;2.423306412
29.66053771;-35.25327806;19.919554;9.774665769;22.02614906;-0.328024411;32.80616857;-52.28767494;63.79801431;-9.946383082;39.78302044;-2.224527361;-2.567471811;-15.24101777;3.270325776;6.436392994;6.342640852;14.33830883;2.888423086
31.72839075;-35.50964629;21.59112304;7.967599157;18.1068399;-0.269829063;3.412238625;-18.9761316;59.27613658;-9.447709755;40.34613262;-1.180140381;2.436208272;-12.93268544;4.124591097;8.274893113;6.941309413;15.57941233;3.154093163
30.38531527;-36.72047888;19.64581186;6.326072209;12.7090255;-0.225662356;-38.73226935;11.08160462;69.97174733;-6.085022944;42.27157244;0.855585698;8.643129342;-8.926051589;4.719444246;10.28843591;7.401193994;14.98581942;3.031098742
26.43206748;-37.12912444;16.15183131;5.789523026;6.556976071;-0.20803563;-72.49974323;23.92405971;92.19389622;-0.059225947;46.7406079;4.58420836;15.03913393;-3.893074805;4.718654623;12.51357285;8.187119635;14.12159222;2.644785025
21.63964206;-35.97231617;13.55635776;7.000282741;0.637320683;-0.221422243;-79.97990368;19.4451906;111.2581367;6.535458636;53.1713183;10.5238198;20.8387368;1.415718765;5.033084063;14.47785991;9.701547291;14.45894482;2.312709566
18.09481317;-34.01619473;13.30674895;10.03049914;-3.995455569;-0.252697335;-58.19194454;8.669238742;110.6586222;10.98381656;59.75505345;18.36747721;25.57;6.231740167;7.70775364;15.72673985;11.86766822;16.30427477;2.288721641
17.32442308;-32.81088282;15.27570601;14.2023487;-6.594091822;-0.274101453;-20.78709046;3.562971777;83.95495742;11.63513853;64.82050965;26.71092156;28.93364607;9.836059815;14.32582173;16.36179019;14.10545582;18.71125117;2.578947827
19.5777958;-33.28038779;18.19544264;18.16149358;-7.062751064;-0.258936693;11.34689532;7.952788575;40.65328485;8.776352317;67.90181893;33.56238507;30.74138244;11.76996185;24.14992586;17.0327774;15.73527036;20.37404717;2.958939871
23.69194376;-34.83508592;20.6376342;20.29745546;-5.9965345;-0.200709045;23.58307546;16.27965338;1.262910237;4.115783501;69.71131341;37.39544394;31.03245042;12.09652591;33.75030101;18.34576282;16.46864914;20.69931964;3.153465368
27.71852688;-35.76330257;21.83617276;19.4376177;-4.324464509;-0.123487287;15.54453283;19.99348023;-15.47633832;-0.593191791;71.16684411;37.99249124;30.15813659;11.44678734;38.80582091;20.20988539;16.57323975;20.17572864;3.023462785
30.02771505;-34.5879746;21.91404167;15.54305136;-2.768454035;-0.075572361;-1.375266757;15.35580867;-4.372784137;-4.625794127;72.37736161;36.42882155;28.5849446;10.68830173;36.93267265;21.73887461;16.58728614;19.82336558;2.624797559
30.22905036;-31.27656839;21.55229107;10.01823602;-1.501055018;-0.106863774;-13.928588;6.075222091;23.60038365;-8.259139323;72.44359152;34.20396905;26.47233895;10.38143374;29.39409858;21.86204863;16.84884266;20.29614306;2.12547013
29.2883507;-27.33773548;21.4555947;5.327086947;-0.250785354;-0.238813521;-16.29669709;-0.726626379;49.35094105;-11.86848484;70.18662117;32.19060247;23.42055446;10.43509832;20.32164662;20.18449945;17.25208886;21.43432048;1.677818264
28.72755579;-24.7759578;21.96438345;3.921589514;1.252547398;-0.441778329;-12.17935209;-0.957837145;58.28125261;-15.13250152;65.15069376;30.18993125;18.76295191;10.27245992;14.03773435;17.39995246;17.42464409;22.57087825;1.352115065
29.4503275;-24.78138041;22.95510615;6.923695996;2.891097764;-0.6350875;-9.408245802;3.410769117;48.54566021;-17.16237884;58.07024869;27.37245128;12.32723101;9.409502346;12.54848388;14.90474541;17.13770774;23.18642968;1.157576427
31.04881849;-27.14578908;23.98120946;13.29881795;4.19652155;-0.717304794;-12.51079003;6.972049779;29.8422794;-17.433113;50.50572969;23.18284349;5.08161568;7.97581017;15.00531972;13.89412598;16.55752908;23.24930313;1.092806741
32.13633189;-30.68419415;24.55044794;20.15374856;4.821477499;-0.618109793;-19.41015104;6.248478897;14.83422138;-16.5640418;44.02954254;17.96774242;-0.986415106;6.712521373;19.18011759;14.61652009;16.09935371;22.9767907;1.157235863
31.50089381;-34.09531921;24.44919875;24.21793696;5.056253111;-0.345935652;-24.24163311;2.727765455;10.26063088;-16.06133452;39.59946601;12.86705963;-3.885019945;6.398236602;23.34124729;16.3091169;16.01211248;22.37974244;1.316599155
29.23166197;-36.4729269;24.00317182;23.79247863;5.900660824;0.000449624;-23.03905429;1.007926439;14.01576335;-17.08180817;37.44709507;9.11392583;-2.909709519;7.146447822;26.83049624;17.79425673;16.07448849;21.16891034;1.478109684
26.93540164;-37.21482389;24.10555762;19.98065202;8.510914446;0.273262524;-17.12858046;4.099977053;19.1355219;-19.26394115;37.30491388;7.308601368;0.740175082;8.165935022;29.14416483;18.24239894;15.69745414;19.1897;1.527833077
26.79389031;-35.77535037;25.86895245;16.26600505;13.33779556;0.354727139;-11.62322739;10.40138779;20.331361;-20.76573616;38.59112204;7.169469322;4.564213645;8.233728336;28.94560014;17.56788466;14.38161478;16.9317384;1.416332045
30.06420812;-31.84321287;29.95969821;16.46245864;19.56389621;0.228937096;-10.81365327;15.09708115;17.54614918;-19.67747295;40.4105783;7.843358571;6.245997393;6.565180664;24.56811486;16.29212387;12.17214241;15.48224755;1.216696122
36.06077937;-25.95410736;35.9640994;22.17966935;25.28816729;-0.002055943;-14.64822777;14.5732649;14.36165287;-15.73390029;41.59922708;8.462864162;5.013593533;3.437201905;15.98386683;15.12930255;9.748737991;15.79096552;1.087753898
42.34828217;-19.8615136;42.26531446;31.45011407;28.39949575;-0.175533333;-19.1262366;9.720456674;13.68023152;-10.84127504;41.10372369;8.561431798;1.949465446;0.097077463;6.380950399;14.67154487;8.076941308;17.83991901;1.153834388
46.04067598;-15.95721861;46.67933848;39.58752335;27.60452821;-0.167512245;-19.86051033;5.13854061;15.00562953;-7.807619073;38.63855526;8.174343513;-0.899055074;-1.974284084;1.276593629;15.32736917;7.877243483;20.53283082;1.391649315
45.3520264;-15.8238388;47.58596188;41.94015679;22.98175053;0.029631955;-15.5277177;5.058970869;15.58665415;-8.165667733;35.13801491;7.709835018;-1.896271169;-1.910319284;5.005089855;17.36307811;9.270807169;22.5366657;1.620351791
40.41285114;-18.94692836;44.85703495;36.86041235;15.77921606;0.304859095;-8.418129421;9.733865916;13.86805392;-10.8518698;32.48496323;7.750907216;-0.690395356;0.154205966;16.96168406;20.81595896;11.78041193;23.39850768;1.612397427
32.91618402;-22.777401;39.91206707;26.90078814;7.682436577;0.504874688;-2.050795478;15.49136043;11.63142996;-12.94654824;32.48324413;8.851327003;1.92489189;3.341570417;30.83924959;25.25211589;14.58925738;23.88806702;1.245493149
24.95971454;-24.39770332;34.78661106;17.30090441;0.074607853;0.537030239;1.748561362;18.24174216;12.61380053;-12.05391116;35.68;11.29636646;4.852765848;6.642152963;38.17451812;29.60688522;16.82966323;25.12291416;0.582586021
17.92293914;-22.69382239;30.81731927;12.63446402;-6.291456766;0.426741578;3.806177921;17.1232374;18.80486802;-8.495014756;40.87789156;14.84601044;7.459662138;9.394424441;34.10659731;32.38829012;17.76479466;27.16325063;-0.174885396
12.06553473;-19.33761516;27.87659134;13.81900225;-11.16082264;0.290045166;6.112430236;14.98660462;27.88;-5.481446858;45.74801943;18.61275746;9.696837378;11.35422326;21.11448651;32.27193724;16.90062415;28.39652796;-0.816322519
6.936426338;-17.66797356;24.72697334;17.56503854;-14.45960435;0.243852059;9.560666855;15.4195738;34.31007813;-6.920511437;48.1721479;21.26622922;11.65703491;12.45478444;7.621129064;28.77755845;14.123775;26.496537;-1.233195132
2.120881789;-20.19277996;20.23671518;18.73801923;-16.11710816;0.321452902;13.02448261;19.18482419;33.45718097;-14.35868135;47.41029842;21.59131866;13.13971757;12.58449521;2.127876756;22.59123176;9.848116088;20.38325213;-1.43976525
-2.282256741;-26.59760481;14.5228777;14.07533076;-16.1372353;0.454796022;14.45036605;23.39804301;25.30051604;-25.34588844;44.3432713;19.14927727;13.71901658;11.61774638;7.09205089;15.30312132;5.009936731;11.58177123;-1.51197042
-5.741305223;-33.83308372;9.109193779;4.672576797;-14.77516238;0.533062845;12.803259;24.16998222;14.65953572;-34.55835204;40.73090386;14.63507326;13.26462074;9.648747471;17.17952559;8.708370502;0.768758458;3.661587611;-1.513605123
-7.752108038;-38.25103667;5.923489178;-4.576142831;-12.59437008;0.489709508;9.088131876;20.23394741;7.678558469;-37.03554012;38.1055326;9.653944757;12.37496705;7.170158781;23.30646478;4.076012965;-2.015079445;-0.070765665;-1.471127994
-8.25371222;-38.148401;5.865818;-8.292082987;-10.30788359;0.35148237;5.649694518;14.21922543;7.399498661;-31.34491173;37.07173955;5.993310306;12.20381236;4.981424903;19.45276867;1.75426981;-3.220019531;1.056878919;-1.399600782
-7.690459122;-34.77497808;8.046705217;-4.402455414;-8.501939714;0.215729578;4.480940851;10.44590917;11.91012674;-20.52035668;37.35645217;4.792715394;13.69038536;3.845544148;7.070392651;1.224571329;-3.493996277;4.545346494;-1.33293092
-6.732626673;-31.11274899;10.31650921;4.290346056;-7.425144042;0.178691205;5.98229984;11.31232249;16.35214554;-10.17289475;38.35511843;6.076282786;16.77489094;4.121322401;-6.230392852;1.465833532;-3.812046041;6.555768541;-1.316436147
-5.911007474;-29.50369959;10.73106879;11.94594536;-6.950348953;0.272208394;9.035153935;15.57138551;16.94667196;-5.08885926;39.63660691;8.871667543;20.27728445;5.609998908;-12.59258655;1.408475472;-4.851471534;4.754309728;-1.367708333
-5.418400714;-30.04051176;8.874556606;13.69619407;-6.677460664;0.453819957;12.07784573;19.95953024;13.74275187;-6.555382809;41.06018254;11.77908215;22.62157519;7.683997093;-9.776237453;0.324200161;-6.626227193;-0.041106938;-1.450819465
-5.142560413;-30.89487206;6.054615286;9.002828984;-6.078065473;0.649098174;14.17314617;22.49747441;10.0792637;-12.01992593;42.56891827;13.62243485;22.89644717;9.573793982;-2.487982961;-1.923112188;-8.625693364;-4.693430008;-1.498810964
-4.817141454;-30.12027422;4.23345366;1.957373287;-4.628400322;0.805022839;15.30593775;24.2615735;9.524432529;-17.06091088;43.96776966;13.84025263;21.43603331;10.62924298;1.65697913;-4.831015116;-10.30793189;-6.351789458;-1.470527511
-4.153295827;-27.32316753;4.511001397;-1.70631577;-1.955944051;0.911038335;15.93136178;27.9308773;12.9629224;-18.20423256;44.90575199;12.49295249;19.45750129;10.45885391;-1.819688885;-7.487795966;-11.52935496;-4.706103415;-1.389833585
-2.920629951;-23.85882069;6.301085725;1.255783175;1.970654151;0.978282534;16.34417052;34.52961652;18.09562403;-14.78451456;45.0245392;9.999494373;18.03636318;8.971876445;-10.98559646;-9.058747879;-12.57498511;-2.095251518;-1.327534923
-1.039573753;-21.55864443;7.796236531;9.292951579;6.666882525;1.005346887;16.38733011;41.58517393;21.4685611;-8.885701683;44.09556854;6.825850761;17.23707068;6.386169641;-19.39555434;-9.320754141;-13.81075445;-1.46726488;-1.339085944
1.281440559;-21.21858999;7.331557091;17.21334077;11.1178352;0.967718699;15.60213615;44.68877607;21.16545566;-3.698230186;42.05598456;3.302520778;16.10440416;3.207746124;-21.407314;-8.901400118;-15.29989196;-3.948377513;-1.414217191
3.44925593;-22.1463631;4.594164324;19.89529034;14.03773313;0.842083197;13.60511319;41.27059356;18.03411129;-1.514959204;39.02056879;-0.379598185;13.53938473;0.126198273;-16.58455765;-8.980807239;-16.73316613;-8.039224975;-1.485692276
4.583681657;-23.01304997;0.779425191;15.80949366;14.35303923;0.641279371;10.44797396;33.20608171;14.74317964;-2.591225807;35.36934579;-4.061356142;9.371072227;-2.205077808;-9.814946959;-10.55995745;-17.71953666;-11.03184708;-1.490314124
3.873906368;-23.08834473;-2.375028544;7.816313451;11.67660617;0.423697158;6.811389619;25.73674226;13.70782026;-5.377820419;31.84933182;-7.508572337;4.760473461;-3.429595432;-7.320251982;-13.75343647;-18.14727928;-11.36106564;-1.426373784
1.048974697;-22.6983801;-3.897697691;0.791870382;6.495935494;0.263102002;3.910310547;23.42016817;15.56705735;-7.753152194;29.48030703;-10.39140182;1.578271462;-3.630184933;-11.91964358;-17.61983681;-18.26154216;-9.861084593;-1.35441665
-3.340548306;-22.58126042;-4.233407435;-1.997247164;-0.048891131;0.200948452;3.010330755;26.53524682;19.14636006;-8.364818031;29.14;-12.36119226;1.190729523;-3.22915931;-21.22852151;-20.69629252;-18.37217401;-8.893978119;-1.34071653
-8.079291801;-22.8954535;-4.783069174;-1.006621813;-6.669754324;0.22040504;4.664685677;31.07884293;22.56665821;-7.262407135;31.01074144;-13.16293098;3.550555479;-2.67732628;-29.87624111;-21.88718826;-18.46328855;-10.16671513;-1.39624178
-11.86235304;-22.94074167;-6.745171754;0.462824461;-12.41899618;0.263828938;8.14188655;32.38885047;24.46842313;-5.53134864;34.31485638;-12.69653221;7.265195005;-2.126414758;-33.59542899;-21.07911936;-18.09399831;-13.16437698;-1.46791843
-13.96193091;-21.91417584;-10.17707058;-0.762495584;-16.89676353;0.278617794;11.64216584;29.24312493;24.58028222;-4.278228502;37.66343507;-10.98726972;10.58156297;-1.318138674;-31.81395363;-19.05932026;-16.73777749;-15.56513184;-1.489674252
-14.54876988;-19.9611914;-13.97351028;-5.132092213;-20.11818071;0.252768718;13.44488685;24.85533852;23.57259826;-3.707630006;39.88787097;-8.115309695;12.54900104;0.207927298;-26.98918422;-16.8565953;-14.30882022;-15.27571874;-1.444519601
-14.43114796;-18.4173482;-16.71921783;-10.18953307;-22.20476917;0.211782185;13.27874431;23.92038674;22.57145215;-2.95112351;40.78337473;-4.2087075;13.51237689;2.703210521;-21.80486682;-15.06412904;-11.42068877;-12.32684651;-1.378962354
-14.36812111;-18.84301588;-17.70685001;-12.80122799;-23.14998931;0.183277964;12.72007813;28.34116449;22.63408477;-0.796057057;41.17321221;0.445173844;14.61295744;5.865531335;-16.99937406;-13.67491538;-9.108570055;-8.984805027;-1.356841506
-14.43088183;-21.60149029;-17.32853878;-11.82396118;-22.81455791;0.163827463;13.97199042;35.41247488;24.25118903;3.184652691;42.19302117;5.252145296;16.72267508;8.813058386;-11.70270157;-12.48660188;-8.179378394;-7.950448449;-1.397628421
-13.88765318;-25.25518257;-16.58288087;-8.94759921;-21.12148616;0.119241226;17.75413261;40.04380766;26.9513628;7.952175474;44.32649272;9.318717636;19.64138419;10.44546464;-5.657251961;-11.62126103;-8.672294637;-10.13073285;-1.45890081
-11.74526578;-27.43081116;-16.14662365;-7.046078337;-18.28073819;0.01827135;22.10061584;39.038493;29.29817896;11.38632831;46.96231725;11.75497821;22.15935326;10.02356937;-0.864562264;-11.60567516;-9.843972223;-13.82406811;-1.479669134
-7.611569426;-26.54543837;-15.78439697;-7.507376311;-14.86279526;-0.131289838;23.46101879;33.68308948;29.5697523;11.6172278;48.85064318;12.18829813;22.92366365;7.64965305;-0.673587643;-12.86701523;-10.68858417;-15.9855732;-1.441671201
-2.270893944;-22.99812105;-14.57294894;-8.895466773;-11.64519666;-0.278023498;19.64074922;28.47425008;26.94266407;8.437176753;49.11;11.16135661;21.45657308;4.358356418;-6.705068425;-15.06727622;-10.59427693;-14.54029979;-1.387550106
2.500969231;-18.83252439;-11.75007813;-8.170314413;-9.296675967;-0.360039063;12.25247086;27.2627661;22.39115219;3.737622832;47.97307275;10.05430829;18.58464112;1.722494623;-16.21326589;-16.92226009;-9.654628775;-9.900279514;-1.37682168
4.874120777;-16.14093613;-7.492625489;-3.485197656;-8.05925518;-0.348691934;6.274262896;30.30772474;18.42673627;0.515574108;46.66010489;10.44098405;15.984961;1.139389335;-22.54185122;-16.8049801;-8.450078125;-4.542181464;-1.422963383
4.120520547;-15.52289925;-2.973935613;3.847681821;-7.599843212;-0.26632585;6.47994989;34.74926001;17.55756918;1.017396293;46.4775767;13.20526302;15.18174912;3.152275748;-19.03706042;-13.78477162;-7.53194062;-1.080339478;-1.476312974
1.241636063;-15.83623318;0.389324608;10.03931734;-7.131990256;-0.164306162;13.33927294;37.7872637;20.44747084;5.286454394;47.86856632;17.98428464;16.67422363;7.168192928;-3.917434154;-8.343092914;-7.038108507;-0.411178763;-1.474083665
-1.40995078;-15.36449914;1.954901357;11.7870885;-5.784262513;-0.081935079;21.97179249;39.38456611;25.22451326;11.17605983;50.16683998;23.34132581;19.72898145;11.73894588;17.51134194;-2.195469721;-6.708083064;-1.329209423;-1.41026885
-1.384296789;-13.34921928;2.361331937;9.166324115;-3.061404674;-0.022105158;25.63210938;41.87503398;28.65595616;15.86081286;52.21533521;27.58326847;22.88634114;15.26912547;35.27286426;2.694654761;-6.211154854;-1.760508646;-1.352160845
2.435560851;-10.60333998;3.103734025;5.988975939;0.829746261;0.037391514;21.38875615;46.91760002;28.43568082;17.76816281;53.30637079;29.68451275;24.78636039;16.77395903;40.50326347;5.220966669;-5.467369666;-0.507764954;-1.37730656
9.078426049;-8.791655639;5.437732313;7.107219485;4.979781693;0.111141155;13.29898729;52.9169157;24.83757801;17.51779268;53.67160243;29.71839103;24.80712791;16.28014311;30.88125013;5.598643321;-4.703814843;1.867387944;-1.485176772
15.87597133;-9.12808408;9.370858907;14.60570137;8.135082251;0.185236279;9.819188653;55.74269287;20.39940017;17.19428391;54.16355802;28.58078045;23.23193964;14.67503773;12.12316729;4.935826213;-4.257133694;3.581275171;-1.574199172
19.78559326;-11.66683984;13.45880523;25.82286356;9.245361621;0.229210381;16.72810555;52.46075656;17.87217494;18.54742107;55.45089443;27.30788976;20.991151;13.13846356;-5.419760863;4.326228144;-4.346593025;3.003896529;-1.524411552
18.87666256;-15.71621019;15.57276408;34.82507492;7.907850333;0.229661793;30.95330507;44.68251919;18.10780029;21.53274785;57.41649685;26.52412601;19.21132104;12.5268286;-12.81225408;4.174844678;-5.017197795;-0.240294855;-1.326314387
13.14461017;-20.81581732;14.14244874;36.33709528;4.468994151;0.212386131;40.76958198;38.05742885;19.61109477;24.32359063;59.22047117;26.34143442;18.78133768;13.06803742;-7.396980323;4.195278104;-6.24144288;-5.169321084;-1.137848951
4.27035296;-27.20562849;9.073982638;29.26759973;-0.243887937;0.228651533;33.30560758;37.73718834;20.06448774;24.75993351;59.90819632;26.59634365;20.03413708;14.4835552;6.368759396;3.939724001;-7.994861324;-10.20124575;-1.196475539
-5.39771646;-35.24572755;1.790408647;17.31047243;-5.357722066;0.313685722;4.423544987;43.52356642;18.44805619;22.07174823;59.02636539;27.06420145;22.59363672;16.35953446;20.21502521;3.330513315;-10.16045082;-14.0557486;-1.634762367
-13.93840192;-44.32117698;-5.556907776;6.341172627;-10.26770239;0.452303714;-36.46247655;49.26696112;15.89322499;17.51867447;56.78916084;27.44213359;25.46674364;18.45249492;27.09681977;2.749754201;-12.33095301;-16.17379838;-2.343992205
-20.40293654;-52.37711579;-11.1426498;0.672685164;-14.66618501;0.582975732;-70.85975138;47.76778978;14.55687631;13.46836444;53.78378894;27.25643412;27.44948658;20.72135274;24.83261508;2.68379477;-13.74895582;-16.56686084;-3.010655669
-24.65913964;-56.77410832;-14.13977931;0.88246586;-18.35629637;0.639620862;-82.43513721;37.51952563;15.57224928;11.67225511;50.5830918;26.02121318;27.76093104;23.12491554;16.48520806;3.304294906;-13.56479398;-15.45337852;-3.319363197
-26.88238279;-55.99287868;-14.71704783;4.483459688;-21.07746056;0.597803856;-67.30637166;25.39988342;17.94962146;12.09634047;47.61513405;23.73114989;26.58574904;25.41042118;7.820503067;4.376292856;-11.32543911;-13.05686977;-3.176026175
-27.2017776;-50.86762458;-13.55762431;8.459693346;-22.52718679;0.487780659;-36.15485907;22.17219383;19.43054577;13.16781956;45.29559434;21.31955387;25.11758539;27.10523489;3.798123183;5.54643019;-7.361016598;-9.636091053;-2.77649103
-25.75119239;-44.26787292;-11.34835388;11.44321721;-22.56395973;0.36519742;-6.815458475;33.53430143;18.52248973;13.1446986;44.13052314;20.52608993;24.92647251;27.74;6.214320479;6.709102992;-2.741535652;-5.55881145;-2.460377838
-22.94889981;-39.33089245;-8.56385179;13.95308346;-21.3958705;0.26653139;7.179486033;53.6929921;15.86025589;11.45859156;44.54528054;22.98207776;26.94511098;27.13941222;13.51558612;8.092618007;1.238063774;-1.251033391;-2.45959988
-19.60836359;-37.50654704;-5.534511597;16.93675592;-19.55715048;0.188632956;4.036196206;67.27217251;13.64395454;8.995366455;46.53021926;29.00984929;30.74107905;25.56894738;22.35218631;9.982606449;3.734828276;2.939701333;-2.736994128
-16.65003906;-37.85391396;-2.557199831;20.24082847;-17.65317377;0.109086166;-7.510143893;59.25500057;13.65650741;7.2153359;49.46100879;37.04660768;34.66466282;23.64258414;29.58188347;12.34152933;4.749784883;6.802059277;-3.039120433
-14.58533354;-38.07468853;0.135808487;22.47719702;-16.05721232;0.026545309;-16.10725291;26.21093823;15.67577128;6.957709619;52.35681693;44.29;36.89328405;22.06383643;33.53801631;14.68123081;4.979955397;10.16723901;-3.114744014
-13.21416019;-36.45477786;2.490287188;22.3205614;-14.78923128;-0.018863243;-15.907866;-19.56728276;17.75469258;7.943802022;54.4452196;48.2704557;36.70489559;21.35480425;34.14588848;16.32035253;5.251156215;12.77875977;-2.918251344
-11.85722641;-33.24851139;4.61180351;19.91754052;-13.65423922;0.031782442;-9.142142863;-56.63112042;18.12932414;9.29844145;55.58100579;48.27813181;35.04534611;21.68574902;32.27018241;16.81904243;5.929106294;14.29561088;-2.634302334
-10.00241861;-30.53316974;6.519415667;17.00490692;-12.49836028;0.205725589;-2.323099391;-67.53404892;16.97932983;10.49409178;56.14639537;45.59786322;33.88721903;22.82548244;28.99492337;16.23084215;6.690734785;14.45147326;-2.511167158
-7.853148282;-30.7326267;7.867041767;15.54776347;-11.3491095;0.462155163;-0.171170074;-49.58834775;16.33678397;11.79140419;56.50308625;42.37732403;34.75456353;24.18906898;25.28964855;14.97253389;6.767550159;13.21031554;-2.648434518
-6.278962744;-34.92790788;7.987572114;16.09333695;-10.32458991;0.703068092;-2.399865828;-15.90363898;18.10909715;13.76991723;56.47938718;40.01110485;37.46314899;24.98329349;22.01391584;13.4383001;5.46508356;10.75792194;-2.918270828
-6.124599136;-42.10093357;6.413780625;17.34051679;-9.418928062;0.827239881;-5.351811467;13.66514248;21.97038617;16.42545329;55.36830894;38.28570173;40.04820603;24.46969453;19.89593819;11.69243237;2.626637769;7.365984236;-3.082347678
-7.386681108;-49.70080609;3.570861626;17.37203233;-8.396325357;0.788676254;-6.176372433;25.03894909;25.13456322;18.75348964;52.46742214;35.88483466;40.02071073;22.30565277;19.22912082;9.496262454;-1.203592998;3.338069408;-2.999927354
-8.953057434;-55.03670059;1.016386695;15.51188741;-6.935567843;0.617835394;-5.462048222;17.33984707;24.43507865;19.33063193;47.69893746;31.7296839;36.10429037;18.80910178;19.43765073;6.639305564;-4.964191831;-0.832300628;-2.74764981
-9.220039063;-56.60507525;0.789972163;13.1646492;-4.935293688;0.393910745;-6.162594413;0.891577825;19.05158869;17.49467987;41.76077382;25.97489402;29.21279404;14.9415791;18.98404795;3.295761584;-7.490485763;-4.255055581;-2.550063477
-7.216756956;-54.68108998;4.097869812;12.81502991;-2.723121121;0.193610052;-10.2304087;-11.61135214;11.50396864;14.11230673;35.67168885;19.85084951;21.95698973;11.9206071;15.9892308;0.111358497;-7.980637272;-5.75040288;-2.583007256
-3.410698409;-51.020177;10.2134221;15.93120518;-0.964277943;0.055618493;-16.33139739;-13.78945322;5.896148092;11.17766317;30.12177809;14.59946646;17.03577921;10.61940008;9.410019531;-2.062985262;-6.343372207;-4.449599347;-2.820058594
0.46126306;-47.93122074;16.53330095;21.49376698;-0.302738864;-0.018803881;-20.78560626;-8.219938787;4.728268298;10.43169396;25.21995778;10.55163147;15.6655349;11.10893749;0.056303791;-2.614711053;-3.286480614;-0.580127813;-3.05431227
2.487095681;-47.15492288;20.00542246;26.42335325;-0.990853593;-0.041052204;-20.79304467;-2.294536321;6.895872941;12.04756243;20.86022372;7.219392548;17.1256059;12.65940987;-9.372566916;-1.500039063;-0.063606545;4.236545038;-3.077068989
1.833365224;-49.0025183;19.09413573;27.66031676;-2.780323983;-0.015457879;-16.93567643;-1.534277606;8.591497754;14.45442501;17.33027197;4.279979134;19.62335398;14.22782271;-15.49702682;0.73839534;2.076772301;7.654920312;-2.86091203
-0.764368056;-52.16322881;14.88753838;24.30696393;-5.141262512;0.057264941;-12.68494447;-5.750764315;6.432545517;15.50590121;15.5104094;2.424129266;21.70242793;15.11286207;-16.09396503;3.262344072;2.516668677;8.003605998;-2.58942596
-3.645803732;-54.39923681;10.41803739;18.17297409;-7.620182348;0.161843875;-11.39276264;-10.41184344;0.271750434;14.1225045;16.34073882;3.089738844;23.09224787;15.32666144;-11.3896438;5.360143547;1.624324342;5.473705872;-2.504905576
-5.519713903;-53.92101344;8.528570859;12.31626127;-10.05527247;0.260022583;-13.46771295;-11.21564618;-6.608552546;11.125649;19.91176327;7.120241206;24.44525918;15.43617622;-3.906415841;6.77107978;0.573020751;2.129169191;-2.699134418
-6.421269765;-50.71509072;9.76376517;8.729989565;-12.50787629;0.307050283;-16.18987389;-7.709282979;-10.05991201;8.587237018;24.96315619;13.4871181;26.34991937;16.02107848;3.067530617;7.748261345;0.65152251;0.562266274;-3.023104542
-7.600184005;-46.88851635;11.8770403;6.958901705;-15.0131778;0.282950455;-16.22204396;-3.183059116;-8.277877915;8.176976526;29.34418552;19.36618287;28.56396067;17.17591796;7.339528851;8.828672505;2.444880416;2.074247984;-3.196978737
-10.42939029;-45.54813649;11.43583298;4.670472186;-17.39020638;0.211432057;-12.53030245;-1.453974639;-3.077076785;9.785013996;31.24253872;21.81743199;30.14901755;18.43087379;8.73908558;10.42394805;5.408132254;5.720909145;-3.039083123
-15.18114428;-48.72115603;6.444308274;-0.306634644;-19.27447636;0.14715257;-7.181617914;-3.585131497;1.691095523;11.49991838;30.32937734;19.91194052;30.35790844;19.1243793;8.580458133;12.45447626;8.142974733;8.981149118;-2.633757524
-20.62045237;-55.67529693;-1.931871713;-8.050248759;-20.32940227;0.138391161;-3.451367433;-7.250884839;3.154509391;10.98554551;27.9564991;15.59764767;29.44661743;18.91038373;8.257699631;14.26624182;9.22936826;9.582839355;-2.301019803
-24.73554271;-62.95997756;-9.874153717;-16.16121414;-20.44502135;0.19366044;-3.024093424;-8.966728505;1.381724277;7.233716014;26.21618218;12.4595951;28.63079034;18.00248483;8.180198503;14.94808701;8.079188555;7.118363322;-2.381002125
-26.05548284;-66.3978497;-13.37312947;-21.19607777;-19.7669784;0.278203883;-4.74318114;-7.033505072;-1.165661346;1.392441328;26.51458464;13.17767597;29.13927623;16.99643823;7.85742781;13.92847389;5.258478961;3.245314783;-2.985921635
-24.57189555;-63.80610641;-10.91070689;-20.88822548;-18.56550327;0.341874208;-5.873065211;-2.709989767;-1.987919553;-3.925508116;28.66032617;17.57656968;31.1153774;16.45653453;6.880058594;11.50177812;2.095637361;0.381869718;-3.897173252
-21.60981344;-56.53491937;-4.445889738;-15.64160699;-17.08782638;0.354873986;-4.60770004;1.133764068;-0.594164733;-6.325000177;31.07240584;22.76666965;33.30266017;16.60959851;5.743415739;8.891530028;-0.117145969;-0.029082582;-4.681212001
-18.8060957;-48.62483892;1.972700137;-8.359657608;-15.51698061;0.323488438;-1.574060236;2.477354721;1.411518134;-5.088794894;31.89564336;25.27052184;33.85446441;17.34647271;5.630058594;7.69306546;-0.776497158;1.657942415;-4.946302387
-17.00638233;-44.08381877;4.917683024;-2.80910588;-14.0205063;0.276785034;0.886835598;1.571570388;2.042388771;-1.441671467;30.20563564;23.49887156;31.7002973;18.43533431;7.274456863;8.94505765;-0.089411473;3.908691099;-4.5717355
-15.88686911;-44.21095301;3.657668263;-1.598813932;-12.76604647;0.239692422;0.862975865;0.286702764;0.75083657;2.431446798;26.50764981;18.71283145;27.42142968;19.67949032;9.974394135;12.38765018;1.297656529;5.397338231;-3.767958264
-14.48614382;-46.91461748;0.204717719;-4.956100656;-11.82327789;0.216594503;-1.533087025;0.208747374;-1.275236964;4.789972617;22.29512544;13.84365066;22.9273387;20.85538521;11.8029595;16.42425386;2.789519422;5.933950723;-2.941099817
-12.11988567;-48.50659451;-2.494868925;-10.87090939;-11.02493035;0.196553915;-4.4548002;1.264627002;-2.492361127;5.159203344;19.06538957;11.21181452;20.12606746;21.53619572;11.0445185;18.89201922;4.082636908;6.214189127;-2.455658105
-8.916182538;-46.59352917;-2.727110394;-16.34307648;-9.962672502;0.170197778;-6.083941249;2.004828976;-2.679713334;4.136842852;17.45307139;10.94914826;19.54667758;21.07513653;7.702413705;18.2196307;5.076463544;6.772042242;-2.44049923
-5.604121972;-41.86852289;-0.930487121;-18.92985734;-8.21835396;0.13905761;-6.197817108;1.117552942;-3.314693155;2.566313665;16.94424456;11.23154618;19.91766449;18.91030616;3.689904767;14.27776325;5.675272135;7.214968402;-2.745199564
-2.844932832;-37.47152533;1.121388707;-17.7818435;-5.717541032;0.108379989;-6.185087054;-1.294720283;-6.26909908;0.862874761;16.22320048;9.932868786;19.01066373;15.03950917;1.341168083;8.411762788;5.744887723;6.512473901;-3.06016376
-0.750572667;-36.46489272;1.988137234;-13.76323025;-2.929590879;0.073027823;-7.633211423;-3.820192895;-11.98380039;-0.995124817;13.89171644;6.269814818;15.15856639;10.28007813;1.3647986;2.667495653;5.269011929;4.090675181;-3.122323316
0.992269816;-39.39869865;1.649021884;-8.776195494;-0.698392297;0.014384076;-10.85882526;-5.059133164;-18.75967995;-2.954720915;9.213737328;1.208299202;8.410532557;6.012192834;2.011120056;-1.28100938;4.499928988;0.687661234;-2.884865496
2.558729892;-43.82508399;1.21877025;-4.764220728;0.242553061;-0.084252139;-14.68029544;-4.909841608;-23.83446428;-4.462113616;2.595659725;-3.45537667;0.581006776;3.477121887;0.366016944;-2.853081084;3.873738095;-1.917595911;-2.551634609
3.564222948;-46.0890262;1.71923392;-2.917392367;-0.253786346;-0.215623384;-17.50955895;-4.641126158;-25.37927099;-4.61421483;-4.400541573;-6.383981004;-5.77783729;3.076760862;-5.075579606;-2.566277856;3.694758203;-2.195431474;-2.451802639
3.244526294;-43.99401253;3.080594849;-3.381790546;-1.641491419;-0.341188222;-18.65602646;-5.687627011;-23.7830543;-2.817818365;-9.598861825;-7.307752011;-8.772090349;4.177649522;-12.61299939;-1.437337407;3.862345141;-0.11311704;-2.822223335
1.144049801;-38.34181258;4.242356123;-5.452387299;-3.051131075;-0.409551294;-18.65430962;-8.243935263;-21.22036147;0.622052469;-11.17973827;-6.690934375;-8.076204086;5.586025467;-17.94622437;-0.233917838;3.938277806;2.770283929;-3.626142778
-2.278446314;-32.27589198;4.197376329;-8.004926262;-3.88286931;-0.389803354;-18.43741997;-10.90609566;-19.9282932;4.563953405;-8.667277362;-5.057096164;-4.907634744;6.370697571;-16.98112965;0.954621506;3.570476287;4.530568943;-4.528224975
-5.710173596;-29.02924757;2.987976962;-9.912467222;-4.193195008;-0.294743885;-18.27;-11.69625263;-20.61886428;7.793890575;-3.358209418;-2.723942903;-1.224130162;6.44645837;-8.839193723;2.620780062;2.931460078;4.453402293;-5.060870768
-7.762922366;-29.78921776;1.730107343;-10.34857294;-4.596144214;-0.175334021;-17.51332701;-9.624555985;-22.22865834;9.921285109;2.195422555;-0.09430392;1.300372279;6.504282237;3.196453193;5.337319924;2.735302311;3.633138035;-4.897122448
-7.903598402;-33.16195834;1.621743245;-9.02387994;-5.764188664;-0.089578355;-15.42150658;-5.505162625;-23.04017406;11.65535649;5.49758935;2.030893815;1.966831735;7.360019531;13.5546601;9.173351875;3.701377985;4.043605944;-4.065386401
-6.79378267;-36.43730693;2.804440728;-6.380607504;-7.905401683;-0.068050052;-12.14260791;-1.389585794;-22.13457452;14.15927919;5.490504941;2.70023214;1.152543553;9.222961289;17.71907223;13.36533964;5.821535814;6.800660405;-2.961967762
-5.733858321;-37.56573377;4.101941908;-3.606016853;-10.58916954;-0.099226743;-8.892607287;0.879285933;-20.01278841;17.93088865;3.130813566;1.568170472;-0.088632588;11.43624535;14.66649645;16.44950851;8.046199231;11.04284224;-2.138376787
-5.620979985;-36.40017742;3.926163081;-2.2353579;-13.01160003;-0.141460694;-7.06620924;0.828694739;-18.03597697;22.10927507;0.744463563;-0.556552038;-0.63907617;12.88188412;6.859848148;16.85369736;8.769210214;14.39301788;-1.987985603
-6.238660956;-34.46724429;1.642814176;-3.306441178;-14.46943188;-0.149639045;-7.07031219;-0.598571315;-17.30687145;24.85707336;0.55041507;-2.06630517;0.158633228;12.75112556;-1.814947727;13.71622795;6.892198191;14.69659495;-2.528885529
-6.454856018;-33.65488852;-1.733688665;-6.456586216;-14.69779003;-0.098234019;-7.952001281;-1.975504977;-17.93682748;24.66055697;3.312853024;-1.735574289;2.26339028;11.12214424;-8.365375212;7.521945851;2.741889679;11.69351621;-3.42014773
-5.194580115;-34.87779231;-4.140078125;-9.666288172;-13.88454593;0.009493116;-8.181712264;-2.415172147;-19.16615862;21.62645167;7.976635367;0.189697646;5.035598552;8.938920796;-11.64822326;0.136742159;-1.876610213;7.313544807;-4.193366556
-2.434634123;-37.61023074;-3.960284724;-10.15425566;-12.44223066;0.144528193;-6.912438417;-1.888775401;-20.05836152;17.74705266;12.43178423;1.993101496;7.59026025;7.417119996;-11.80381402;-5.929269639;-4.638729667;4.352179686;-4.538721588
0.566132651;-40.43480009;-1.301697171;-6.170837166;-10.76838685;0.261499187;-4.624195451;-0.78843406;-20.13148853;15.79116729;14.78111771;1.728418547;9.215281876;7.291744916;-9.327579452;-8.753434169;-4.091833397;4.523963187;-4.456789506
2.01;-42.0654472;1.917411473;1.397020288;-9.156951774;0.312595518;-2.637585794;0.634098891;-19.52452725;17.48619533;14.23044886;-1.238843863;9.641174068;8.399988223;-4.954044439;-8.061148361;-0.558519193;7.328618226;-4.192044535
0.750192963;-42.11488541;3.162157349;8.889217891;-7.83604006;0.267328053;-1.990476312;2.327597644;-18.77558858;22.23913581;11.13280451;-5.680470013;9.032398738;9.834799389;-0.340457214;-5.42868166;4.054141624;10.50100678;-4.021045868
-2.926485781;-41.19094034;0.927867341;11.68097309;-6.991028499;0.134052122;-2.690527131;4.009374404;-18.52950138;27.33939082;6.409451022;-9.475180918;7.739970446;10.51899813;1.608789326;-3.403819436;7.397731401;11.6188703;-4.060829813
-7.462282016;-40.39318996;-4.280728539;7.032835622;-6.686806249;-0.030713419;-3.940039063;4.855565443;-19.35043047;29.58014045;0.962042737;-11.35184226;6.010237593;9.807618419;-2.168643053;-4.020852181;8.001610392;9.653150824;-4.227695428
-10.98280934;-40.60132338;-10.25652969;-3.874813058;-6.755972961;-0.14041392;-5.005583378;3.878263401;-21.56106471;27.24243082;-4.493589292;-11.95771822;3.870982013;7.766370036;-12.70218056;-7.638760192;5.922510388;5.415975468;-4.350166542
-12.35592567;-41.97701179;-14.42527622;-16.26515278;-6.80375416;-0.123766887;-5.84570589;0.855377267;-25.00367041;21.1265525;-9.258455232;-13.31621677;1.278291035;5.026783938;-27.38393959;-12.86093264;2.397168911;0.763501396;-4.325730527
-11.66827735;-43.92279427;-15.32683755;-24.46179486;-6.399800389;0.026956125;-6.914618017;-3.010299912;-28.84693533;13.97774651;-12.56968306;-17.07233922;-1.602696754;2.38484402;-40.63105617;-17.56663787;-1.131806384;-2.706835036;-4.194340094
-9.910665763;-45.49180396;-13.35819735;-25.27391361;-5.350463319;0.240284986;-8.403018302;-5.494764693;-31.73859736;8.75505121;-13.88142181;-22.9629267;-4.233708794;0.417729883;-46.88316642;-20.3081311;-3.879858905;-4.503259117;-4.084511864
-8.216879802;-46.01563394;-10.41948343;-19.79962022;-3.841605009;0.401776066;-9.741311987;-4.775244143;-32.43571987;6.940644397;-13.31680857;-28.80240348;-5.839409182;-0.691032869;-44.04450136;-21.08899316;-5.928359458;-5.16570419;-4.094052987
-7.224335446;-45.58195809;-8.757708915;-12.43167834;-2.32120238;0.424371996;-9.937753194;-0.868345099;-30.60612245;7.968746672;-11.8024912;-32.04619687;-5.808599476;-1.103178136;-34.87240199;-21.03379309;-7.778009108;-5.536818883;-4.210624952
-6.917311088;-45.02918946;-9.69927425;-7.819442669;-1.196793098;0.30544717;-8.499146771;4.122294772;-27.19978882;10.00142879;-10.59278201;-31.70131208;-4.113670123;-1.166336314;-25.20212925;-21.30930016;-9.712283429;-6.037476992;-4.331253687
-6.908215811;-45.38080954;-12.95093422;-7.96176169;-0.578805967;0.127369958;-6.07119182;7.318347641;-23.99361365;11.3480808;-10.43481527;-29.06871633;-1.45410457;-1.262656316;-20.24302697;-22.19695292;-11.48797766;-6.449533978;-4.353146548
-6.84266372;-47.02723537;-16.81287951;-11.40581751;-0.267587454;-0.00195069;-4.128831524;7.055005691;-22.52957946;11.4822527;-11.02007813;-26.74911439;1.013442056;-1.704826311;-21.59315053;-23.02528639;-12.53277251;-6.237035181;-4.255874587
-6.637627159;-49.22695283;-19.17764564;-14.88567579;0.016891167;-0.025848079;-3.88608943;4.038137986;-23.18950456;11.04038583;-11.21437962;-26.72411726;2.239429055;-2.647797948;-26.95634169;-22.9240282;-12.41305626;-5.061582554;-4.113534443
-6.473918917;-50.38456301;-18.78187974;-15.94664324;0.360232326;0.025011234;-5.319327204;0.750385667;-25.09561105;10.99628786;-9.942451648;-29.00759113;1.832522912;-3.990983823;-32.39135668;-21.68626212;-11.16573285;-3.103794293;-4.037808385
-6.643390522;-49.05332043;-16.00778211;-14.53854509;0.560281379;0.064866819;-7.143105024;-0.442514459;-26.89306777;11.76021546;-7.043316162;-31.83089251;0.284779297;-5.316108718;-35.07918495;-19.97831412;-9.255729321;-1.020982388;-4.100879392
-7.374629351;-45.02527168;-12.71725595;-12.57351787;0.283610941;0.027265471;-7.781114716;1.006270051;-27.77398177;12.87887663;-3.407157236;-33.0778797;-1.267044282;-5.958015107;-34.52805824;-18.73701721;-7.243056832;0.379913671;-4.286993805
-8.687073906;-39.68154545;-11.12442226;-12.11545085;-0.665779024;-0.078683377;-6.537769823;3.638099281;-27.93445215;13.45420424;-0.286453969;-31.76741248;-1.63148907;-5.262312371;-31.73902987;-18.30970037;-5.445151064;0.557898695;-4.488492544
-10.28710445;-35.21417127;-12.33092995;-13.8156599;-2.183422834;-0.176221713;-4.029174729;5.387469817;-28.15909542;12.84501952;1.643079166;-28.49289953;-0.199317109;-2.947871972;-27.61151345;-18.10389917;-3.826595476;-0.443282014;-4.53651351
-11.56627847;-33.14949579;-15.46733958;-16.74382371;-3.921962966;-0.186751695;-1.584528348;5.337999623;-28.96124017;11.08559044;2.698414901;-24.67496378;2.713672703;0.638635473;-22.24543733;-17.04942707;-2.13003418;-1.905078161;-4.25778773
-11.79780958;-33.19716042;-18.10311285;-19.42406676;-5.498936256;-0.099277145;-0.189318715;4.357664082;-30.04099317;8.777249932;3.769536641;-21.41040041;6.017901173;4.590019531;-15.60729443;-14.4564691;-0.086697144;-2.646773238;-3.557414262
-10.5359253;-33.31527344;-17.78505213;-20.90913843;-6.678678793;0.014664432;0.136477491;4.136943759;-30.49431805;6.65167517;5.471889883;-18.86484422;8.435053551;7.866672456;-8.531386176;-10.51977007;2.454108485;-1.516969318;-2.512016878
-8.022299868;-31.05065969;-13.74124477;-20.93184631;-7.405413753;0.05455593;0.088073791;5.54095946;-29.5383912;5.193318031;7.631028788;-16.53414258;9.20209935;9.86693214;-2.704844626;-6.061506663;5.502264861;2.014226437;-1.419222896
-5.273339462;-25.27170815;-7.562159498;-19.26244412;-7.711152382;-0.029408323;0.298742447;7.761095574;-27.11186102;4.543083429;9.538908793;-13.92778664;8.478055419;10.7688352;0.574438701;-1.806404132;8.923902866;7.46851213;-0.731732477
-3.644823787;-17.07721382;-2.2957528;-15.26903288;-7.62217988;-0.194959607;0.784584688;9.019390848;-23.89146243;4.604101547;10.71534292;-10.98550217;7.180522601;11.3712465;1.64660549;2.100203695;12.39183682;13.44977161;-0.853046401
-4.031827118;-9.218081892;-0.492835258;-8.457896384;-7.158533616;-0.338681025;1.064861717;8.186265301;-20.81754854;5.134641239;11.44619555;-7.949986433;6.322149545;12.48763431;2.304984385;5.874744333;15.34281846;18.23877278;-1.877826445
-6.205630745;-4.415473531;-2.523658228;0.347342948;-6.40574265;-0.37497239;0.743864081;5.847645561;-18.60723203;5.741572895;12.56750127;-5.006905923;6.264504361;14.28523922;4.073562256;9.420489296;17.07313324;20.59866726;-3.445167467
-8.804687213;-3.724065239;-6.341283886;8.450654841;-5.556862061;-0.300457734;-0.063802653;3.836896576;-17.62309122;5.902651479;14.65275858;-2.183800647;6.411992346;16.05489365;6.504566726;11.93234236;17.03367667;20.33706106;-4.847857839
-10.09581476;-6.015914015;-8.854857385;12.35186437;-4.853291182;-0.193644239;-0.87299379;3.617346964;-18.02642917;5.186641943;17.32873282;0.364573489;5.61082044;16.63293765;7.342952665;12.32035325;15.20301689;18.31233437;-5.388237451
-9.060556904;-8.834345553;-7.932445395;10.06317709;-4.459276055;-0.151868313;-1.357210671;4.951226451;-19.85427539;3.632112587;19.37738888;2.056652346;3.02885783;15.23115051;4.81115494;10.2318752;12.27970574;15.92632931;-4.784838601
-6.070604495;-9.929214093;-3.636859493;2.974448484;-4.377865448;-0.216653786;-1.708659182;6.073719698;-22.81849225;1.985924964;19.61624577;2.043798713;-1.093933723;12.09667942;0.110185136;6.798370307;9.486826795;14.4493911;-3.359612874
-2.657187042;-8.416986446;2.08448654;-4.445239635;-4.481433097;-0.345453779;-2.448629237;5.271858549;-26.05274481;1.47903677;17.85593958;-0.12682759;-5.407589868;8.49275287;-2.421277541;4.309353136;8.019930455;14.55858783;-1.854914985
-0.509737878;-4.916323578;6.876302496;-7.311264724;-4.621533402;-0.448739915;-3.859970029;2.500133992;-28.24739269;3.124822808;15.12244926;-3.862001949;-8.23537469;5.950429183;1.69709372;4.83665129;8.431877313;16.2447856;-0.978597029
-0.395871247;-0.805077948;9.441071118;-3.644495871;-4.708773395;-0.459840556;-5.598956473;-0.416772123;-28.32416764;6.94494292;12.91983972;-7.532977812;-8.677531135;5.276644229;12.98605428;8.74482881;10.33325495;18.97613142;-0.976602936
-1.749862583;2.700205145;9.965781404;4.083919807;-4.689245633;-0.382247572;-6.887108626;-1.23316217;-26.23663115;11.69526491;12.1103468;-9.319337748;-7.24706531;6.015172675;26.3105138;14.24275406;12.61305697;21.91547019;-1.525720775
-3.181878316;4.991926304;9.396540929;10.4543727;-4.457323641;-0.280989227;-7.13058654;0.837610726;-23.19743558;15.3876158;12.32127309;-8.356577927;-5.53590605;6.765459172;33.59541881;18.41439746;14.05873618;24.10477396;-2.015137987
-3.493010008;5.910126573;8.350019531;10.68707261;-3.823164504;-0.230186545;-6.393587325;4.451321559;-20.98613372;16.35206527;12.36052432;-5.342540828;-5.099169048;6.162914889;29.4387668;19.05016519;13.99986458;24.67809428;-2.004721174
-2.449149616;5.341508472;6.624810395;3.788206527;-2.613048423;-0.260267164;-5.272598238;7.285694756;-20.75132862;14.17429366;11.28575367;-2.125388909;-6.337512196;3.848884774;15.43053156;15.97529065;12.5911593;23.15994721;-1.523319305
-0.80503;3.054806995;3.646181445;-6.941300013;-0.850179788;-0.342741403;-4.281251641;8.039448261;-22.2261751;9.900379993;9.227029831;-0.557330602;-8.194388304;0.761743219;-0.422935123;10.95059288;10.59199279;19.74523709;-0.999464319
0.337504501;-1.058756945;-0.664617987;-16.25828365;1.137193627;-0.417065878;-3.336787836;7.5287571;-24.02204888;5.39509834;7.26963993;-1.430330209;-8.911831858;-1.439025979;-9.107839539;6.305314341;8.823001795;15.32862541;-0.900279611
0.284514737;-6.579070922;-5.440162988;-20.35522763;2.802950918;-0.432969182;-1.873972905;7.887537964;-24.79807552;2.300839241;6.49313548;-4.193996621;-7.317363867;-1.403372642;-6.901154276;3.386949718;7.669085741;11.1432417;-1.370978301
-0.930422387;-12.38806548;-9.260272781;-18.85222582;3.64085688;-0.376572581;0.46600029;10.53055612;-24.34561168;1.263469601;6.97840611;-7.524888643;-3.721440527;1.118736175;2.262161585;1.95887034;6.93581415;8.157905018;-2.149532045
-2.788628172;-16.96138552;-11.05580952;-14.243642;3.447401749;-0.268584286;3.197963971;14.65667199;-23.6585243;1.839565484;7.63987344;-10.21341386;0.212558006;5.199906822;10.17366736;0.850415147;6.110151247;6.623451074;-2.799750138
-4.761886265;-19;-10.76568467;-9.618412407;2.413139897;-0.146248079;5.062034717;17.66040247;-23.90442234;3.00763328;7.072037921;-11.72706497;2.51855514;9.318502558;10.77220417;-0.828606662;4.807683535;6.102102051;-3.052568807
-6.579009542;-18.04399318;-9.241104339;-6.594569305;0.995985238;-0.047259538;4.872699875;17.20534649;-25.17207044;3.853706274;4.761469416;-12.20332777;2.143347246;12.13060111;4.504291401;-2.955254036;3.084358843;5.955415804;-2.97457605
-8.123368305;-14.72410189;-7.551605171;-4.904616039;-0.31098232;-0.002246046;2.514086054;13.26767536;-26.11274656;4.007061258;1.687779525;-12.11072416;-0.502888801;12.93867948;-2.722125638;-4.673764871;1.408154637;5.889686727;-2.844947979
-9.186715168;-10.51703999;-6.31574936;-3.533719252;-1.151265367;-0.028804737;-0.757816746;8.42671064;-24.87694166;3.676839307;-0.212756931;-11.96725763;-3.966400851;11.69930302;-4.887234428;-5.320107766;0.332803025;6.100481015;-2.873681064
-9.431181487;-7.118424868;-5.567046765;-2.102553883;-1.338757145;-0.120252126;-3.037234958;6.101381779;-20.65425347;3.415054572;0.626735606;-12.26255118;-6.742449701;8.784320816;-0.942567168;-5.108908277;0.119607678;6.901610091;-3.020666105
-8.67166082;-5.711701242;-5.126329517;-1.238075098;-0.813446539;-0.235381098;-3.025298347;8.106006058;-14.57497211;3.809437597;4.25109161;-13.41197088;-8.093783094;4.812619505;4.5668888;-4.973356943;0.579259208;8.191506458;-3.072341885
-7.221767474;-6.452399894;-5.008185067;-1.775893875;0.367843665;-0.30547662;-0.88031654;13.4238456;-9.20086974;5.217382356;9.053873282;-15.5343387;-8.179741728;0.658755796;5.68806409;-5.724205669;1.2420179;9.287841144;-2.893816358
-5.909405672;-8.41422583;-5.437430578;-3.71907745;1.97019575;-0.267001232;1.975909581;19.06605803;-6.939555567;7.56209057;12.77694354;-18.12688572;-7.563214277;-2.542111482;0.351290686;-7.286038451;1.72795332;9.364168255;-2.610168387
-5.617210876;-10.06658686;-6.505937516;-6.006271638;3.537712634;-0.105772065;3.917225259;22.208342;-8.55146367;10.23627794;13.93552158;-19.99703354;-6.617887423;-3.643917029;-7.778160096;-8.686302074;2.043766015;8.179904752;-2.528001724
-6.638149679;-10.10315068;-7.895464224;-7.30521993;4.493516381;0.118959177;4.198091402;21.88927827;-12.81363797;12.23056691;12.68330797;-19.74896456;-5.348401642;-2.015742413;-12.41986587;-8.818403546;2.581446384;6.475698516;-2.842208192
-8.369395943;-8.216893251;-9.037013182;-7.081344541;4.399305645;0.295363337;3.252149917;19.10441573;-17.48385775;12.56152629;10.55525092;-16.68663913;-3.714528752;1.960914196;-10.04176508;-7.349873169;3.806145048;5.616065825;-3.381662481
-9.663006139;-5.37158672;-9.625656783;-5.972420291;3.226690794;0.319472726;2.066201112;15.55731305;-20.75066149;10.86238277;9.318308497;-11.54145414;-2.089379815;6.843731454;-2.865737804;-5.038850747;5.849987088;6.661182654;-3.643701722
-9.644565113;-3.348479121;-10.00671375;-5.171085961;1.427714507;0.158521655;1.240648376;12.3520765;-22.11243424;7.771648433;9.751468665;-6.39736845;-1.35676167;10.70955803;3.025030295;-3.215694161;8.310892283;9.550837104;-3.140058594
-8.407695779;-3.76752031;-11.00392318;-5.413121257;-0.29117898;-0.125848094;0.555835385;9.703928317;-22.21181913;4.758449111;11.17625795;-3.681469916;-2.45093073;12.10302806;2.83243084;-2.846861906;10.42389137;13.05213179;-1.808217622
-7.037035219;-7.136729019;-13.25055424;-6.471915235;-1.366127494;-0.411579359;-0.618902993;7.624882063;-21.99429558;3.353043753;12.0110357;-4.772231734;-5.614393373;10.79304257;-2.930048828;-3.89132025;11.51103008;15.55515655;-0.158332121
-6.894717225;-12.50623219;-16.56493044;-7.537877918;-1.67287249;-0.58488923;-2.483382202;6.616505997;-21.9595077;4.208699924;10.929873;-9.119311356;-9.924496137;7.858815834;-8.901262809;-5.391060042;11.40812279;16.14297814;0.991545531
-8.659507731;-17.94097973;-19.92468785;-8.041749181;-1.513964401;-0.598132045;-4.318752328;7.514213111;-21.99498629;6.638029394;7.831132196;-14.48028003;-13.50873335;5.048115641;-9.387423377;-6.17058193;10.56720679;15.14571179;1.026548875
-11.80286903;-21.51022945;-22.10112873;-8.122789442;-1.316381434;-0.481817839;-4.837997339;10.59801635;-21.69214482;9.011499351;3.979517654;-18.15458825;-14.42571815;3.810576324;-3.137708318;-5.613452294;9.752859933;13.79029697;-0.068881041
-14.87122047;-22.18446589;-22.44736113;-8.339072007;-1.278030227;-0.310183328;-3.14023999;14.92365786;-20.70955032;9.813172214;1.242081869;-18.4529001;-11.73985671;4.588360074;5.523771084;-4.006159688;9.537813928;13.25330967;-1.71225246
-16.36329969;-20.14479176;-21.2041409;-8.955652291;-1.232575502;-0.150556141;0.495225939;18.69674994;-18.89836011;8.65265219;0.922711395;-15.52118711;-6.157229426;6.741197833;10.01633996;-2.296516734;9.949939471;13.85739165;-3.110484558
-15.58634215;-16.4403821;-19.11757718;-9.527610157;-0.82263278;-0.031675634;4.63945071;20.52230695;-16.2718287;6.529996561;2.948561986;-11.08721153;0.186260549;9.063536426;6.47279152;-1.492587733;10.51571704;14.99174758;-3.743410451
-12.93394991;-12.33937416;-16.76551773;-9.18721016;0.170759703;0.05471621;7.588187054;20.46517999;-13.04848825;5.170377938;5.93321245;-7.367456833;4.7247199;10.5137671;-3.567654448;-2.081882874;10.65711914;15.73886368;-3.602733991
-9.47676388;-8.815939891;-14.21749759;-7.368531641;1.605643932;0.1311318;8.437941274;19.93835489;-9.787178019;5.904020601;8.082878067;-5.821957816;5.745194758;10.71877822;-14.57502754;-3.761272146;10.14027802;15.64892576;-3.052937033
-6.236046518;-6.385065669;-11.30307555;-4.303448543;3.027428988;0.213164436;7.575224123;20.46241824;-7.351312907;8.865799224;8.368640681;-6.443121352;3.270048828;10.02529249;-21.03185889;-5.577760839;9.239679884;15.04052099;-2.471909647
-3.671551098;-5.183660671;-8.166478179;-0.857226636;3.935153575;0.302643525;6.261391183;22.37098546;-6.482541812;13.01255303;7.199508784;-7.897292848;-0.958160451;9.163849823;-20.74092305;-6.413571611;8.499944938;14.63354068;-1.974195523
-1.680561905;-5.075994321;-5.504814218;2.106892246;4.058453621;0.390910329;5.686597982;24.60088798;-7.176748754;16.84151504;6.130313912;-8.370372058;-4.420058594;8.783354562;-15.23426929;-5.624742389;8.285627914;14.86171421;-1.416745717
0.003706335;-5.691507359;-4.193373447;4.232139422;3.458385469;0.46125186;6.221642022;25.71866279;-8.435002589;19.22797633;6.756369308;-6.642211049;-5.208453578;9.125796384;-7.737311137;-3.541602383;8.473670599;15.43474688;-0.636829219
1.389519261;-6.495831386;-4.612108384;5.609797699;2.421422301;0.487451918;7.359377683;25.20126431;-8.834805375;19.82210057;9.498757692;-2.836116655;-3.100112373;9.9857937;-0.92151137;-1.51189751;8.536158219;15.48269279;0.314143497
2.106549924;-7.018687514;-6.319378466;6.291588033;1.265685926;0.436738681;8.247226037;23.77;-7.700451527;18.87858597;13.10102651;1.547598552;0.317631688;10.9335746;3.801886066;-1.319938256;7.962137935;14.15040815;1.153005768
1.642185657;-7.175719636;-8.433141651;5.916381924;0.206582717;0.285588273;8.281429417;22.49130218;-5.983065886;16.8409769;15.23328348;4.367692828;2.577761561;11.65092572;5.626096611;-4.167980675;6.702999843;11.19665246;1.575631647
-0.274251573;-7.423896493;-10.41451384;3.865216313;-0.660666693;0.043470498;7.303311181;21.5554377;-5.961705879;14.09860326;13.88396771;4.005295562;1.809155812;12.17857056;3.839716122;-9.776027369;5.297266794;7.199902505;1.508533119
-3.41767904;-8.523380467;-12.5228127;-0.170070801;-1.310417146;-0.234348339;5.393488334;19.98628436;-9.708604112;11.04986407;8.678226754;0.335343063;-2.111480986;12.91739334;-1.557008684;-16.23691289;4.559869628;3.284210582;1.180120285
-7.093889302;-10.97505782;-15.45760887;-5.732139712;-1.745392345;-0.462367396;2.650143194;16.66218256;-17.32980484;8.248167312;1.268477185;-5.082466541;-7.437072024;14.35846497;-8.813886195;-20.88325384;5.036688908;0.580388222;0.944395902
-10.40533862;-14.52274358;-19.44623533;-11.69202997;-1.989961608;-0.566498746;-0.71022508;11.73501526;-26.38084422;6.323796824;-5.485579022;-9.783643008;-11.54836509;16.68727178;-14.60663197;-21.75823235;6.595050058;-0.270097046;0.997442197
-12.6002216;-18.14337327;-23.61356399;-16.82962277;-2.085144503;-0.526607046;-4.022900134;7.046946724;-33.11769564;5.635738728;-9.061233486;-11.75488211;-12.47184387;19.51790426;-16.09261652;-18.79592258;8.427009921;0.63202523;1.216349519
-13.3509904;-20.61131773;-26.32118946;-20.42035909;-2.056939098;-0.389177877;-6.0840925;4.978970548;-34.8551645;5.946895856;-8.597987339;-10.566125;-9.994619095;21.96930808;-13.45565214;-13.91619343;9.463007563;2.481355118;1.252312459
-12.87140574;-21.26165441;-26.34941391;-22.39633814;-1.884447355;-0.23855722;-5.663622177;6.605860467;-31.75677879;6.485994896;-5.215435013;-7.566688088;-5.718206475;23.09136703;-10.48947234;-9.9210136;8.933924432;4.060048828;0.808686866
-11.83802573;-20.38114612;-23.99685976;-23.08689653;-1.524749287;-0.145469534;-2.420512333;10.75365779;-26.69082111;6.458374968;-1.188102883;-5.010120831;-2.067381249;22.40246382;-12.03967494;-8.880380122;6.752709608;4.220662671;-0.107435268
-11.12200584;-18.91755473;-21.11187338;-22.91381052;-1.004740526;-0.128562698;2.510248905;14.84447442;-23.19292615;5.648281616;1.451427257;-4.668073324;-0.903622503;20.19177773;-19.87823398;-11.03025865;3.53197916;2.43615593;-1.14806759
-11.39347141;-17.72744709;-19.86903951;-22.34862502;-0.501316023;-0.154259349;6.931999607;16.85981171;-23.00866247;4.606544701;2.006106203;-6.819320275;-2.577761547;17.37155391;-30.38483567;-14.82518317;0.283058839;-0.810284835;-1.827262577
-12.74385669;-16.94958727;-21.13979976;-22.02730462;-0.297870848;-0.170537725;8.939552362;16.7529391;-25.01771804;4.212292215;1.292913376;-10.21961141;-5.910078125;14.96327264;-36.39881408;-17.99153288;-2.006697376;-4.06476621;-1.818326982
-14.52793675;-15.98650824;-23.71373972;-22.63120729;-0.588559971;-0.145650098;8.290228024;16.12453943;-26.29049809;4.917552937;0.906770319;-12.98063228;-8.98501644;13.5537018;-32.32592841;-18.81558724;-2.720291209;-5.492381103;-1.143539808
-15.57655635;-14.08229187;-25.0335071;-24.3501617;-1.251418858;-0.082835017;6.662186588;16.53273662;-24.4169759;6.288827793;2.11259706;-13.71069866;-10.20382762;13.06988231;-18.70697593;-16.89296196;-1.782358928;-3.815931119;-0.142065643
-14.75182903;-11.00933536;-22.96140359;-26.29713766;-1.79268121;-0.005225882;6.422069074;18.02785104;-19.33309304;7.263048378;5.056123281;-12.19407647;-9.001040741;12.98331612;-2.53756994;-13.07884184;0.346976037;0.89058537;0.744326029
-11.59594521;-7.312623332;-17.30969243;-26.57321637;-1.577590706;0.069549232;8.729596071;19.25617437;-13.33763581;6.964657948;8.704145974;-9.305564605;-5.93864542;12.74788188;7.178793455;-8.9357311;2.822777842;7.060922688;1.219398846
-6.714179695;-3.948460996;-10.0578362;-23.33175581;-0.247048184;0.139924269;12.47108596;18.9779737;-9.424002324;5.443471198;11.45066666;-6.398966005;-2.278931333;12.13891201;5.390039063;-6.144037802;4.679530641;12.3096942;1.265239439
-1.635299749;-1.656322413;-4.171513129;-16.32305025;1.959265425;0.208553113;14.98212924;17.48178045;-9.292346909;3.70566555;11.96557664;-4.660058594;0.644350537;11.28581587;-6.006046544;-6.093620051;5.158130491;14.57518221;1.098504891
1.82771865;-0.592721231;-1.925940681;-7.745562673;4.233062128;0.264076697;14.10684628;16.44627053;-12.51398972;2.945646345;9.8;-4.758731203;1.947730071;10.45511038;-20.21241627;-9.563089205;3.988022407;13.0710909;0.996466588
2.40222852;-0.489046292;-3.867903139;-1.472576773;5.610294932;0.279674184;9.974053555;17.28283222;-17.29430386;3.537490822;5.474247934;-6.800708197;1.44218677;9.817129752;-30.70461826;-16.37280663;1.479155769;8.49878906;1.103256224
-0.06690509;-1.121127521;-8.931647662;-0.845188618;5.517758471;0.23522768;4.986314693;19.52050563;-22.01319159;4.590019531;0.092765385;-10.39428816;-0.431926575;9.384019874;-35.29313504;-25.16518837;-1.666336931;2.44718226;1.325130039
-4.58746708;-2.615761891;-15.33900975;-6.409374115;4.09397506;0.144905836;1.937315679;20.89618447;-26.22646829;4.490480027;-5.229390038;-14.72880784;-2.914393875;9.109042534;-36.10916636;-33.6680494;-4.758267579;-3.58247864;1.370933409
-9.535793237;-5.289528603;-21.4871697;-15.23631851;2.07529602;0.062001258;1.775667111;19.29705183;-30.40787065;2.12353203;-9.793292967;-18.73946748;-5.335271783;8.986950936;-36.17809226;-39.59749025;-7.513335167;-8.892982683;0.919240419
-13.42857563;-9.155838244;-26.30704887;-22.4752365;0.33972046;0.049107396;2.932298256;14.91010685;-34.82654349;-2.092440048;-13.3951208;-21.45492978;-7.419411006;9.030446528;-36.05878807;-41.82029859;-10.18108647;-13.64616702;-0.173932708
-15.54806241;-13.55399711;-29.18299503;-24.21944334;-0.573867394;0.131907178;2.873083858;10.55358861;-38.65;-6.143654564;-16.08851467;-22.43268043;-9.297271572;9.167167381;-33.64096618;-40.99257914;-13.29072432;-18.32520664;-1.744890529
-16.12733332;-17.2721838;-29.85948102;-19.79958324;-0.667942046;0.272918433;0.602188229;9.662253436;-40.11348955;-7.478245344;-17.85698619;-21.98754782;-11.19082049;9.218322675;-27.07685577;-39.08442881;-17.16233732;-23.04978801;-3.359998574
-16.05154488;-19.12982204;-28.56412956;-12.00312299;-0.333259869;0.390061035;-2.109423286;13.50828647;-37.673045;-4.552929207;-18.46634467;-20.96838545;-12.98308622;9.048294743;-17.83582879;-37.97296504;-21.50813172;-27.23651079;-4.523570841
-16.27504668;-18.60509067;-26.13602983;-5.169926194;-0.013563935;0.410925292;-2.025797792;20.04977505;-31.24979274;2.120157441;-17.62352054;-20.16465246;-14.02362365;8.772291954;-10.70240743;-38.06493417;-25.41645017;-29.8219892;-4.948463509
-17.27222809;-16.05714209;-23.77830658;-2.536637051;0.053830438;0.324005861;2.658509505;25.48861699;-22.59586477;10.11631208;-15.32245245;-19.76096143;-13.40588067;8.784220662;-10.33308293;-38.01054881;-27.76833607;-29.88187372;-4.721961807
-18.79132919;-12.41552952;-22.37371059;-4.570801366;-0.117796155;0.187826832;10.31879949;27.27423278;-14.48106859;16.37173804;-12.08164682;-19.2747147;-10.60313738;9.477744813;-17.22993236;-35.80524612;-27.84329878;-27.2343748;-4.245666025
-20.00856099;-8.608936289;-21.81257076;-9.177021242;-0.37988232;0.08968352;16.7365231;25.98985276;-9.243478318;18.82752593;-8.820190139;-18.04299349;-6.018096888;10.81863899;-26.74682934;-30.48911671;-25.73259978;-22.64126395;-3.969484335
-19.9774085;-5.156980205;-20.95085868;-13.32259479;-0.566986182;0.084220927;18.34818179;24.51515815;-7.643551506;17.47187328;-6.380983115;-15.86352348;-0.981654398;12.13347718;-32.27387272;-23.12312764;-22.29580957;-17.47204264;-4.08793532
-18.13079968;-2.1591485;-18.39838601;-14.82796626;-0.521723132;0.157818133;15.25759289;25.26918141;-8.686587033;14.19278835;-5.013078208;-13.25118586;2.896255489;12.38516267;-30.16223856;-16.23176541;-18.69195083;-13.02049635;-4.410207297
-14.58183177;0.422753412;-13.64288437;-13.26249417;-0.065923471;0.244961536;11.29699725;28.04713799;-10.4149757;11.57125667;-4.22283214;-11.09576468;4.619427731;10.836511;-22.37750945;-12.09805061;-15.78858726;-9.877331599;-4.506413711
-10.08266546;2.489078379;-7.654854287;-9.722877652;0.973640383;0.282718842;10.80054923;30.40208586;-11.1123063;11.35373785;-3.177245209;-10.02770461;4.308143769;7.647132021;-14.70148247;-11.22872032;-13.81766778;-7.747537319;-4.037146958
-5.681491795;3.757976368;-2.450647358;-5.993056929;2.641958969;0.260385198;14.68739734;30.16203519;-10.22414599;13.49688381;-1.425023812;-10.05110405;2.942312421;3.924922107;-11.99375371;-12.19760818;-12.46750463;-5.848106557;-3.033084269
-2.270315703;3.940579905;0.117790568;-3.711787451;4.721652305;0.225918513;19.35519413;27.66577963;-8.561719825;16.31314981;0.593864977;-10.74884446;1.55457063;1.126622603;-14.43357375;-12.98007813;-11.3039672;-3.653314537;-1.917523964
-0.260778044;2.95376576;-0.524434973;-3.836480992;6.733100231;0.245022878;19.72;25.53368554;-7.769326566;17.59326189;1.690953333;-11.82584466;0.515859591;0.199296427;-17.76890011;-12.68488617;-10.20218931;-1.487665802;-1.247132286
0.460642553;1.007985254;-3.44408731;-6.36908603;8.12983606;0.345698991;14.10482802;26.1160201;-9.368059907;16.01816352;0.712568224;-13.42994289;-0.5259942;1.073489507;-17.21410243;-12.26039641;-9.480039063;-0.501677366;-1.352452814
0.310808357;-1.450862522;-6.938306714;-10.30337998;8.587218963;0.492078485;6.667074992;29.05054987;-13.8383443;12.01545428;-2.547418066;-15.89514598;-2.042676536;2.863704299;-11.65225747;-13.58493631;-9.642186001;-1.940887762;-2.133637672
-0.319929769;-3.864281247;-9.613300935;-13.91831142;8.184302699;0.608296856;4.663543912;31.41035969;-20.17619062;7.54985536;-6.973683954;-19.12092089;-3.911631364;4.592484725;-4.678244923;-17.67718585;-10.91849969;-6.130443969;-3.150817326
-1.301804614;-5.686401451;-11.01321783;-15.51578182;7.340155136;0.634345252;12.10140049;30.53857041;-26.17437217;4.972339995;-10.62569109;-22.20931437;-5.250447257;5.862209109;-1.741939322;-23.50212103;-12.93199428;-11.89029247;-3.931134998
-2.774646286;-6.521593255;-11.48108236;-14.3576973;6.544810547;0.571310979;24.80770163;26.97676485;-29.36639111;5.618729282;-11.82818428;-23.820556;-4.995828518;6.971004844;-5.833189947;-28.39259353;-14.75701783;-16.90330382;-4.262088777
-4.945509408;-6.287849334;-11.57616083;-11.20171568;6.076733938;0.481666274;31.53993037;24.49059166;-28.22142625;9.005001352;-10.14727512;-23.07706523;-2.776585725;8.441577202;-15.16513632;-29.82211891;-15.37766996;-18.9388948;-4.266623245
-7.814443328;-5.328002959;-11.62540875;-7.916783948;5.899571307;0.444455107;21.33819322;26.70592737;-22.97571106;13.10821555;-6.610173701;-20.29512869;0.652153064;10.40917343;-24.4948998;-27.18696176;-14.28498458;-17.19180925;-4.231613894
-11.00893401;-4.318822807;-11.6950105;-6.275990743;5.783961044;0.49902484;-7.835262286;33.18519814;-15.60449712;15.55939017;-3.044382144;-16.87349982;3.812981918;12.40360852;-28.78014771;-22.24352033;-11.83585882;-12.8184205;-4.345347321
-13.84716848;-3.909652131;-11.78660482;-6.728310736;5.529610729;0.618911739;-45.80386043;38.79191825;-8.882140877;15.01842496;-0.996541379;-14.32887177;5.469688406;13.69892737;-26.27305925;-17.88952091;-9.11804522;-8.236192998;-4.550676266
-15.62358476;-4.248247104;-11.88679667;-8.098530463;5.106091967;0.734171037;-75.37807518;37.63571429;-5.010581509;11.90422293;-0.923219586;-13.19700439;5.416019526;13.91131832;-19.00268468;-16.22543417;-7.359410963;-5.599782181;-4.610661134
-15.98071231;-4.735749062;-11.77696511;-8.518754093;4.623202876;0.783970699;-82.94179885;28.69758752;-4.573521093;8.074662671;-2.092326488;-12.67727531;4.504314877;13.32295593;-10.86156861;-17.3075587;-7.209212467;-5.470150181;-4.312132572
-15.16298304;-4.286908067;-10.90976027;-6.915444442;4.193442965;0.759233849;-67.07939731;18.10617548;-6.390498017;5.709559214;-3.12846424;-11.31942032;3.94855141;12.65996154;-5.152993982;-19.38622951;-8.320579036;-6.581102424;-3.638269373
-13.98190203;-2.036238637;-8.706912474;-3.881158341;3.829116085;0.703770963;-39.09176264;15.22654626;-8.307363992;6.112111303;-2.768041204;-8.204548192;4.497514879;12.52734345;-3.286935323;-20.26955621;-9.502433034;-6.833681239;-2.78785007
-13.45691188;1.94207112;-5.21166931;-1.216780703;3.465816993;0.674677055;-15.10891269;24.84082692;-8.419811267;9.12425252;-0.388804859;-3.674154755;6.109570654;12.9866572;-4.898569462;-18.70013388;-9.374782187;-4.778685761;-2.051329724
-14.27896629;6.428518592;-1.530957306;-0.504096183;3.079286024;0.694056719;-5.594453982;41.56662634;-6.028034398;13.4020352;3.845143197;0.948002597;8.270183093;13.6147202;-8.536855748;-14.81607525;-7.157343295;-0.535310144;-1.655589033
-16.37837007;9.588663524;0.523294985;-1.869101214;2.777972574;0.73059319;-9.70486542;51.72640965;-1.854349744;17.25606709;9.112371223;4.351965626;10.53285454;13.94682326;-12.17273351;-9.627467743;-3.138602413;4.433119058;-1.684588717
-18.87003906;9.951058863;-0.417558235;-3.934289615;2.778212426;0.726097549;-18.0272192;42.38634477;2.479739718;19.49221159;14.17310954;6.094026246;12.7337812;13.8772431;-13.63971933;-4.198242977;1.4366141;8.392137319;-2.096095635
-20.46876871;7.213681937;-4.121189988;-4.95914197;3.272007212;0.646615474;-20.85551642;11.37663593;5.339756045;19.81796293;17.67725383;6.626158784;14.72655005;13.655049;-11.52529683;0.724882332;4.98049906;10.37998881;-2.775506346
-20.19171185;2.370019531;-8.587463738;-4.184267324;4.284830162;0.517187671;-15.34372467;-29.3648741;5.84829015;18.74078069;18.58753405;6.580039063;16.01485642;13.50831737;-6.392550237;4.494825321;6.318333295;10.48624014;-3.565567549
-17.96011963;-2.883029808;-11.22518868;-2.269039005;5.622462753;0.410327356;-6.378185921;-60.28029594;4.211801409;17.17763026;16.66618524;6.037342031;15.80984364;13.29218512;-1.248533088;6.254785458;5.18154503;9.330400394;-4.272355717
-14.72255487;-7.021572737;-10.64657805;-0.538228507;6.932496489;0.393401708;-1.330495834;-66.41611283;1.526497708;16.04103377;12.77287109;4.494871968;13.63873035;12.55031935;-0.177235701;5.113618374;2.222249351;7.352717875;-4.69779753
-11.98039208;-9.295875364;-7.733433252;0.21066239;7.829406747;0.473172818;-3.565192416;-46.8691303;-0.803846476;15.92610409;8.662856567;1.567456906;10.03740985;10.99875895;-5.447216047;0.848900092;-1.381776572;4.58696258;-4.727620614
-10.95952071;-9.774815291;-5.062970172;0.257408795;8.012808578;0.580956814;-10.02689813;-14.84292696;-1.774673332;16.89592191;6.2169576;-2.231205005;6.638238485;9.019919478;-15.09619717;-5.450425881;-4.467585923;1.048338035;-4.428089706
-11.91186698;-8.974838168;-5.014150705;0.433896211;7.344418421;0.613640662;-14.4074881;11.47354416;-1.292987323;18.3789147;6.459120561;-5.397463157;5.376627384;7.677647688;-23.26350402;-11.5084803;-6.299187207;-2.74831201;-4.055039757
-13.97538933;-7.442884207;-7.947986324;1.108292242;5.888455056;0.504111164;-12.71733496;20.47190628;-0.221158235;19.28660881;8.982332577;-6.220692608;7.279363739;8.12653094;-23.71539074;-14.91096478;-6.712564579;-5.755824313;-3.919936149
-15.68861156;-5.561619554;-11.87223674;1.707171899;3.920695719;0.270850845;-6.416487851;13.0778284;0.130231942;18.45259808;12.2291727;-3.868036407;11.72920298;10.8020613;-14.34621216;-14.45941929;-6.014444139;-6.991491417;-4.172452613
-15.85139652;-3.571255466;-13.89154762;1.266646028;1.884582799;0.009634293;-0.720303661;-0.335575409;-1.166345989;15.29285056;14.51212107;1.06665339;16.81174079;15.00932738;0.773680516;-10.87448958;-4.743700188;-6.272702193;-4.652864346
-14.2093691;-1.629585909;-12.36065472;-0.511703799;0.267777104;-0.168114312;0.079387659;-8.746850099;-3.986604094;10.32297834;15.10399401;6.941405208;20.53232708;19.26525438;13.68888273;-6.305126088;-3.409945733;-4.403467456;-4.948431013
-11.55493199;0.207396567;-8.102538402;-2.756059148;-0.581424196;-0.206463257;-3.908176587;-8.005416262;-7.123340914;5.104318925;14.62461231;12.01587934;22.00289037;22.18725749;17.77642444;-2.961995971;-2.296542565;-2.574300152;-4.651279028
-9.205381949;2.023167406;-3.777087059;-4.046252264;-0.611528956;-0.134893033;-8.728995633;-1.971888052;-9.004710035;1.482395197;14.42546816;15.22234497;21.7210752;23.30363009;12.07383548;-1.827262489;-1.393121047;-1.450014648;-3.657923739
-8.19823529;3.96264454;-1.914924948;-3.660249586;-0.092911353;-0.037599272;-10.36959252;2.375902151;-8.750969039;0.486731742;15.40856356;16.28093194;20.79693827;23.21896968;1.47975802;-2.305741162;-0.492828841;-0.742351931;-2.297572651
-8.697456403;6.031784497;-3.131652249;-2.275074773;0.529472374;0.011473309;-8.283146819;1.086878354;-6.854703715;1.602545636;17.16038031;15.32298698;19.82925249;23.0524815;-7.193364161;-2.956831092;0.580046387;0.330757387;-1.179314319
-9.950174588;7.958100755;-5.837485666;-1.369609424;0.879261656;-0.003130079;-5.645750882;-4.295107387;-4.961744745;2.980746315;18.08185154;12.58095215;18.3943177;23.59605895;-10.08139546;-2.660550582;1.742243631;2.093484576;-0.839680652
-10.78669868;9.317147676;-7.558317545;-1.76793303;0.835268389;-0.042102789;-6.34219141;-9.159238921;-4.839900139;2.549073053;16.47471247;8.499634867;15.56961148;24.81017781;-8.228462433;-1.324325336;2.598453267;3.851212438;-1.414229848
-10.3389827;9.905574473;-6.769280587;-2.655433346;0.542275124;-0.058918628;-11.48166831;-10.27189089;-7.223936899;-0.668452919;11.82826398;4.055795584;11.02533659;25.98134864;-5.39512421;0.319014757;2.655084568;4.311090751;-2.54648689
-8.546615365;10.05563274;-3.854599019;-2.115847527;0.252564613;-0.047276444;-18.45849146;-8.210836227;-11.3515373;-5.921836294;5.371972967;0.731200408;5.721427844;26.35805979;-3.98688053;1.528294231;1.69954716;2.708637549;-3.592662368
-6.166254776;10.53512763;-0.600149634;1.078137244;0.127106193;-0.04594213;-23.19764191;-6.099173384;-15.52638313;-11.24877582;-0.541101118;-0.152501972;1.557401825;25.75554021;-2.84142312;2.245597818;0.075560635;-0.326610481;-3.990699228
-4.296817414;11.97952321;1.212966512;5.917369778;0.147200367;-0.096299127;-23.47490754;-6.352166334;-18.29927688;-14.78248043;-3.835305756;1.62888368;0.178497234;24.69472502;1.202616233;3.09571303;-1.398554314;-3.004201236;-3.565331029
-3.70666426;14.24627576;0.955920225;9.349911118;0.191669305;-0.190780007;-20.45570631;-8.60650647;-19.40843365;-15.93075167;-3.961806293;4.783993664;1.837232283;24.01795148;9.505708903;4.738968842;-1.884867482;-3.639263681;-2.593257204
-4.356255835;16.26882058;-0.738345181;8.356967499;0.199963968;-0.261469032;-17.34013615;-10.50833676;-19.81276856;-15.59837152;-2.164785283;7.127938798;5.180961418;24.29464366;19.2129033;7.160621072;-1.068545753;-1.95759153;-1.60821135
-5.399228592;16.68582713;-2.755901212;2.411701587;0.276751769;-0.226168794;-16.54065503;-10.24893703;-20.83899164;-15.33078566;-0.606214405;6.953763984;8.12069657;25.43388502;24.67218426;9.519368688;0.616415236;0.681870408;-1.078986613
-5.675219729;14.90504827;-4.366099226;-5.68879107;0.647602533;-0.059070363;-17.90679377;-8.266394632;-23.11433667;-16.04917718;-0.952231033;4.187140306;9.123460678;26.72881913;21.73859381;10.70923737;2.284543639;2.413941216;-1.154311658
-4.419799243;11.81653089;-5.469824808;-11.47456979;1.49899443;0.173043918;-19.341493;-6.566757387;-26.07882288;-17.33003906;-3.352692696;0.433836422;8.001254495;27.25457713;11.37038481;10.20192343;3.228271123;2.452894669;-1.613734852
-1.771453288;9.507099255;-6.20529198;-11.83768393;2.826215905;0.345842243;-18.95035366;-6.497521376;-28.39418374;-17.74920288;-6.442936667;-2.149419192;5.719051901;26.34943663;-0.634130315;8.49791496;3.402134196;1.78055292;-2.03757661
1.248307746;10.01613803;-6.466728356;-7.183042821;4.400651245;0.364535779;-16.6497377;-7.242889847;-28.88512838;-15.99902425;-8.301142752;-2.317494131;3.508202743;23.92169854;-7.718129599;6.807048261;3.36599018;2.266297263;-2.086018629
3.300029297;13.91912592;-5.879757141;-1.043544046;5.871970613;0.238413062;-13.90371119;-6.531722855;-27.2919601;-11.92149657;-7.688503473;-0.441186055;2.031999287;20.47423698;-7.214095178;6.172054269;3.712771455;4.873378198;-1.720248207
3.509994721;19.7427455;-4.248918067;2.545280603;6.924776226;0.081895456;-12.1057951;-2.887499704;-24.3255275;-6.692507031;-4.769752685;2.01421653;1.186058897;16.89154058;-1.829581233;6.685840465;4.444676743;8.466332492;-1.233078395
1.984342819;24.69319626;-1.985193145;1.894403413;7.387523491;0.034600045;-11.29655047;2.730125038;-21.08274052;-2.053552349;-0.904453289;3.72898319;0.533384725;14.10851956;3.10047034;7.401233622;4.844855941;10.35246753;-1.064995483
-0.282639388;26.27335904;-0.016105007;-1.39740849;7.248620738;0.156146987;-10.39847134;7.483918884;-18.33554254;0.810758626;2.279480815;4.461111443;-0.113954082;12.78322716;4.159188785;7.026046082;4.01415506;8.302818743;-1.509716756
-2.052087918;23.73798749;0.830247617;-3.985498753;6.610215254;0.374639441;-8.572455027;8.973393198;-16.21530185;1.93258965;3.883506654;4.983535354;-0.475116035;13.07294799;2.37220263;4.909960766;1.683210031;2.5135925;-2.489776665
-2.607630841;18.45116434;0.460165606;-3.444615941;5.638774976;0.530729572;-6.22435774;7.245172815;-14.42929928;2.337743053;4.171689767;6.208229107;-0.059749383;14.58600368;1.744588782;1.5977052;-1.370914787;-4.123154074;-3.554180477
-2.129583043;12.97347975;-0.39801568;0.05547008;4.539970636;0.488623659;-4.616971307;4.711618137;-12.7205186;3.18694044;4.216145847;8.322071386;1.395624774;16.53543722;5.273725244;-1.476348353;-3.713423416;-7.820272955;-4.119804735
-1.437586231;9.549510211;-0.763108163;4.211378499;3.537468963;0.234754232;-4.491585473;4.067244126;-11.15601451;4.948465782;5.051948682;10.65644966;3.70966167;18.04549447;11.96622349;-2.953907623;-4.22587659;-6.512185655;-3.818405828
-1.316223189;8.989904768;-0.170615011;6.540489517;2.824470961;-0.107103115;-5.128083345;6.053218;-10.05529106;7.157692232;6.929339837;12.31172054;6.393935998;18.48709433;17.40059559;-2.486515608;-2.943976043;-1.325518118;-2.728447549
-1.931899972;10.56488049;0.989861931;6.088646221;2.493619185;-0.354917611;-4.870987047;8.996364795;-9.705878292;8.827046866;9.144072031;12.90927193;8.953077183;17.69727589;17.29540183;-0.948781913;-1.088679696;4.232993621;-1.333834155
-2.757969194;12.78698539;1.840456824;3.599314507;2.494482967;-0.385147551;-2.712325445;10.42797156;-10.15904115;9.118294014;10.51864185;12.8056694;11.05526425;15.99481525;11.04612541;0.242336218;-0.217490365;6.774496037;-0.230371334
-3.01806739;14.42213004;1.776717682;0.334091841;2.667804983;-0.206444607;0.557775231;9.268497253;-11.25827306;7.80640753;10.1808868;12.65594633;12.47003906;14.006224;2.341096247;0.213378468;-1.10886442;5.336798709;0.225182374
-2.257130947;15.07118477;1.012939798;-3.113771608;2.852612011;0.055915982;2.791644287;6.662508965;-12.79503527;5.33678989;8.119364839;12.812051;12.9318462;12.3969717;-3.514993189;-0.684338509;-3.218291;1.812803509;0.088365521
-0.577504095;15.10558928;0.500283548;-6.846521861;2.999279942;0.24672167;2.222848294;4.849550194;-14.56833577;2.607758239;5.178924477;13.13768708;12.15840918;11.62038002;-3.292211704;-1.132130044;-5.116352413;-0.709047318;-0.282615073
1.610337558;15.21255702;1.309939086;-10.63253019;3.206188724;0.274749478;-1.006380015;5.219068792;-16.25564876;0.710264176;2.549058313;13.35828051;10.07465579;11.7642466;2.324581123;0.116829947;-5.567369263;-0.3107382;-0.518144571
4.042395571;15.95975352;3.948042721;-13.06340056;3.648838301;0.153588571;-4.877843968;7.328709435;-17.24858676;0.703203178;1.117181267;13.51541483;7.047697576;12.53446195;9.841998748;3.176467811;-4.425515848;2.509331954;-0.483501055
6.80418991;17.5985294;8.043274443;-12.05677601;4.449891516;-0.026834825;-7.046988452;9.664611036;-16.71968646;3.327784691;1.099112117;13.99707663;3.875964961;13.38534658;15.67733063;6.759081343;-2.689634286;5.538059884;-0.306477686
10.06421301;20.0465389;12.51686898;-6.587117465;5.582537252;-0.166532206;-6.534811118;11.28092799;-14.03239254;8.604990529;2.118319614;15.06302818;1.462174479;13.76971679;18.15353546;8.952642181;-1.723249468;6.748556997;-0.198381838
13.57581079;22.89709358;16.0329409;1.793888269;6.872435616;-0.210937733;-4.136955976;12.69660605;-9.291223787;15.50443815;3.581010798;16.3403559;0.369912333;13.41948929;17.50302948;8.522878076;-2.271631964;5.788311958;-0.244845565
16.45494643;25.43424222;17.4674166;9.195556879;8.088001941;-0.166419976;-1.364279519;15.20487809;-3.618584532;22.05152101;5.026892147;16.87140731;0.571393092;12.50967449;14.55187291;5.809217975;-4.005204766;3.93981406;-0.349940753
17.55956282;26.78954243;16.27486685;11.60780809;9.045752998;-0.080303674;0.93446153;19.2912534;1.156746476;26.08163431;6.228317381;15.81320118;1.544119397;11.57557923;9.741754362;2.559785456;-5.847907996;2.797978154;-0.36557056
16.28222608;26.33777275;12.74358514;7.621550129;9.655210613;-0.009719581;2.938542865;23.71320121;3.338841082;26.37602425;7.058809335;13.2397123;2.604090785;11.18430681;3.422138356;0.816804779;-6.730503898;2.946098563;-0.26474288
13.14822833;24.18464314;8.075137273;-0.444364959;9.884261533;0.000920304;4.988286499;26.19135878;2.276459086;23.48195135;7.338905736;10.30117691;3.211087869;11.54536156;-3.198664753;1.645414101;-6.152077489;3.776232199;-0.179080796
9.670559219;21.37856187;4.118370962;-8.013693424;9.692994479;-0.069129149;6.549883754;25.17686768;-1.22545217;19.55087763;6.845760289;8.481134026;3.067153976;12.33626648;-7.833029082;4.581755251;-4.207476944;4.476680198;-0.25490647
7.453886659;19.54060698;2.660971081;-11.33816899;9.008623286;-0.210801338;6.267627757;21.16316723;-5.297329581;17.12053958;5.482933006;8.47407939;2.051013543;12.90601433;-8.282456684;8.108976551;-1.251093781;5.127223847;-0.467526251
7.150321541;19.98619398;4.500709494;-9.927557619;7.77865803;-0.382046663;3.247015157;16.39946812;-8.006102297;17.54369463;3.432266119;9.597033584;0.169510266;12.74535348;-4.170333265;10.70587355;2.356089993;6.763819445;-0.594389324
8.045057527;22.84565615;8.846911109;-6.534304984;6.072504462;-0.515563606;-1.627567838;13.26050149;-8.378509567;20.12509619;1.112947965;10.26936073;-2.365504869;11.87947723;2.338771888;11.64934596;6.157117733;10.25853255;-0.41384135
8.612163078;26.81269992;13.57941577;-4.792735189;4.153298831;-0.5447864;-5.764795347;12.6609156;-6.837289928;22.62;-1.049782114;9.231634527;-5.027386049;10.8556464;7.663266497;11.05056185;9.348600823;15.02124268;0.024756948
7.648250271;29.79771007;16.39085268;-6.408060213;2.447277457;-0.440975636;-6.562383338;13.77925;-4.813766733;22.80274226;-2.858057163;6.547207831;-7.041009306;10.29450734;9.018690183;9.285867327;10.79779815;18.81299906;0.31989017
5.140327133;30.14471941;16.16408524;-10.06569938;1.395877618;-0.238605121;-3.418077519;15.14347091;-3.824543254;20.01411118;-4.372299397;3.579743846;-7.726553313;10.3375202;6.009255153;6.464491758;9.54809255;19.07169198;-0.040150347
2.223570204;27.63412085;13.63834002;-12.79763679;1.251746019;-0.026658911;1.686693265;15.96099097;-4.626129353;15.57620485;-5.713446517;1.956010684;-6.962658041;10.45076902;0.428211193;2.460530291;5.541683237;14.82568322;-1.252955897
0.288941589;23.58844106;10.82630353;-12.58204408;1.928426349;0.09574907;5.618182304;16.49058084;-6.970377347;11.77365158;-6.826545643;2.333352936;-5.429147345;9.797452239;-5.365638963;-2.549968234;-0.030068359;7.657611397;-2.929869769
-0.04572968;19.99491875;9.537645013;-10.03636021;3.002657867;0.074458871;6.381529369;17.26321681;-10.04086213;10.16890271;-7.446784583;3.931593657;-4.370948615;7.934880739;-10.00222891;-7.63123075;-5.152465755;0.849068466;-4.238928767
0.696077205;18.24249804;10.07517716;-7.879011542;3.89599971;-0.069368572;4.369509186;18.07925613;-13.16798417;10.52487396;-7.332127405;5.161661576;-4.940858417;5.292040457;-13.35600806;-11.27643876;-8.013267576;-2.72702734;-4.417853537
1.391242957;18.34170991;11.10173571;-8.662882698;4.161174647;-0.253404143;1.613759249;17.89489533;-16.24496008;11.153636;-6.567902972;4.822543712;-7.498147708;3.008883855;-15.59782139;-12.24502732;-7.953217274;-2.379855678;-3.304704104
1.284897994;19.14303257;10.81371191;-12.63272188;3.723428651;-0.38228216;-0.133945731;15.81334681;-19.52951482;10.42205213;-5.643820929;2.943418841;-11.31306326;2.200370994;-16.23890141;-10.42617571;-5.682773418;0.289740675;-1.484568611
0.575856194;19.3414055;8.533338901;-17.38966235;2.929965525;-0.397541256;-0.683978023;12.27477292;-23.0259377;8.24971324;-5.169140524;0.696959589;-14.88699319;3.173260888;-14.23616775;-6.988024938;-2.648846764;2.936427635;0.08001709
0.148884969;18.48624703;5.455365272;-19.57587914;2.35544165;-0.300083008;-0.967722644;9.249364198;-26.01076656;6.419130227;-5.407118086;-0.44155164;-16.71155475;5.188255951;-9.073074008;-3.606598144;-0.067124517;4.350433153;0.678961251
0.698460231;17.23295137;3.891486805;-17.2475435;2.455492955;-0.138557353;-1.504078442;9.063474431;-27.19180746;7.401019608;-6.006803441;0.400698434;-16.02511967;6.953898289;-1.713809831;-1.331283354;1.658766828;5.136740001;0.287986794
1.993563062;16.66605454;5.514099108;-11.18231076;3.267470757;0.020369399;-1.470928593;12.69598905;-25.50194121;12.51216133;-6.19844111;3.126038724;-13.14927039;7.477872098;5.566385749;0.016062491;2.785911507;6.72;-0.500828289
2.919386699;17.25120389;9.919005159;-4.294091217;4.350178573;0.11858507;0.548417933;18.89842342;-20.98648118;20.73309867;-5.360755492;6.91548138;-9.25776019;6.637634815;10.38895066;1.415579633;3.626217432;9.635141291;-0.972239535
2.299083992;18.27719075;14.65031142;0.238032201;5.020526289;0.120625505;4.813005322;24.86710279;-15.08003906;29.04930619;-3.545787562;10.72481456;-5.751196807;5.07800026;11.47;3.549758825;4.101861859;12.66504012;-0.810878054
-0.136305173;18.2850092;16.76529559;0.719685297;4.759386186;0.019975274;9.493911097;27.9775947;-9.953789466;34.10688039;-1.535025037;13.63504343;-3.589297862;3.590623401;8.870746991;5.969773424;3.861215466;13.65303267;-0.262594874
-3.39083258;16.21031656;14.85975374;-2.494687182;3.541908508;-0.155976524;11.76861278;27.31077049;-7.289933211;34.08838228;-0.335215356;14.9841912;-2.902169754;2.523402941;3.394073751;7.284902704;2.799864458;11.36809275;0.150687231
-5.751865353;12.37470371;10.10278007;-7.653369745;1.883540513;-0.345905793;10.21800754;23.95927893;-7.302133682;29.63028175;-0.456018709;14.47645002;-3.028266356;1.68735032;-3.928441476;6.295141016;1.442333893;6.854213084;0.093193489
-5.85216847;8.519665026;5.527271659;-12.69788307;0.566176858;-0.470582698;6.376536375;20.09770164;-8.690123576;23.31321289;-1.503273807;12.39755547;-2.924696985;0.761695287;-11.57895011;3.17013007;0.759785045;3.053574008;-0.330813971
-3.490912646;6.770225829;4.066403607;-16.01046022;0.207933369;-0.468475705;3.807936856;17.65571861;-9.567166344;18.19030126;-2.408970882;9.765774293;-1.747293903;-0.239925586;-16.98847062;-0.333552053;1.512760425;2.871148062;-0.714873209
0.326247031;8.233508596;6.697352847;-16.63436904;0.933731122;-0.334997328;5.233242919;17.50611731;-8.703127637;16.31866212;-2.153630505;8.091468301;0.666906183;-0.906933065;-16.90233186;-1.905019417;3.653083439;7.118001208;-0.727319786
4.077756375;12.25104849;11.93316373;-14.30441098;2.333398284;-0.136551463;10.11603324;19.46580556;-6.214420009;18.06555241;-0.469582407;8.655217752;3.654481239;-0.839351019;-9.289214534;-0.255948336;6.297758523;13.89668301;-0.389710445
6.605344129;16.86725647;16.92076885;-9.588966243;3.712673493;0.019290102;14.91714487;22.75481657;-3.266089475;22.34112593;1.977354491;11.68570003;6.028961602;-0.130827479;4.276797319;3.935011321;8.317480189;19.88105843;-0.028731851
7.598475671;20.17374999;19.3023906;-3.997224349;4.473398287;0.045686282;15.9848871;26.41057429;-1.092970131;27.37155251;4.053227711;16.07184892;6.731187995;0.569630908;17.98853357;8.443404904;9.074273533;22.50168639;0.032165138
7.47920858;21.52578877;18.55933981;0.378593234;4.4053406;-0.069027677;12.67749416;29.48785075;-0.121732743;31.49521394;4.931685574;19.96060341;5.50866547;0.551975666;24.37756997;10.99661575;8.735195199;21.4229767;-0.243288156
6.933322558;21.72713369;16.03109172;1.835387095;3.749241336;-0.253975972;7.983771849;31.21987595;0.170587899;33.68289682;4.633968785;21.92538324;3.21897093;-0.285126979;19.0450527;10.7550807;7.964070361;18.34184468;-0.590091553
6.504455308;22.08579283;13.7720527;0.150474006;3.030323899;-0.403348324;6.022474869;31.29206821;0.648930343;33.75288169;3.970450829;21.88310781;1.49803732;-1.178643022;4.285842484;8.719830281;7.313892367;15.47135864;-0.694126361
6.482977057;23.1368892;13.15181106;-3.07146062;2.772677589;-0.446052641;8.551267892;30.07548374;1.734161219;32.34743753;3.948204273;21.05808514;1.883737918;-0.946711822;-11.50638386;6.839617522;6.857923969;14.0049911;-0.474303254
7.004091077;24.09991779;14.14003906;-5.281701766;3.238477386;-0.387180376;13.5369531;28.50252447;3.092292743;30.68388723;5.06761677;20.9999713;4.851607984;1.153592708;-18.9114153;6.555519063;6.339169321;13.69068218;-0.143955755
8.11627025;23.54853028;15.61637729;-4.657159869;4.301972034;-0.29246746;17.04034975;27.5090057;4.001151177;30.07596952;6.979483534;22.40486882;9.355410279;4.810537109;-13.76590549;7.87925688;5.635762468;13.61471994;-0.007054402
9.69845411;20.76881014;16.31096454;-1.385583733;5.504432111;-0.231028492;16.71072548;27.41218958;4.01463059;31.34555224;8.704424703;24.64605744;13.23407658;8.775609184;-0.07937094;9.61490203;5.067217371;13.31499152;-0.181663204
11.33924349;16.66801116;15.63923687;2.449222285;6.269236119;-0.223235696;13.7305827;27.7635235;3.321829413;34.40666572;9.237306352;26.34717412;14.34429469;11.64023821;12.77415638;10.42738274;5.232635675;13.20368141;-0.500270237
12.39420098;13.39245938;13.90765396;4.383973871;6.193175444;-0.234237457;11.46425194;27.85682223;2.500272745;38.2968531;8.130705467;26.49293881;11.80221756;12.68953522;16.70431527;9.857383769;6.509701196;14.01043716;-0.670087891
12.29883806;12.82701635;11.89718097;3.394278849;5.281697489;-0.214865817;12.10739691;27.46895639;1.906785113;41.67911579;5.705748226;25.16566981;6.586243845;12.21377804;10.53176098;8.519490967;8.654027639;15.85966979;-0.541329384
10.96101773;15.09153165;10.24922289;0.631105957;3.993311454;-0.15276069;14.52774234;27.14078685;1.263543442;43.51107637;2.809230235;23.35168306;1.086791999;11.10583531;0.446471379;7.4312505;10.85400212;17.8846926;-0.239133448
8.927418238;18.25044321;9.119355233;-1.498267863;3.032999603;-0.089382944;15.42347774;27.68328209;-0.176554837;43.45796867;0.325034476;22.06381979;-2.188134407;10.12345972;-4.924194595;7.105070758;12.20834001;18.75540193;-0.043767746
7.148071999;19.57948619;8.272487988;-1.192530511;2.973331498;-0.088321848;12.79222674;29.31723842;-2.997167966;41.83876981;-1.231073531;21.58251942;-2.011430919;9.403172232;-0.98263502;7.161014173;12.25304571;17.6675783;-0.132931952
6.457380316;17.53295574;7.440819331;1.38500935;3.908584262;-0.181394576;8.37461006;31.25376833;-7.022759664;39.26889542;-1.809935237;21.45789882;0.894561746;8.540324831;9.717430338;6.734321672;11.15705247;14.94904895;-0.42192017
7.110120292;12.96115061;6.614434737;4.286583949;5.362587327;-0.337222057;6.484345669;32.18327067;-11.23568614;36.36679865;-1.636945292;21.1969363;4.328292335;7.06505443;19.8094477;5.28780055;9.50565037;11.79479608;-0.644643577
8.677230545;8.630858675;6.051112527;5.309754091;6.535067003;-0.478003258;9.965861454;31.32823548;-14.2804849;33.73959991;-0.945263805;20.92842394;5.933650615;4.864758758;22.76134861;3.134148762;7.909035246;9.395170574;-0.598450659
10.34758279;7.345865832;6.040212083;3.641346159;6.755038684;-0.531050871;16.95402765;29.16412525;-15.19941075;32.10408698;0.128171941;21.36069912;4.568325536;2.234417517;17.32938677;1.242357922;6.739250618;8.1957767;-0.328472482
11.40474601;10.00865954;6.632608288;0.345150737;5.861586163;-0.475101455;21.80452183;27.15304991;-13.91532568;32.19770445;1.413561242;23.01160844;0.887082044;-0.390063477;7.624180572;0.495225358;6.101984822;7.838535851;-0.084604919
11.5598816;15.01206457;7.542946104;-2.604059412;4.269510268;-0.348144642;19.97298241;26.68162134;-11.20438505;34.32523328;2.50486082;25.40944669;-3.179866004;-2.70223278;-0.709913079;0.997032815;5.921080354;7.700278478;-0.092033509
10.96816688;19.36862165;8.281882306;-3.87668804;2.686759723;-0.215611174;12.77344521;28.09111845;-8.253214837;37.82827993;2.748213953;27.08285672;-5.665637859;-4.559178422;-4.734671647;1.97605493;5.979779344;7.45943718;-0.345213616
9.998539802;20.7286839;8.415381666;-3.665155342;1.685770458;-0.127193101;7.409395978;30.59707271;-6.098492821;41.02966581;1.565847895;26.53039325;-5.695648485;-5.832176651;-5.497844841;2.356332565;5.921550613;7.197615381;-0.612900661
8.972895808;18.84854462;7.785590753;-3.250087891;1.418703454;-0.094102336;11.33455864;33.09486174;-5.212738563;41.96633985;-1.029904609;23.49347571;-3.800984003;-6.327920956;-5.791134146;1.567475426;5.350966126;7.058189409;-0.64945036
8.051648389;15.5512915;6.580674358;-3.730039063;1.643380009;-0.096823188;25.03453723;35.07126758;-5.35197472;39.59305305;-4.119103673;19.49223686;-1.302368074;-5.940812817;-6.825049339;-0.001787535;4.102394881;6.921308287;-0.419975232
7.28537141;13.3535211;5.245037968;-5.03129752;1.991358043;-0.108047337;39.38400137;36.800476;-5.679665854;34.6270148;-6.113359505;17.07067312;0.705472822;-4.908895889;-6.927753594;-1.224980784;2.511467696;6.498389208;-0.133995584
6.722441317;13.83061402;4.297596919;-5.996939195;2.245709615;-0.108412243;40.68851508;38.72031969;-5.152441752;29.30595447;-5.572055552;18.18170085;2.001668582;-3.866780455;-3.32619942;-0.967683874;1.389084919;5.771759326;-0.055724545
6.453896592;16.82814254;4.140529028;-5.402297744;2.424262227;-0.086770263;20.46624099;40.67288796;-3.094783995;26.06877115;-2.167070273;22.84505219;3.085010181;-3.525183;4.76166256;1.17858396;1.5645859;5.288781254;-0.262261254
6.565829537;20.87491311;4.915476712;-2.992127245;2.646503373;-0.035161832;-17.20282116;41.80327788;0.259022401;26.00429249;2.853520614;29.06018492;4.429393077;-4.157366202;14.62444485;4.634011987;3.247494259;5.894613079;-0.569813097
7.059177234;24.27533082;6.438126021;0.306345606;2.939526109;0.047637723;-56.69554368;41.24370993;3.607963908;28.16556639;7.123932137;34.05440259;5.822584919;-5.309975386;21.58830579;8.174213286;5.715108191;8.015730292;-0.697490647
7.812299262;26.02283072;8.231634694;3.08347374;3.166217461;0.143970679;-80.13072046;38.91879055;5.073959071;30.25744449;8.379739608;35.98512007;6.378687694;-6.030798252;22.35437878;10.61869185;7.675009398;11.10068206;-0.523017246
8.609968097;26.03126018;9.667588157;4.392249808;3.128260168;0.212188;-78.57620575;35.66834811;3.220966492;30.19632505;5.725782795;34.92185426;5.246665286;-5.495469702;17.37401761;11.41535347;8.136418086;13.79316635;-0.198944878
9.206974714;24.80920278;10.18746871;4.159043724;2.733718953;0.203417653;-57.27811694;32.54464696;-1.960884014;27.40155086;0.138703679;32.50246539;2.434733885;-3.57066298;10.34708492;10.78913754;7.161077902;14.82443892;-0.020609951
9.385446578;23.04186431;9.524460174;2.8521592;2.069515279;0.095625413;-31.39399521;29.96174049;-8.804101759;22.92186105;-6.143945638;30.62354788;-0.971926868;-0.886554749;5.350440615;9.432871779;5.876019945;13.95659287;-0.160071411
8.994807921;21.38654345;7.815778772;0.885984803;1.319170675;-0.080259315;-15.63182531;27.5395289;-14.75061722;18.43095464;-10.95918739;30.15422692;-3.464148745;1.610327234;3.988242949;8.00231253;5.66650704;12.17814526;-0.50413837
7.987322866;20.40545634;5.53177022;-1.595316493;0.615355155;-0.247986203;-15.34439455;24.8030708;-17.76803976;14.98695944;-13.40359108;30.53181371;-4.183492158;3.236169567;4.768984248;6.759335036;7.120351984;10.91372378;-0.746340428
6.452410814;20.39615491;3.247776504;-4.384983572;-0.026305984;-0.329298732;-25.00224805;22.01968848;-17.48023749;12.54880169;-14.1154965;30.3840069;-3.578316075;3.825025641;4.947263248;5.560058594;9.523620241;10.82549549;-0.657866244
4.627012219;21.09868974;1.387983009;-6.790696303;-0.632539781;-0.294735441;-34.13844289;20.26457536;-15.23462907;10.52667473;-14.54827527;28.6092399;-3.0756161;3.537143145;3.070400969;4.130019531;11.30201646;11.17156006;-0.299610221
2.85590619;21.5916002;0.096503169;-7.734741477;-1.142918955;-0.183759385;-35.51548477;20.54135646;-13.06559594;8.741985697;-15.82177584;25.13894074;-3.960830445;2.515810643;0.083090295;2.384662608;11.0787371;10.29389737;0.017145149
1.507283566;20.71400875;-0.694717752;-6.494125452;-1.3746395;-0.07701439;-29.37770963;22.76447766;-12.30902139;7.854239797;-17.97502915;20.96163848;-6.308329558;0.795872995;-1.75622454;0.556984765;8.564750904;6.926166873;-0.003482321
0.883926019;17.93584767;-1.07736812;-3.503436997;-1.14571673;-0.039963281;-21.42875722;25.65066988;-12.8553821;8.833774476;-20.07510309;17.54703155;-8.813658948;-1.438820576;-1.018426241;-0.936241514;4.670566125;1.343254187;-0.375507339
1.168188688;14.0770509;-1.029428694;-0.426324008;-0.46244723;-0.079555063;-17.20987727;27.7501488;-13.51003906;11.94820789;-20.97981588;16.13225854;-9.705579502;-3.572725186;1.590886812;-1.756707282;0.858925056;-4.540838878;-0.797842983
2.397804032;11.1749017;-0.461405373;0.770452694;0.405599445;-0.145216787;-17.83308007;28.70257202;-13.07657546;16.20120042;-20.12024554;17.26003906;-8.072514011;-4.679987571;3.804209132;-1.820048828;-1.695490596;-8.246263656;-0.893631892
4.435527331;11.33534806;0.579070359;-0.852662918;1.060497753;-0.170750855;-20.13701687;29.46329115;-11.2766301;19.7976642;-17.7634916;20.66819676;-4.59207479;-4.120907516;3.664802074;-1.26181336;-2.543577992;-8.233518473;-0.529722489
6.916611956;15.22822363;1.725277894;-4.501899868;1.237559317;-0.123096361;-20.32524752;31.15152867;-8.851368332;21.32287716;-14.6998586;25.41711747;-1.093088301;-2.166750717;1.125257204;-0.256126178;-1.845595678;-4.812769862;0.04735625
9.22546692;21.3192102;2.33170018;-8.181701474;0.987032653;-0.021740699;-17.4935985;33.55299732;-6.915749996;20.68459077;-11.73860349;30.14364567;0.726469388;-0.034582217;-1.856081475;1.127673665;-0.020886741;0.113498933;0.3734005
10.59557668;26.53632616;1.780640341;-10.11299684;0.619601392;0.081228031;-14.10454148;34.82378007;-6.220453718;19.03638379;-9.441786925;33.42822062;0.455218827;0.875557803;-2.70220256;2.888593936;2.442109737;4.222638029;0.098809783
10.37461791;28.06342568;-0.123475562;-9.96829481;0.449560814;0.139305745;-13.44025645;32.95258063;-6.933184085;17.74048582;-8.195426651;34.27071176;-0.863096666;0.050422636;-0.000448117;4.909411269;4.948483753;6.041642986;-0.768894962
8.359578148;25.08706544;-2.961170312;-8.989789912;0.540102683;0.136616093;-16.60186356;27.82920143;-8.973826319;17.22514714;-8.355775775;32.5312551;-1.634101286;-1.624764356;5.538009428;6.809390311;6.803363945;5.54711238;-1.889839267
4.989906016;19.29031713;-5.884550174;-8.941829104;0.658020994;0.08509613;-21.67081548;21.94223154;-12.39093935;16.67042881;-10.16151043;29.06382275;-0.953251611;-2.432598281;11.44691426;8.012542715;7.499805672;3.862463791;-2.841886879
1.212544635;13.75243052;-8.091819566;-10.74837675;0.474251326;0.005132803;-25.48961151;18.73553834;-17.26742338;14.75851675;-13.40274844;25.3501723;0.779021676;-1.134001647;14.82742498;8.034899161;7.141799013;2.396417352;-3.384978481
-1.974216778;11.03588403;-9.270652607;-13.84754067;-0.154862728;-0.087690908;-26.25010004;19.77213808;-23.18431852;10.84920113;-17.18182189;22.75090419;2.296896283;1.979958067;13.8104242;6.794523996;6.544646521;2.009773524;-3.543864134
-4.05107834;11.77536491;-9.694570799;-16.65252096;-1.053639238;-0.178956128;-24.63101161;23.18700609;-28.82686516;5.621361503;-20.13283066;21.80705206;2.551298036;5.179668331;8.447119846;4.699512313;6.716456085;2.646488067;-3.484097074
-5.236878088;14.64442484;-9.907448503;-17.6290082;-1.843341385;-0.24537521;-22.75199226;25.06209192;-32.32371003;0.699011075;-21.11356657;22.06205305;1.547320076;6.540529849;0.684157978;2.427646746;7.999338982;3.52690976;-3.325845114
-6.279853945;17.54003906;-10.24681885;-16.12672216;-2.208382192;-0.257400498;-22.15931898;22.83584841;-32.30064048;-2.381712782;-19.93572736;22.54160736;0.297263402;5.400887447;-6.545693112;0.55395848;9.607778589;3.716088426;-3.066505793
-7.89908992;19.00527554;-10.58706952;-12.48280786;-2.10194202;-0.200252284;-22.70565431;17.83175484;-28.92176025;-3.026726036;-17.56520923;22.55106307;-0.016237552;2.877091251;-10.74920841;-0.695151467;10.12293673;2.748539502;-2.659017722
-10.24985637;18.89659411;-10.51252304;-7.610895681;-1.746637943;-0.096966092;-23.13970011;14.43321967;-24.04007813;-1.66787177;-15.56388047;22.20180746;1.037001988;1.008585313;-11.14278532;-1.390385084;8.713142982;0.989471169;-2.141947934
-12.7817869;18.0159517;-9.779519293;-2.625855927;-1.458114058;-0.008609587;-22.60361915;16.25123056;-20.18793195;0.813210392;-15.11259764;22.27678754;2.840978622;1.212026673;-8.997727033;-1.631484441;6.101605067;-0.486522112;-1.676956536
-14.58148192;17.2326479;-8.672102443;1.237484915;-1.444846238;-0.002721639;-21.53312012;22.49687987;-19.04336641;3.696793116;-16.29522681;23.55298535;4.233769145;3.288483345;-6.671782558;-1.323709689;4.329554009;-0.501863401;-1.447429238
-14.94193367;16.88197417;-7.912768779;2.690384657;-1.719813293;-0.108837855;-21.17753137;28.0190448;-20.46115655;6.550431436;-18.14812496;26.11843544;4.341301038;5.763176765;-5.787746353;-0.209840465;5.289450588;1.430014648;-1.510172106
-13.7458768;16.82291761;-8.133242211;0.863111366;-2.138727964;-0.294627185;-22.30139244;27.52515997;-22.75921018;8.912735467;-19.41627303;29.21692442;3.089348003;7.217602246;-5.813257837;1.870469186;9.119691782;4.638664761;-1.740220194
-11.41035221;16.90206376;-9.281946124;-3.876090769;-2.481499819;-0.48284149;-24.33124185;20.66529426;-24.00872748;10.04542232;-19.4453;31.72926282;1.084825449;7.443598588;-4.284440395;4.739004009;13.85827656;7.581900411;-1.925041056
-8.490181366;17.2763382;-10.44724333;-9.466837216;-2.504908854;-0.597742046;-25.71375724;13.33056125;-23.34585143;9.183417038;-18.56946339;32.90199529;-0.899863931;7.425976864;1.173881072;7.897103127;16.84264847;8.838093051;-1.928957499
-5.299490844;18.29803666;-10.3070104;-12.84584772;-1.980874602;-0.606553944;-25.11858229;13.24829436;-21.37571016;6.173337061;-17.76132755;32.76520113;-2.340837514;8.207707182;10.38842846;10.81809384;16.86217429;8.180058594;-1.786437052
-1.87102833;20.15748019;-7.95911135;-11.75708476;-0.783093357;-0.526874811;-22.41541032;22.83556747;-19.49441831;1.919050019;-17.85441458;31.96531814;-2.98054755;9.708680533;19.78255659;13.2750113;15.2673101;6.8833723;-1.648692135
1.737234127;22.71604521;-3.580930277;-6.557605655;0.974569162;-0.400133317;-18.64897449;35.23594248;-18.76903063;-1.879008925;-18.92066428;31.22243688;-2.593461621;10.65025188;24.23034512;15.41508181;14.91919105;6.858691726;-1.638963362
5.104273949;25.72790687;1.553629926;-0.508497041;2.857123431;-0.258490983;-15.15680237;37.65285436;-19.24799458;-3.625020894;-20.21383261;30.89113254;-0.891851151;9.766497393;20.63819585;17.50121206;17.61420264;9.086588558;-1.748309083
7.454475726;29.19533944;5.748613614;2.06986631;4.226576394;-0.11418153;-12.65220446;20.48019506;-20.1114161;-2.726530445;-20.65975631;30.94282366;2.205122968;7.271127876;10.63746553;19.53120879;22.03983708;12.51152855;-1.859421083
8.114298347;33.40108411;7.831423307;-1.245138338;4.576649622;0.024321632;-10.98606432;-14.33841881;-20.3722528;0.195108327;-19.52795098;31.26088345;6.134417359;5.172231801;0.070583064;21.06226529;24.14037653;14.3967109;-1.866064712
