Channel 1 - P4;Channel 2 - O2;Channel 3 - P8;Channel 4 - T8;Channel 5 - C4;Channel 6 - Cz;Channel 7 - Fz;Channel 8 - F4;Channel 9 - Fp2;Channel 10 - F8;Channel 11 - Fp1;Channel 12 - F7;Channel 13 - F3;Channel 14 - C3;Channel 15 - T7;Channel 16 - P7;Channel 17 - P3;Channel 18 - O1;Channel 19 - Pz
8.541518786;-76.94237309;8.134254238;-54.85711094;-2.893557266;-3.90082483;-117.0043985;-125.6749781;-71.88069192;-32.87630549;-4.45055247;-87.34496278;-54.46947516;-64.70776413;7.207438385;22.22962036;-40.92753465;-73.36434614;-13.14602432
-0.467044415;-62.29500174;-3.020845301;-52.82574451;-9.649864657;-3.314581679;-82.9051265;-89.71521273;-68.40942545;-37.04862317;-13.31945655;-78.85480226;-37.24343917;-41.69765187;-4.127247292;7.251732118;-32.44997777;-58.51328367;-8.083727761
-5.284203159;-27.92203986;-8.307294363;-29.84734689;-12.08786956;-1.562079906;-27.99766935;-28.81682351;-42.02081407;-28.5158804;-12.49979916;-43.90076091;-8.918525244;-7.914858812;-9.092273015;-3.920800018;-17.96433754;-26.01852241;-2.38055942
-6.020378747;4.283763279;-8.98458978;-3.870835653;-10.79384049;0.358636843;18.96722874;23.40251083;-10.74953788;-13.76087706;-4.858972214;-5.964574005;14.72003906;20.41599033;-8.595818343;-8.779870675;-8.863387313;3.31161145;0.886345929
-4.69039992;18.3195033;-8.13613513;8.555391025;-8.047122317;1.463190188;38.16655516;43.31197844;8.122280163;-1.081552768;3.822533426;14.357848;22.98488402;31.9160764;-5.970468688;-8.260535679;-11.18823033;13.7758115;0.627230915
-3.623755009;13.24783804;-8.19800178;2.999399713;-6.150612973;1.401741746;29.43188221;31.46872491;8.469887895;4.518202108;8.588921185;11.43080204;16.38376583;25.9931219;-4.529523901;-5.66890105;-21.76118663;4.25979336;-1.819096747
-3.995287822;0.60660654;-9.496493831;-11.54724707;-6.057182051;0.592563866;8.827641625;8.58077495;-3.083089077;3.524830783;7.942098866;-5.049964105;4.343740478;11.29825987;-5.49112491;-4.188499581;-31.28361096;-13.09843205;-3.958114282
-5.417494233;-6.471318307;-10.65991933;-21.03708237;-7.149035443;-0.182878579;-4.960782463;-2.251494971;-14.35165252;0.185702271;3.851687952;-19.91768296;-2.950383901;-1.418282265;-7.690243353;-4.883140623;-31.70504839;-23.13705875;-4.063012701
-6.693154756;-3.184927506;-10.26905357;-17.46529965;-8.120573334;-0.377514196;-3.654453006;7.38903735;-17.2172026;-1.327868326;-0.390496151;-24.0153766;-1.964032672;-6.472154288;-9.069490161;-6.597738301;-22.09639466;-18.62567728;-2.285940114
-6.994082811;5.244424238;-8.264864106;-4.185267617;-8.157287138;-0.014862446;7.271149388;27.45089165;-12.40905695;0.136989483;-2.612712728;-18.83418427;2.946020001;-5.517592224;-8.603965441;-7.568356652;-8.762508761;-4.061775625;-0.2249793
-6.515752525;10.00925255;-6.01838084;8.038639184;-7.518437388;0.447067064;15.8172264;40.21254706;-6.767999211;2.550928046;-2.78518639;-12.3217655;4.59672945;-4.176165586;-7.102895515;-7.213068671;-0.00155589;9.48174557;0.550829333
-6.170648181;6.791412998;-5.155830417;10.33186147;-7.196336693;0.555276826;14.23015009;35.6304058;-6.387338493;2.901350776;-2.263455054;-10.885245;-0.408932228;-6.489252463;-6.351180351;-6.569251248;0.065364755;13.45386827;-0.233614845
-6.67869803;-1.348291533;-6.209317075;2.615874613;-8.04459656;0.225019164;4.571605666;18.71184559;-11.6871116;-0.29031911;-2.27263825;-14.61360805;-8.985461912;-11.76303645;-7.435030801;-7.115131269;-6.11685297;7.592044869;-1.47175496
-7.857242985;-7.79763368;-8.186983735;-7.1243228;-10.09617031;-0.246070021;-4.453920122;3.952021722;-18.03665708;-6.035166171;-2.994370486;-18.85100424;-14.5563841;-15.86671421;-9.713433127;-9.140273276;-12.27804775;-1.414994875;-1.714725132
-8.687563286;-8.584763253;-9.317912017;-9.99877282;-12.54613859;-0.476444486;-5.64659746;2.642311568;-20.53806729;-11.90428152;-3.827301572;-19.46041332;-12.74825716;-15.26973471;-11.28970742;-11.19114591;-13.4788927;-6.216350625;-0.400242688
-8.069224927;-5.15196277;-8.291810425;-3.564202376;-14.32185251;-0.329498373;0.80831503;13.99445673;-18.35208104;-15.86284848;-4.289679783;-16.48199589;-4.892938561;-10.15048809;-10.5565962;-11.13519677;-9.455418781;-4.422709446;1.730119121
-5.629224158;-1.716249758;-5.032893914;6.549081582;-14.75866246;0.000747923;8.268477421;26.92255809;-14.92932719;-17.38429061;-4.580937854;-13.1998065;3.325430323;-4.110249366;-7.512454697;-7.941498381;-3.882821486;0.661399313;3.286868766
-1.955201201;-0.394240694;-0.551374806;11.6337081;-13.91338073;0.190183741;9.851934157;30.08592974;-14.42745437;-17.18989346;-5.307613195;-12.24188187;6.553766116;-1.071856465;-3.777833183;-2.631871522;-0.77799504;3.909220627;3.344693218
1.873415319;0.917740165;3.816725088;7.06218311;-12.39093762;0.072614727;4.244625453;21.3001069;-17.8557321;-16.17516957;-6.753560867;-12.89999783;3.705103488;-2.18179192;-1.344417479;2.435333845;-1.319408378;2.942187199;2.093502068
5.021608883;5.879418611;7.099610933;-4.24121145;-10.91359318;-0.236126619;-3.687834147;8.675145593;-22.39068138;-14.61829355;-8.500146221;-12.26125175;-1.912066862;-5.239279141;-1.116705388;5.353452468;-3.519781735;-0.432623196;0.572792822
7.307368587;14.99070232;8.880953777;-14.46777905;-9.965135673;-0.466832523;-7.502788749;3.17811782;-24.23346877;-12.30234411;-9.818981454;-8.808617379;-5.906439316;-6.85144323;-2.416209278;6.022844608;-4.503343859;-2.554465481;-0.194349435
9.021831862;23.63151386;9.103634719;-17.13011198;-9.68284644;-0.445057114;-4.68188089;9.315932871;-22.22289765;-9.263191936;-10.46914598;-4.697055619;-6.427626042;-5.269712976;-3.760946285;5.963623274;-3.059008754;-1.399768376;0.07589414
10.40981627;25.16104629;7.892200574;-11.67374401;-9.942678431;-0.235722313;1.641120447;21.68326225;-18.91553367;-6.333383787;-11.09293164;-4.201846735;-5.089124782;-1.532767464;-4.167188417;6.817618703;-0.302516587;1.952848029;0.873921246
11.30925035;16.63399639;5.624026709;-3.137115518;-10.48639657;-0.068408968;5.834288656;29.85179129;-18.25238726;-4.896114334;-12.73701964;-9.572668;-4.798959896;1.799833267;-3.844241504;8.885316299;1.764068862;4.838923354;1.43557308
11.25601507;2.063874663;3.081930299;2.270289185;-11.00772952;-0.124652448;4.735143359;27.20114636;-21.97810801;-5.997864198;-15.83523551;-18.17203711;-6.775630268;2.969475689;-3.747745574;10.96774318;2.171414286;5.706441;1.354225556
9.929342144;-9.919713289;1.344242016;1.761147921;-11.22497527;-0.38072263;0.112510807;16.39208087;-27.98687815;-9.531011614;-19.54149823;-23.8340805;-9.475048393;2.324986137;-4.47481869;11.60210301;1.607847454;5.37940156;0.792937498
7.526034458;-12.3723354;1.302868349;-2.745925932;-10.98701374;-0.637492964;-3.224302535;7.225081214;-31.98323957;-14.14309284;-22.08266673;-21.65244675;-10.20600357;1.640107066;-5.541257318;10.54031611;1.416931486;5.887011816;0.236171148
4.736472586;-5.185822417;3.109145473;-7.024733246;-10.37876745;-0.699021988;-1.705680285;8.771806204;-30.95705673;-17.95779878;-21.97049353;-12.23614223;-7.761567242;2.273076684;-5.715806982;9.11022013;2.169947723;8.207679053;0.08913805
2.345637395;5.117212568;6.010624597;-8.077658912;-9.720796695;-0.536716055;4.127637775;21.95338103;-25.51183594;-19.59807835;-19.16672618;-1.718516123;-3.61097275;3.912371168;-4.137633556;9.099603126;3.241268234;11.17159413;0.459088355
0.781156679;10.69150312;8.770793229;-5.870839598;-9.400580354;-0.299921343;10.4429247;38.10999167;-19.20731479;-18.83222437;-15.27068011;2.696672645;-0.633626762;4.976882946;-1.237835993;11.1310964;3.671594674;12.52202939;1.195021261
-0.061020871;8.364586194;10.38928481;-2.378886911;-9.613701114;-0.175292872;13.59083996;44.48367167;-15.66231834;-16.48858326;-12.53007813;-1.868595199;-0.616227179;4.192941133;1.37344009;13.98079031;3.307562535;11.05495562;2.023365765
-0.632496064;1.539856065;10.59588067;0.567324067;-10.20209328;-0.226653735;13.05436726;32.64150321;-15.93400195;-13.80461506;-12.37710464;-11.92905645;-2.762853077;1.858271329;2.031347245;15.49948121;3.010289143;7.799270815;2.620788466
-1.37638787;-3.189504478;9.80176594;2.496109717;-10.73488427;-0.354175617;11.42711323;4.14035984;-18.22815951;-11.70655781;-14.54654892;-20.47;-4.469474108;-0.339984755;0.276984032;14.40301583;3.741978623;5.168886309;2.64731892
-2.455763258;-1.569947329;8.658007091;3.794611051;-10.79747157;-0.399025012;11.73777984;-30.04877623;-19.88287227;-10.47171182;-17.38174086;-22.23309166;-3.591196685;-0.761526838;-2.754336876;11.41473493;5.503264022;4.914069446;1.871605675
-3.686666906;5.236487077;7.66202611;4.508973841;-10.28063448;-0.292215168;14.69132222;-55.65451688;-19.7245568;-9.901810862;-19.05206365;-17.24704134;-0.203681853;0.776906363;-5.13884248;8.757518123;7.24299713;6.744549888;0.403984604
-4.623378363;12.19821403;7.112398187;3.960859141;-9.446508481;-0.11478662;18.24403717;-62.80803346;-18.8333619;-9.782896397;-18.78315927;-10.09537331;3.570785255;2.830249587;-5.548218259;8.379123811;7.867145053;8.793091575;-1.164998361
-4.694998738;14.78486027;7.303225876;1.594456293;-8.71617543;-0.021396876;19.68672175;-50.87395286;-19.32890241;-10.24203861;-17.2724305;-5.965427063;5.364178273;3.50710385;-4.161185863;10.37535297;7.33912461;9.37685222;-1.968818437
-3.366116074;12.3048656;8.592633328;-1.96864207;-8.34272038;-0.100363323;18.18196673;-28.01585668;-22.48023007;-11.70895627;-16.10895023;-6.894116544;4.3597128;1.98;-2.442567797;12.93029352;6.733163511;8.403378442;-1.407983305
-0.353444205;7.719965208;11.14234089;-4.968048563;-8.225337806;-0.294214545;15.43796467;-6.205787062;-27.80666394;-14.4780922;-16.70729071;-11.00753245;1.637940261;-0.923039134;-2.002774192;13.83981736;7.132219287;7.22202022;0.330483992
4.130162571;4.704812164;14.548501;-5.803865821;-8.009132777;-0.446820357;14.01084395;5.250888757;-33.73187938;-18.1757887;-19.50698077;-14.78573485;-0.992413188;-3.471340882;-3.412068903;12.37421875;8.454568146;7.221537512;2.245447556
9.25932787;4.869949404;17.82413616;-4.39760231;-7.391404791;-0.432582579;14.89355369;4.081576114;-38.93649553;-21.57627937;-23.88792488;-16.00123791;-2.476451018;-4.437462793;-5.814371177;9.957541899;9.449308535;8.581917526;3.131750798
13.78951782;7.394495999;19.95299444;-2.230548553;-6.396505026;-0.256922547;16.63153909;-4.883838885;-43.11394425;-23.05452972;-28.71410135;-14.89528541;-3.034809817;-3.985845876;-7.550058594;9.110765365;8.995184533;10.31462946;2.441086765
16.57232939;10.77860454;20.67995626;-0.911789567;-5.408159554;-0.04776136;16.75255268;-13.612708;-46.63180074;-21.55155538;-33.05497046;-13.10398479;-3.495034306;-3.371158603;-7.282389371;11.50535864;7.485966873;11.41628084;0.725127568
17.13699814;14.54672187;20.85068295;-0.603008384;-4.931441961;0.047940746;14.17555298;-16.15259843;-49.7379736;-17.49340489;-36.64374067;-11.8523843;-4.298558788;-3.768687522;-4.844562846;16.65570742;6.823439736;11.90454054;-0.742119945
15.95062323;19.16981959;21.86017783;0.127380751;-5.251397328;-0.026525231;10.38062484;-12.00250355;-52.30687978;-12.97371586;-39.90548031;-11.23451922;-5.201007027;-5.220927175;-1.31206973;22.22293521;8.73923826;12.68912622;-0.920869714
14.13179893;24.56697918;24.49185249;2.752560479;-6.221320263;-0.207717066;8.235806689;-5.607073489;-54.41723924;-10.8679228;-43.66949176;-10.97897076;-5.855927991;-6.526239599;1.63947172;25.61444301;12.81148681;14.42910031;0.197859025
12.76440262;29.10131739;28.03181437;6.941093204;-7.318130159;-0.375177067;9.468772631;-2.606775595;-57.06178784;-13.2447828;-48.79162284;-11.522574;-6.542694634;-6.119708345;2.624202487;25.6101521;16.08871821;16.55814757;1.600961425
12.25876728;30.45781004;30.46149796;10.25335546;-7.927718895;-0.447327184;12.98900373;-5.636764426;-62.03508233;-20.01926938;-55.85554472;-14.01707355;-8.174118174;-3.25418522;1.181459976;22.85445948;15.03128669;17.52567682;2.072181079
12.18843231;27.7526931;29.74627359;9.910078125;-7.689632124;-0.432987176;15.55690287;-12.65600421;-70.80582114;-28.78263109;-65.01120118;-19.14856419;-11.48036285;1.375565981;-2.097549125;19.04101685;8.448930693;16.13212722;1.160371215
11.69422917;22.75824171;25.34554693;5.237045195;-6.708172811;-0.407045197;14.29616913;-18.82793057;-83.22696319;-36.0538442;-75.93857018;-26.00379515;-16.13698801;5.965902683;-5.911646787;15.61464394;-0.982399122;12.7482517;-0.489779214
10.15194353;18.77281524;18.81183935;-1.384303158;-5.516667825;-0.441381453;8.985653752;-20.3072185;-97.24487381;-39.24257301;-87.90894672;-32.27975044;-20.72595586;8.621688771;-8.846293667;13.03040745;-8.127458008;9.242924592;-1.700087891
7.645376421;17.89829975;12.97785608;-6.062285301;-4.806706869;-0.549752196;2.261665316;-16.94970323;-109.9971434;-38.07824209;-99.91985105;-35.8363587;-23.66682864;8.381315822;-9.968634315;10.9746999;-8.923994852;7.590884566;-1.725809741
4.968308835;19.1761608;10.28003906;-6.285434968;-5.047677065;-0.683183206;-2.394280957;-11.97612725;-119.5110074;-34.57632648;-110.8812861;-36.23047831;-24.34669817;5.651361594;-9.18900135;9.103444472;-3.422213174;8.338610607;-0.81331847
3.222608957;19.46611164;11.40592546;-2.766133615;-6.185095137;-0.768213559;-3.21382188;-9.127492157;-125.6937948;-31.60012311;-119.8332632;-34.81096641;-23.47288261;1.874566537;-7.226119936;7.524318091;4.066432464;10.26039461;0.097736723
3.30955252;16.50541977;15.17514733;1.337157137;-7.591991254;-0.753208353;-1.218920468;-9.786600797;-129.9128743;-31.03243374;-126.1745747;-33.29592442;-22.36524626;-1.295745617;-5.160570512;6.644405668;7.942031102;11.49184063;0.237034343
5.587743178;11.464019;19.60797727;3.175217147;-8.342282637;-0.633667143;0.906392773;-12.3511985;-133.6441073;-32.7936587;-129.8593546;-32.20975624;-21.84865304;-2.81765209;-3.780188872;6.672015833;5.237374808;11.1325964;-0.32966803
9.784410506;8.535977213;23.27439574;2.592175509;-7.70356078;-0.450768733;1.06834508;-14.08951743;-137.3706763;-35.27357881;-131.4667341;-30.69907208;-21.72999974;-2.653532607;-3.094540103;7.360790798;-2.403362535;9.928725129;-0.79421869
15.09653;11.62481316;25.92295841;2.094977507;-5.59174369;-0.273444165;-0.740831963;-13.61793432;-140.5497378;-36.7035595;-132.0221704;-27.89168439;-21.26603254;-1.586403357;-2.358202852;8.274431456;-10.05610752;9.497895015;-0.348965654
20.40836152;20.81543972;28.07712161;4.436297868;-2.702359119;-0.173787912;-2.793575495;-11.80137619;-142.4295983;-36.37589323;-132.5284352;-24.39324434;-20.10323873;-0.633245294;-0.644327008;9.277643409;-13.01228725;10.85161788;1.089799202
24.6090255;31.70219263;30.14084908;9.895494106;-0.190666814;-0.199409009;-3.30501592;-10.47974905;-142.7793189;-34.85853211;-133.3647212;-22.27726601;-18.76105538;-0.431020001;2.382952072;10.70020366;-9.782606479;13.53460448;2.804426716
26.97760617;38.33038215;31.86575109;15.61591507;0.951035457;-0.348102135;-1.890458168;-10.43641616;-141.8283055;-33.21099121;-133.9114667;-23.33361659;-18.19818689;-0.951312646;6.04239128;12.93311153;-2.554478257;16.07244503;3.885036712
27.48747114;37.46157256;32.59458763;17.62339859;0.451790795;-0.558810754;0.38252021;-10.6124394;-139.6183267;-31.97023346;-132.7550857;-27.12;-18.88950663;-1.66702716;8.907957415;15.80026583;4.865190786;17.21924068;3.967093209
26.80427383;30.73087896;31.95108898;13.90295469;-1.102778309;-0.733495545;2.198872389;-9.262470535;-135.6233319;-30.75648227;-128.5187144;-30.78627685;-20.30909757;-1.990738447;9.652276165;18.33842524;9.761851586;16.83617032;3.45528668
25.87242826;23.02752267;30.26389663;6.047724429;-2.657103511;-0.78735907;3.225425175;-5.837119818;-129.2301516;-28.74692294;-120.8979995;-31.17281343;-21.33160937;-1.637435741;7.910529522;19.30927634;11.8326078;15.67623311;3.077538087
25.28337267;18.57224374;28.30338965;-1.804951641;-3.345195942;-0.699907116;4.223991788;-1.686835301;-120.7349315;-25.52742593;-111.2011888;-27.55622917;-21.19798987;-0.663576608;4.572989913;18.11129455;12.46484949;14.4262527;3.214860499
24.85960346;17.98201127;26.57571861;-5.843579498;-2.98623145;-0.530147648;6.022305943;1.144401238;-111.8240197;-21.56948066;-101.8906816;-22.58685486;-20.15662583;0.772273137;1.300329515;15.34312446;13.00211421;13.02921986;3.626036813
23.81274831;18.5917321;24.84257856;-5.010243285;-2.095932232;-0.379985298;8.406303731;1.872255664;-104.8098857;-17.95923988;-95.25759913;-20.32880381;-19.18435636;2.637881138;-0.413402612;12.49055958;13.60679768;10.96204201;3.788243832
21.42479984;17.41933617;22.34015839;-1.270607488;-1.436143495;-0.328188362;10.0708562;1.733770454;-100.9989965;-15.65021047;-92.01744215;-22.81272396;-19.03830594;4.981979765;-0.019947578;10.90796815;13.5108908;8.142709275;3.48729493
17.75704516;13.96809593;18.54080698;2.174676822;-1.443520213;-0.381881426;9.766681366;2.74670201;-99.49451921;-14.86057136;-90.78375325;-27.97301489;-19.50565831;7.640875064;1.918938091;10.8571508;12.11470615;5.469128025;3.063122035
13.80090399;10.41961817;13.80264316;3.128680604;-1.940526345;-0.480520777;7.622488604;5.632331337;-97.57728257;-15.03710018;-88.8599856;-30.88707943;-19.54137964;10.01455636;4.19238333;11.34495874;9.746797279;4.309041042;3.0577832
10.88155296;9.248115583;9.325344723;1.438036296;-2.303316022;-0.546557299;5.368561478;8.973797624;-92.59024177;-15.29978159;-83.90415659;-27.54832672;-18.18343393;11.23153728;5.644357528;10.87538326;7.393576491;5.279736559;3.602577328
9.726134002;10.60933645;6.407309353;-1.57675521;-1.926753928;-0.541083481;5.106391173;10.56504111;-83.96799058;-14.93871091;-75.39786417;-18.21947242;-15.44436686;10.68723551;5.668363349;8.520298163;5.757859613;7.414191232;4.15989947
9.919271843;11.97677952;5.57960832;-4.417125642;-0.639828367;-0.482044131;7.574490452;9.751195372;-73.82125691;-13.62397356;-64.96315045;-7.614445839;-12.41306204;8.550349428;4.283912551;4.49782512;4.608685571;8.570661613;3.927667251
10.20127657;10.38602758;6.287153621;-6.270427672;1.194245012;-0.416887199;11.3936911;8.435219474;-65.56290943;-11.34922583;-55.35331796;-1.647473219;-10.50449015;5.763678027;1.904106236;-0.11572304;3.045120283;6.888265803;2.588176275
9.40697338;5.256284043;7.336679216;-7.038991939;2.904520855;-0.379976868;14.02003906;9.526348645;-61.58905025;-8.365470372;-48.83032628;-3.233225272;-10.51467323;3.441481523;-0.949061666;-4.212643955;0.411703505;2.161696309;0.71744774
7.328005143;-0.7733143;7.731398827;-7.002293732;3.8630682;-0.373890585;13.69502666;14.04351375;-61.75188856;-5.245080633;-45.99402459;-10.36270016;-12.23838363;2.095857362;-3.806671909;-7.311046392;-2.97948367;-3.959572003;-0.574263213
4.841766256;-3.795523587;7.257293244;-6.707302483;3.733943903;-0.386711924;10.79393136;19.59449536;-63.69619773;-2.908574331;-45.72602378;-17.83045299;-14.8467748;1.33273428;-6.29;-9.560705336;-5.947576376;-9.076162817;-0.524752056
3.242182455;-1.732034525;6.448029607;-7.082777209;2.533436964;-0.421310508;7.435088261;21.96550758;-64.65316151;-2.327061563;-46.10118398;-21.10634842;-17.55789488;0.308688864;-8.111316391;-11.21374555;-7.237080115;-11.53313864;0.619532697
3.337035112;4.039603696;6.06956317;-9.241863571;0.562951007;-0.50183713;5.674728539;18.76991791;-63.22107786;-3.880956255;-45.52131453;-19.28642213;-19.97396769;-1.410043945;-9.086208553;-12.11644011;-6.311927848;-11.16760831;1.765431358
5.018693789;9.843831518;6.591638131;-13.66454668;-1.692179671;-0.64721261;5.835403386;11.99467643;-59.84137532;-6.795077052;-43.33622301;-15.00664292;-21.89902409;-3.331918498;-9.129574092;-11.70269671;-3.548393047;-8.909933043;1.867760442
7.567844858;12.59619063;8.020667763;-19.26819314;-3.67660386;-0.837270365;6.42025139;6.91547357;-55.85721329;-9.225208475;-39.73096182;-11.74656889;-23.00936934;-4.360009766;-8.204705629;-9.48385899;0.181345922;-5.819194102;0.819484412
10.31939633;12.00572569;10.10099252;-23.38603972;-4.927727927;-1.008976898;5.686842457;7.913975794;-52.16816567;-9.184782152;-35.20734412;-10.93633807;-22.86376315;-3.721862166;-6.273042388;-5.582586022;4.047944568;-2.479180555;-0.429719583
13.05919398;10.40742636;12.59762705;-23.170451;-5.27789546;-1.094592906;3.463290432;14.62687058;-48.64592573;-5.811992217;-30.15775369;-11.16377004;-21.31513159;-1.714984477;-3.341445279;-0.836094938;7.473769212;0.845300985;-0.657586233
15.8388208;10.60504653;15.38254398;-17.68898625;-4.980149391;-1.073214502;1.513195387;21.91665273;-44.63430145;-0.070295507;-24.77998484;-9.843478013;-18.87782782;0.418463938;0.365057029;3.612337867;10.00714442;3.708813868;0.580967201
18.47852124;13.65216313;18.29153248;-9.097326432;-4.610141369;-0.990021973;2.009135833;24.06529301;-39.85479714;5.727746403;-19.2186945;-5.695675903;-16.56025406;1.442744726;4.22806074;6.877229443;11.21648531;5.357958862;2.515931921
20.32822434;18.28763866;20.94278441;-1.702411435;-4.724596185;-0.922130971;5.416238799;19.8563803;-34.77204874;9.333085395;-13.67598609;0.074284995;-15.17435742;1.123687113;7.265850788;8.602197623;10.868897;5.216967613;3.713169601
20.59686334;22.1552814;22.72153252;0.69527562;-5.468977196;-0.916351387;9.762379984;14.10180878;-30.10643487;9.924273041;-8.376898295;4.709382543;-14.69865744;0.408262513;8.47749853;8.80610544;9.248923911;3.500296256;3.17119439
18.98866752;23.50050592;22.97;-2.6723457;-6.432619877;-0.951200902;12.16911793;13.87427737;-26.05362434;8.433000616;-3.489488269;5.977161464;-14.31474972;0.613036671;7.370078125;7.582769449;7.211758415;1.252382731;1.075213947
16.04638109;21.95585984;21.26163418;-9.056845284;-6.913843886;-0.957131099;11.4821067;22.15770052;-22.04638686;6.629608457;0.86248393;3.658726705;-13.15666735;2.313319081;4.346161792;5.048504305;5.762426222;-0.345873712;-1.381169372
12.83028256;18.14902384;17.61201237;-14.15283673;-6.447976257;-0.879536687;9.64890587;34.11362811;-17.33694253;5.735026714;4.515902847;-0.544548973;-11.12617396;4.903148739;0.66025863;1.637797834;5.433349396;-0.803889902;-2.919659277
10.16395532;12.96611383;12.56124803;-15.0195452;-5.210874579;-0.731168716;10.34075163;39.44148376;-11.84665374;5.67922516;7.282927052;-4.289120052;-9.004264606;7.211707409;-2.090063477;-1.583370384;6.000811257;-0.486904702;-3.06958749
8.09725148;7.338694864;7.116572871;-11.78046484;-3.960855312;-0.588101441;15.6751648;29.5813241;-6.43134045;5.560947523;9.163221267;-5.865465846;-7.702359057;8.611033987;-2.674596641;-3.06455771;6.820462483;0.051919272;-2.334189603
6.067858411;2.520114802;2.534826417;-6.975100392;-3.518986486;-0.530921093;23.8032973;4.519813349;-2.239447495;4.840527615;10.60153685;-4.640398837;-7.315324099;9.583939854;-0.759079514;-1.531843756;7.480977579;0.879968613;-1.587691952
3.616264624;0.056147874;-0.079941354;-3.343532621;-4.158572255;-0.579629107;29.77784084;-26.03200155;0.294553384;4.173690496;12.47147019;-0.782515704;-6.889919154;11.18663573;2.99899972;3.048709465;8.134913582;2.711009466;-1.299041919
0.990727576;0.924396079;-0.279220582;-1.966555794;-5.373144168;-0.67633223;29.50812155;-48.23234292;1.894229541;5.101973127;15.61671923;5.057407021;-5.216869477;13.85482548;7.277190598;9.04321386;9.141366431;5.94674343;-1.261499178
-0.941903499;4.380373929;1.391237137;-2.148549758;-6.218366872;-0.729326259;23.75484157;-52.61344063;3.87030541;8.803176392;20.18418446;11.72973008;-1.998068749;16.66150078;10.63288045;13.75346154;10.33796107;9.589886548;-0.998008782
-1.434518993;7.757259361;3.53703862;-2.781448659;-5.982149066;-0.680845603;18.52554357;-39.57135925;7.000641755;14.9385886;25.28562111;17.53246784;1.688883775;17.81197156;12.03327617;14.84903093;10.70979809;11.24504528;-0.39025363
-0.585098042;7.919657013;4.634019596;-3.672222716;-4.681413457;-0.542785308;20.76351988;-18.26810325;10.85047121;21.5982632;29.39194063;20.66802917;4.158259201;16.08838872;11.21571333;11.77086025;8.957326119;8.610702409;0.098932425
0.643136409;3.590481179;3.9753506;-5.540975489;-3.02244536;-0.374700611;32.13708767;-0.184807526;14.15776213;26.4579795;31.31830881;20.24672122;4.549202886;12.05611272;8.789181748;6.153254963;4.646560562;1.485916992;-0.166019256
1.186553198;-3.296186524;2.204146789;-8.811618613;-1.882030036;-0.228947252;45.87362104;7.870403876;15.96514088;28.26303517;31.11793181;17.11742009;3.68423776;7.937029154;6.008304655;0.899989871;-1.028037838;-7.4;-1.334549835
0.792304843;-8.577771929;0.9524652;-12.55215291;-1.725707429;-0.114197939;49.89021432;6.67;16.4999471;27.48578019;30.15438954;13.64190903;3.51494104;6.118354778;4.209911953;-1.556328439;-5.678587989;-13.71290403;-2.789999753
0.269057048;-8.722656647;1.7161074;-14.80299883;-2.391050566;-0.008272527;34.85695153;2.157333555;17.00706178;25.69163392;30.18569855;12.2673476;5.509667178;7.420776854;4.078434802;-0.707412022;-7.234348183;-14.28461747;-3.547257693
0.828408771;-3.455932716;4.719658843;-14.16771745;-3.337180397;0.096451864;1.711171672;0.274074583;18.6593713;24.20905503;32.06814281;13.81198944;9.306406507;10.50353282;5.125876042;1.808346739;-5.450767713;-9.335007629;-3.016816709
3.068786663;3.945088809;8.635561993;-11.22371803;-4.086817976;0.16331134;-37.11593111;3.001167355;21.49724966;23.23628503;35.05007813;16.79120862;12.8219151;12.89240435;5.814613554;3.353611035;-2.207263086;-2.40808724;-1.483509666
6.475818295;8.987738559;11.44108209;-8.322510979;-4.479560698;0.132035155;-64.3340025;8.011330105;24.34418759;22.08608164;37.24221987;18.412769;13.82976213;12.81244966;4.447002438;2.04509296;-0.261455132;2.021335118;0.117299244
9.853081844;9.116220251;11.82287517;-7.75545705;-4.583283929;-0.022587861;-68.17836093;11.3950425;25.80379716;20.25276287;36.97990642;16.57642389;11.76940885;10.38072003;0.398237594;-2.043238238;-1.340379777;1.519357072;0.940134364
12.26017454;5.218813949;10.06499174;-9.810534988;-4.445268584;-0.24534554;-49.50344103;10.94627491;25.49658069;18.26535109;34.10300374;11.39643022;8.299409161;7.278998416;-5.133163327;-6.997814714;-5.000173824;-2.942187046;0.85917658
13.5840165;0.426643057;7.710399576;-12.48769752;-3.992515254;-0.414748043;-20.70911925;7.649412983;24.47075528;17.48859072;30.21358223;5.123498503;6.101840404;5.285049106;-9.541007732;-10.3850026;-9.098514954;-8.125852671;0.464447639
14.23028383;-2.614121919;6.237700252;-13.2626936;-3.200866806;-0.415871184;2.613522099;4.704294842;24.41674988;18.97846588;27.71221243;0.583661865;6.86667055;4.923964396;-10.35024301;-10.86291862;-11.46165877;-11.12027335;0.45427267
14.27714348;-3.642891512;5.796854366;-11.45568213;-2.337250126;-0.220743641;11.34459809;5.152332171;26.32774647;22.37217961;28.29;-0.648440123;10.04873982;5.293848287;-6.974069219;-9.011516662;-11.41671674;-11.30018654;0.969630062
12.98897348;-4.377031009;5.033514455;-9.112102757;-1.955373717;0.085865178;7.197334048;9.810615005;29.70957242;25.83144481;31.90801957;0.96479159;13.35020924;5.060156914;-1.450960589;-6.862702004;-10.03247315;-10.24999556;1.450682744
9.294743534;-6.409619161;2.179083381;-9.489083626;-2.535275059;0.358358415;-0.655259292;16.71673721;32.97122984;27.21026441;36.89419027;3.572499718;14.48832089;3.649789941;2.522641778;-6.495898466;-8.99898393;-9.987611695;1.130967321
2.917771985;-9.472493007;-3.436609121;-14.29746446;-4.023713381;0.484373644;-3.430682932;22.28037828;34.6459048;25.59057403;40.99070271;5.318466208;12.82585878;1.620208463;1.800142221;-8.673081644;-9.161919625;-11.14373403;-0.267287887
-4.868560146;-11.67059418;-10.65285811;-22.00241746;-5.70627222;0.453618328;1.082264146;23.46039391;34.44253244;21.98687412;42.59453926;5.370186479;9.651081431;0.006359348;-4.170365749;-12.41936689;-9.929308563;-12.59924279;-2.237108138
-11.69176477;-11.40603595;-17.12581393;-28.69386719;-6.621922755;0.353791234;8.257344736;19.79824817;33.33392433;18.6564051;41.45046099;4.017562914;7.052073739;-0.634797496;-12.86812247;-15.77865867;-9.966910812;-12.70599959;-3.838476942
-15.56551879;-9.128585337;-20.87293431;-30.92666675;-6.268301779;0.300774993;11.62603041;14.09953287;32.7228224;17.54054765;38.54716752;2.101053383;6.422508692;-0.576570501;-20.17796021;-17.16937172;-8.506949966;-10.86981861;-4.39594667
-16.27366956;-7.207522828;-21.54025181;-28.27766821;-5.038791548;0.357260991;8.569040437;11.06900897;33.44839734;19.01419484;35.49079792;0.433382728;7.773615631;-0.423950544;-22.87475216;-16.38806822;-6.128699913;-8.093674262;-3.964976617
-15.47965912;-7.958758229;-20.46619494;-23.57843044;-3.982320964;0.498048604;2.146993198;14.29556811;35.41031682;21.82280123;33.80832177;-0.395605709;10.1941744;-0.354674316;-20.46839383;-14.60361328;-4.375195492;-6.115448763;-3.20847062
-15.3863255;-11.58516223;-19.57562187;-20.68158487;-4.005790305;0.641208604;-1.922474345;23.23460875;37.95576861;24.12489286;34.45561329;0.018903166;12.80502231;0.089783964;-15.22842736;-13.42092398;-4.569064282;-6.025196564;-2.827812549
-16.99319631;-15.91756603;-20.01663201;-21.60221897;-5.1243876;0.714611518;-0.155861621;32.35607779;40.51172669;24.74186968;37.5522061;1.80965651;15.27086296;1.440083008;-10.49240664;-13.73775241;-6.825151417;-7.601746032;-3.041970885
-19.38289702;-18.24658257;-21.55890042;-25.29389277;-6.382892296;0.705013485;6.101952045;33.66966794;42.83856719;23.68749044;42.29528531;4.566319622;17.52830919;3.547585308;-8.521106171;-15.21739095;-10.03106291;-9.832895274;-3.522957011
-20.63583567;-17.64763065;-23.07830744;-28.87844449;-6.565946259;0.656112609;12.24154666;21.64116849;44.7684488;21.75319713;47.11029605;7.234804892;19.22684038;5.46598665;-9.364482964;-16.70549701;-12.73102739;-11.96857197;-3.780448132
-19.59496482;-15.73221455;-23.58215118;-30.12422673;-5.174146152;0.624290279;14.38589579;-2.510266844;45.85793345;19.70509701;50.14825525;8.54688257;19.6430729;6.197193427;-11.35362746;-17.2121763;-14.13949505;-14.04379683;-3.618024037
-16.95746198;-15.14609268;-22.90028731;-29.06847238;-2.892412293;0.631938745;12.28723776;-30.30622888;45.46805299;17.84304124;50.07024565;7.850153454;18.28741087;5.662756459;-12.62916095;-16.68642006;-14.49667057;-16.42993721;-3.266058226
-14.72617996;-17.14687318;-21.5873086;-27.58274554;-1.14625717;0.655689969;8.88583549;-50.23149678;43.31046372;16.18709172;46.76518596;5.692584127;15.62692889;4.949697904;-12.47031699;-16.00813299;-14.59937488;-18.98144631;-3.11496152
-14.46679499;-20.42817974;-20.30992867;-27.50239391;-1.05566349;0.655488458;7.318258926;-54.32920147;39.94121856;14.90617235;41.52387762;3.547283176;13.09916544;5.467428604;-11.52548325;-16.24405645;-15.01773757;-20.75590811;-3.325257658
-15.88173199;-22.25921826;-19.37279435;-29.07358436;-2.586361436;0.616802684;8.21482153;-42.88207331;36.61630652;14.41073037;36.44381274;2.727026631;12.17597677;7.646501248;-11.00361989;-17.77621472;-15.67820964;-20.70798634;-3.672512965
-16.99048477;-20.94775126;-18.77581628;-31.00411066;-4.562076991;0.568672486;9.558087514;-23.96291368;34.46234566;14.94994808;33.34375569;3.28726047;13.14604406;10.30628748;-11.65937146;-19.9905228;-16.08172036;-18.75544315;-3.749530648
-15.84934769;-17.44439082;-18.60539847;-31.87046693;-5.536785386;0.561073392;8.915956788;-8.131566599;33.58991469;16.14214093;32.8417232;3.846371895;14.66995916;11.32685454;-13.40979443;-21.76199694;-15.85566591;-16.16305706;-3.326945225
-12.39096507;-14.64912768;-19.22832295;-31.46068248;-4.858455394;0.619028431;5.807173049;-1.953665932;32.94429284;17.01781086;34.17151723;2.567282178;14.61456088;9.169775287;-15.74657867;-22.34988168;-15.11247192;-14.75163403;-2.551544105
-8.78244168;-15.00267459;-20.99137197;-30.83163816;-3.114421916;0.711264565;2.060139612;-4.753470356;31.1336765;16.6856873;35.81200118;-1.413873465;11.61949654;4.047616074;-18.38995549;-22.0016669;-14.3458541;-15.52003906;-1.826276746
-7.882361534;-18.45650413;-23.68583863;-31.15125254;-1.639575468;0.761977358;0.016132394;-10.52215595;27.63772387;15.07745924;36.45833547;-7.230583286;6.192947037;-2.194484503;-21.48522186;-21.79216717;-14.03903334;-17.86443134;-1.497977308
-10.95766368;-22.58097516;-26.35515212;-32.52851807;-1.494361385;0.701849554;0.389250976;-13.10773872;23.41061542;13.04326278;35.68983202;-12.79472639;0.462524654;-7.364761889;-25.15080797;-22.80651602;-14.36735282;-20.10647686;-1.624114644
-16.48343442;-24.68984997;-27.76930574;-33.96722125;-2.706126218;0.522914277;1.773718007;-10.61757158;20.33;11.60425674;33.98923715;-16.14512436;-3.233002587;-10.31842835;-28.85541049;-25.2647831;-15.20320833;-20.89749619;-1.989059398
-21.02989398;-24.09553211;-27.27334519;-34.42961851;-4.326539687;0.295324434;2.144669677;-5.95129973;19.87472042;10.97935046;32.26270543;-16.56446003;-3.819604828;-11.37909641;-31.31551175;-28.22018405;-16.30085479;-20.27232147;-2.310192941
-21.60502841;-22.51655903;-25.31230834;-33.89527049;-5.206385252;0.129051105;0.838358907;-3.599375486;22.06147294;10.32317815;31.29214901;-14.66482757;-1.938735683;-11.59507701;-31.16535358;-30.03927274;-17.3990207;-19.42566853;-2.430914689
-17.69733917;-22.31212445;-23.1458332;-33.31235713;-4.854685867;0.10324845;-0.866647391;-5.656242815;25.47557725;8.557070452;31.44382691;-11.56329513;0.841448797;-11.62765373;-27.94430514;-29.32734587;-18.15003906;-19.427435;-2.353892688
-11.5370409;-24.15430922;-21.93960988;-33.45719532;-3.736812252;0.211717106;-1.056044066;-10.26362128;28.34175906;5.655252576;32.63897526;-8.009101235;3.275295107;-11.2940487;-22.59928787;-25.69532239;-18.05543862;-20.06597448;-2.142849587
-6.49496918;-26.25892905;-21.9674511;-33.86507865;-2.845330884;0.364410775;0.919286023;-13.43610684;29.74387724;3.175688004;34.40038621;-4.240595234;5.093057103;-10.08994764;-17.03542503;-19.93432632;-16.64421575;-19.92177418;-1.835325405
-4.905898964;-25.92697574;-22.57617147;-33.03381307;-2.936224363;0.446371845;3.752405068;-12.445128;30.01950257;3.313087531;35.88272504;-0.561471979;6.628445187;-8.068620086;-13.00188913;-13.594029;-13.88439197;-17.67822684;-1.461532398
-6.876354536;-22.09413193;-22.90665697;-29.91861568;-4.024363339;0.393862812;5.318865375;-7.895708396;30.08791831;7.009568587;36.01181831;2.10905882;7.928352802;-6.134177223;-11.14201407;-8.309525487;-10.4973061;-13.53191304;-1.122284487
-10.71029004;-16.64003906;-22.70330347;-25.39925742;-5.461228161;0.233842339;4.5432298;-2.976815004;30.38232797;12.64566064;33.89608088;2.443319608;8.274754732;-5.395962667;-10.90641004;-5.26400435;-7.797207564;-9.399588118;-0.998713471
-14.3198562;-13.2073667;-22.47396127;-22.2;-6.442853625;0.058941187;2.253908695;-0.7753302;30.3655211;16.61440991;29.41781774;-0.35355119;6.614987915;-6.164640881;-11.32617918;-4.956640208;-7.007405339;-7.612445927;-1.234677648
-16.41995555;-14.38271858;-22.85981642;-22.99235332;-6.512493354;-0.042397174;0.290730331;-1.973228877;29.05717573;15.67391127;23.58973416;-5.677704629;2.529367197;-7.565332148;-11.95161358;-7.202828124;-8.462008728;-9.099087715;-1.780608723
-16.7749501;-19.51395876;-23.81485718;-28.08493914;-5.720711154;-0.047602543;-0.214328445;-4.666306656;26.08078162;9.445600579;18.24434181;-11.60846524;-3.150240328;-8.214508911;-13.15513506;-11.22717178;-11.2833124;-12.5517364;-2.360351666
-15.70912126;-24.97716013;-24.40814374;-34.69791681;-4.440780842;-0.007522244;0.27021841;-6.159770843;22.25780375;1.072067728;15.05219026;-16.04456115;-8.671380475;-7.427170142;-15.56319184;-15.81700995;-13.83484959;-15.30432784;-2.6340421
-13.62431724;-26.7493032;-23.53205795;-38.68527231;-3.093135197;0.003301397;0.405457456;-5.082815121;19.16013875;-4.701132216;14.45109013;-18.0664207;-12.42233788;-5.890019531;-19.14596317;-19.61345147;-14.69181334;-15.26283894;-2.451292506
-10.99247599;-23.3076194;-20.97051209;-37.55895767;-2.011251869;-0.048598801;-0.463946173;-2.174201216;17.94834359;-4.779854355;15.29514854;-18.43332611;-13.87831131;-5.161331322;-22.81368041;-21.56939116;-13.4837246;-12.38173091;-1.985930419
-8.603201038;-16.6462538;-17.88402634;-32.4662808;-1.459263801;-0.129419552;-1.520260701;0.614757524;18.47213522;0.072227317;15.60845461;-18.7992417;-13.69353476;-6.380409573;-24.96729553;-21.41737531;-11.05590316;-8.570039063;-1.62178703
-7.49523006;-10.71017497;-16.1835667;-27.46049496;-1.63761868;-0.17161468;-1.263494119;1.713120455;19.41595761;5.788160206;14.00133584;-20.28520289;-12.93052986;-9.281203742;-24.64913049;-19.84917793;-8.886093783;-6.183761263;-1.661337375
-8.347276353;-8.532328851;-17.17582533;-26.50612201;-2.560229076;-0.137859081;0.884733588;0.916064889;19.3892976;7.973698037;10.72275029;-22.5776226;-12.12903296;-12.36101058;-22.39305197;-18.19342105;-8.191147995;-6.345729079;-2.082427989
-10.7844247;-10.25111073;-20.51152238;-30.48687029;-3.891534314;-0.05950649;3.782652738;-0.785501125;18.04576052;5.102253309;7.505679361;-24.27331316;-11.00542808;-14.06203042;-20.04202392;-17.6830021;-9.299809567;-8.363416017;-2.538089134
-13.34669623;-13.37042405;-24.29618132;-36.52967849;-4.965906486;-0.013976674;5.459966805;-2.09031928;16.27734712;-0.469133327;6.247288506;-24.14674734;-8.987752263;-13.95245217;-19.56990066;-18.71844686;-11.5986813;-10.5393721;-2.603758237
-14.3966578;-14.86233707;-26.3458878;-40.16190685;-5.108503167;-0.057306084;4.939103374;-2.168405126;15.31848267;-4.40136574;7.491274489;-22.25984322;-6.055254712;-12.91059171;-21.71760864;-20.5993082;-13.94548968;-11.55904066;-2.084692905
-13.38345546;-13.41754923;-25.68714806;-38.62209001;-4.101764868;-0.168387072;3.250555655;-0.892573106;15.54139436;-3.700289422;9.896216371;-19.99369411;-3.095532852;-12.1981563;-25.42696732;-21.92606286;-15.21286668;-11.30677044;-1.158936794
-11.42751943;-10.23230985;-23.21142946;-32.8023816;-2.444799813;-0.255234994;2.586849507;1.342703635;16.01350227;1.079391258;11.16003906;-18.99473914;-1.417327925;-12.27355296;-28.49115388;-21.4392064;-14.68864766;-10.59065082;-0.267230803
-10.62938803;-7.950159272;-21.03502039;-26.44344206;-1.141496505;-0.223994255;4.28911165;3.86102906;15.25261264;6.37055578;9.749174572;-19.91232063;-1.785749095;-12.39863833;-28.96926435;-18.76840854;-12.26264988;-10.21996034;0.152205987
-12.53273264;-8.705369812;-21.06192105;-23.35383572;-1.093575062;-0.058324911;7.531007243;5.867515748;12.58025189;8.335361298;6.126100089;-21.93795887;-3.764567098;-11.37115107;-26.38700749;-14.62647763;-8.449987481;-10.33318948;-0.101738527
-16.91956443;-12.68662623;-23.77218958;-24.84959993;-2.501695758;0.155222642;9.994682114;6.660839669;8.916786839;5.621329183;2.513732103;-23.47382401;-5.922969382;-8.72042075;-21.93846367;-10.3572186;-4.266977753;-10.50176767;-0.915902326
-21.91098418;-18.08145702;-28.00985816;-29.24296453;-4.712604613;0.279676882;9.986083483;5.967953066;6.276007706;0.061339541;1.330813824;-23.3621848;-6.792915063;-5.308007948;-17.63767261;-7.166177759;-0.914637267;-10.3623507;-1.942258082
-25.31842527;-22.25634368;-31.78901032;-33.48011263;-6.641565924;0.22060978;8.028454594;4.198208289;6.281070614;-5.029433128;3.43855706;-21.72532037;-5.889833058;-2.803046243;-15.07973196;-5.538513343;0.708012655;-10.08658408;-2.752329839
-26.18416145;-23.32348471;-33.48159239;-35.41166404;-7.476703491;-0.009924611;6.380386769;2.302860645;8.861182411;-7.423417482;7.479389152;-19.84363732;-4.066824884;-2.467452721;-14.65410013;-5.175218268;0.455072563;-10.2403808;-2.994702785
-25.31019843;-21.18935727;-32.63375805;-34.93062524;-7.164405994;-0.305035636;6.850019531;1.20547981;12.19344169;-7.34460975;10.76692234;-19.2573658;-2.961595686;-4.24540841;-15.6315739;-5.403595415;-0.963682671;-11.21962958;-2.530123898
-24.41668484;-17.605279;-30.04221897;-33.36789266;-6.344436208;-0.537817637;8.94830574;1.202241486;13.98394521;-6.710575306;11.04730562;-20.78795436;-3.926590096;-6.852566637;-16.89176393;-5.714395898;-2.393041381;-12.85003906;-1.526241093
-24.68162472;-15.27098338;-27.22030833;-31.99587653;-5.814966368;-0.640187053;10.21753301;1.846628933;13.11698796;-7.139685617;7.864292501;-24.10306935;-7.155451071;-8.71257191;-17.66887698;-6.045266274;-2.959828371;-14.5466565;-0.456060256
-25.86664446;-16.43348663;-25.63815155;-31.03416119;-5.942271396;-0.628901776;8.57369816;2.438379867;10.40506669;-8.540271889;2.634952946;-27.96763663;-11.54809669;-8.946371449;-17.81280916;-6.659858567;-2.629946226;-15.86243125;0.067607507
-26.67940768;-21.62561788;-26.07772567;-29.85833864;-6.440124704;-0.568582383;4.521734244;2.671977165;7.884514468;-9.438281679;-2.46186329;-30.87978877;-15.35925391;-7.697743334;-17.52436292;-7.775774298;-2.164896489;-16.8758516;-0.390595116
-25.96951367;-29.18988228;-28.29329777;-27.94257357;-6.643299855;-0.51159631;1.049431188;2.832212582;7.243368987;-8.600742744;-5.856149422;-31.68563225;-17.19942926;-5.723356406;-16.92825741;-9.254180149;-2.469447844;-18.02978592;-1.77254154
-23.7054142;-35.95870643;-31.08022366;-25.49564866;-6.03479911;-0.466820773;1.06695297;3.363315355;8.62146175;-6.388087609;-7.232371263;-29.94570784;-16.78110271;-3.762509151;-15.89520217;-10.5855721;-3.800256824;-19.5717597;-3.44130035
-20.9516143;-38.89145485;-32.79989833;-23.20994114;-4.630925022;-0.416827829;4.617275667;4.277707284;10.67911905;-4.570811456;-7.144263614;-26.02731588;-14.98794927;-2.234114831;-14.23242807;-11.17089739;-5.445998181;-21.13755381;-4.46
-18.96622151;-36.82969632;-32.24684929;-21.49654258;-2.972098566;-0.357669496;8.508735095;5.057098178;11.79390768;-4.76654717;-6.112505461;-20.95467107;-13.25212755;-1.352541432;-12.01363688;-10.68568616;-6.15025054;-21.89682514;-4.1264831
-18.26042035;-31.27573264;-29.46843075;-20.08422581;-1.769227311;-0.31791368;8.958386139;5.196994849;11.36491047;-6.921161805;-4.037904961;-16.03003906;-12.62431397;-1.318767751;-9.707898963;-9.272211114;-4.979260224;-21.16190664;-2.438043159
-18.40250047;-25.56299181;-25.98428169;-18.45323822;-1.478123407;-0.337477536;5.04208887;4.829537863;10.17652504;-9.252937669;-0.392411367;-12.30150317;-13.10530011;-2.256311197;-7.961462584;-7.444759352;-1.989756224;-18.93649875;-0.155361483
-18.62336503;-22.81282941;-24.07211957;-16.68;-2.075369126;-0.427755069;-0.199623875;4.686032275;9.584294578;-9.801266445;5.042883121;-10.11128;-13.67096726;-3.957378111;-7.198315725;-5.801140775;1.791693597;-15.93971208;1.619102236
-18.57499065;-23.98181585;-25.38500471;-15.77129859;-3.130446623;-0.553632211;-2.219888743;5.297769057;10.24779944;-8.28030348;11.5616853;-9.032192455;-13.01321447;-5.819492846;-7.364853538;-4.756268573;5.034014579;-13.11541354;2.096070996
-18.53100618;-27.36111617;-29.75014427;-16.97566481;-4.072015906;-0.657639166;1.013743527;6.209863325;11.47240851;-6.593051874;17.57557599;-8.310921704;-10.54968406;-7.21325603;-8.025149702;-4.468708205;6.891025351;-11.07732154;1.258747121
-18.9091448;-29.92767539;-35.05367593;-20.53368897;-4.466185348;-0.706180097;7.042391981;6.17224521;11.69281014;-7.43783933;21.31652007;-7.552676221;-7.019352709;-8.040852948;-8.725241768;-4.961906927;7.348375797;-9.944587078;-0.17766986
-19.65783378;-29.60366843;-38.45936906;-24.96918078;-4.176598336;-0.715648294;10.96119779;4.421474166;9.701098897;-12.04780889;21.7149393;-7.118525453;-4.181961448;-8.925622275;-9.328507289;-6.282797318;6.957328586;-9.61063035;-1.267420061
-20.16326522;-26.77289486;-38.24127931;-27.70546816;-3.377233487;-0.733628387;9.87485909;1.966233218;5.649480726;-18.89344703;18.89385239;-7.855115187;-3.71295951;-10.70566779;-10.05215711;-8.517690966;6.272472438;-10.07146569;-1.446158566
-19.80636246;-23.92473916;-34.96630736;-26.72354302;-2.45338151;-0.79183805;5.780827256;1.438826829;1.071180783;-24.47324558;14.04346561;-10.29348894;-5.979476242;-13.54592905;-11.17859666;-11.62100809;5.487157004;-11.4221715;-0.845719241
-18.63811572;-23.69813487;-31.13132531;-22.05640765;-1.837067766;-0.874567633;4.039425617;5.145758109;-2.058352139;-25.68065778;8.854439909;-13.93717138;-9.561600516;-16.44461994;-12.67818493;-15.20184452;4.510603794;-13.5197462;-0.129485668
-17.47746179;-26.81289934;-29.44107104;-15.93801073;-1.820293726;-0.933120966;8.467765023;12.68708399;-2.50106357;-21.98982495;4.877631343;-17.27244474;-11.95350108;-17.69947683;-14.0569209;-18.49790683;3.307945643;-15.7128956;0.00249781
-17.24026944;-31.45268688;-30.91761009;-11.41344291;-2.405384355;-0.934062343;17.34985529;20.33864163;-0.365456473;-15.83675747;3.076052098;-18.60504208;-11.08287735;-16.11679696;-14.5768564;-20.65573279;2.112494136;-17.03738524;-0.710188328
-18.03410135;-34.53741944;-34.18229191;-10.38166219;-3.268399516;-0.895782138;24.23266111;23.2939266;3.157960888;-10.94889068;3.623340823;-17.15750286;-6.676198564;-12.04858706;-13.71518966;-21.19197893;1.290226376;-16.83872355;-1.928285682
-18.83705211;-33.87987745;-36.40897084;-12.45287544;-3.883477163;-0.875762605;23.33630245;19.47232344;6.599197782;-9.882279318;5.900473246;-13.60609891;-0.537972736;-7.375856356;-11.53913731;-20.31809978;1.007651875;-15.31513565;-2.93352815
-18.13725176;-29.59135561;-35.24341663;-15.35734542;-3.770961571;-0.915016294;15.10831439;11.87368977;8.945272505;-12.50816603;8.691642748;-9.630776868;4.483105734;-4.355209483;-8.715525727;-18.84446395;1.066317566;-13.44147258;-3.05916296
-15.10041786;-23.75217843;-30.32589719;-16.49060996;-2.741723458;-0.98783742;6.78;7.089752965;9.933268632;-16.366015;10.63374417;-6.793874088;6.183703777;-4.165311058;-6.118851813;-17.65624248;1.115115655;-12.2244704;-2.067152981
-10.34717425;-18.73702095;-23.41144296;-14.43685644;-0.991914366;-1.005700117;6.693449914;10.42895247;9.945929743;-18.41016175;10.87461872;-5.558993559;4.261366933;-6.246444335;-4.281255275;-17.08973994;1.072947219;-11.84603909;-0.280127084
-5.685180119;-15.57366736;-17.13341016;-9.499048061;1.012485652;-0.880333764;16.61083312;21.06380487;9.776693531;-16.81424469;9.66756489;-5.123090799;0.369609253;-8.8897926;-3.051404272;-16.67028871;1.346431964;-11.42365855;1.572333339
-2.948475104;-13.56349777;-13.375643;-3.124808435;2.786920201;-0.598911887;28.53308392;31.17601463;10.41805909;-11.71494451;8.488761321;-4.100898054;-2.969325067;-10.53931692;-1.70907399;-15.46020134;2.562196828;-9.65882321;2.700139555
-2.79133472;-11.29323016;-12.35149612;3.101440573;4.055752933;-0.249296157;29.44041098;30.46638504;12.79831989;-4.725764188;9.422519695;-1.498794352;-3.817572681;-10.75710425;0.510742257;-12.82415436;4.960462675;-5.912164578;2.630707638
-4.313107436;-8.056813264;-12.84019022;8.113134906;4.824779515;0.029626063;11.03556114;13.36653776;17.35745723;2.113836167;14.00150855;2.697977597;-1.739910511;-10.18087435;3.811134477;-9.067567922;7.948261818;-0.855898106;1.451766221
-5.752561941;-4.472789194;-13.19240745;11.38768455;5.283062957;0.137660231;-22.86769424;-16.09220902;23.58425528;7.161351081;22.12928641;7.60945833;2.23198014;-9.698717119;7.555079523;-5.43099901;10.25731507;3.843042526;-0.201242807
-5.708539813;-1.851513246;-12.32544962;12.6624188;5.628964762;0.075209077;-57.38801856;-45.5356214;29.88297086;9.45923661;31.7941523;11.99517846;6.348234387;-9.677622557;10.54574893;-3.355709846;10.69783839;6.596717483;-1.4341244
-4.015257147;-0.943405483;-10.16066834;11.81191979;5.941888413;-0.068953423;-75.86531105;-61.23873287;34.07663228;8.706878191;39.87217623;14.81108495;9.012901806;-9.898466158;11.74568338;-3.481784423;8.999125599;6.921615518;-1.543169013
-1.723167255;-1.182941338;-7.47;9.022497826;6.160911347;-0.191732995;-70.82049416;-56.37834819;34.43262212;5.235635151;43.64327849;15.53473922;9.321119876;-10.09892933;11.00980388;-5.090631676;6.098303162;5.667239877;-0.395380824
-0.299631443;-1.073695669;-5.420761753;4.982461507;6.149012437;-0.251584058;-48.59707923;-35.08439905;30.63119559;0.019403109;42.16118685;14.2843957;7.182857965;-10.44072435;9.349184734;-6.441104231;3.611715065;4.341540167;1.490390653
-0.652815013;0.620028076;-5.07033712;0.744060223;5.78393369;-0.287650953;-24.42989892;-9.674215997;24.01578368;-5.503143361;36.67541845;11.83676496;3.213413764;-11.34678096;8.493136474;-5.833801788;2.824566634;4.110552384;3.238656297
-2.595771151;3.865908774;-6.888301105;-2.748788075;5.0342713;-0.371445401;-11.84700108;6.943724064;16.90691438;-9.920163899;29.88078626;9.499920106;-1.458613134;-12.85271816;9.941926368;-2.711396528;3.897500764;5.222080523;4.129418037
-4.998288154;7.345801649;-10.37044156;-5.097197671;4.008882861;-0.534238687;-14.29324325;8.632741354;11.4192845;-12.42664542;24.48267899;8.68243396;-5.485005617;-14.18921143;14.04085625;1.942256321;5.829664955;7.167615525;4.006281528
-6.449271819;9.405077967;-13.97798005;-6.465543595;2.96802217;-0.730056152;-24.70193624;-1.410246253;8.568196813;-13.06761369;21.94095796;10.16086674;-7.755563411;-14.1721019;19.63385853;6.162399849;7.162316914;9.269076929;3.308171674
-6.034007083;9.187638909;-15.68984342;-7.183465883;2.265121073;-0.862599402;-32.40206611;-13.97951648;8.194993165;-12.43959237;22.06602682;13.41154837;-7.906683378;-12.2148448;24.53576815;8.128101948;6.887283132;11.10256095;2.702674511
-3.853166468;7.091862777;-14.13553492;-7.345487824;2.19734273;-0.852749799;-31.38398431;-20.29556858;9.589198667;-11.11640185;23.55573392;16.57168574;-6.560624168;-9.096734343;26.58634376;7.107367582;4.932149051;12.44776832;2.582459768
-1.057933864;4.291646153;-9.714032265;-6.837526513;2.807778282;-0.693669306;-23.63553975;-17.14620046;12.18102149;-9.325870809;24.99918046;17.31868636;-5.01223992;-6.694631804;24.71281178;3.672094105;1.972745898;12.97768002;2.790130181
0.645173827;1.821435291;-4.810350673;-5.785505468;3.761467851;-0.45397424;-15.81593481;-7.745265713;15.73393526;-7.159943067;25.68892232;14.30189846;-4.430780936;-6.721311717;19.43835711;-0.811294657;-1.151938393;12.17079423;2.772078323
-0.139157085;0.00170889;-2.631196619;-4.934082179;4.426295848;-0.231469224;-12.92495451;1.543734059;20.00432746;-5.047777273;25.83186225;8.224568946;-5.059057255;-9.405497639;12.61015326;-4.934874457;-3.897422172;9.68877814;2.043402844
-3.637553128;-1.402135086;-5.166410813;-5.417238645;4.18082022;-0.095070574;-14.49128705;5.886579881;24.35367193;-3.894613822;26.1901067;1.751937681;-5.997847022;-13.19487526;6.553702802;-7.719681685;-6.019354194;5.945535398;0.61226001
-8.559333575;-2.564012153;-11.62085709;-7.895420407;2.798683466;-0.055202069;-16.01200968;4.860239899;27.82501893;-4.555208251;27.49467905;-1.845286584;-5.803461262;-15.78745944;3.121303285;-8.639077506;-7.252898549;2.294534221;-0.958271787
-12.59954804;-3.170924833;-18.57927236;-11.69341674;0.656568947;-0.075973547;-13.68427051;1.956849536;29.71226378;-6.98090218;29.99619737;-0.520368655;-3.534241355;-15.7286395;3.066917219;-7.446705139;-7.094409815;0.489396895;-1.902081992
-13.66868974;-2.608054826;-22.04178814;-14.76671133;-1.41377036;-0.110998458;-7.941179869;1.50407546;30.11696246;-9.834355037;33.32612948;5.400495868;0.484329783;-13.35155229;5.932836527;-4.162408921;-5.008766958;1.666567487;-1.761691938
-11.18946396;-0.584550277;-20.05524427;-14.78665871;-2.58126024;-0.132963908;-2.826395101;5.359037493;29.92264999;-11.11406962;36.63971188;13.45549774;4.738619072;-10.37566581;10.37411893;0.708176674;-0.965457889;5.556208268;-0.694485671
-6.609076749;2.397891906;-14.07619598;-10.7306229;-2.504174518;-0.139510847;-2.136623079;11.64672201;30.11455183;-9.500339923;38.92910153;20.45301693;7.419231295;-8.553007754;14.72049282;6.011361659;4.161730239;10.53787867;0.633774767
-2.673825084;5.217775175;-8.002492276;-3.828131741;-1.527590393;-0.139651484;-5.991342499;16.31295026;30.9935595;-5.421793212;39.40878623;24.1121224;7.523105963;-8.461108606;17.58055321;10.20704605;8.777869412;14.56037966;1.477269498
-1.816704283;6.874797623;-5.490078125;2.950019531;-0.448769177;-0.137332251;-10.81388871;16.35183462;31.98948575;-0.920292235;37.87875082;23.98042896;5.436154727;-9.324006655;18.33044049;12.08793996;11.35492948;16.30601232;1.455194843
-4.664748556;7.208062966;-7.468652517;6.648038506;-0.003737719;-0.125268615;-12.49667218;12.41003906;32.27937108;1.712921614;34.92089089;21.26821753;2.660256635;-9.841348731;17.3340598;11.52142801;11.34210196;15.80695048;0.723743478
-9.661186352;6.978143505;-11.65171331;6.16544934;-0.419955459;-0.090420552;-9.767559593;8.782553447;31.67650636;1.549212473;31.76069065;17.94059077;0.936566809;-9.221773307;15.76030984;9.614928595;9.546019329;14.14924886;-0.203484932
-14.06633017;7.213573691;-14.35179094;2.898292243;-1.327079783;-0.024083505;-4.840996858;10.48487797;30.95131517;-0.358153097;29.74350099;15.72183561;1.361425383;-7.588281134;14.99063384;8.059295607;7.660976834;12.58252101;-0.826099553
-15.65531207;8.353126959;-13.18989083;-0.26757246;-2.061016832;0.070650631;-1.052672517;19.16027748;31.20323982;-1.834982068;29.628715;15.48765651;3.985501423;-5.586336203;15.8525579;8.041378606;7.235310038;11.75280724;-0.956939111
-13.96653386;9.923363302;-8.664788429;-0.883760577;-2.127270786;0.177124251;0.150402085;30.6961428;32.76787746;-1.241674667;31.11946331;17.14094222;7.986833325;-3.724902398;18.11623996;9.51452047;8.780058594;11.59724184;-0.773045858
-10.3162925;11.06806842;-3.49312055;1.570048828;-1.501911387;0.269134302;0.130083618;36.65336632;34.64979498;1.383248164;32.99811088;19.83118835;12.15753613;-2.097709563;20.63625302;11.39945713;11.62639229;11.85448916;-0.622079792
-6.69811728;11.50899065;-0.376746757;5.611402167;-0.591878993;0.32011156;1.261584649;29.18821337;35.11248287;4.544012087;33.87565877;22.37532739;15.37337795;-0.637155608;22.14415698;12.57469833;14.58070241;12.63980054;-0.738864572
-4.441966652;12.07488662;-0.013436251;9.005655364;0.072518518;0.315354752;4.320522593;6.562161871;33.07218527;6.583263634;33.10622243;23.79348067;16.88353768;0.514175892;22.20929324;12.86118677;16.8340037;14.50952548;-1.060712145
-3.572332963;14.20087855;-0.856194307;10.32235051;0.171699858;0.261747887;7.585393784;-24.53107808;29.16332258;6.905955183;31.22644484;23.81154449;16.44489865;1.006895802;21.66428529;13.16834766;18.41416183;17.90170791;-1.251973506
-3.188149711;18.62743738;-0.658134733;9.674395323;-0.260676272;0.187557933;8.460796115;-51.84217812;25.49288614;6.133289195;29.56193331;23.05745183;14.36445956;0.697315686;22.08632229;14.62983977;19.86192414;22.4054667;-0.920555336
-2.416850395;24.28466876;1.565161982;8.252513793;-0.935981244;0.129384722;6.032048549;-64.2475269;24.13711144;5.185905025;29.24261195;22.71699133;11.43273702;0.003930843;24.60093418;17.41481559;21.45622683;26.52388969;0.098890615
-1.158453241;28.38662215;4.752494127;7.209541313;-1.529527312;0.1130761;2.127066987;-58.0819463;25.524667;4.247968007;30.34139187;23.73536462;8.686467644;-0.264477427;28.8492814;20.245289;22.6949046;28.27383112;1.563229863
-0.120662272;27.95126336;6.730965199;6.854644328;-1.851354595;0.142280946;-0.102624452;-38.96977684;28.04981494;2.628333622;31.8;26.0565308;7.027949712;0.438908939;32.94985664;21.14847367;22.53567056;26.34186956;2.867669903
-0.240742495;21.84991982;5.991428434;6.724911413;-1.880721873;0.204126024;1.239105188;-17.95163364;29.32480849;-0.33556649;32.2260764;28.50035852;6.878181483;1.851494;34.6146646;18.97480375;20.26440985;21.05026864;3.331946725
-1.996743771;11.92834496;2.825774618;6.305690381;-1.695505835;0.287351771;5.400447263;-4.587650338;28.13320157;-4.199002687;30.96250465;29.48546518;8.082142383;3.03443228;32.70247373;14.51007813;16.29288044;14.43134507;2.590545844
-5.069497995;2.240450488;-1.016641364;5.658504871;-1.386560619;0.395848124;9.953014683;-1.716538339;25.50374729;-7.252780273;28.59640543;28.15021902;10.1325383;3.156870201;28.08502859;10.21191479;12.17109477;9.253802781;0.857294956
-8.471000079;-3.275355779;-3.729702963;5.385823921;-1.018389728;0.54254339;13.08344886;-5.183820947;23.96931633;-7.594787495;26.49428126;25.04123768;12.53795633;2.249630845;23.13559387;8.614833134;9.682196836;7.530799265;-1.128453193
-10.95162707;-3.180109758;-4.675460833;6.015733738;-0.632643925;0.72588872;14.98448706;-8.167389049;25.52929528;-4.614039243;25.722593;21.80364617;15.04469891;1.194924025;20.15095714;10.51409041;9.631737846;9.406771564;-2.487569296
-11.44927743;0.66765588;-4.479445875;7.428515368;-0.257918692;0.909729773;17.07787024;-6.520753164;29.92039659;0.380776242;26.21115556;20.06547387;17.55042767;0.881985421;19.83884411;14.30081621;11.2511529;13.11707626;-2.706438541
-9.467422747;4.492342787;-4.0883908;8.899668173;0.092103482;1.029435849;19.95685041;-1.197841235;34.60851318;5.000662505;26.83088911;20.3554576;19.82758515;1.263713178;20.98633837;17.02277988;12.72607594;16.06212758;-1.936432252
-5.343763595;5.215979897;-3.752866712;9.754608595;0.416802898;1.027833137;22.22725008;3.577906845;36.56743095;7.469250837;26.32233572;21.87675395;21.36412424;1.232447186;21.54469761;16.45702141;12.51546743;16.34810176;-0.870171418
-0.304371107;2.467559842;-2.865199199;10.04187927;0.705569065;0.898123294;21.58938724;4.370927523;34.48743304;7.812883356;24.32386978;23.27053762;21.55023501;-0.444497594;20.28236587;12.68841811;10.49500513;13.85752474;-0.259713615
3.868579841;-1.418401998;-0.740656698;10.56782233;0.909060203;0.700306506;17.28502282;1.320771959;29.71103728;7.590552291;21.67606881;23.71164458;20.14067181;-3.871106965;17.71943579;8.022921996;8.05;10.21005859;-0.40507051
5.591357886;-3.349668499;2.439062554;12.17599368;0.947293305;0.533962965;11.53210376;-2.407907855;25.20132074;8.422239577;19.7812241;23.44783872;17.6461383;-7.58811526;15.62378363;5.295083198;7.019931458;7.669927253;-0.979305438
4.354938684;-1.884896716;5.434633761;14.84689864;0.777518574;0.482284933;8.292631443;-3.641405628;23.38570864;10.57172061;19.56782422;23.40633537;15.29117159;-9.481962395;15.48751867;5.82541816;8.274829762;7.709119067;-1.318437605
1.161837312;1.690175453;6.73871792;17.43044092;0.485561856;0.564514469;10.13075761;-1.87283774;24.54521701;12.76673912;20.90056786;24.28520053;14.45346665;-8.409294927;17.21259457;8.53;11.00156608;10.13107588;-0.9561833
-1.906049969;4.377891902;5.700578059;18.36032567;0.319171063;0.728195619;15.84613311;0.632950727;26.90300554;13.3646341;22.85195741;25.93188633;15.87205976;-5.211608969;19.06756756;10.79799861;13.24718964;13.27418539;0.007056131
-2.871484217;3.749781372;3.043577028;16.88100992;0.602274303;0.88364264;21.14802517;1.137410513;28.1809604;11.82477955;24.4961534;27.48050141;19.10712626;-2.206111524;18.96343969;10.42189081;13.30890531;15.10876205;0.985914854
-1.090924013;-0.258538415;0.348796059;13.814681;1.552033978;0.954364468;22.06863297;-1.089756435;27.2931325;9.213836207;25.47051654;28.01544003;22.61344643;-1.469669044;16.04682835;7.112513544;10.91365191;14.47875552;1.374043162
2.315102083;-5.368270805;-1.067323404;11.16021164;3.104777609;0.910871934;18.30257622;-4.297670802;24.88902622;7.332751558;25.83996135;27.11186862;24.43726129;-3.260078125;11.36349502;2.512779189;7.300566294;11.68849889;1.01815746
5.172321122;-8.706035288;-0.994118202;10.69429165;4.872232346;0.773244118;13.50965441;-6.044928734;22.51969978;7.252983984;25.51937989;24.83435958;23.18968593;-5.854214312;7.09299024;-1.190835848;4.174234752;8.113061638;0.322768564
5.639815556;-8.890224718;-0.289459277;12.5703924;6.277192194;0.591831489;12.14011072;-5.470749366;21.32230118;8.542611382;23.98024244;21.38486724;18.79460514;-6.947831667;4.982877613;-2.912509616;2.367926262;5.178217558;-0.093468582
3.318964195;-6.871864943;-0.104973903;15.01662503;6.807218897;0.425006768;15.44399136;-3.930295001;21.37210923;9.836634885;20.71690436;16.94906843;12.62170323;-5.492499482;5.209333426;-3.307763292;1.265313448;3.452278845;0.097018205
-0.648470919;-4.968620001;-1.051966214;15.4834999;6.253606226;0.323763966;20.24957621;-3.466431258;22.10857819;10.22210275;16.16401628;12.02021167;6.918526859;-2.498922996;6.497212054;-4.010576671;-0.579540184;2.458137787;0.681173878
-4.459996428;-4.932970687;-2.910486781;12.51423088;4.815066426;0.319398725;21.84603697;-4.60551849;23.23704401;10.20340771;12.15686115;7.84425871;3.797866284;-0.196259242;7.29864206;-6.176341084;-4.126227198;1.268209374;1.113582163
-6.779034403;-6.584889914;-4.947960895;7.00995424;3.023613507;0.409077682;18.65526823;-5.580781793;25.14623564;11.38941096;11.23029317;6.297641452;4.265813178;-0.272526715;7.013855658;-9.521076119;-8.876597219;-0.61165982;1.000695023
-7.295051679;-8.023748935;-6.440932592;1.916389811;1.5369049;0.546018967;14.4791683;-3.774090209;28.43761287;15.1573268;14.99090335;8.905082445;7.782560404;-2.621435568;6.289244134;-12.56545259;-13.01412239;-2.740865892;0.446929349
-6.460333824;-7.176428889;-6.973311747;0.443507123;0.889498569;0.65044721;15.80946127;1.869785406;33.06829414;21.4236963;22.70835161;15.55471839;12.60224844;-5.53741705;6.256497563;-13.79361562;-14.56418867;-3.990825073;-0.035051471
-4.835888254;-3.444267117;-6.437859298;3.975669571;1.296661418;0.648457389;25.82559943;9.628477761;38.00332597;28.54372373;31.32275507;23.98785314;16.72758103;-7.089876577;7.457292925;-12.74874805;-12.71954835;-3.355411359;0.022695098
-2.711156878;1.783530354;-4.976307564;11.0826843;2.578069628;0.521043013;39.907985;16.14439105;41.7936612;34.38968831;37.09486577;30.74663701;18.94786776;-6.505142127;9.396246141;-10.23183825;-8.376175082;-0.742492476;0.612956559
-0.277503145;6.06056989;-3.04182691;18.3148814;4.231717654;0.327141116;46.91256956;19.01977107;43.60334431;37.68894384;37.85074152;33.15721374;19.34641399;-4.504813126;11.0540345;-7.56186312;-3.534602505;2.816031998;1.22045338
1.970283919;7.50075101;-1.456175056;22.26852017;5.640713559;0.174691835;36.21746387;18.66275827;43.75054382;38.56199044;34.23387893;30.99992247;18.97217493;-2.503102676;11.83658929;-5.598603738;-0.044658516;5.696714488;1.230396453
3.175850501;5.915487193;-1.161759889;21.57458203;6.337385164;0.150970321;5.844752277;17.78812804;43.2495829;37.96723575;29.06803134;26.6062686;18.91818655;-1.481687417;12.0832597;-4.322518503;1.413131711;6.626301203;0.446554103
2.630048828;2.771938459;-2.603666711;17.55334582;6.203360553;0.259451339;-34.4339512;18.9694386;42.77065897;36.71310838;25.3460466;23.24649077;19.47125688;-1.478287952;12.69088943;-3.195690069;1.473113118;5.438683596;-0.716032179
0.458112328;0.15958976;-5.142534746;13.19342818;5.492628794;0.412470261;-67.84334494;22.31372257;42.00727993;34.9881102;24.37104458;22.96333857;19.96261429;-1.941403441;14.22116623;-1.83963269;1.39131127;3.175381376;-1.536303539
-2.187716333;-0.440682191;-7.107737687;11.20402571;4.6489952;0.489931636;-80.41302517;25.25970009;40.09789784;32.76111782;25.37169231;25.41506846;19.4353278;-2.412324358;16.31730418;-0.364094354;2.09993134;1.463974127;-1.550178531
-3.752410666;1.167868299;-6.727139691;12.42202804;4.015098577;0.422885145;-69.28114654;24.74089256;36.76239185;30.50600731;26.6765091;28.47446862;17.60758076;-2.816103784;17.9631299;0.898049094;3.656611855;1.540774531;-0.911965686
-3.332476827;4.019036474;-3.427037667;15.52431165;3.613673157;0.239381918;-43.8798349;19.97024869;33.07550941;29.35874161;27.29927897;29.96612942;15.34657518;-3.169813767;18.34737656;1.880292466;5.348174259;3.492352747;-0.255733774
-1.336598192;6.63373779;1.481552861;18.0889264;3.150087891;0.038540637;-19.3963278;13.52790819;31.01914203;30.35653471;27.57513576;29.12979529;14.21725196;-3.175145553;17.54494916;2.907717191;6.23462167;6.16745326;-0.169164485
0.81312995;7.757426273;5.416333716;18.20512116;2.242506554;-0.084541417;-7.24258114;9.737735714;32.00374456;33.34549348;28.42912974;26.78218837;15.39289649;-2.286704666;16.39097341;4.253396188;5.707468846;7.829679715;-0.713550183
1.73400006;6.876389064;6.169474535;15.58146003;0.725373198;-0.102219001;-9.039780113;11.46083742;35.53049422;36.59664364;30.10157365;24.30944517;18.74559941;-0.318229646;15.65658743;5.54427468;3.760523908;7.188495069;-1.387118578
1.050910067;4.396340118;3.440395886;11.53253177;-1.187205623;-0.057727095;-17.70326585;17.73441782;39.18805994;37.6739016;31.60228926;22.52606067;22.83010129;1.998636929;15.2797465;5.688605233;0.935613428;4.201218434;-1.562704878
-0.495338628;1.453590925;-0.928655023;7.984308497;-2.998205896;-0.012564209;-23.98150497;24.14280561;40.15239163;35.03771087;31.44266622;21.34658602;25.79342859;3.184252747;14.37561786;3.592041062;-1.928207043;0.137979758;-1.036694874
-1.848170179;-0.627926673;-4.273259972;6.216393198;-4.221073149;0.011275226;-23.2074634;25.83205579;37.11522706;29.16559807;28.97222532;20.32082081;26.52452682;1.981148089;12.06208942;-0.816057069;-4.015275679;-3.177313549;-0.230299903
-2.616851556;-1.079036652;-5.035792466;6.132594068;-4.667402089;0.042281848;-17.53367511;21.11840674;31.16446789;22.2744247;25.04775944;19.27700797;25.19060582;-1.585949029;8.391731383;-6.138311492;-4.855476888;-4.516051006;0.132624334
-3.361883925;-0.251289203;-3.837474282;6.448780058;-4.534652726;0.116720376;-12.78722823;13.09490416;24.94772264;16.82805845;21.35337444;18.35083105;22.83011787;-5.983576766;4.54841824;-10.18729405;-4.569000548;-4.054228851;-0.383671289
-4.923638205;0.439577261;-2.859331505;5.610078125;-4.2458773;0.225788472;-13.11846942;7.897792671;20.81357747;13.99548479;18.95183117;17.45933188;20.44572898;-9.085956944;2.079788939;-11.42878707;-3.8908897;-3.272907835;-1.547417539
-7.394491318;-0.654367677;-4.012268277;2.8458306;-4.16577495;0.306477361;-17.81265528;10.52568895;19.40635538;13.24911247;17.42361202;15.9791721;18.40722203;-9.595152944;1.771352853;-10.12330088;-3.852452416;-3.951692527;-2.60559023
-9.689552936;-4.21717572;-7.333893345;-1.26557238;-4.390039063;0.290202973;-22.4038601;20.8558351;19.74063886;13.32517522;15.48033366;13.25102518;16.62483619;-7.867300645;3.094430537;-8.214620923;-5.186781907;-6.889915846;-2.84800141
-10.19230296;-9.23311622;-10.87468859;-5.044986381;-4.734571007;0.168766788;-22.64921017;32.61893662;20.50090109;13.62114178;12.58057047;9.628846352;15.2050229;-5.503066089;4.684195851;-7.936515197;-7.782707442;-11.23664376;-2.144832773
-8.026457161;-13.37134174;-12.15893511;-6.637809718;-4.90255703;0.017356709;-17.88386801;36.41438758;21.30502562;14.75675541;10.03733434;7.004557526;14.83069396;-4.062506434;5.431944336;-10.13099367;-10.59706638;-14.94509512;-1.033678039
-3.917588663;-14.40127878;-10.06595843;-5.102039134;-4.694960776;-0.051551187;-11.18599514;25.30923431;22.7968749;17.78235394;10.39174654;7.937499044;16.35942877;-3.962341393;5.263810084;-13.55740461;-12.19647229;-16.09421957;-0.291221144
0.126262047;-11.72630583;-5.661998198;-1.032898857;-4.124302267;0.029918321;-6.598862096;-0.294046885;25.56055041;22.74408798;15.30413246;13.69549349;19.90380703;-4.415993249;4.971833902;-15.75033011;-11.65242434;-14.17656237;-0.332212079
2.160350709;-6.903740523;-1.358823947;3.680399942;-3.377681963;0.233398532;-5.95523851;-31.74785477;28.96950613;27.95964475;23.64826626;22.68388996;24.25305448;-4.367495767;5.303494724;-14.79921013;-9.194743748;-10.43014595;-0.909090624
1.684873221;-2.670138576;0.911687292;6.90071355;-2.67613743;0.455509856;-7.859529927;-56.22813548;31.19114357;30.84069151;31.5803518;30.76623803;27.33165955;-3.542504433;6.162853637;-10.71024697;-6.128937628;-6.953818879;-1.339850634
0.009551326;-1.085782246;1.083704425;7.538327403;-2.127389225;0.594521904;-9.344686075;-63.67393133;30.54167622;29.80981483;34.87362441;33.63832124;27.53760939;-2.697517854;6.658996422;-5.34307961;-4.021364204;-5.231376388;-1.071097541
-0.685656028;-2.11510246;0.877633548;6.319457224;-1.654405538;0.619923032;-8.498771379;-52.43101561;27.11229451;25.85182621;31.90686253;29.70474995;24.96805869;-2.897930379;5.95846137;-1.027407732;-3.695932799;-5.138331468;-0.124038306
1.10289902;-3.68749815;2.392518002;5.47870338;-1.033560081;0.580700023;-5.781341872;-29.9755836;23.19967771;22.36495188;24.9738701;21.2778332;21.48212682;-4.516703327;4.150175075;1.030680335;-4.745115105;-5.157356254;0.925515803
5.176192474;-3.203604341;6.497157917;7.437891393;-0.026470865;0.551558993;-3.12646796;-8.143858679;21.96614264;23.18977252;18.74667717;13.03344766;19.40487448;-6.864461553;2.288699688;1.338826178;-5.893765163;-3.626319072;1.40632339
9.823537175;0.615450275;12.21138613;13.19589657;1.450439102;0.567616192;-1.915475343;4.057731932;25.21804641;30.07473765;16.92903726;8.741415677;19.78810798;-8.771570896;1.501460923;1.343461409;-5.934948799;-0.067286627;1.07799756
13.01177903;6.866883236;17.43584225;21.43386219;3.204116582;0.603203062;-1.762489296;5.297493701;31.99576281;41.32393663;19.61479841;8.686388917;21.58158657;-9.590168152;1.904995268;2.024206964;-4.556079192;4.405260436;0.30852286
13.67320934;13.14566646;20.37393442;28.99207729;4.779365909;0.607163142;-1.148890896;1.279028414;39.10639187;52.58917373;23.37986291;9.730728808;22.41300561;-9.726986296;2.308361065;3.045011309;-2.49076098;7.881525383;-0.228723861
12.22853827;17.15776571;20.57726221;32.55017841;5.64760687;0.555905974;0.811260867;-0.603045274;43.22851725;59.30045921;24.02363313;7.948855651;20.40890822;-10.25231457;1.054118662;3.123774379;-0.955058432;9.017754914;-0.089926015
10.12159576;18.03076703;18.96742468;30.54526252;5.502448188;0.47259618;3.200655818;2.846260735;42.99702688;59.15173898;19.81003906;1.770864231;15.63267452;-11.94712366;-2.624627438;1.248222985;-0.834383031;7.910427785;0.596443085
8.83552304;16.44247012;17.00688809;24.13750161;4.491005614;0.396318839;3.856496608;8.605955383;39.53308456;53.11278767;12.69760077;-6.796175066;9.993010406;-14.62014805;-7.834888384;-2.312567795;-2.197459836;5.849918932;1.242644
9.097024513;13.68448786;15.7354048;16.5805761;3.198993298;0.334631694;1.188434191;10.60172459;35.1620633;44.50702229;6.675677317;-13.75522519;5.694255803;-17.25462805;-12.50658084;-6.0387613;-4.388480988;4.219982605;1.272079833
10.67776031;10.57706165;15.30870754;11.35453985;2.337963285;0.249859131;-4.362843025;5.255752938;31.49839846;36.95580583;4.620058594;-16.18877584;3.482181347;-18.8040639;-14.7824733;-8.184467109;-6.496013736;3.465326585;0.573623071
12.71221337;7.130659932;15.17184943;10.21688234;2.294287354;0.09756313;-10.52934117;-5.196366268;28.49422609;32.57066701;6.194053003;-14.37447953;2.117034534;-18.91987435;-14.23450997;-7.949173369;-7.789440736;2.944812505;-0.410630179
14.18118588;3.098318374;14.55559942;12.37803593;2.839718215;-0.115904527;-14.90839495;-14.31740349;25.13563963;31.38039661;8.395473445;-11.35121031;-0.480636042;-18.01948603;-11.98093113;-5.883812922;-7.871429595;1.728691318;-1.021228855
14.29068153;-1.233792912;12.91706694;15.2650903;3.239562829;-0.312836546;-16.6661688;-16.59119415;21.02499881;32.02670687;8.183511498;-10.39940574;-5.324939719;-16.73795981;-9.688089514;-3.296068805;-6.613010979;-0.381367924;-0.870817866
12.70705165;-4.833334192;10.17309844;16.30348907;2.734753134;-0.388025597;-16.79953277;-11.73536022;17.33689728;32.98278978;4.991630615;-12.5002272;-11.24440347;-15.34980918;-8.332110746;-1.231154634;-4.100500615;-2.493987512;-0.110698543
9.711369759;-6.531002553;6.780829937;14.52291034;1.091340535;-0.287901329;-16.81959836;-4.620174268;16.20286708;33.42674028;1.1277902;-15.7379379;-15.48034055;-13.7124157;-7.723343869;0.128280758;-0.701676755;-3.243202836;0.714472115
6.237389386;-5.923751625;3.706536945;10.98773242;-1.173580313;-0.06115654;-17.13532947;-0.969009905;18.97166773;33.37285201;-0.154693963;-16.97897997;-15.57989887;-11.73053795;-7.078965833;1.253430868;2.883348129;-1.866130368;1.08927089
3.641930633;-3.753223189;2.194999824;7.89480938;-3.075103768;0.163903725;-16.65699764;-2.597008352;24.82151797;33.26579625;2.732667229;-14.37484808;-11.14534114;-9.809997845;-6.008577001;2.592099004;5.800515166;1.156600545;0.890070801
3.14290396;-1.378308605;3.259928704;7.061889394;-3.774306014;0.262144595;-13.99048182;-6.267721075;30.98726663;33.52454807;8.517457309;-8.708313874;-4.129250631;-8.764124423;-4.957176187;4.118452261;7.465481507;4.43696034;0.419452213
5.144772016;0.260793528;7.053834422;8.848636092;-3.0923135;0.193188166;-9.092723212;-7.025012255;34.5687992;34.36917358;14.12896004;-2.656644021;2.492899785;-9.166979047;-4.695076122;5.503595746;7.95143137;6.726696664;0.116856309
8.896572464;1.342388354;12.53538229;12.14243708;-1.558355863;0.022120527;-3.775349583;-2.899241846;34.57103753;35.90772893;17.02308385;1.269984549;6.615580516;-10.71754705;-5.356413981;6.65822583;7.974534679;7.826704879;0.20081515
12.81984617;2.945066681;17.81396588;15.25818377;0.029697878;-0.131599913;-0.447600777;3.308669289;32.57759859;38.23491998;16.8597647;2.414976624;8.055066581;-12.24670392;-5.984395182;8.024952762;8.378398642;8.623422148;0.530473394
15.39942419;6.077196972;21.12421466;17.0252968;1.187593875;-0.173908156;-0.109734888;6.792203672;31.49715543;41.35432357;15.30646691;2.057518953;8.106045638;-12.47353313;-5.120039063;10.24088647;9.449645879;10.22884068;0.774914437
16.07204935;10.72880158;21.85842621;17.33468889;2.022962849;-0.085853781;-1.3850216;5.486727693;33.31994317;44.97320647;14.3497011;2.038267043;8.145426514;-10.95090318;-2.027368199;13.42456117;10.61075091;12.92784843;0.721422882
15.47437344;15.69732252;20.92137813;16.90741107;3.008088983;0.084042441;-1.564777954;2.300720518;37.59092262;48.39417068;14.65244374;3.186864006;8.497832157;-8.426440742;2.486823107;16.7708569;10.8002697;15.79335832;0.451319084
14.84335165;19.31972277;20.08439009;16.60440523;4.446984359;0.26490537;1.103850358;2.520218598;41.74604843;50.68490988;15.29280932;4.809732662;8.432845712;-6.292408505;6.440058594;18.93895206;9.310754401;17.29789046;0.241722863
15.00052008;20.54213299;20.73953093;16.82183438;6.077437719;0.403916897;5.811163212;8.550350954;43.02458004;51.08922668;14.93534053;5.507582036;7.153328445;-5.539926245;8.038333319;19.02995112;6.44505671;16.46143295;0.295595912
15.69532628;19.52931894;22.92690744;17.32196635;7.14011519;0.476636845;9.690618926;16.88845306;40.4895879;49.4357568;13.26951772;4.503183886;4.816959365;-6.043589217;6.976368425;17.37003906;3.437265612;13.65294347;0.549937491
15.8327672;17.41052892;25.32950503;17.474723;6.878262251;0.47575391;10.09715322;20.54911697;35.65703833;46.2753652;11.40934052;2.340619967;2.658304282;-6.735507274;4.60379641;15.38171579;1.637195146;10.42652769;0.737790927
14.43268835;15.42956023;26.21827845;16.64907751;5.096631344;0.40353297;6.777684204;15.30364109;31.33137008;42.65521197;10.92549327;0.432999532;2.076940867;-6.508372847;2.783862913;14.53633706;1.551899652;8.502945321;0.649378333
11.58117745;14.17890973;24.63944076;14.52468274;2.366498556;0.279416301;2.097193309;4.291541567;29.59218532;39.68128778;12.38555661;-0.099118428;3.441395337;-5.112324259;2.354206702;15.17115747;2.487438401;8.636475857;0.352222658
8.605931791;13.45749754;21.00381586;11.26320781;-0.264664929;0.148424635;-0.88489812;-3.588601631;30.4487432;38.14812041;14.68594806;0.67017639;5.61065425;-3.341432836;2.462123037;16.14349678;3.094800119;10.17243597;0.155069902
7.278197629;12.75591615;16.74211107;7.570235978;-1.840247786;0.068242218;-0.857668179;-0.940653964;32.09510595;38.43210524;15.77492746;1.53085238;6.616913893;-2.39313118;1.364137156;15.68857251;2.426458144;11.58165919;0.322338831
8.586989926;11.88934219;13.39503061;4.618473885;-1.950252769;0.073567391;0.860666057;10.99218376;32.4673402;40.62116852;14.2111281;1.086595716;5.052261717;-2.932576384;-1.915064397;12.89216526;0.703285692;11.56247528;0.778206234
11.97973882;11.23324964;11.84599482;3.724135433;-0.817143288;0.145047815;1.742574359;21.69411866;30.87888344;44.66619081;10.34067159;-1.124535364;1.163383999;-4.589854837;-6.408324197;8.649340916;-0.798656676;9.932336407;1.076966929
15.64738639;11.38495376;12.15443471;5.752791013;0.953409032;0.215536395;0.516639635;18.67835271;28.54453211;50.34384853;6.204088963;-4.139105318;-3.131836155;-6.241821736;-9.530636065;5.307141245;-0.6661528;7.721103635;0.711066896
17.68336842;12.55721489;13.89231884;10.48876763;2.711664151;0.218066395;-1.495369246;-2.495878373;27.69156103;57.02499467;4.271715221;-6.03705586;-5.329975363;-6.819869664;-8.762373839;5.157220434;1.607888593;6.448753736;-0.460828866
17.31776294;14.2280577;16.53195432;16.41217581;3.967318649;0.141024661;-1.381233622;-33.47790749;29.98016724;63.48871308;5.939090639;-5.062866775;-3.817341654;-6.025417938;-3.477791387;8.820686674;5.217045213;7.104636363;-2.014410619
15.37549956;15.36941478;19.54997979;21.22189015;4.418929526;0.04334773;2.832536535;-57.92205449;35.37030757;68.09224508;10.78777052;-0.707879789;1.189135523;-4.465512066;4.442728405;14.68373772;8.544491915;9.49793304;-3.186222654
13.65677668;15.12439682;22.31627779;22.98239314;3.930958756;0.011848662;10.28012403;-62.64964278;42.15110213;69.39622856;16.97965139;5.880666763;7.76370997;-3.181468876;11.68838746;19.81016986;10.18646754;12.36398286;-3.393834704
13.68284806;13.444429;24.09334181;21.25360348;2.572497149;0.091541365;17.63681669;-46.8226098;47.98705855;66.96877509;22.3723494;12.39489292;13.31160671;-2.954100505;15.51827531;21.72181015;9.765985688;14.11601468;-2.668585297
15.66465866;11.1977828;24.32512315;17.42076406;0.690979199;0.245582328;21.51533473;-22.16717031;51.18843762;61.83313695;25.5877132;16.49709065;15.88240766;-3.851770702;15.28223588;19.85313051;8.01582797;13.75158326;-1.659414284
18.36735325;9.621773087;23.01;13.88441975;-1.115709229;0.379633676;20.92560832;-4.221101899;51.39525155;56.12956482;26.47587838;16.97547932;15.04541091;-5.252939612;12.46684452;15.7474526;6.165076407;11.36968521;-1.178942995
19.92071235;9.459574651;20.75013241;12.552352;-2.215829882;0.412761851;17.82088514;-1.478849882;49.38797642;52.0339609;25.89838256;14.29273555;11.93393708;-6.250971343;9.37327117;11.94170596;5.127142315;8.023622931;-1.613462691
19.01007813;10.37106997;18.30311344;13.62921858;-2.261170987;0.338047474;15.37979687;-10.63983274;46.35175771;50.52061433;25.11164962;10.21595429;8.526363956;-6.161946045;7.47749377;10.3411582;5.041395311;5.041820142;-2.633325695
15.67869138;11.05410994;15.94913731;15.56431591;-1.384335202;0.224508325;15.53133601;-20.99672805;43.18759434;50.76738554;25.10217712;6.735203032;6.585159303;-4.870847276;6.633449324;11.14351359;5.389471447;3.252969871;-3.424040177
11.27583594;10.04729267;13.25417883;16.22729181;-0.107458463;0.160521447;17.74216263;-23.70807523;40.26868429;50.66397594;26.11665476;4.911794184;6.788371103;-2.883591951;5.551028006;12.92184117;5.490533766;2.586341221;-3.272196996
7.650935416;6.714631572;9.541540278;14.48752248;0.990627089;0.185927754;19.88506257;-18.24529559;37.61666816;48.17139043;27.52012089;4.361132708;8.455518191;-1.091431552;3.025798148;13.68906668;4.983517549;2.27134277;-2.077754515
6.135657693;1.761207492;4.752732217;11.0493121;1.602429515;0.266001387;20.21022643;-11.27242097;35.17537489;42.67409121;28.04549002;3.680472958;9.970426746;-0.354540354;-1.066678667;12.18621421;4.012305571;1.480470822;-0.423096884
6.914867187;-3.082373592;-0.06178542;7.916365358;1.766061423;0.322682279;18.62346406;-9.795641676;32.88627627;35.41935765;26.38660444;1.50627326;9.665162187;-1.078630551;-5.693306747;8.59667882;3.087018541;-0.022647649;0.83972057
9.079870116;-6.020814045;-3.181310354;6.864098861;1.647366641;0.291810989;16.27914609;-14.95707851;30.54103994;28.72874412;21.89969194;-2.538932915;6.702805375;-2.983409017;-9.427619983;4.334708595;2.781943408;-1.670587482;1.172915526
11.22683132;-6.180421051;-3.391532585;8.044302985;1.242919443;0.159730326;14.1043938;-21.70052247;27.64581616;24.50546224;15.03675136;-7.647469645;1.504149524;-5.203339889;-11.38505333;1.145728064;3.450716983;-2.463553901;0.689010725
12.18920185;-3.990875502;-1.013901544;9.768527317;0.291226989;-0.041878422;11.79744161;-24.04593425;23.55946833;23.05468609;7.21899632;-12.44097211;-4.481560927;-6.703347088;-11.63863685;0.120766384;5.056937717;-1.671726537;0.019910656
11.50852528;-0.760868433;2.106485794;9.662358984;-1.496576272;-0.265239996;8.286173412;-20.82812922;17.9422938;23.01596204;0.192662265;-15.86050899;-9.49442123;-6.804558456;-10.91371713;1.194137919;7.149666253;0.621492627;-0.156031822
9.48106904;2.194273166;3.786153144;6.382034797;-4.060533852;-0.466983806;3.173315172;-16.65737475;11.25209476;22.42361083;-4.730834761;-17.64025022;-12.24664061;-5.52917495;-9.923509216;3.343865654;8.99717057;3.519864331;0.424460479
6.876962954;4.235326236;3.037877358;0.673141801;-6.797561162;-0.606769789;-2.280761637;-17.38780327;4.890615413;20.12332322;-7.070251925;-18.08794054;-12.36381994;-3.573093356;-8.913157906;5.28875978;9.872217254;5.857346521;1.471574469
4.552677175;5.45829634;0.775649745;-4.980856718;-8.760248483;-0.641434585;-5.678422757;-24.36035989;0.761006879;16.5468402;-7.028154225;-17.51764463;-10.34177642;-1.945466562;-7.723856864;6.218944423;9.402510141;6.892763454;2.384912343
3.136756508;6.212133515;-0.903371682;-7.883322384;-9.159000614;-0.53923246;-5.158545822;-32.71286437;0.366211899;13.33350421;-5.069262025;-15.95976452;-7.182000841;-1.509544061;-6.228195152;6.131172684;7.800442451;6.663106497;2.669056613
2.853417908;6.569352076;-0.354382042;-6.795028734;-7.831689993;-0.313315677;-0.803849665;-35.33328018;3.921322696;12.11784356;-1.679893165;-13.45595588;-3.995052056;-2.676776903;-4.703261888;5.620650366;5.783892164;5.770671582;2.227447797
3.472758688;6.22333983;2.306193072;-2.67155073;-5.351754523;-0.041810114;5.406192232;-28.97945168;10.02833981;13.36869188;2.486267897;-10.61728826;-1.747402956;-5.35252423;-3.800048828;5.327685806;4.163993688;4.813455997;1.36499155
4.379231287;4.865471284;5.232523193;1.941428797;-2.7004844;0.159680468;10.99298532;-17.18921397;16.18628045;16.07656536;6.340950135;-8.773955356;-1.119524533;-9.053252669;-4.127539061;5.437560573;3.324961636;3.928904745;0.547435445
4.777151574;2.645576924;6.203521382;4.38699397;-0.732711492;0.209232278;14.48495021;-7.46347913;19.92703421;18.44467583;8.467155725;-9.341838286;-2.355216477;-13.06080601;-5.793636261;5.564151177;2.956949589;2.802729059;0.111432909
4.023425975;0.237985848;4.262853148;3.299882654;0.211764426;0.123199369;15.83687043;-5.210058594;19.9721598;19.03910653;7.806467114;-12.75983134;-5.094052717;-16.56279905;-8.281923688;5.063399868;2.275824314;1.096749538;0.110037842
1.979362172;-1.600801652;0.409626403;-0.846059338;0.333498055;0.015318583;15.6852647;-9.661533981;16.7603584;17.59436087;4.534729736;-17.86625834;-8.35584065;-18.82458455;-10.77601391;3.52174197;0.625189056;-1.098341552;0.354510245
-0.814270777;-2.608695238;-3.134314252;-6.214027052;0.087482283;0.016922132;14.43072079;-15.11383761;12.05231617;14.99165871;0.362327431;-22.3685557;-10.86473975;-19.42030273;-12.68931314;1.061930972;-1.949720508;-3.188952529;0.582546491
-3.303092823;-3.189119971;-4.461042208;-10.67956892;-0.16863578;0.171702568;12.12724418;-16.14116385;7.869932189;12.53992135;-2.227933515;-24.21998491;-11.67351284;-18.42882121;-13.99113011;-1.725935389;-4.587434359;-4.452784166;0.628590509
-4.409614975;-3.968731346;-3.141821798;-12.85556354;-0.356585466;0.388800399;9.136625931;-12.10584659;5.42215184;11.12884679;-1.491469198;-22.93041907;-10.73856431;-16.42166705;-15.07074911;-4.123901137;-6.076623382;-4.539886243;0.502653939
-3.605271844;-5.092767149;-0.230799676;-12.59311439;-0.623462739;0.499733396;6.567943674;-7.152129894;4.64992042;10.80793972;2.333134928;-19.79922075;-8.999283594;-14.16526214;-16.24031947;-5.605815203;-5.603889933;-3.669839133;0.354011046
-1.220058594;-5.897789716;2.725216466;-10.84384138;-1.159328389;0.383442591;5.695017216;-6.016202104;4.599375019;10.95841898;7.031301263;-16.86029739;-7.790955231;-12.18893054;-17.27659493;-5.91947422;-3.270757989;-2.364236606;0.356373586
1.723583922;-5.331513257;4.775074983;-9.066059483;-2.045240205;0.065134049;6.718573331;-9.629587365;4.290097656;10.80409606;9.823079473;-15.34547182;-7.913639145;-10.52933631;-17.40532638;-4.968409322;-0.030268344;-0.969519659;0.581886921
4.067916202;-2.854874711;5.914872514;-8.486518951;-3.214083372;-0.290277281;8.205003311;-14.45029181;3.451114415;9.856729195;9.278250041;-14.86127842;-9.005412608;-8.867639518;-15.81388644;-2.725418435;2.892675904;0.581992666;0.934116366
5.122309656;0.902648035;6.592232133;-9.524212098;-4.498650684;-0.489104849;8.152908736;-15.92034102;2.643381207;8.059720126;6.391787702;-13.89620964;-9.721997317;-6.960608671;-12.35412121;0.648270446;4.684645661;2.538398479;1.18626633
4.937269135;4.335653791;6.978043083;-11.60463518;-5.697515662;-0.441599766;6.062626523;-12.71081997;2.753722007;5.680591685;4.021358996;-11.19703311;-8.659224463;-4.989733976;-7.887822806;4.572375059;5.289501775;4.833033666;1.118455544
4.110465228;5.853606029;6.736163293;-13.4544373;-6.622291754;-0.217286218;4.077300623;-7.832987062;4.286970414;3.156417273;5.044183607;-6.866004902;-5.380712715;-3.482480118;-3.923217803;8.015847007;5.260586941;6.822566415;0.681601082
3.310914863;4.968492627;5.479515705;-13.76414028;-7.13787248;0.014442165;5.686358919;-5.685392667;6.98617928;1.025234347;10.49274541;-2.300133113;-0.790790379;-2.818550798;-1.694932955;9.889485879;5.315426174;7.598221663;0.07678536
2.881405196;2.668318992;3.422885555;-11.90157937;-7.209662345;0.106944077;12.58586906;-7.859760196;10.02115454;-0.102333637;18.9093452;0.922350118;3.446216033;-2.736591688;-1.302406551;9.715458076;5.936070662;6.712899352;-0.328429441
2.776749601;0.796794218;1.541156579;-8.284753284;-6.932912727;0.026956857;22.30906875;-11.6136355;12.54363654;0.332675437;27.26367901;2.24191393;6.02458303;-2.335952477;-1.576092726;8.074679854;7.22407553;4.739533609;-0.221419434
2.809553444;0.899932118;0.985255116;-4.182132289;-6.497254145;-0.147885962;29.14933211;-12.40165329;14.1564015;2.571979647;32.70639802;2.414684976;6.821276311;-0.703146264;-0.884960467;6.360790909;8.966753692;3.109248934;0.432515032
2.939856225;3.353370229;2.190859122;-1.046978959;-6.077644374;-0.306886122;28.34793036;-8.099225987;14.9628837;6.271094862;33.97011562;2.720826919;6.81249212;2.25065956;1.588706921;5.849052019;10.73873479;3.200182271;1.329074445
3.343439432;7.294723196;4.427487923;0.207189117;-5.716390492;-0.386129761;20.45112018;-1.009395664;15.23512058;10.45863046;31.64137232;3.818350904;7.168905604;5.41924465;5.00480613;6.684296299;11.94582659;5.271293635;1.992211252
4.210593671;11.24081336;6.200102603;-0.451826074;-5.295381828;-0.388492741;11.92097126;4.191163338;15.04763091;13.84843877;27.40047457;5.228516454;8.254007887;6.998197656;7.150690809;7.59511256;11.89442514;8.051150465;2.071952414
5.469261872;13.82742357;6.219677012;-2.382604183;-4.643673462;-0.343827922;10.66113476;4.65847963;14.22195704;15.38418981;22.9606378;5.841024734;9.323577222;5.605346649;5.80880006;6.698554491;10.02726469;9.384285626;1.567623085
6.690177669;14.19900789;4.19774293;-4.806835983;-3.714915579;-0.262603366;19.34223372;1.850262717;12.62479005;14.70299942;19.4197944;4.932902999;9.169566021;1.26959168;0.360855559;2.937128713;6.314826137;7.580187199;0.814077172
7.274191945;12.02707957;0.878279343;-7.252533582;-2.695369436;-0.133746722;31.81278597;-0.016369012;10.5257329;12.2272216;17.22188089;2.788793392;7.200588932;-4.42654828;-7.479951967;-2.883343124;1.56048722;2.568713952;0.240354209
6.789176233;7.470198922;-2.64777819;-9.612870063;-1.939302381;0.034390035;36.12690586;1.938819565;8.642065182;8.832589235;16.4217059;0.418181177;4.094095025;-9.182639689;-14.4044885;-8.307915473;-2.694568858;-3.937237661;0.081270295
5.214989638;1.288582379;-5.734253667;-11.87195568;-1.756539517;0.180159379;22.77404187;6.47063196;7.75384882;5.3276461;16.85615103;-1.311431678;1.475493383;-11.24149136;-17.33320327;-10.68135409;-4.76858173;-9.392305908;0.255216544
2.948386852;-5.05960534;-8.4322011;-13.80941392;-2.196869729;0.209992246;-7.669450651;9.414482675;8.154827328;2.101174548;18.11577679;-2.312074926;0.830141546;-10.25302835;-15.19169874;-8.878460138;-3.669253824;-11.84017373;0.486080919
0.613800947;-9.724344663;-11.05804875;-14.96565789;-2.988841798;0.070207014;-43.39473101;7.845161185;9.387937719;-0.842650897;19.52470337;-3.126976337;2.453002342;-7.243884629;-9.494073583;-4.089189576;0.349997921;-10.87360467;0.552240673
-1.156918496;-11.28783666;-13.52422769;-14.88146001;-3.683023378;-0.190231894;-68.12632518;3.2801742;10.52766355;-3.538024959;20.35288489;-4.18524971;5.226095634;-3.833901215;-3.367358886;0.931019662;5.8972075;-7.575429048;0.451241923
-1.859436121;-9.6633784;-15.06354474;-13.37663744;-3.906019698;-0.428784183;-71.32148976;0.72738322;10.84690703;-5.711921689;20.21454654;-5.193660915;7.400178084;-1.296785524;0.332166723;3.64042341;11.18047558;-3.616196091;0.352524462
-1.183641534;-6.325077668;-14.62092781;-10.6274645;-3.561274337;-0.49719511;-54.6371229;4.148213052;10.38092683;-6.747425201;19.34864285;-5.257637659;7.815877103;-0.036054426;0.603332747;3.281505441;14.9196299;-0.223015861;0.399264744
0.905325918;-3.476273114;-11.6108215;-7.025585619;-2.86134113;-0.346601396;-30.17042941;12.37471496;9.947237926;-6.022810858;18.51015216;-3.640707905;6.688423516;0.353512621;-1.357336155;1.18367153;16.86145082;2.291437689;0.550880041
4.063762937;-2.586737844;-6.434282547;-3.017789655;-2.194243021;-0.067529262;-11.99756616;19.43845779;10.57966291;-3.394312541;18.51211063;-0.478160426;5.417428672;0.670986976;-3.138012418;-0.320740285;17.6192756;4.261421015;0.616534698
7.561785044;-3.348046832;-0.35351402;0.889448928;-1.91979839;0.169877028;-7.27407587;19.49293657;12.78347154;0.539619696;19.76067441;3.206746775;5.596120256;1.6814994;-2.67118925;0.490009766;18.03084721;6.046004059;0.452966659
10.5037442;-3.914565994;5.16420505;4.014397268;-2.203701242;0.2319984;-13.06287888;12.25822366;16.16506729;4.615513034;22.13422786;6.215927374;7.945891893;3.844520943;0.632483962;3.728954432;18.53275567;7.623016119;0.143289694
12.24643745;-2.354776205;9.13602416;5.53778917;-2.946209471;0.107181032;-20.41272389;4.024708296;19.71395379;7.640609968;25.25829243;8.010367352;11.90399134;7.166427288;5.765829581;8.100549865;18.97519064;8.687939174;-0.021430809
12.76756969;1.747083236;11.33209875;4.888143926;-3.808580014;-0.100118645;-21.81538331;2.766961713;22.52611492;8.96;28.88937375;8.968254121;16.0831598;11.12543736;10.90356123;11.96465956;18.93170304;9.077260637;0.232487483
12.6816766;6.796222646;12.05921889;2.323028574;-4.320670586;-0.253849296;-16.17990152;11.02665889;24.43130763;8.722723194;33.04568873;9.899234682;19.20727685;14.74223072;14.46623257;14.37943285;18.19273351;9.076685538;0.907866952
12.81364452;10.24028548;11.77129016;-0.76811034;-4.051354918;-0.278449419;-8.10026163;22.54917287;26.06800875;7.736773156;37.77247627;11.29980792;20.85106241;16.9216772;15.8460777;15.42075752;17.03696795;9.313004961;1.675857542
13.58804981;10.3971128;10.86671723;-2.269459797;-2.80274126;-0.190166923;-2.970110812;26.00552673;28.36667864;7.068960563;42.77413881;13.02196268;21.53027801;17.02401876;15.51902477;15.74677623;16.08930469;10.31062363;2.08017458
14.68733607;7.653385624;9.755257569;-0.410753403;-0.747229124;-0.056128633;-2.463149891;13.46428013;31.82910357;7.648673805;47.27636671;14.59608751;22.18576773;15.34922816;14.64784308;15.9378471;15.90180643;12.08118553;1.860039063
15.27380383;4.114888455;8.965819083;5.105640424;1.589612857;0.07115261;-3.915914828;-12.80453696;36.11143335;10.02565669;50.28847472;15.81630297;23.49386313;13.12439059;14.4575006;16.16925459;16.58;14.07710056;1.140839282
14.64461077;2.011842638;9.025341044;12.72030193;3.537794052;0.184314391;-3.468419106;-40.67207144;40.16592924;14.24685701;51.09699246;16.9569008;25.46467373;11.85112746;15.64056799;16.34311214;17.70898249;15.53485383;0.342255612
12.82614208;2.132447421;10.10416673;19.75270123;4.598047042;0.297842222;0.254740345;-55.76608451;42.7919158;19.75427986;49.63233341;18.36685569;27.50559533;12.35459201;17.97980674;16.37180614;18.60340996;15.93473508;-0.12157324
10.62682281;3.489088812;11.73483712;23.86613535;4.6792682;0.404355885;5.147281291;-50.92136282;43.20293615;25.3275455;46.46149111;19.83135525;28.79438063;14.18710687;20.34652058;16.25945442;18.70410394;15.25232516;-0.112705972
9.076634556;4.38861023;12.95107686;24.32415146;4.09475794;0.460050049;7.825464462;-30.6351365;41.28809924;29.25730181;42.45555154;20.38554471;28.67064759;15.87022125;21.17834739;15.95190536;17.89448985;13.88528104;0.193052928
8.674255499;3.946880517;12.88180083;22.21609567;3.306716207;0.41682834;6.727014676;-7.511313932;37.5221781;29.9128097;38.40106536;18.91154565;26.85968968;15.8780568;19.34468968;15.24352969;16.59762502;12.39932924;0.508068007
9.035444395;2.786435755;11.4176948;19.54672553;2.592574313;0.271007712;3.287245364;6.376589777;32.70940651;26.58168081;34.80188557;15.13450053;23.53258584;13.70212619;15.00532063;13.99003906;15.63342722;11.32271346;0.687039672
9.23161843;2.400517085;9.417283703;17.87516841;1.87649664;0.080599514;0.375812741;6.814890081;27.76095187;20.10707066;31.91275854;10.19378716;19.29459623;10.2457977;9.890873248;12.50518824;15.89218706;11.08340762;0.817504463
8.558567927;3.800019531;8.209613916;17.46187153;0.855427994;-0.068779939;-0.312310864;-1.422684439;23.55136115;12.77011278;29.8635816;6.220995838;15.12940024;7.269756803;6.633220792;11.6994845;17.92153064;11.99140716;1.084647509
7.125224928;6.625378467;8.688789366;17.44992019;-0.673325457;-0.122078493;0.536061912;-9.590927836;20.76680559;7.251161616;28.72307524;5.127114095;12.22332021;6.291681198;7.345941627;12.6254985;21.57068345;14.12566565;1.547770964
5.791339935;9.457330834;10.65744394;16.82239534;-2.536864811;-0.087531282;0.980043945;-11.69232584;19.69067642;5.161574287;28.47834974;7.451465417;11.60202032;7.709957172;12.24971987;15.60969791;25.8780379;17.13961196;2.038781245
5.503193019;11.01892278;12.94595291;15.34441967;-4.186927981;-0.017515663;-0.007471678;-7.878593004;20.02654172;6.078335174;29.01434585;12.10545979;13.6643812;10.706137;19.27767696;19.63696477;29.34950374;20.18923974;2.280398951
6.556739436;11.22364624;14.27323278;13.79402167;-4.994657845;0.042103027;-1.486854583;-2.726773913;20.95153431;7.818709638;30.15511006;17.16420027;17.86644978;13.88283315;25.06890996;22.62495295;30.59834895;22.19310044;2.124654976
8.369041398;11.19531656;14.23661918;13.38316504;-4.63792578;0.086557971;-1.568298108;-0.668386113;21.48752274;7.894680059;31.72437561;21.07583777;22.81618197;16.09706856;26.85177939;22.60438353;29.06482895;22.39271784;1.702390302
9.92520502;12.27748784;13.67677661;14.87437029;-3.310862626;0.140257362;0.573723546;-2.571318577;21.02919148;5.223875835;33.53695547;23.40244147;26.8277203;16.91731335;24.06249405;19.0634912;25.3882728;20.87642136;1.346104419
10.53186132;14.88429185;14.09629316;18.0594747;-1.617245645;0.213091751;3.685489655;-5.851804313;19.69293679;0.912578908;35.31731259;24.65363044;28.68091734;16.52540669;18.65036779;13.4592204;21.13215333;18.6439478;1.33936139
10.28344408;18.13138517;16.51514562;21.92155543;-0.233116655;0.270762056;5.423721397;-7.303263799;18.2291148;-2.468910504;36.67025213;25.51945326;28.16359828;15.32899409;13.86490762;8.423450063;17.9471968;17.05694411;1.69330757
9.902216176;20.49939654;20.59596309;25.27530165;0.432244113;0.252635303;4.43834043;-5.832945331;17.54077471;-2.627085518;37.23699608;26.22793564;26.08243158;13.68193186;12.32318891;6.145193076;16.65785204;16.97750745;2.131110742
10.12094677;20.94022477;24.7127939;27.38950504;0.379724731;0.125718267;1.610663092;-2.898852955;18.13823504;0.929272226;36.99768741;26.53294004;23.75082426;11.87868233;14.60389096;7.05333883;16.86419045;18.18534455;2.29289179
11.11862511;19.53915801;26.96418236;28.20831491;-0.069973005;-0.073143272;-0.693585369;-0.731974808;19.89;6.63967933;36.46656769;26.22007813;22.27529903;10.26430948;19.19580621;9.73064519;17.33649806;19.52023026;1.998323095
12.43344674;17.2856903;26.43194071;28.14098251;-0.489737672;-0.248591265;-0.659017431;-0.258343008;22.17967639;12.01581144;36.5;25.55988977;22.05233568;9.20202693;23.67202318;12.08112883;16.93365903;19.68702533;1.364290047
13.36528721;15.25020602;23.78361017;27.67294968;-0.538000286;-0.308507816;1.511177377;-0.553736668;24.26457926;15.22732668;37.7001556;25.22214587;22.71323311;8.838080425;26.17574512;12.84553576;15.39505795;18.15990593;0.697303462
13.5;13.87418672;20.77490034;27.08063182;-0.058266596;-0.228546104;3.976885179;-0.038246616;25.53283536;15.97332738;39.77753065;25.69109792;23.46284564;8.87832206;26.23325628;12.33336596;13.44280195;15.52827872;0.258569283
12.94231478;12.87076049;19.00400318;26.36627948;0.897354677;-0.067128096;5.05159705;1.929809411;25.54224244;15.12781622;41.4094067;26.70660216;23.55756763;8.653064823;24.53090682;11.88362133;12.14442604;13.03538144;0.088796277
12.13241528;11.66624185;18.81969847;25.35803085;2.083435452;0.081239655;4.702080929;4.547284473;24.0026556;13.66786399;40.87114873;27.27661531;22.66482515;7.518301573;22.07280408;12.56360357;12.0457533;11.67043647;0.016297411
11.47151879;9.91744288;19.17798069;23.8691159;3.117695988;0.155727877;4.405578353;6.450820325;20.93245598;11.91140267;37.16173141;26.34148735;20.98338479;5.327815941;19.47863084;14.18085574;12.75498025;11.51226679;-0.180900724
11.09129589;7.712026589;18.54714392;21.85007813;3.606698758;0.165534108;5.591419953;7.008259873;16.98082619;9.690265727;30.89081464;23.61519158;19.14140226;2.607446277;16.89355167;15.39024525;13.29907013;11.81565855;-0.601345688
10.91439725;5.43908272;16.18566254;19.49584853;3.325850564;0.166155422;8.200202711;6.795034387;13.57928965;7.145220751;24.2377939;19.94530082;17.94149824;0.278161677;14.38412078;14.78477911;12.95664847;11.73866627;-1.166020683
10.86491788;3.592601812;12.83384938;17.24682201;2.358194386;0.200187233;10.72285614;6.924547532;12.5319028;5.207952614;19.8695478;16.87407222;18.01915192;-0.872061621;12.30993755;12.08480292;11.88411877;11.09872317;-1.703360703
10.97102548;2.6969825;10.283234;15.61984329;1.070909308;0.255890954;11.63908067;7.979742253;15.03358282;5.110373528;19.43366675;15.67821605;19.5037799;-0.582276099;11.27442573;8.484233635;11.0074229;10.52704558;-2.082882878
11.24770583;3.264727465;10.11;14.89448411;-0.102654423;0.279106728;10.84861404;9.561215883;20.67197276;7.213097314;22.59387735;16.55499552;21.83754257;0.869348381;11.70536133;5.887499395;11.23597495;10.88277047;-2.286228399
11.49984668;5.569140197;12.47814314;14.83153212;-0.952119088;0.226547904;9.726364376;10.7781322;27.21878889;10.21657615;27.26087561;18.52007813;23.92588393;2.955556666;13.46811709;5.622130408;12.60831477;12.39850252;-2.376579329
11.29596246;9.225317117;15.8809686;14.66503701;-1.63553735;0.11245919;9.770779474;11.10495812;31.62277338;11.6614195;30.88948735;20.0785009;24.66096353;5.188748371;15.86994663;7.578990084;14.05977254;14.26713193;-2.418420824
10.22093521;12.92558062;18.02898881;13.47313694;-2.53976754;0.00638236;11.16211904;10.76773393;31.76249563;9.582434092;32.00305082;20.19843665;23.59440242;7.173892853;18.04693547;10.36698598;14.04064996;15.05090671;-2.429613854
8.248753909;14.7692743;17.28970011;10.75361842;-3.923192943;-0.018607067;12.61931386;10.37635216;27.83314304;4.107618543;30.96297449;18.92993522;21.32643474;8.469246033;19.39297591;12.2994756;11.56705005;13.65481427;-2.399846322
5.927935508;13.25644951;13.71846634;6.826962265;-5.597322407;0.053843838;12.68123588;10.27313154;22.32722962;-2.35032522;29.51823717;17.27307008;19.24855643;8.514790378;19.69334252;12.4628301;6.956502789;10.15954638;-2.337497088
4.184689657;8.416835086;9.027102416;2.75918148;-6.912095749;0.162957585;11.15604272;10.28033729;18.4766237;-6.65158628;29.48030388;16.41548573;18.67200449;6.835022691;18.94080292;11.15141418;1.734078758;5.900906757;-2.280693364
3.836141144;2.236049806;5.5673453;-0.179327694;-7.107603266;0.206945998;9.312241206;10.04554316;18.13878341;-7.174467779;31.42131049;16.87493679;19.85863865;3.444316025;17.12663627;9.491789063;-2.203250677;2.732552886;-2.249964724
5.132597601;-2.129617992;5.025504726;-1.169713502;-5.821675131;0.108931191;8.602920156;9.542139152;20.5839604;-5.047352318;34.23651934;18.13582354;21.66119663;-0.865762762;14.30643855;8.658903975;-3.575050118;1.986562876;-2.186805699
7.632396725;-2.04689139;7.623643788;-0.19536399;-3.405221125;-0.134488539;9.161308167;9.143499043;23.05476019;-3.3739588;35.81892442;19.03577222;22.15057661;-4.662262076;10.9275185;9.275741845;-2.233343097;3.820068359;-1.94912275
10.47550443;3.004517991;12.20082806;2.085060026;-0.807957697;-0.452965026;9.579717742;9.175689739;22.70913809;-4.998602807;34.3796541;18.65510953;19.91988562;-6.448777919;8.066010549;11.3131653;1.010878394;7.308990593;-1.392684139
12.85487184;11.00233545;16.96613909;4.763843967;0.916492529;-0.744726042;8.280643332;9.444341438;18.55346804;-10.50517122;29.57026344;17.107704;15.19455624;-5.374547958;7.194548387;14.36460413;4.97443463;11.11042866;-0.491342776
14.38338223;18.4638554;20.38511694;7.072477434;1.179697715;-0.928706775;5.220585951;9.299518488;11.9913763;-17.9595983;22.72832977;15.659532;9.906275046;-1.652601157;9.453737135;17.93928478;8.632827417;14.18198949;0.595902044
15.16579768;22.41053179;21.73810273;8.535225216;0.14804392;-0.974413369;2.239700896;8.254072407;5.65209539;-24.52637752;16.13052785;16.01588812;6.561061523;3.547646846;14.85537906;21.54190091;11.32826326;16.12781017;1.574918326
15.59466756;22.01111057;21.20647314;8.957222985;-1.412336057;-0.899969883;1.557244008;6.552648641;1.430650985;-28.62715268;11.72914314;19.1754037;6.601833027;8.6377355;22.00836393;24.60824275;12.74166493;17.10011101;2.16529522
16.03819336;18.9155091;19.61177134;8.429052025;-2.616417653;-0.751577579;3.666756614;5.052301921;-0.791119049;-30.94072067;10.12106648;24.58783757;9.387368081;12.25520331;28.65724486;26.53681742;12.87971168;17.4925962;2.256096871
16.60263306;16.12717754;18.00012847;7.387114133;-2.961417682;-0.58355449;6.570769709;4.418278196;-2.853476256;-33.54159525;10.32288762;30.22087734;12.53091205;13.70480397;32.76517494;26.93977767;12.17589445;17.69496298;1.967260033
17.07160404;16.14651681;17.20222889;6.555040612;-2.561256042;-0.447555973;7.205903923;4.366302091;-6.780444019;-37.99201908;10.43732742;33.58320645;13.40256344;13.06907487;33.48112874;25.95747649;11.52837771;17.98798693;1.576815721
17.03049897;19.50173204;17.46847793;6.591618599;-2.012410515;-0.386418398;3.963907057;3.758062629;-13.20961892;-43.99095486;8.792385549;33.11438234;10.77858759;11.04893058;31.40568833;24.32074352;12.01621905;18.48361963;1.360895696
16.11641494;24.48619502;18.32788778;7.560964916;-2.005538466;-0.425132011;-1.839085706;1.622851804;-20.92137715;-49.63241599;4.896970428;29.07418916;5.527901982;8.666501733;28.04821309;22.9826502;14.28296629;19.03043386;1.4452188
14.28362778;28.18823305;18.82754628;8.659995754;-2.917889748;-0.55932849;-6.861064375;-1.734873901;-27.67758182;-52.94959458;-0.300486686;23.36326673;-0.069932267;6.932688544;24.88770883;22.48931856;17.95447406;19.16085392;1.75230516
11.93948481;28.18390353;18.14062379;8.607626433;-4.601993547;-0.750328816;-8.292394969;-4.603705944;-31.60328342;-53.39602493;-4.945774825;18.40089382;-3.811825652;6.542724281;22.64185295;22.52959859;21.59700747;18.24226948;2.064398484
9.827079607;23.94;16.23050006;6.612443413;-6.465290766;-0.93548097;-5.933188863;-5.006750676;-32.07265215;-52.07032973;-7.260286252;15.79808885;-4.789136149;7.668028512;21.1201669;22.04858736;23.42028693;15.86641771;2.154387531
8.653257624;17.16768461;14.079582;3.242130891;-7.787175758;-1.05281667;-2.083602379;-2.277199302;-29.62170594;-50.62820395;-6.413804975;15.66300639;-3.564327627;9.925896102;19.61047973;19.93451588;22.36773682;12.25847469;1.907008318
8.648201631;10.94143677;13.17944732;0.38278396;-8.107858234;-1.068304131;0.546082026;2.26155254;-25.2482516;-49.92750965;-2.850418054;16.89933659;-1.370759256;12.56274318;17.45012549;15.85905343;18.86063162;8.361893252;1.370587803
9.360757881;8.065158709;14.500296;0.062989229;-7.486683105;-0.99096053;1.014219751;6.177176192;-19.84757744;-49.58427535;2.024488956;18.16690587;0.901278851;14.77753301;14.43277948;10.69493291;14.62324555;5.431017429;0.725076263
9.902185801;9.583451353;17.64247993;2.863479107;-6.483490872;-0.867664172;0.55363885;7.727384967;-14.20212736;-48.72265078;6.541171144;18.77334126;3.131164937;16.02168719;10.90959829;6.186610224;11.6475202;4.343522097;0.193929542
9.552204288;14.2803694;20.88073516;7.158993747;-5.85420011;-0.760357964;1.014019564;7.105292891;-9.280870249;-47.11601034;9.443689825;18.92043153;5.596319512;16.13016673;7.641697949;4.043263446;10.99437819;5.113206925;-0.054426323
8.3310786;19.45979553;22.22666874;9.988188384;-6.115926178;-0.716597227;2.915983631;6.078133038;-6.26634654;-45.60627224;10.24603107;19.26913389;8.279631689;15.26388844;5.515738606;5.011793785;12.26834283;6.978397681;0.024352322
7.08475863;22.54252231;20.8388712;9.130972561;-7.234836427;-0.746780119;4.953290861;6.322457844;-6.033612866;-45.4004616;9.196302529;20.26914006;10.54926222;13.77064263;5.191820267;8.498099057;14.10925187;9.006301889;0.333070793
6.934210564;22.49755436;17.7347329;4.907278065;-8.641413372;-0.818534244;5.343078475;7.895264958;-8.449613659;-46.90698333;6.977196729;21.77395765;11.50827909;12.08721406;6.747411661;12.93747508;15.28708481;10.73473482;0.670835609
8.422316159;20.21522066;15.17585229;0.221578413;-9.584783091;-0.872247137;3.659519487;9.185150195;-12.2002702;-49.21809268;4.336419928;23.14371912;10.68600411;10.70285069;9.462481897;16.63579699;15.55195472;12.33474274;0.814150978
10.98248616;17.62234651;15.06780084;-1.400878627;-9.610884438;-0.852704035;1.345038763;8.403151585;-15.50593393;-50.76945164;1.796669315;23.64650692;8.442525144;10.09686808;11.95373139;18.54459547;15.62068912;14.18024491;0.614537738
13.18409766;16.19673563;17.50995514;1.529175446;-8.848273569;-0.742433877;0.375512319;5.300749332;-17.30989086;-50.63421469;-0.475314226;22.82700611;5.728765836;10.57466636;12.75700752;18.55211731;16.38625413;16.23034791;0.073994591
13.65778017;15.95448391;20.6001771;7.105370012;-7.901318949;-0.577755717;1.343780243;1.562130298;-18.00979143;-49.30839626;-2.60919743;20.6669976;3.424438702;12.06039677;11.16175296;17.24683501;18.04854063;17.81794556;-0.640718015
12.06953917;15.63083975;21.70807371;11.11113474;-7.420214974;-0.434365668;2.823022765;-0.536284424;-19.06199892;-48.26566047;-4.798403029;17.58967518;1.839512424;14.02620992;7.815791647;15.44599298;19.89551202;18.10759204;-1.263042923
9.423556495;13.88458123;19.33347143;9.898874427;-7.651175428;-0.38598617;2.693493407;-0.050293128;-21.67709261;-48.63942986;-6.996844346;14.41361257;0.791264472;15.69875575;4.615210757;13.8448533;20.89930735;16.8919679;-1.54859032
7.433070968;10.58295239;14.21162567;3.018075108;-8.289112901;-0.458393937;0.25;1.853263141;-25.61758439;-50.17308446;-8.73730355;12.22904062;0.124056817;16.47641897;3.775586815;12.93033092;20.60437117;15.04202371;-1.392475399
7.379950416;7.161339531;8.878635548;-6.333462694;-8.733973715;-0.608273968;-2.889552313;3.028445539;-29.10896795;-51.36551111;-9.257616849;12.06711484;0.122428581;16.28280363;6.541375287;13.03079598;19.54193337;14.13877694;-0.871827857
9.268477269;5.757408287;6.04687565;-13.37922531;-8.551308545;-0.743623331;-3.999509051;2.442672694;-30.02411194;-50.7069828;-7.949729698;14.36085293;1.365882224;15.57587185;12.32743738;14.28544825;18.8041505;15.45508642;-0.182267074
11.86600429;7.753694118;6.980978563;-14.85193057;-7.786817071;-0.775867056;-1.550835049;1.3288964;-27.46544811;-47.9501395;-4.88292094;18.48762522;4.10854768;14.97279823;18.9033102;16.47662595;19.1176241;19.01157802;0.492711055
13.57253526;12.80399006;10.97729664;-10.89885645;-6.901766624;-0.67152602;3.474269301;2.225920334;-22.50512619;-44.32466068;-1.001548338;22.82841429;7.758001401;14.75920579;23.5914165;18.90888011;20.18261253;23.43463386;1.086411096
13.47172902;19.03531526;16.14951359;-4.56312129;-6.391225934;-0.470247366;8.462715959;6.599599033;-17.47681801;-41.51435503;2.26020763;25.52718289;11.01298915;14.66407484;24.7727416;20.58715403;20.83715121;26.76671962;1.643929444
11.82930981;24.22773016;20.75922672;0.569407806;-6.38951765;-0.258299952;11.43730876;13.12756655;-14.35019077;-40.27786134;3.801283967;25.588763;12.67448014;14.08216519;22.75945389;20.73586947;19.93531307;27.66645908;2.203064095
9.760140345;27.08271563;24.05639883;2.700248221;-6.568955519;-0.116479574;12.61416194;18.3416782;-13.43988602;-39.88672072;3.584346575;23.55855239;12.5232826;12.56450175;19.49033539;19.36468295;17.24785028;26.15090456;2.655455911
8.401848176;27.71385721;26.15717863;2.493831819;-6.402652469;-0.076984524;13.81956216;19.3476011;-13.41765848;-38.83292949;2.710538677;21.19589419;11.5144782;10.17641566;17.27157588;17.42848669;13.67671252;23.39642765;2.720975178
8.231995589;27.15736968;27.34069669;1.896100034;-5.580432435;-0.114557437;16.36407567;16.41319165;-12.54434363;-36.16263569;2.692429431;20.26041081;11.04270598;7.436349525;17.39462551;16.34211316;10.63014613;20.82855582;2.100344659
8.955337487;26.43364232;27.55209694;2.311609416;-4.259808656;-0.171671598;19.46885764;13.07415138;-10.08185047;-32.27954718;4.380423308;21.25388824;11.79689465;4.906480659;19.4993985;17.0836203;9.071244998;19.22594421;0.730043945
9.894364012;25.91981701;26.55894143;3.64971548;-2.97607284;-0.195966448;20.85486694;13.35636374;-6.760039063;-28.56345111;7.316588263;23.07848178;13.11257342;2.801163277;22.01007813;19.49192073;8.986215322;18.46724748;-1.046878574
10.46691739;25.40388031;24.49607968;4.808056983;-2.301035818;-0.165455169;19.03062474;18.24145159;-4.004904965;-26.20375219;10.0311063;23.91196242;13.39063885;0.952566691;23.25054454;22.30279936;9.641955845;17.98011045;-2.560572859
10.38762616;24.5807447;22.13130321;4.887514631;-2.513619311;-0.091549237;15.08248166;24.42970656;-2.669126281;-25.31599414;11.10873816;22.64455232;11.32382706;-0.854737037;22.44964966;23.96158615;10.34424749;17.39955788;-3.150219296
9.574550381;23.4499678;20.45876562;3.928513741;-3.500900535;-0.006815229;12.08637352;26.79148449;-2.379370795;-25.10772955;10.25181935;19.74995285;7.012160865;-2.50836829;20.01941789;23.66144456;11.01973693;16.85240238;-2.563496424
8.027648852;22.28676967;19.9105466;2.57815627;-4.904049466;0.050092468;12.45312584;22.8122397;-2.029603609;-24.87352084;8.539495265;16.89969008;2.097127522;-3.526188231;17.05841549;21.8523284;12.13925227;16.68869489;-1.145150849
5.909383582;21.32180649;19.91773938;1.191512136;-6.341907979;0.046491068;15.59987595;15.35162721;-0.928858341;-24.82240505;7.681474765;15.64960558;-1.219836594;-3.424445247;14.56291498;19.84234964;14.0941832;16.99878544;0.343084002
3.759716053;20.53042275;19.31530129;-0.593661176;-7.530663173;-0.033146083;18.27881968;10.99686076;0.465620294;-25.88368768;8.833753915;16.29113089;-1.560197995;-2.189194614;12.94814934;18.80485102;16.61697857;17.43003906;1.178046207
2.532656077;19.77603969;17.35217875;-3.274659585;-8.259902568;-0.175525558;17.55688475;14.71895766;0.934430324;-28.58792356;11.87274425;17.81355857;0.856374827;-0.41905222;12.15104305;18.96890609;18.79348052;17.5124938;1.107214083
3.219746748;19.15930477;14.4870019;-6.419672846;-8.337301778;-0.333256479;13.85919378;24.82029187;-0.289703966;-32.03748501;15.64469929;18.97130953;4.56927604;1.033612841;12.09594789;19.62136938;19.69140649;17.20146736;0.460108147
6.194103449;19.1863716;12.25688311;-8.25447013;-7.632550655;-0.437091538;11.11378216;32.52431759;-2.542363726;-34.02632718;18.92532195;19.49463555;8.022935356;1.66428382;13.04071917;19.885005;19.07865795;17.10296787;-0.135077665
10.74540653;20.51261582;12.24486175;-6.57226868;-6.22345871;-0.428084476;13.45352397;27.36951465;-3.917448163;-32.44711656;21.27831802;20.35153333;10.59054602;1.670241333;15.46631566;19.59092291;17.6036781;18.08443074;-0.21789835
15.25206137;23.4056844;14.92544776;-0.458015609;-4.500711075;-0.294514212;21.15638261;5.043857502;-2.610828403;-26.98879283;23.13507524;22.79636084;12.72684522;1.746064976;19.58754862;19.4749894;16.25250197;20.504891;0.198572546
18.01381279;27.34859332;19.29439559;8.55371816;-3.072036886;-0.087712994;29.59474221;-28.06381042;1.594833172;-19.74983883;25.10677148;27.02618254;15.23086729;2.463042221;24.90366263;20.49271378;15.51444949;23.67226434;0.698986466
18.25535813;31.12685443;23.57316437;17.0093376;-2.455565067;0.099949693;32.65873927;-57.44156748;6.92175249;-14.13603189;27.19564657;31.66052428;18.29604609;3.725826754;30.20315573;22.81350285;14.95743949;26.02834566;0.838447896
16.62102217;33.38919208;26.43123681;21.60852678;-2.747528815;0.185968055;28.15450591;-69.00793212;10.69410039;-12.71454375;28.63718393;34.59039395;21.14414014;4.752534951;34.09284107;25.37913484;13.59761425;26.03633009;0.511406374
14.78842866;33.33981231;27.78656955;21.39346976;-3.518388858;0.145397385;20.4882848;-57.99518851;11.19485413;-15.52659882;28.53016864;34.5567796;22.52200407;4.613354561;35.70886944;26.49284762;10.79711241;23.20237905;0.02431303
14.4248837;31.15643705;28.61814605;18.4077149;-4.05575916;0.022482438;17.71893424;-31.97649964;8.909055163;-20.0579999;26.69874161;32.13922611;21.6336509;2.922224366;35.11215428;25.05925364;6.971739072;18.52;-0.176186436
16.15890711;27.92868338;30.01567784;16.24932404;-3.822069754;-0.102193518;24.67065257;-5.842702412;6.206691162;-22.86969828;24.00256442;29.27840963;18.75466047;0.159732004;33.09720625;21.51334511;3.512618497;13.99617084;0.110771653
19.21961095;25.17942766;32.24414735;17.50613559;-2.821319104;-0.165655901;37.51044234;7.783657232;5.676719312;-21.72669906;21.77396485;27.68166759;15.06424656;-2.604958498;30.57885718;17.66125178;1.93145069;11.53125992;0.658903528
21.93934116;24.19173325;34.50506471;21.90715751;-1.613723417;-0.159729107;44.70393132;6.023910409;8.321273602;-16.79595114;20.82070833;27.43258967;11.86291086;-4.374910298;28.02767295;15.48839868;2.84542417;11.85160389;0.985730284
22.76026791;25.39881783;35.48286565;26.50281574;-0.956030078;-0.127564167;34.56927317;-3.890746173;12.89970345;-10.24610684;20.83127079;26.99349614;9.79730993;-4.796233974;25.36193843;15.81084927;5.545786199;14.14654423;0.73495523
21.11098184;28.08376968;34.20163129;27.70923352;-1.306159928;-0.126322486;4.29408929;-11.10472779;16.83890035;-4.727200908;20.70093989;24.62863718;8.646850887;-4.281823805;22.32120821;17.78320499;8.451899643;16.6057208;-0.040221899
17.66798326;30.59636995;30.60605336;23.7435731;-2.523808024;-0.185906846;-36.39896352;-9.331536527;17.98708879;-1.869744318;19.5220265;20.05246463;7.738312782;-3.68501452;18.94984296;19.61;10.09912646;17.49986624;-0.917712124
13.9319951;31.13737804;25.60286858;15.78714569;-3.959231048;-0.292201451;-70.16991529;-0.714762417;15.93998636;-1.714479303;17.40919161;14.87184102;6.572655526;-3.812790228;15.7336224;19.87360836;9.952426251;16.15077099;-1.430073242
11.43164471;28.83572449;20.68971629;7.20306437;-4.855764639;-0.401263913;-82.52438989;7.063331628;12.07766461;-3.173272934;15.45638971;11.3783356;5.155570962;-5.092486715;13.23869569;18.44416642;8.527942697;13.24548385;-1.405232417
11.00497199;24.50997386;17.43441379;1.498920647;-4.788852291;-0.468062844;-70.61361661;7.616110794;8.445183313;-4.918949709;14.8487215;10.65268845;3.851206666;-7.502969233;11.55754478;16.32893889;6.852145835;10.36284754;-1.056954769
12.49038035;20.48728357;16.95676678;0.46233286;-3.861159669;-0.467461282;-44.31998578;1.024369034;6.409462848;-5.996830971;15.86977053;11.58357886;3.008026548;-10.66779823;10.08820296;14.69958725;5.743299664;9.034364869;-0.772589217
14.91507732;19.34806977;19.46607224;3.573371908;-2.557491323;-0.397478092;-19.17175424;-6.587869989;6.059165654;-5.887678637;17.64503741;11.70776098;2.760608245;-13.96341374;7.946777343;13.9720341;5.430648301;9.901317252;-0.79154319
17.04290486;22.25188136;23.99369008;8.793723628;-1.394619082;-0.271286958;-6.386415089;-8.363808468;6.637157294;-4.267830072;18.85603819;9.288483291;3.179482951;-16.60965;4.787691889;13.68602969;5.669953762;12.44029933;-1.041940935
18.00611757;27.98875966;28.59663349;13.95310916;-0.619701979;-0.109905138;-6.978100166;-2.34882226;7.488136813;-0.878337788;18.85221512;4.98237158;4.556772609;-17.82088807;1.399026153;13.18747175;6.109166444;15.37663123;-1.252333186
17.71430837;33.57857498;31.1952724;17.77467541;-0.148109913;0.060136034;-13.39676445;7.158142141;8.687886413;4.324152271;18.25013865;1.695326008;7.441213365;-17.06595061;-0.485796676;12.41720192;6.537289839;17.49494556;-1.218204077
16.82044637;36.18284315;30.75657603;20.0697547;0.252637307;0.209683759;-16.51277392;13.48003906;10.87986982;10.91107006;18.51682842;2.622445729;12.24350702;-14.33878006;0.834070731;12.05804067;6.862890032;18.32736299;-0.982793823
16.23317715;35.03955295;28.07050143;21.28991842;0.696150614;0.316160399;-12.27655476;13.28751625;14.53077022;17.9221583;20.84440988;8.900510068;18.65148098;-10.24057749;5.884537429;12.90981699;6.972229667;18.29473822;-0.782982134
16.43505828;31.96443579;25.4;21.9534527;1.034448705;0.37512682;-3.431231018;9.338333928;19.26718002;24.12793191;25.17525212;18.63380915;25.35605827;-5.750248303;13.5382994;15.08328611;6.715734473;18.24674676;-0.823581118
17.04483768;29.95104934;24.99614337;22.33754983;0.944780722;0.402243252;4.045954168;7.939516219;23.84834465;28.46309288;30.10189383;28.02691642;30.44076648;-1.779708623;21.5996993;17.77789603;6.08948761;18.75787197;-1.088117583
16.98197476;30.8686404;27.41221821;22.49026339;0.184311189;0.418344823;6.165718144;13.27185367;26.80356647;30.36131603;33.68673841;33.78702781;32.31186388;1.208191955;28.07897783;19.8788521;5.41584316;19.70343883;-1.349987993
15.22635511;34.03344192;30.92457435;22.389636;-1.166992656;0.425980771;3.568494143;23.38920264;27.2622097;29.8394712;34.58657482;35.06176605;30.60481491;3.266924278;32.25378162;20.8528201;5.262072146;20.42621956;-1.363616716
11.71535121;36.80874159;32.69548209;22.08113147;-2.648938325;0.397847678;0.043301589;31.40449684;25.40450096;27.38733243;32.72673397;33.60722658;26.45077342;4.696450322;34.76240219;21.12608087;6.056771833;20.34635964;-1.059645089
7.716068642;36.78188461;30.97443445;21.74114106;-3.602885361;0.292267436;-1.14021083;31.11570763;22.28825888;23.81527289;29.18932319;32.23906613;21.88776391;5.667984996;36.70962102;21.57608589;7.678303472;19.50542025;-0.576707785
5.271511314;33.75118274;26.66571725;21.67488632;-3.494613148;0.089401506;0.260411611;22.54677785;19.2590233;20.13498075;25.55644784;32.82801747;18.77254769;6.045537341;38.53031332;22.57230302;9.394261045;18.56671029;-0.119009067
5.939485005;29.85526914;22.88536678;22.2278098;-2.193652408;-0.178476037;1.96904953;12.68891279;17.37481258;17.41468667;23.21871126;35.27573254;17.87646239;5.535984772;39.5397309;23.44400126;10.29166447;18.22592457;0.213919707
9.610078125;27.68533724;22.6189642;23.57702921;-0.053387752;-0.429637486;1.787965646;10.39690036;17.14764166;16.52354042;22.98796989;38.02014485;18.70042191;4.028783811;38.5390991;22.91381229;9.928106336;18.49507288;0.463909318
14.26018841;27.93207935;26.17352332;25.46415422;2.244799185;-0.572578186;-0.266998065;19.09849357;18.59297593;17.80042042;25.00053031;39.44706291;20.04106912;1.834836781;34.97438289;20.18737134;8.702467426;18.48778869;0.692307593
16.9559896;28.59;30.48247064;27.07286753;3.990292747;-0.557786449;-2.107256486;32.99332865;21.37199349;20.83154449;28.72491451;39.03276337;20.85281298;-0.382350529;29.66615685;15.77068282;7.613614293;16.98032865;0.832487832
15.57633193;26.51182631;31.04319513;27.27260914;4.729009199;-0.405405322;-1.615849099;40.06260754;24.85928018;24.53815475;33.01193892;37.44051998;20.81711339;-1.947399289;24.44559497;11.26259189;7.539989814;13.3945944;0.680256589
10.18067483;20.13924875;25.23684097;25.24093602;4.410716936;-0.189263771;1.396179101;30.1724785;28.17294819;27.61277605;36.32889979;35.70913082;20.31150856;-2.544380531;20.91289353;8.221481632;8.566185581;8.447271818;0.057949699
3.102386139;11.17151556;14.58285734;21.14950386;3.360755138;0.010301581;5.046408719;2.624872711;30.33330173;29.11224648;37.30573647;34.33449894;19.92586373;-2.362334337;19.27607088;7.013213691;9.876199197;3.890725928;-0.982794009
-2.356719202;3.700195208;4.130675115;16.41868966;2.121566328;0.150568484;7.04523157;-32.31835506;30.62581791;28.89263507;35.43374752;32.98794882;19.96047592;-1.929177107;18.216102;6.604187504;10.31346172;1.439757646;-2.110404528
-3.84546335;1.366454874;-0.727235575;13.21928606;1.243871779;0.238353819;6.596138051;-59.22216074;29.0107279;27.64752606;31.46648015;30.9918863;20.27602226;-1.76265124;15.94093812;5.494203192;9.197668901;1.626777297;-2.889016696
-1.305148661;4.725220639;2.204374084;13.37135309;1.097239937;0.30723731;4.890945674;-66.72702403;26.27249053;26.53132029;27.12129571;28.05495126;20.54175848;-2.070123794;11.64713536;3.027529263;6.7907058;3.431430421;-3.062030391
3.084869335;10.87519965;10.5493813;17.24791829;1.747825155;0.383231724;3.909859162;-54.06360251;23.70919703;26.56747152;24.13302585;24.63604102;20.61757944;-2.66805646;6.261401292;-0.008388777;4.075571526;4.978058003;-2.724247925
6.28493923;15.61809144;19.08022841;23.38699195;2.938999609;0.46659522;4.716458091;-30.68779814;22.47606674;28.1362478;23.23927397;21.68773755;20.73632614;-3.135832057;1.876108633;-1.999305305;2.037598752;4.799045698;-2.244368457
6.208953868;16.41680031;23.2085659;29.13529853;4.197247701;0.539670875;6.755483581;-9.719775186;22.97616952;30.77984126;23.81578144;20.04627771;21.34495601;-3.084348963;0.301865221;-1.824977893;1.003296871;2.744010459;-1.997095575
2.86874314;13.86235078;21.7281331;32.01396946;5.045204487;0.587680074;8.639111629;0.058266445;24.69641473;33.40642119;24.44668275;19.96262527;22.73849714;-2.381381376;1.836550921;0.208849596;0.520018311;-0.097810622;-2.112687169
