Channel 1 - P4;Channel 2 - O2;Channel 3 - P8;Channel 4 - T8;Channel 5 - C4;Channel 6 - Cz;Channel 7 - Fz;Channel 8 - F4;Channel 9 - Fp2;Channel 10 - F8;Channel 11 - Fp1;Channel 12 - F7;Channel 13 - F3;Channel 14 - C3;Channel 15 - T7;Channel 16 - P7;Channel 17 - P3;Channel 18 - O1;Channel 19 - Pz
2.093611494;-17.72507997;-21.3270406;-39.37658749;-4.12926448;5.353320617;-24.63589837;-68.89030735;15.20075591;-32.38758648;17.39132436;-21.06042627;-10.29836814;-9.409776839;-14.71267329;0.223439619;17.92382428;-10.58072712;-14.12634789
1.775109215;-42.44249461;-25.88421639;-66.3083745;-12.61257206;4.113770011;-50.98102301;-133.8698514;17.22632245;-55.47964982;34.08808429;-36.91823333;-9.239166049;-13.57941044;-1.217444188;6.676298325;24.88861947;-32.19682355;-14.90287725
-0.151077124;-54.74132363;-29.02175757;-76.18835843;-16.89025931;1.587035786;-53.13752526;-151.1512931;27.20766085;-66.33732309;49.29720687;-35.80408323;-1.112914117;-9.249372769;14.22999617;7.072859351;25.04686868;-42.80408514;-8.708864509
-2.518045657;-48.83425103;-30.19566664;-69.20491885;-16.8826508;-0.71888934;-32.22412327;-120.1239247;42.49762366;-63.078076;58.90493831;-20.57012083;10.0849586;1.98025303;23.73929059;1.893473195;20.09903412;-37.90480132;0.806278302
-4.266866396;-30.88842119;-29.53165385;-56.23641371;-14.96366129;-1.675639131;-5.013231259;-68.94516257;55.63075279;-51.89142785;61.01634696;-2.742111978;18.04809585;14.90888475;23.26520654;-4.689248715;15.44425366;-24.89826746;7.859973606
-4.923091852;-13.44915128;-27.44105802;-49.23254638;-13.9316292;-1.203415745;9.401800356;-33.1488183;60.20780665;-41.77370243;57.30870418;6.579163705;18.91539742;24.70391087;15.55074449;-7.735330782;16.23287107;-17.64877425;8.590868627
-4.667726508;-6.04251797;-24.31683489;-51.71998652;-15.02425875;-0.130501403;3.674431186;-30.99713443;55.83894551;-38.13010224;52.13254949;4.584766588;14.0290219;29.80654364;8.470168222;-4.912763959;23.90928518;-26.14658557;3.620418378
-4.020806172;-9.398006971;-20.53756964;-57.02263694;-17.38513635;0.556934522;-13.7162475;-53.66402293;48.19491438;-39.9230789;49.83130785;-2.526110966;8.575827501;31.74668183;9.578007031;2.167112654;35.74273576;-49.09275233;-2.73943886
-3.41436382;-17.17904707;-16.67758477;-55.13657719;-19.14286335;0.444100054;-26.66160342;-76.03486227;44.32460398;-41.95241583;52.11614938;-5.835912128;7.37376509;32.63280125;20.52699957;9.498687687;47.25776812;-74.99382877;-5.889722625
-2.976588466;-22.73791175;-13.62016248;-42.07947278;-19.04879862;-0.141328382;-24.50726241;-77.98093431;47.21477623;-39.86682778;57.31721767;-1.325053844;11.29077249;32.90358398;35.41422932;13.69920142;55.24063083;-90.82333786;-4.264506848
-2.652020535;-24.62168734;-12.351263;-23.81507701;-17.36069036;-0.556448344;-9.480933178;-58.95966734;53.96554501;-33.72524239;61.92733926;7.41598141;17.07583759;31.3244694;44.52097276;14.04383108;58.94931816;-91.55713692;-0.087043821
-2.500762197;-26.31927124;-13.49078655;-11.72408265;-15.43736498;-0.438509987;6.672237219;-35.5660086;58.76482112;-27.50739014;63.17053292;13.05890396;20.447465;26.93147973;41.03959985;12.07469024;59.10471471;-83.34071493;2.792921303
-2.874643955;-31.21380784;-16.86610886;-13.72643683;-14.58273042;0.03484131;12.98965325;-25.92211219;57.88041543;-25.39663568;60.6835946;11.11527298;19.64545426;20.81327765;26.05504055;9.484626167;56.26213878;-78.05466092;2.061920751
-4.273580629;-37.98459372;-21.45430802;-28.52776338;-15.16272046;0.383478248;7.594663023;-34.73639684;52.46513545;-28.11544104;56.24663975;3.446239184;16.47729139;15.86709727;8.109848544;6.407543776;50.41564936;-83.68087366;-1.433129107
-6.957018585;-41.101803;-25.79731741;-47.44674745;-16.61727467;0.291558297;-2.34003418;-50.94429491;47.10628629;-32.27213245;52.08147803;-3.981262801;14.19988014;14.63361038;-2.495272207;1.739156245;42.0866216;-98.01790065;-4.717130863
-10.60743512;-36.23033071;-28.68570499;-61.73726905;-18.15841112;-0.125028563;-7.862519199;-58.56042465;45.73198376;-33.07503022;49.2519686;-6.656945248;14.30787229;17.15410106;-0.678453396;-4.871026911;33.37067279;-110.5964288;-5.299306403
-14.336519;-25.6348565;-29.72376529;-68.93676743;-19.43094764;-0.460442417;-5.872806063;-50.57851437;48.52749847;-28.10428546;47.38666815;-5.299676571;15.12309978;20.83238579;10.14095789;-11.40455358;27.27620695;-111.266546;-3.132377553
-17.08837364;-18.27;-29.45235783;-73.12771231;-20.59356668;-0.405868751;-0.747908839;-34.167115;52.32016001;-19.1677245;45.67754511;-4.63081469;13.37848595;22.51409621;20.7692368;-14.1257294;25.39635319;-98.79461907;-0.413434687
-18.20447266;-23.61597814;-28.97352499;-79.60391711;-21.89285469;-0.020311906;0.653730516;-23.58713683;53.71802652;-10.93697668;44.02671691;-8.507202498;7.319769718;21.01990639;22.92480027;-10.42147741;25.89430114;-82.80081598;0.402348665
-17.78943493;-43.81405532;-29.31994704;-89.22887749;-23.25061749;0.344145578;-4.454662016;-27.72280123;51.9997577;-7.576059371;43.21821331;-15.92344396;-1.459742665;17.94346022;15.00223255;-1.626585438;23.99632202;-77.40877311;-1.403077955
-16.64633991;-70.58580707;-30.95287147;-97.63978369;-24.28721453;0.372374115;-12.5462923;-43.06138036;49.26163034;-9.951709034;43.99933463;-21.47429796;-9.089596206;16.0166092;2.821577465;6.751418746;15.24679002;-91.1918389;-4.416697596
-15.83534519;-90.02156971;-33.66667452;-99.74524514;-24.7165516;0.06529346;-17.40273989;-57.59673006;47.98833918;-15.33887545;46.01697088;-19.86205271;-12.48032228;16.44766803;-4.959476773;8.137636656;-0.724196599;-120.7325882;-6.446600833
-16.14158105;-92.2264169;-36.89837138;-95.05056423;-24.66949433;-0.271906214;-15.86908215;-61.5950149;48.53200919;-19.53892807;47.7122773;-10.52930724;-11.72259344;17.54069044;-3.20968828;-0.6369478;-18.98537318;-152.4283475;-6.327503413
-17.76183223;-78.85173593;-40.17482818;-88.63624825;-24.58849446;-0.303029789;-10.42494632;-55.68723426;48.90377835;-19.64638387;47.40375353;1.521011892;-9.761123828;15.84756048;6.210144067;-16.78352663;-31.94282533;-171.1965724;-4.662904555
-20.34109889;-62.85028799;-43.36202859;-86.67879453;-24.78196311;0.057145968;-6.476963225;-49.62909914;46.99188409;-15.52458124;44.6754741;9.334709648;-9.641403102;8.994624891;16.18482042;-32.99145753;-34.13392424;-169.9138359;-3.042974487
-23.25779407;-60.3546434;-46.55754398;-90.5223019;-25.08687741;0.592345024;-7.148806366;-53.32679356;42.99333949;-9.290968023;40.83604035;8.981572518;-11.72478622;-2.081739338;19.66302548;-42.00241499;-25.71755382;-153.1783296;-2.597473515
-25.93453893;-80.15981334;-49.75858248;-94.84131658;-25.00700248;0.986971288;-10.45660796;-68.10989453;39.62739621;-3.63494376;37.95685892;1.912358875;-13.29781858;-13.32964954;14.45467767;-41.11501071;-12.17108865;-133.2571391;-3.18472619
-27.99945588;-117.8254891;-52.62030222;-91.9412848;-24.24032902;1.084149789;-11.3854255;-85.53874953;39.77067198;-0.418731868;37.2097163;-6.865071264;-10.94773952;-20.16580059;4.129429059;-33.46213623;-0.616198872;-121.5619164;-3.798262122
-29.26951703;-158.0398002;-54.54404359;-78.76372265;-23.10878987;0.975445075;-6.848175264;-94.31788262;43.60621608;-0.423556742;37.86271217;-12.86437986;-3.696521623;-20.58380359;-5.201191299;-25.32164743;4.345592381;-121.7315098;-3.638863433
-29.64909394;-183.3211291;-55.05425253;-60.53881207;-22.44314589;0.868765239;1.0656935;-89.14968238;47.95761016;-3.961042451;37.80052811;-14.97246368;5.796369678;-16.53706403;-9.395201996;-21.6194738;2.356969884;-128.6780739;-2.788857121
-29.05922908;-183.3526592;-54.16115805;-47.64389277;-22.94433554;0.881568724;6.541958924;-74.19875791;48.6203063;-11.37574884;35.20714676;-15.08169121;13.06096309;-12.61629144;-8.622826655;-22.94573888;-4.099267851;-133.3847588;-1.928182146
-27.45309527;-159.513441;-52.38800965;-47.9136095;-24.5317007;0.955755038;4.954573574;-58.80347411;43.83630258;-22.73823713;30.10051671;-15.46712032;15.24509417;-12.95144334;-6.113864564;-26.03214958;-12.39742003;-129.337636;-1.495312102
-24.89790647;-122.7221953;-50.39994515;-60.55530453;-26.25568747;0.957094668;-3.055960516;-49.59359731;35.95472796;-36.94708953;24.51541651;-16.61422715;13.36158287;-18.4371916;-4.796326222;-26.92388881;-21.23995787;-115.9428705;-1.192202948
-21.66237953;-86.77928842;-48.50455843;-76.60673803;-26.91571442;0.842128476;-11.87886579;-45.74327504;29.78499943;-51.18848736;21.19271235;-17.35796252;11.5049427;-26.07937907;-4.778204756;-24.17391671;-29.95007813;-97.13345546;-0.329119892
-18.24419553;-61.44297211;-46.4214634;-85.55573083;-25.94;0.71885527;-15.34569021;-40.91594129;28.93412708;-61.59357428;21.77880337;-16.79374843;13.62551916;-30.8184093;-3.635273624;-19.67202774;-36.88872492;-77.15232054;1.362427927
-15.2867419;-48.78594851;-43.51798471;-82.80062311;-23.84533279;0.74013923;-11.52801397;-29.65224062;33.12437958;-65.03143289;25.86186202;-15.78519123;20.39275638;-28.62444131;0.983774616;-16.78;-39.15740537;-57.31687919;3.296246317
-13.36957278;-44.00542711;-39.33413644;-72.1503144;-21.9049724;0.936705619;-3.990318271;-12.52653269;38.65322537;-60.97344684;31.46403244;-16.45668512;28.57750992;-18.94231076;8.783022706;-17.52824083;-34.45541664;-36.27477822;4.452985929
-12.72670526;-39.46238886;-33.98333451;-61.79747403;-21.26620219;1.158421887;1.336203185;4.05861492;41.52;-52.07226142;36.4899736;-20.13982038;33.37276299;-5.038512945;16.46910677;-21.13277954;-23.72092019;-13.14683195;4.279856494
-13.03500856;-29.4257155;-28.12045111;-57.47206252;-22.17219025;1.191022319;0.876006974;12.81322463;40.5668155;-42.82255079;39.99692481;-25.79890058;31.80676521;7.89416773;19.92284534;-24.80264862;-12.06379389;9.424857229;3.191697184
-13.45139166;-13.05035945;-22.53016362;-58.41500642;-23.8449684;0.947947126;-4.144040233;10.86377534;38.08290534;-36.96456032;42.43561275;-30.54;24.66586929;15.67050358;17.17079361;-25.93;-6.585785392;25.16548278;2.149290313
-12.98425607;5.765892653;-17.69572826;-59.02455319;-25.06950536;0.561704003;-9.230760477;1.257958703;37.54239528;-35.24787957;44.88648923;-31.85745179;15.62474027;17.2623858;9.874419832;-23.82696589;-12.15047406;27.44858818;1.681133772
-11.06769066;21.32769264;-13.69546613;-54.15343648;-25.01143009;0.287019172;-10.48530715;-9.965534273;40.52821882;-35.06440127;48.03086179;-29.64750105;8.460967867;14.83190429;2.275270451;-19.7920118;-27.97386526;13.74832643;1.296611775
-8.000804596;30.00472492;-10.45862906;-43.28334744;-23.68543572;0.297983895;-7.453388696;-18.22403096;45.44219606;-32.27985523;51.62875085;-26.22908585;4.569524505;11.67690031;-1.537566301;-15.76496028;-47.53589608;-11.89511761;-0.072102745
-4.906949938;32.48771134;-8.083686937;-30.30558412;-21.81388717;0.556915216;-2.863267382;-22.74747853;48.94249449;-24.11085093;54.72399859;-24.41887979;2.538338829;9.543665169;-0.045000803;-12.86830961;-62.01206841;-40.16767516;-2.920467866
-3.136175918;32.79173318;-6.882487352;-19.75588946;-20.27920154;0.866624498;0.04257041;-25.55081623;48.71024608;-11.14554907;56.21607141;-25.4225143;-0.183613455;7.28540316;5.168692284;-10.97727885;-64.96907541;-60.75268994;-6.36584674
-3.435087221;34.51034033;-7.098068081;-13.31913024;-19.61202526;1.051782983;0.018511107;-28.67227951;45.1407801;2.841556949;55.30578939;-28.35382665;-5.048415443;1.978445423;10.85339772;-9.412884681;-55.30116508;-66.96976622;-8.528863939
-5.44091945;36.95640668;-8.580878052;-9.73;-19.83023866;1.101384289;-1.85192576;-32.35929614;40.64985332;13.12317486;51.64173984;-31.59513038;-11.33829449;-8.192321187;14.25422148;-7.907827547;-36.78147469;-58.20403055;-7.924212749
-7.893073914;34.30515133;-10.7688929;-7.726696692;-20.61765968;1.145709531;-3.843089499;-35.4692385;37.41182622;16.73965773;45.35813775;-34.49898677;-16.87276699;-21.44975647;14.49034265;-6.918968643;-15.00478267;-39.15568034;-4.7363808
-9.457518628;18.98500797;-13.02944113;-8.774843368;-21.59883532;1.29759775;-5.403126644;-37.13398944;35.61671344;13.86386507;37.21702748;-37.71101885;-19.67464991;-32.46740285;12.46651527;-7.087307321;5.888026461;-16.82279036;-0.851118316
-9.582764879;-12.5870895;-15.05260323;-16.55599052;-22.48874454;1.514345089;-7.391328357;-37.79092819;33.70960262;7.021781133;28.75757473;-41.8412809;-19.18117442;-35.31324476;9.75771351;-8.443505584;24.53523133;2.910259241;1.488901031
-8.743578935;-55.9541183;-16.90476072;-33.37706713;-23.09175061;1.616890069;-10.73759706;-38.63356432;30.22088415;-1.02095029;22.09136917;-45.92769907;-16.1685747;-27.3961409;7.487421033;-10.13046069;41.2476292;17.46983805;1.368963144
-7.879079573;-99.54946232;-18.6670177;-56.74692595;-23.27830223;1.455411458;-15.04233968;-40.21205333;25.40193749;-8.971844281;19.12281375;-47.45853045;-11.69586211;-11.49882992;5.959298031;-10.89411621;55.79203246;27.90274392;-0.131899348
-7.475064707;-130.5524894;-20.01862796;-79.51040168;-23.04329139;1.070633131;-18.5805576;-41.66100196;21.14517147;-17.04801167;20.4777953;-44.29022683;-6.099346012;5.809583932;5.064002572;-9.912218773;66.05014424;37.5094162;-0.835601293
-7.058554966;-141.9850799;-20.25003906;-93.94372739;-22.60041151;0.69686802;-19.7244013;-41.28554983;19.2735548;-25.52481848;24.8523945;-36.90829176;1.121542783;18.40314028;4.893130637;-7.289328571;68.73510577;49.53089325;0.813431722
-5.570551991;-136.2487427;-18.83104136;-96.73650207;-22.36558701;0.591122529;-18.40823784;-37.89886381;19.75690739;-33.26155537;29.39562211;-28.90880507;10.51066068;24.37840178;5.939808126;-3.890941503;61.76428006;64.87972406;4.584399042
-2.363777729;-122.7022654;-16.10109912;-90.90120675;-22.7471626;0.829030358;-16.2353692;-31.70852258;20.46074719;-37.69603309;31.08557894;-24.9487276;21.6649628;26.51773844;8.687938124;-0.747971703;46.6350323;81.00086035;8.728673715
1.988897641;-111.1097417;-13.41492883;-83.14839881;-23.84126405;1.24256084;-15.12697669;-24.14514482;18.67209814;-36.52915937;28.31474958;-27.58592142;32.85356375;29.11512293;12.92062623;1.46152329;29.0278669;92.68318226;11.35047491
5.803210556;-105.6823195;-12.44419159;-78.96280048;-25.25914797;1.554862889;-15.76822495;-17.05929004;13.1164296;-29.79199996;21.66803842;-35.49496819;41.54762078;33.76273068;17.34149036;2.529258402;16.91557936;94.76666379;11.69416452
7.326126349;-103.8003152;-14.0547446;-79.32622376;-26.25885913;1.599259354;-17.24802867;-12.10645343;4.808002421;-20.50077052;13.38509732;-44.51862303;45.52604524;37.6109178;19.94420303;2.504814119;17.02385647;85.4239266;10.35927663
5.949153714;-99.85195784;-17.62647497;-81.37555829;-26.14281951;1.439516483;-18.13324643;-10.61074815;-3.879879128;-13.13234349;5.891789656;-50.7293426;43.90888992;35.67055842;19.0848847;1.458814297;31.59979444;67.88748591;8.46246762
2.6346881;-90.79493293;-21.41898692;-81.83704811;-24.67903382;1.296164323;-17.88974277;-13.46991018;-11.05086159;-10.9039168;0.397556458;-53.06552807;37.59548024;25.40381656;14.68385478;-0.564377793;57.38040376;49.05554451;6.650752247
-0.810987983;-78.96207557;-23.76808461;-79.90424537;-22.26847595;1.349622083;-17.30377524;-20.62829188;-16.50998025;-13.87549778;-3.56171461;-53.52811774;28.94403601;9.83926836;8.734788225;-3.436927863;87.38570223;35.3852397;4.861661236
-3.060720833;-70.03066947;-24.19671939;-77.13080474;-19.74449741;1.590318965;-17.56854907;-30.37058045;-21.52689377;-19.31414789;-7.480687628;-54.98509414;20.8617425;-3.53894172;4.558410166;-6.850179187;114.441847;28.65463651;2.900702768
-4.131492381;-67.98550177;-23.56148863;-74.89275152;-17.93071494;1.836608015;-18.99102809;-39.33086492;-27.57628825;-23.98891637;-12.7446629;-58.56247172;15.66630703;-7.571919368;4.968864627;-10.32950579;134.2946757;24.7737333;1.087777615
-5.102500386;-71.25938294;-23.14223922;-72.23110481;-17.23088136;1.89261725;-20.61925104;-43.80963946;-35.24302258;-26.54221518;-19.83032613;-62.79427591;14.15416556;-0.360568771;10.34386294;-13.31916807;146.5580624;16.97537032;0.196819359
-6.947485316;-73.27028607;-23.46837014;-66.38042043;-17.48607347;1.703049884;-21.18244881;-41.84356096;-44.11587439;-28.07544558;-28.28812314;-65.08363765;15.28023272;13.37304128;17.92333465;-15.25999866;153.3293506;1.439414662;0.686758726
-9.492468543;-67.1358407;-23.89349208;-55.58034893;-18.15429437;1.376911854;-20.4510949;-34.54766153;-53.48023502;-30.61583287;-37.30372217;-64.05060596;16.66363609;25.50031585;23.10509863;-15.67114934;156.9401671;-18.85584231;2.025377762
-11.41579143;-51.1182792;-23.27180083;-41.44165561;-18.67478266;1.075313192;-19.68300028;-25.56294505;-62.94896176;-34.92246867;-46.26892354;-60.69486232;15.76328587;29.81162802;22.23371153;-14.3077288;158.7255369;-35.45100669;2.921465796
-11.32303473;-30.74178253;-21.11466729;-28.40575821;-18.79062365;0.875202553;-20.64684486;-18.88807927;-72.41620231;-39.62395478;-54.93469599;-57.45013715;11.16678467;25.53237557;15.18467761;-11.37602044;159.5412458;-40.56845746;2.432644007
-8.988878668;-15.88506183;-18.17198867;-20.49219752;-18.65268765;0.72976187;-24.04261168;-16.70715582;-81.54131796;-42.48669133;-63.16493926;-56.06695421;3.291150661;16.73125316;5.873517685;-7.622878099;161.0065873;-33.77458729;0.986993407
-5.670535202;-14.67044808;-15.8881933;-18.12854041;-18.66614024;0.547748011;-28.73585156;-18.79481408;-89.49904652;-42.6969896;-70.64166989;-56.20633173;-5.908793859;8.579033111;0.021445376;-4.092485168;165.6657476;-23.71766297;0.272171581
-3.154617377;-28.13380938;-15.1945156;-17.95638663;-19.18335165;0.304189914;-32.52844475;-23.65770004;-95.43275111;-42.05681793;-76.83639713;-55.91160895;-14.02230589;3.638455767;1.422447333;-1.575629391;175.269465;-22.68180599;1.889861427
-2.286553722;-49.08231922;-15.71651326;-15.91834787;-20.2248252;0.073452768;-33.82710079;-30.06021991;-99.23402133;-43.83781329;-81.25767666;-53.4616427;-19.35642572;0.899469082;9.22629546;-0.102524158;188.4102506;-37.12596451;5.850278858
-2.225799182;-65.80533765;-16.12883117;-10.948723;-21.3927966;-0.043398662;-32.77516773;-37.41842015;-101.7910941;-50.0499139;-83.72671564;-48.96731744;-21.50064348;-2.234618071;18.3014347;1.077468636;199.9436114;-61.0237725;10.28996064
-1.120241838;-68.32360667;-15.36526618;-5.945629156;-22.04086252;-0.022031186;-30.89836688;-44.89384224;-104.2454975;-59.35889276;-84.44436949;-44.38011612;-21.08092059;-7.116722227;22.68184613;2.900410746;203.6375869;-77.59376014;12.84282655
2.276656327;-53.50221916;-13.60288084;-5.071807975;-21.62224299;0.054112871;-29.63512105;-50.54120036;-106.7584134;-67.51935198;-83.83618302;-41.97132527;-19.09432318;-12.56795696;19.81646;5.666010964;196.8071784;-69.33036371;12.62565035
7.345783365;-26.25659019;-12.1119699;-9.760536213;-20.02763143;0.067936137;-29.08734229;-51.96560122;-107.9060239;-70.19515886;-82.35;-42.57060446;-16.41481877;-15.83437284;12.55096396;8.647777404;183.4860884;-30.04192201;11.11180707
11.77092673;3.521604117;-12.07388679;-17.09127589;-17.70801895;-0.020188951;-28.08520162;-48.37400079;-105.438582;-66.03719049;-80.35644613;-44.92931529;-13.73231142;-14.55685972;7.222543189;10.51418732;173.0848666;29.46767451;10.97040007
13.08597655;26.31180418;-13.42221976;-22.19211082;-15.4840175;-0.129194912;-25.45253767;-42.13579122;-97.9954332;-57.57048019;-78.12828533;-46.56455562;-11.67872581;-8.029635473;9.023759289;10.28437633;174.610846;86.52125105;13.66946494
10.44157056;37.52129256;-14.78513723;-22.70665972;-14.12513078;-0.12588436;-21.28653477;-37.88311792;-86.44825245;-49.14365801;-75.77035392;-45.29963979;-10.71964474;2.864452459;17.89221076;8.057325163;190.1247414;119.5803738;17.8365695
5.241216165;38.89610716;-14.6419046;-21.338218;-13.93456157;0.052772403;-17.07842102;-39.20446851;-73.70433269;-43.56562461;-73.06983997;-40.37501406;-10.73316489;16.28112382;27.98891614;4.896360148;212.2185086;120.6467496;19.93391945
0.178735407;36.37461558;-12.69844825;-23.95687422;-14.59331193;0.331365043;-14.56108449;-45.44454868;-62.98576203;-40.15052392;-69.43373974;-32.57935418;-10.71278281;29.63813037;31.36641741;1.950871117;227.7305944;98.83351188;16.97080288
-2.559207326;36.00171853;-10.24210781;-34.57875703;-15.37332323;0.542934303;-14.30471987;-51.62577314;-55.84439147;-35.77387323;-64.12820983;-23.67283467;-9.145609359;39.50945324;23.4248445;-0.43016755;225.42963;72.93079014;9.203359247
-2.571727302;40.48774779;-9.110893604;-51.41304085;-15.60246728;0.552588523;-15.28389869;-52.19065111;-51.41840331;-28.08088024;-56.80895453;-15.69858103;-5.09657947;42.24189737;6.394038148;-2.80129856;202.4445277;58.3169446;0.569569871
-1.141506764;48.36953641;-10.15182416;-67.52721445;-15.0977248;0.355809849;-15.7597334;-45.8589246;-47.45275524;-18.17652716;-47.99588042;-10.47222318;0.72830614;35.94360535;-11.62226342;-5.824431113;165.1573918;57.24160093;-3.744606253
-0.008390872;55.93367237;-12.53040878;-75.90677851;-14.29019942;0.075179438;-14.67390812;-37.42607954;-42.20321997;-10.4621233;-39.03588384;-9.109415144;5.928502096;22.84439514;-21.46450328;-9.281140665;124.390751;58.8241226;-0.95905687
-0.084674264;60.26583005;-14.51866715;-74.92311348;-13.95045334;-0.133311015;-12.35760096;-34.44738593;-35.68728711;-9.535054007;-31.4065083;-11.44531536;7.727072224;9.762913459;-18.40752989;-11.83472215;88.75966794;48.15257313;7.136694361
-1.059407454;61.19693524;-15.06102697;-69.70282631;-14.67232829;-0.18341681;-10.02883167;-41.01602239;-29.36096977;-16.45457492;-25.75769681;-15.61966686;4.900078125;5.152332331;-4.76216638;-11.87445409;60.90288948;17.67241341;15.19846203
-1.986804089;60.91809457;-14.69052683;-68.14978265;-16.43084691;-0.095334024;-8.639995209;-53.68913841;-24.637248;-27.29211521;-21.4133701;-18.40623915;-1.122231011;13.82343029;11.92904;-8.815601562;38.52869703;-27.09936491;17.86256718
-2.155324103;61.86910987;-14.93087271;-74.73965513;-18.49478839;0.044094072;-8.155431873;-63.34836933;-21.58037012;-35.22633459;-16.8140431;-16.55689768;-6.966991377;32.89521757;23.68415836;-3.757769509;18.33595374;-71.09975675;13.27919376
-1.455631876;64.76336691;-16.70488485;-87.04384483;-19.76661976;0.146661796;-7.855787969;-62.08323527;-18.86498514;-34.79671268;-10.6832178;-8.619881817;-9.467820453;52.43977368;26.65576827;1.127698552;-0.872126795;-99.50552569;4.163989178
-0.084251313;68.31879879;-19.23218325;-97.70719148;-19.36684809;0.159074236;-7.271596959;-49.81892246;-14.94709104;-25.33153925;-3.077556913;3.924364013;-7.679372908;61.20471707;22.72571677;4.062681108;-18.01716515;-106.7785434;-4.24347879
1.907657028;70.69029242;-20.52535064;-100.1696502;-17.12975033;0.061709534;-6.775608142;-35.16332614;-9.368702412;-11.20160483;4.522311746;17.13464895;-3.199363618;53.86222738;17.51676014;4.821726357;-31.59508327;-99.03258172;-7.704325846
4.626736249;71.09313944;-19.15631138;-93.47369028;-13.72284076;-0.137866689;-7.225660194;-29.3366145;-3.074600007;1.132035533;10.23043793;26.57123866;1.434670829;34.64;16.48467144;4.651867719;-41.00030645;-88.76571852;-5.470417987
7.868548375;69.99590721;-15.73052549;-82.43131854;-10.31827228;-0.39183258;-8.98703074;-37.65191643;2.460570232;7.09754681;13.15377664;29.55612203;4.905558797;14.50668322;21.67440675;5.041958745;-45.95518219;-86.15505634;-0.19553986
10.73545654;67.68302495;-12.63064225;-73.35272397;-8.004773225;-0.597712275;-11.29150947;-55.20305448;6.458886308;6.335546279;14.08864959;26.30264589;7.951645612;3.764110301;30.92952725;6.391430643;-45.22342515;-92.93819918;4.311002896
11.93833574;62.69539707;-12.05597526;-69.10858859;-7.278606926;-0.62556354;-12.62071768;-70.23180181;9.333768385;2.100763221;14.94064165;19.30460174;12.09395003;5.356675526;39.61802486;7.702333735;-36.93700364;-102.5407491;5.64976818
10.74306047;52.0472209;-13.95075916;-67.56400956;-7.898091783;-0.398944568;-11.87285119;-72.58091703;12.082848;-1.396235504;17.29360649;11.60249233;17.34193765;13.66852327;43.49232482;7.536898902;-21.25021167;-105.6075417;3.964122558
7.801756399;33.66387107;-15.67459681;-64.31328802;-9.157326847;0.021407201;-9.327579317;-60.64125566;15.21603688;-1.613787828;21.25090699;5.21942854;21.02135886;19.41279106;40.92477407;5.399951433;-3.128667139;-96.69601504;1.193552422
5.023238326;9.325629853;-13.90036523;-56.93922485;-10.37262301;0.432558867;-6.542545254;-41.55915682;18.24979916;1.404616687;25.47986055;0.711362044;19.10949783;16.67491516;33.43302216;2.348944667;8.093548748;-77.68567138;-0.627366734
4.363107011;-14.54055465;-7.333037166;-46.89963175;-11.25093065;0.598000451;-5.204388975;-25.02067608;20.248498;5.985203553;28.43259054;-2.20945818;9.385033327;6.798259366;24.52513888;0.302035793;3.553723686;-56.15157009;-0.666280185
6.371855099;-29.55944592;1.952486395;-37.46933515;-11.91049738;0.409497862;-5.843250301;-16.02042176;20.91299743;10.48616096;29.75443345;-3.786816258;-6.020380451;-3.449200287;17.76316329;0.620879797;-18.76404889;-40.38925583;0.546433889
9.673203329;-30.21545319;9.721581202;-29.80714047;-12.58438734;-0.019848263;-7.438244773;-12.44961257;21.18897269;14.29940787;30.71386522;-3.857071352;-20.93599247;-7.458842008;15.18011609;3.136977644;-51.20901152;-34.64174106;1.847456062
11.88815598;-17.45985669;12.46095637;-20.95611272;-13.27239319;-0.416788247;-8.204747961;-8.899811919;22.76126693;17.67430851;33.25951097;-2.1525304;-28.54405529;-3.494555461;16.79623338;6.378668069;-80.27051307;-37.41522235;2.294344237
11.36262408;1.620280127;9.70277934;-5.912229838;-13.63945212;-0.53207508;-6.906486789;-2.704829553;26.76908913;20.8888348;38.41844804;1.191406394;-25.64910642;4.906341846;21.2525383;8.726999303;-94.99175396;-43.39862767;1.573652022
8.361976023;18.01016156;4.039885215;17.71974095;-13.25653996;-0.312952388;-3.670458902;3.426610695;32.77638655;23.67527729;45.29872616;5.437892748;-14.78575089;12.51862518;26.92241402;9.487173318;-93.93999504;-47.20061276;-0.073559207
4.780722387;25.91765563;-1.030791963;46.38383997;-11.99317766;0.069572828;0.239695808;4.461024912;38.86178046;25.35733524;51.49978985;9.444702972;-2.605950318;16.57167205;32.64690593;9.027427511;-85.33898875;-46.32843092;-2.118632447
2.597333833;25.28414771;-3.599134618;71.5718323;-10.22724891;0.36022858;3.377693707;-1.282563044;42.8030191;25.41288053;54.63779654;11.95761308;4.31451279;18.03957313;37.6216272;8.013130064;-80.15322133;-41.79811152;-3.982821426
2.315633062;20.18246432;-4.225386932;84.74483081;-8.665150504;0.413874154;4.980640576;-9.386406013;43.47186445;23.8342519;53.84255087;11.76149718;3.278177115;19.49793168;40.72505543;6.543081211;-83.53919112;-36.5671956;-5.242405953
2.633963168;14.78262944;-4.774640597;82.61386665;-7.876471599;0.289897077;5.152718058;-12.48847214;41.42398502;20.95524025;50.14902558;7.817111833;-3.661820313;21.96719637;40.16880435;3.997369895;-91.45199332;-33.31469927;-5.842108033
1.571754305;10.22828279;-6.501285977;68.93931309;-7.895619503;0.176664614;4.430614285;-6.890804623;38.33282244;16.99348377;45.60266264;-0.308152622;-12.00130416;23.76444265;34.22311084;-0.320392881;-95.02986519;-33.16660089;-6.19643745
-1.895674782;4.681927129;-9.152019078;51.73368251;-8.215239282;0.217813041;3.26915954;3.242998178;35.79693252;11.84671549;41.87164702;-11.72420837;-18.19145957;22.27119887;22.85815482;-6.415282031;-89.01976645;-35.94431425;-6.966530313
-7.017045694;-3.993625999;-11.72468915;38.16693052;-8.196340081;0.390613802;1.89674959;8.23731544;34.43995967;5.421166553;39.43234064;-23.77910855;-21.54599342;16.75757487;9.070726075;-13.45751282;-77.20067907;-41.28132441;-8.506980748
-11.86943542;-15.55272694;-13.89815138;30.854774;-7.581226025;0.536332841;0.511900246;0.40401812;33.87188151;-1.780468745;37.80240684;-32.62079878;-23.54689268;9.489587419;-1.601171571;-20.37472626;-70.2472235;-49.42;-10.35668993
-14.82448584;-27.04568338;-16.55158082;27.68405992;-6.699636756;0.508984317;-0.564699699;-19.30520078;33.35432431;-8.408071242;36.3970646;-34.88946569;-25.62734818;4.015578484;-3.823036356;-26.56307354;-77.66797219;-60.96420571;-11.29401266
-15.66649402;-34.98405758;-20.75569732;24.44048129;-6.199401799;0.30859885;-1.063750078;-41.11103334;32.52676691;-12.73506013;35.15112367;-29.67443034;-27.55846269;2.171295001;3.912341897;-31.98825409;-100.2154412;-75.85014904;-10.12193886
-15.52939208;-37.9644221;-26.21195078;17.71977817;-6.522989384;0.08352344;-1.122870656;-53.12302706;31.64121;-13.65125884;34.40572247;-19.33757278;-27.74207597;2.540546408;17.37096425;-36.56905344;-128.6549871;-92.48449984;-6.703898369
-15.84003906;-37.48909936;-30.80120913;6.157100679;-7.565624244;0.004006195;-1.394740778;-49.73989509;31.24562918;-11.50268872;34.32189995;-8.359136683;-24.88760676;1.80625066;28.32546124;-39.499505;-149.6170425;-107.8540386;-2.406775357
-17.22577411;-36.4547228;-31.96662773;-10.01114684;-8.798552641;0.12110387;-2.647401753;-35.14500526;31.68691253;-8.132768088;34.53343954;-0.742596615;-19.36989309;-2.166304532;29.50119544;-39.32180665;-153.8442872;-118.6196086;0.557042822
-19.24539849;-36.80513602;-28.90134651;-29.64972888;-9.739335124;0.333441114;-5.080257007;-19.37662837;32.84825298;-6.002445535;34.48332878;2.319166937;-12.99526377;-8.22271392;19.66351686;-34.91205246;-140.828147;-122.4605996;0.541370249
-21.00490622;-38.36240451;-23.57;-50.67517415;-10.34044102;0.485377568;-7.915469838;-10.49837575;34.25270695;-6.892496476;34.16792567;2.86387915;-7.446391014;-12.64543463;5.104283844;-26.6482274;-117.2844435;-118.852751;-2.394412995
-21.97013744;-39.54812237;-19.43225076;-69.72433828;-10.92796481;0.504153624;-9.670019531;-9.333715604;35.36705408;-10.96780238;34.52862282;4.359173256;-2.887853631;-12.10199909;-4.082246358;-16.72359988;-91.85123776;-109.0401156;-6.520243495
-22.23814743;-38.95173444;-18.72314807;-82.83500671;-11.72319413;0.453466798;-8.977740078;-10.69636863;35.86967513;-16.73762219;36.96283386;9.025228573;1.977991002;-6.310281097;-0.829266127;-8.181496947;-70.63075839;-95.60238015;-9.6502578
-22.14377304;-36.16643998;-20.54495201;-87.55448619;-12.3850004;0.460545148;-5.380210564;-9.371896044;35.77509999;-21.88169329;42.20216837;16.27907105;8.477110182;1.781105402;13.66823401;-3.287410813;-56.31321864;-82.09051639;-10.59713122
-21.7328593;-31.38058482;-21.50758246;-85.08563758;-12.05347742;0.588753345;0.461612806;-5.218164368;35.43422085;-24.42390877;49.44087471;23.41065913;16.47881825;8.334537189;30.31428588;-2.421973307;-49.88617182;-72.66950337;-9.742245932
-20.70725473;-24.66419494;-18.55456025;-80.25463414;-9.978274082;0.774208453;7.206947097;-2.906077732;35.42706913;-23.61179456;56.50053781;27.85732955;24.19991266;11.43191241;38.23623923;-4.26669415;-51.94832377;-71.20732952;-8.358353474
-18.9015155;-16.15735644;-11.68213549;-78.42656896;-6.284170324;0.883050785;13.50694045;-6.827078029;36.31289199;-20.10963506;61.02497804;29.22693288;29.43816246;12.05693497;32.5315502;-7.011356306;-61.96899687;-79.50336865;-7.378895302
-16.74770331;-7.134045339;-4.214119678;-81.16078737;-2.215315146;0.834519477;18.40927352;-16.05016768;38.25983832;-15.51608687;61.86469308;29.48733943;31.09406006;12.66524146;17.99127756;-9.539288505;-76.72928578;-95.3717952;-6.736148987
-15.1363821;-0.497501044;-0.268772287;-84.06128073;0.469824863;0.675924905;21.35258447;-24.09497598;40.75793125;-11.52059689;59.64154622;31.24539464;29.65176646;14.81434303;5.830174135;-11.69841617;-90.51676329;-112.1960067;-5.806508525
-14.66452096;0.666901265;-1.429473995;-79.15866727;0.627437745;0.541531753;22.02414735;-23.8846937;42.72578306;-9.098490963;56.13;35.54992091;26.33301693;17.94010273;5.543141788;-13.66654285;-98.01143419;-121.2454315;-4.43205954
-14.92776547;-3.981825958;-5.381350683;-60.76698432;-1.410231935;0.534535056;20.41953129;-13.52788059;43.13817962;-8.054457019;53.00878038;40.97161516;21.900816;20.12839953;17.76301715;-15.22976358;-97.8520384;-116.2685627;-3.418811286
-14.60206233;-10.09068552;-7.709049881;-30.7114104;-3.914735855;0.640912573;17.10996583;2.230579072;41.86891448;-7.065931011;50.95867438;44.63779891;16.36786692;19.89097734;33.4828716;-15.77793734;-93.66234415;-97.78434831;-3.898328696
-12.41940969;-10.11614999;-5.43809637;1.236493705;-4.80397242;0.752734793;13.35395525;16.22136776;40.10971373;-4.218713628;49.69441999;44.35198343;9.892361634;17.2087243;40.4310397;-15.02169528;-91.26166194;-73.88499893;-6.070514875
-8.311232784;1.757122955;0.570602487;22.58340894;-2.960984607;0.776176373;10.70101452;24.99078623;39.86946801;2.129198394;48.68549564;40.15192797;3.856399517;13.03902069;32.07208842;-13.63049777;-94.1965618;-56.19593589;-8.574369428
-3.729997135;24.52190661;6.345483555;25.61856273;1.078729372;0.720760761;10.17781019;31.35007813;42.69939195;12.47221138;47.80059041;34.2067607;0.789427913;8.094452405;12.64914305;-12.97572341;-101.3720182;-52.97686284;-9.314777363
-0.758896619;49.33078419;8.063667864;11.95946968;5.534900911;0.684090849;11.62447389;40.95748351;48.47661528;25.67519341;47.31568587;29.28768555;2.819182281;2.394316075;-5.496518393;-13.99720494;-108.7457476;-63.7836334;-7.279816321
-0.616388202;64.27016;5.189489364;-9.007419523;8.568429367;0.74460018;13.77349412;55.91093956;55.20749596;39.20996857;47.42098258;27.05969981;9.811579764;-3.803269556;-10.44283836;-16.13753305;-113.350622;-79.54882611;-3.835356217
-2.714119013;62.18098684;0.959926719;-26.45654525;9.395753408;0.863467352;15.12834779;71.17602656;60.15837888;50.13652506;47.86398347;27.39257884;18.89664597;-8.681484852;1.113753385;-17.40690285;-115.7674477;-88.4;-2.189436343
-5.040195682;45.94848459;-0.13259345;-34.49874911;8.581820092;0.893416289;15.02303616;77.41693927;61.61179194;56.43759458;48.19706453;28.96012698;26.06139466;-8.853300462;21.83782687;-15.75208433;-118.6650962;-83.42467052;-5.143634724
-5.608589184;27.04842143;4.199516449;-34.18537783;7.394160543;0.697559823;14.02919463;68.28596051;59.97884178;58.02022574;48.42598542;30.43754912;28.73195888;-1.349913794;39.17717737;-10.73581449;-122.8429141;-67.01312416;-12.75824609
-3.879992435;17.98095253;12.36229945;-30.3684291;6.772812994;0.279852025;13.36640036;46.19168888;57.39693353;56.76659275;49.34412345;31.35903954;27.32584505;13.61949852;44.07984257;-4.132399451;-124.7788451;-48.74815607;-21.83850667
-1.095857804;23.88156876;20.17139881;-26.62692072;6.689933414;-0.188042333;13.7924673;21.55461312;56.07086318;55.49684777;52.02466076;32.20123266;24.54;31.46253931;36.66320727;1.162425505;-118.4952472;-38.45485869;-27.84680827
0.675428908;39.34856237;23.90556558;-22.62537092;6.315745835;-0.473767835;14.90826126;5.838841304;56.60798388;56.36186207;56.72100357;33.92996916;23.03684535;45.0203134;25.03369052;3.136889366;-100.5710305;-39.52622549;-27.9387429
0.017214249;52.66317254;22.66151902;-15.82718939;4.785604333;-0.442635857;15.48625009;3.798569823;57.6367437;59.59870175;62.0999595;37.48963723;23.54138683;48.59792452;18.65397957;2.019028184;-73.99841115;-47.3;-22.85779999
-2.90740086;54.08597768;18.35642047;-5.615217593;1.953280142;-0.1423721;14.56799069;11.0460747;57.00440453;63.43570962;65.63551843;43.45191263;24.94245988;41.53065881;21.51893695;-0.091595207;-47.277452;-53.34189111;-16.23963434
-6.535298124;42.08444047;13.76326969;4.178343867;-1.409921214;0.246924593;12.39946008;18.66509823;53.59383674;65.25311952;65.10852215;51.7080872;26.12472553;28.72698777;30.11937841;-0.994435676;-29.15704475;-52.03282272;-11.86565013
-8.897358649;23.29941668;10.45325611;6.924354993;-4.063763666;0.546645249;10.37742553;20.85072523;48.29657033;63.29771875;60.19158362;61.11998614;27.62576063;17.73069414;37.19872732;-0.100024719;-23.17890762;-44.31818315;-10.98471733
-8.650118799;7.049292343;8.284570271;-1.978610743;-5.035958105;0.684199029;10.00159712;19.25734253;43.35543659;57.8604836;52.88878733;69.39687436;31.33362498;14.31289575;37.86920995;1.298105468;-26.2760194;-35.97196446;-11.72382071
-5.552385559;-0.889292339;6.500546229;-20.88854134;-4.146205908;0.693594281;11.67970634;20.72588994;40.60885826;51.15261636;46.38819811;73.65914066;38.29823023;19.5426859;33.15603691;1.345331025;-32.07777547;-32.17059019;-10.92480046
-0.349264881;-0.613901619;5.074253927;-41.77340509;-2.030902607;0.636282098;14.38349722;30.71;40.05488322;45.96858024;43.07577769;71.78430047;46.67938872;30.0453165;28.43966879;-0.638012981;-35.62445937;-32.98187667;-6.846536373
5.594902289;4.342128383;4.897252962;-54.49573121;0.260558841;0.533190053;16.45693253;48.21529734;39.87710451;44.0278519;43.09736722;63.87710488;52.04962514;40.80759191;28.4660342;-3.500039063;-35.4826724;-33.38882275;-0.576921351
10.64222521;11.16093769;6.675232521;-52.5484133;1.794722314;0.374552467;16.91318337;66.51883483;37.86553315;45.07621961;44.42767769;52.7479559;50.35070749;48.27229443;33.2106627;-5.221318635;-32.23811457;-27.63609667;4.869158851
13.23573543;19.68232114;9.718179519;-36.29496455;2.116243197;0.186454751;16.1437944;78.79927042;33.02835253;47.26859259;44.27063221;42.71186798;41.33708152;51.68654563;37.94838532;-4.651616716;-25.94924457;-14.20897045;6.913043972
12.40543667;30.85278274;11.96161599;-11.79148585;1.325923121;0.068927235;15.46061572;83.55275324;26.07070259;48.45767063;40.69427877;37.20191669;29.53870134;52.30920461;37.31510184;-2.529926485;-15.77984794;2.594105255;5.30017928
8.325591226;43.89472268;11.40985706;13.46510059;-0.070112072;0.144055194;15.88216039;84.94933459;18.40656589;47.43210957;33.39746008;36.74443077;21.54165653;51.6818827;29.90707198;-0.926087787;-2.132784971;15.63583458;2.101294057
2.501609952;55.53039756;7.821043136;34.57347878;-1.416912709;0.444049344;17.21744708;87.81404736;10.62810466;44.29217624;23.32572363;38.81799481;21.39897557;50.51488375;19.62278381;-1.577228208;11.71227496;19.96779751;0.014858242
-2.797905103;62.40994891;3.121989329;50.45067841;-2.171351471;0.841541688;18.24062905;91.77286932;1.815474421;39.87121193;11.74521719;39.84823447;27.71767621;48.80418239;12.68757752;-4.491622038;21.47550839;16.00187902;0.461798319
-5.733977113;64.53897318;0.071496371;62.12796898;-2.102649753;1.103763972;17.80501696;90.07801214;-9.662332007;34.82546217;-0.387768682;37.95716205;34.82810638;46.58951641;12.82834355;-7.924155863;26.5403248;8.676310322;2.943230797
-5.982695254;66.18696757;0.189078503;70.17608949;-1.380553368;1.048872964;15.92132899;74.80189075;-24.50828834;29.17402436;-12.43913839;34.39153729;37.21864046;44.35185309;18.53063074;-9.669084903;32.78283674;3.718518864;5.930973704
-4.873774412;72.82166514;2.62495587;73.57445247;-0.508539281;0.685801519;13.83325399;44.60477697;-41.43478243;22.59368502;-23.84265592;32.45947517;33.73435588;42.64266649;24.57316778;-8.575292101;49.30509662;4.103961643;8.287966189
-4.352478346;86.27996532;4.894575668;70.77467454;-0.105992739;0.218795678;12.9710348;8.703750555;-57.65263594;15.09590979;-34.09832527;34.71007813;28.17595804;41.4303932;26.53819937;-5.116465453;80.07038372;9.107999207;9.94344928
-5.449253477;102.3273503;4.879889455;61.79146358;-0.621388013;-0.09737388;13.64063434;-16.79108315;-70.59963362;7.411197909;-43.09348774;40.53266876;25.86936572;39.95539992;24.57139424;-0.726966756;117.1990017;15.88919395;11.4028959
-7.408859665;113.0783537;2.488597134;49.39812824;-2.11203347;-0.141075359;14.58058565;-18.2897533;-79.54334852;0.710101095;-51.27834652;46.14270103;29.11052168;37.35720607;23.26007813;3.368466706;143.111823;21.62634136;12.79677026
-8.20275921;112.7338374;-0.323946299;38.30679253;-4.202447312;0.000812145;13.8403466;6.432138598;-85.77037845;-4.097960088;-59.23082458;47.13770739;35.32486691;33.53586684;27.63872978;6.808383104;142.1497239;24.39758161;13.53583825
-6.10291632;102.1483768;-1.135230943;32.75535064;-6.23941439;0.126586719;10.34921867;46.03643081;-91.23272195;-6.880918282;-66.77231233;41.79050798;39.48590225;29.42340916;38.51091651;9.808934735;113.6165355;22.74033802;12.96205024
-1.148835013;88.46529168;1.029197489;34.01647572;-7.560810507;0.103698737;4.945135323;81.54472553;-96.79844573;-8.203893923;-72.4480382;32.58291111;38.70458018;26.34759938;50.95218097;12.40055439;75.16885289;15.27302027;11.34261593
4.616889321;79.94785277;4.890710731;39.36447905;-7.751722692;-0.011165308;0.016235071;96.42992962;-101.5744429;-8.798636713;-74.1311396;24.73516852;34.99696036;24.99844305;57.44825286;14.0176053;51.89871972;1.478905564;10.14251736
8.352747906;79.99064411;7.745553171;43.18807693;-6.787665488;-0.016901253;-2.027728112;84.59627089;-103.8544073;-9.117518501;-70.61851808;22.72758304;33.71900087;24.89488117;53.4791879;13.85107793;58.03;-16.86066976;11.12403925
8.199827992;84.92789906;7.240755003;39.83523018;-5.023140478;0.258931085;-0.341196428;52.01415591;-102.8533388;-9.35765148;-63.05901822;27.32648274;38.8364734;24.83898616;41.32027889;11.6152222;85.33994721;-35.28586518;14.91121697
4.384138165;87.18681297;2.846874553;26.914914;-3.034579667;0.802106905;3.855556546;12.2054174;-99.69093105;-9.797834025;-54.86496277;35.25451095;48.99355466;23.99654048;29.01971574;7.997218959;108.396457;-48.42857656;20.23003906
-1.064366665;81.15055354;-3.845390145;7.394776569;-1.365380567;1.399208997;8.166796435;-20.78722038;-96.68521325;-10.89856343;-49.76601135;41.67928407;57.85467847;22.69569787;25.07363441;4.371807471;103.7210478;-53.04564468;24.55140176
-5.661738029;67.20833994;-10.00516619;-10.91578828;-0.263775623;1.780930085;10.59332433;-37.91759968;-95.44152068;-12.81217926;-49.1864084;43.64344539;58.74019037;22.25633664;32.56386603;2.031397875;68.29210986;-49.94122647;25.7178661
-7.889836791;51.24218629;-12.95767103;-18.86961461;0.456847202;1.805979111;10.65344688;-37.21671444;-95.29779314;-14.62380298;-50.91320936;41.95827992;49.97505778;23.9557888;46.98954277;1.569757221;22.41029922;-43.00189841;23.31377279
-7.795515324;40.51667088;-11.34857319;-11.17537323;1.320282842;1.542538177;9.359769792;-22.93105807;-93.50523018;-14.16833734;-50.29490619;40.31644955;36.61644415;27.93491329;59.35044244;2.837320878;-6.029262174;-35.95093833;18.74409648
-6.57748506;39.4253942;-5.649545507;9.528004083;2.848622513;1.192837889;8.244786374;-3.185694815;-87.18813159;-9.042621399;-43.38459014;42.43540864;27.00218467;32.88979404;62.23455746;5.324256518;-3.720154274;-29.53797004;14.04493204
-5.64295435;47.94535048;2.070870292;32.67423683;5.1507755;0.933215503;8.251776702;12.85806435;-75.68471524;1.531596047;-29.88989711;49.35901819;26.65514825;36.77433003;54.56158186;8.490352218;17.27112135;-21.7059646;10.44939245
-5.792794966;62.89375705;8.993746767;44.88350295;7.717738034;0.801357052;9.248423171;18.06996245;-61.47346629;15.30692283;-13.76828113;58.72857163;34.1917787;37.97759132;41.75401563;11.75313698;29.17355032;-10.75199859;7.844584071
-6.895363364;79.86398079;12.76396884;37.93150195;9.628110613;0.710774583;10.33812376;10.19559117;-48.87532037;27.45245427;-0.91728017;66.2852472;42.33185978;36.12987815;31.52624407;14.32340912;11.18432782;1.281673152;5.422891592
-8.021652949;93.95784361;12.62631718;14.76731112;10.10405689;0.561231883;10.56896491;-6.735693352;-41.35116903;33.09323504;4.517809144;68.3498678;43.16627315;32.03078936;28.58988345;15.30952755;-33.05682164;8.278868421;2.803125554
-7.863362029;99.57206393;9.886813527;-10.8741496;9.074256027;0.339899335;9.495358828;-23.81113041;-39.25658475;30.57118795;2.713098482;63.61969375;33.6618884;26.87084944;32.08945737;14.22678864;-77.41648083;3.683670395;0.557311818
-5.318204993;91.13873642;7.276196961;-22.04339833;7.327185037;0.129528278;7.32708291;-31.55654791;-39.60410052;23.16404153;-2.070158026;53.41733871;17.41553668;21.40444125;37.26666759;11.52435426;-93.23633082;-14.42878556;-0.317219279
-0.146269254;65.98203719;7.389635621;-9.209857876;6.079564922;0.029534455;4.760323198;-25.22471863;-37.97822059;17.70536937;-4.236089584;40.70242579;1.725207283;15.69229587;39.61173315;8.546153919;-71.38736041;-40.91066258;0.539737558
6.557949267;27.85390386;11.06923021;22.84188542;6.201593793;0.070467316;2.707805966;-7.880169239;-31.29593457;20.55879321;-0.183946567;28.76817424;-7.427779254;9.547588964;38.10447771;6.755884568;-28.92289693;-65.99725126;2.261773699
12.4847613;-12.19311521;16.80678002;56.81723735;7.625483678;0.198719493;2.020712367;10.96280249;-19.62197923;33.36868065;9.896812231;20.30372596;-8.655913797;3.276003555;35.22623963;6.752039288;4.567271848;-81.14038561;3.229556344
15.05137402;-39.89813389;21.66121993;72.85666472;9.375015473;0.336691609;3.169241809;20.65784275;-5.986684941;51.46959348;22.62835091;16.88957223;-4.678404248;-1.918540982;34.1967477;7.90614911;9.528431713;-84.00082857;2.261904748
12.84112199;-45.46339283;23.13368196;60.5097197;10.22368594;0.453580959;5.91980179;15.53234731;5.502026985;66.29789195;33.68378851;18.68906672;0.819766166;-4.256701089;36.04697542;9.00161519;-10.09409626;-79.00746357;-0.453971035
6.66371001;-29.96877124;20.71524648;25.03186164;9.525876333;0.577076705;9.235467232;-2.017042873;11.96515875;70.54091725;40.08;24.31310747;6.024953034;-2.321166433;38.99325935;9.364693547;-32.47045697;-73.33851419;-3.462942613
-0.631087415;-5.621194229;16.03772847;-16.03634928;7.626214543;0.737477973;11.65477838;-23.28777807;13.12613383;62.83880482;41.30025866;31.16071584;11.3369345;3.947823004;40.40096404;9.462913834;-36.86837279;-71.62652838;-5.091254974
-5.703699995;11.15422565;11.59951419;-43.59535015;5.557874349;0.903490555;12.10989909;-38.57521887;11.14432575;48.98167386;39.02596621;36.43807437;17.47369752;12.85052646;39.35202574;10.34433242;-20.02803978;-73.37495008;-4.602686813
-6.732221845;9.589652305;9.093801804;-47.8912233;4.267479065;0.97934909;10.71046898;-42.53848735;9.243464472;38.70953677;36.03942255;38.47973289;23.50313302;21.45357948;37.40271341;12.34024671;2.837142213;-74.5955304;-2.578196168
-4.491673667;-9.201897883;8.586463333;-32.75105171;3.950891697;0.876144623;8.857792531;-36.41299388;10.02047047;40.02088557;34.98393613;37.48992188;26.77601759;26.83200467;36.8536086;14.24030386;11.90063185;-71.73901652;-0.308530053
-1.675029604;-33.85950457;9.015349763;-11.17777171;3.985435828;0.598538858;8.426396752;-26.16949332;14.28732312;54.48585376;37.3676039;35.02193444;24.81697057;27.36951636;38.19316323;13.89460016;-0.961464004;-64.45949093;1.220747668
-0.888847888;-50.8811399;9.388850142;3.850632864;3.481655412;0.267573514;10.46003906;-18.33582816;20.88134995;76.40789931;42.96569911;32.45028423;17.40731996;23.39608086;39.22502738;10.00091462;-26.7010007;-55.21169283;1.919065542
-2.770341561;-53.27244522;9.579456702;6.881979821;2.013573665;0.051221489;14.31419819;-16.35711193;27.39830688;96.23900999;49.80951966;29.6316825;6.967592644;16.81958221;36.93498507;3.675571304;-47.78573568;-46.62585302;2.366490965
-5.608111249;-43.74545636;10.11163119;1.337913298;-0.026035519;0.052863229;17.96616407;-19.53175167;31.45444765;106.0330674;54.98116876;24.99055788;-3.075947833;10.00388176;30.61107732;-1.656919221;-52.57583396;-39.3830976;3.096543724
-6.711336725;-30.85397082;11.32963266;-4.972663526;-1.690628187;0.245319357;19.37547883;-24.59750037;31.90915316;103.5879286;56.11943408;17.18043261;-10.47326275;4.580306727;23.35134399;-2.293061462;-43.22112565;-32.48625914;4.07020577
-4.442296749;-21.77373547;12.88376576;-6.052107117;-2.138610855;0.501546934;17.9327771;-28.41655415;29.48258626;92.92569414;52.94689865;7.056989987;-15.02572326;0.871157485;20.22848507;3.156377965;-31.59965131;-25.34424069;4.772905796
0.640930951;-17.56715277;14.09656572;-1.186781535;-1.189688768;0.693986941;14.88908887;-29.8833829;26.42376957;81.15095405;47.78420326;-1.819001686;-17.59164181;-1.830862305;24.23353743;12.59072777;-28.28792783;-19.3376577;4.773949684
6.330317657;-14.22818319;14.83927257;5.937608491;0.600647073;0.780424579;12.39348936;-30.07787534;25.3244741;73.92600648;44.43278456;-4.949652756;-18.40014412;-4.433880716;33.3021583;21.68875399;-34.62072434;-17.10284895;4.192968146
10.45711961;-7.853883845;15.96447668;10.76679541;2.349805376;0.810021973;11.8481635;-30.9758846;27.67018565;72.44259478;45.88784176;0.087696816;-16.44169903;-7.266090354;41.22982308;26.79054288;-43.86398852;-20.05838069;3.641630342
12.34131977;0.966171703;18.69270743;10.98210415;3.409151698;0.853268122;12.85425192;-33.8338629;32.9596813;73.55797383;52.31773106;11.60739197;-10.61933621;-9.80944997;42.25891686;27.26569149;-48.87846482;-26.51775037;3.701638964
12.93007813;7.4405086;23.35285878;7.271532048;3.69456506;0.922834909;13.58467788;-38.32275312;38.96557481;72.60459633;60.75838391;24.46057762;-1.590498613;-11.01709038;35.92716072;25.58868602;-48.43655669;-32.3525101;4.409414866
13.69068101;7.169578465;28.60258579;2.063840167;3.622673759;0.955841651;12.29821874;-42.8254535;43.02442201;66.73299129;66.85607378;33.08943051;7.57543675;-9.937420493;28.12121914;25.10221595;-46.77719696;-33.90313693;5.198965881
15.30014939;0.804817831;31.98012476;-2.194451967;3.771531055;0.871346635;8.792927795;-45.54479929;43.56284899;56.54046635;67.52186267;34.83477703;12.87571325;-6.281368622;26.98046735;27.24173361;-48.00132627;-30.74381421;5.352587849
17.20432311;-5.629772453;31.52882286;-4.009218393;4.519120011;0.650850358;4.634825689;-45.63515583;40.8854477;45.13069354;62.68049408;31.09475907;12.05555759;-0.699690713;36.40050818;30.39378402;-51.58707975;-25.91837288;4.587072775
18.26353471;-5.452361785;27.24332063;-3.023850964;5.84907545;0.370437871;1.97422148;-43.64543596;36.74658749;35.59735877;54.97538381;25.59625752;6.364498784;5.305427955;52.12727443;31.25134374;-53.46602078;-23.40922379;3.30900712
17.76884636;2.710979369;21.12239086;-0.026451664;7.36264812;0.155393713;1.894700513;-41.04303444;33.07127837;28.9282716;47.81431174;21.30333081;-0.149309872;9.837518997;63.83026959;27.56152202;-51.0359897;-24.97975728;2.354453479
15.90787185;12.94266208;15.71641383;3.001543561;8.439044234;0.093755573;3.61086207;-39.18181162;30.76295808;23.82958226;43.30216018;18.4963219;-3.398308535;11.3745577;62.10985776;20.09437723;-46.41061352;-29.02615184;2.42839113
13.38818319;16.28795021;12.31672968;3.273280763;8.480400775;0.178503527;5.139235826;-38.42764397;29.40979214;18.40688408;41.50695623;15.46845473;-1.972055774;9.621925165;45.48254035;12.3107667;-44.14242251;-32.25875824;3.659367033
10.7418995;8.356350479;10.26010073;-1.524367388;7.193002635;0.322706447;4.877994067;-38.02829654;27.98281189;12.20514965;41.29632181;11.01209091;2.285112466;5.992313543;22.11069832;8.012394479;-45.58784961;-32.54704654;5.563928459
8.066438152;-5.772809453;7.901099116;-11.52508505;4.822514115;0.431633064;2.81389868;-36.77015187;25.87556712;6.879480333;41.72225584;6.331986254;6.212009989;3.22857156;4.769856034;8.774601723;-45.98546888;-30.33134981;7.409281768
5.422314261;-13.7990653;4.398776129;-23.8989004;2.203286514;0.471714771;0.406333737;-33.87656794;23.44041302;4.902759724;42.66849744;4.547302248;8.127274219;4.088315516;2.520818737;13.03918583;-38.07328372;-27.43631855;8.711301881
3.365978941;-4.705778597;0.767493418;-34.07338507;0.501566163;0.483161513;-0.706065605;-29.43068793;21.65324315;7.328653965;44.34591881;8.092454614;9.154436423;9.707094719;14.98900017;17.40742694;-19.57471839;-24.58507715;9.555227387
2.896276629;22.4525006;-0.741839863;-38.54333795;0.688408835;0.532051882;-0.074815124;-24.02560668;21.26860231;12.45189391;46.37298336;16.24921992;11.98564725;18.72096953;33.18563613;19.03472465;2.595487226;-20.1510219;10.55774616
4.662533392;56.20547832;1.549323484;-37.31640521;2.99217371;0.646431575;1.253691718;-18.04273173;22.20896269;16.57018766;47.54776978;25.04871467;18.12987064;27.93417667;45.9635901;17.34336519;16.32209767;-11.55105814;12.48789349
8.090919266;79.07614465;7.240855671;-33.95274461;6.675754435;0.790269147;1.744034854;-11.32739116;23.67830934;16.41959099;46.69029038;29.81625562;25.97480409;34.28;47.20327055;13.95625669;14.00014811;1.81353246;15.73265077
11.33427852;78.62149299;13.90298822;-32.86435036;10.33722741;0.894497416;0.847100933;-3.680982315;24.85084198;11.49814567;43.81350396;28.36163973;31.37815565;36.75907321;38.66158477;11.15115752;-0.382914717;16.76238301;19.88569068
12.32761985;55.36915767;18.65428228;-35.78058841;12.60654871;0.916684575;-0.291903983;4.241931424;25.51509427;4.501137986;40.44121066;22.21767818;30.48788786;36.87264589;27.03506914;10.1271066;-13.73260324;27.59109615;23.72451698
10.2404145;21.96755965;20.00914985;-40.16226825;12.83205902;0.878920808;0.474183607;10.60860302;26.13368508;-0.501556742;38.58372484;14.96348651;22.68687214;37.1229071;18.21417111;10.29965761;-14.81109658;29.71981566;25.68908441
6.152985924;-5.799850995;18.56992842;-40.97231412;11.33780653;0.852760346;4.674258856;13.30510395;27.30666376;-0.793060493;39.11064681;9.15533616;11.39198657;38.71319342;13.47408054;9.928014701;-4.806981754;22.95125432;24.6991126
2.325212704;-19.54801795;16.13756613;-34.57952663;9.113388612;0.902770862;11.87200768;11.61255308;29.12821241;3.388827262;40.90178081;4.563883626;2.027762153;40.36736838;10.25360255;7.430770717;1.809724466;11.7138529;20.87627206
0.566793986;-22.71354436;14.10087403;-21.81082775;7.173091185;1.032196403;19.59532028;7.270339919;30.98079737;9.492898444;41.58200582;-0.779588964;-1.407968456;39.39328139;6.141097527;2.437567928;-12.28332588;2.008525192;15.67949521
0.990657872;-25.86742869;12.46114725;-7.768131341;6.016899168;1.172212397;24.61192635;3.699155339;31.90559565;14.87655966;39.31007813;-7.783842583;1.236069288;34.23384366;2.102041338;-3.992016269;-53.5130816;-2.652100262;11.24566452
2.14339131;-36.82669219;10.19690508;1.447959368;5.50947608;1.22400369;24.68959689;3.549962014;31.20558423;18.73380206;34.16067676;-14.46753968;6.484398516;26.31329271;1.902603407;-9.929955146;-111.3935237;-3.32775934;9.240779971
2.369878555;-53.4050897;6.495071353;2.557257034;5.172105753;1.125425594;19.72419954;6.338685953;28.79769207;22.18743531;27.95803957;-17.05268506;9.793296864;19.34241973;8.202817751;-13.49317665;-165.1027673;-4.426123543;9.924644451
1.240430594;-64.5728696;1.694322781;-3.419753513;4.609214848;0.897484738;11.64710825;8.283608621;25.1186045;26.59912729;22.74199727;-13.30582265;8.559823321;16.31683074;18.87192893;-13.67349734;-197.2496774;-10.36557102;12.07601211
-0.168627044;-59.2558756;-2.861986735;-12.91608535;3.756487809;0.639762495;3.358006644;4.98577204;20.80180678;31.68047336;19.22580277;-5.232088873;3.557042275;16.60095404;27.0967808;-10.80689963;-203.8064636;-22.66036009;13.87672405
-0.355989929;-35.97474975;-5.860735062;-23.0691175;2.829688063;0.477011675;-2.555327384;-4.771916929;16.48713458;35.16981259;16.59327036;1.541594006;-1.95158469;15.81306111;25.76832618;-6.519154532;-192.9098882;-39.2254463;14.16940205
1.122695934;-5.663287494;-6.989550833;-33.62394884;2.090646951;0.489483352;-4.635091582;-17.16468646;12.88404686;34.50505352;13.77007813;1.69133463;-4.528512812;9.164709858;12.98335481;-3.074571364;-174.8963436;-55.79056541;13.20155519
3.080645165;14.93752677;-7.020987544;-45.93550932;1.644450501;0.66889399;-2.712015904;-25.40682053;10.85221116;29.17597205;10.9504098;-5.505535644;-2.614076999;-4.051521446;-5.692530625;-2.273880608;-153.0788013;-67.96329422;12.31920349
3.563824345;14.72799518;-7.019233039;-60.07738036;1.398231938;0.925880713;2.368560873;-24.81371939;11.17440589;21.75071788;9.876532253;-15.08469677;2.910743004;-18.52553789;-20.26046562;-4.396563934;-123.3326199;-72.64310099;12.84699284
1.448783663;-3.871818921;-7.43569008;-72.75;1.157109339;1.143656242;9.13699084;-17.21229035;14.00486831;16.55234482;12.44747798;-19.74750806;9.665064991;-25.66236158;-22.68315919;-7.883675199;-82.1060261;-68.61044907;15.00636924
-2.562503836;-26.52352569;-7.887914588;-78.10483046;0.74777046;1.244897306;15.86849214;-10.96490301;18.40650922;16.84050656;18.75802267;-15.31445309;15.259501;-19.52248916;-12.12745975;-10.17941009;-34.68305989;-56.86134898;17.69287685
-6.384318305;-36.96754298;-7.742807874;-71.24711957;0.09079213;1.231160223;20.96647257;-15.80232657;22.5034464;22.60011993;26.3028443;-4.093946679;18.29831233;-1.70387977;4.625951012;-9.402529849;4.694928042;-40.90885156;19.26945749
-8.060058594;-28.1324651;-6.893275002;-51.95249913;-0.779837556;1.171453528;23.37684671;-35.65140238;24.38047594;30.62382887;31.21845402;6.543513797;18.51247231;18.739507;17.75205674;-5.792512021;21.82990245;-26.41773491;18.75172908
-7.111257956;-6.357195954;-5.982919533;-25.78411726;-1.720353069;1.149015188;22.90224958;-64.62929271;23.23034532;36.82136655;30.76199425;9.393833853;16.37688776;30.74196616;20.57818711;-1.813339525;13.31609989;-19.40208085;16.47786277
-4.669360315;14.01468929;-5.882385432;-1.57832509;-2.507011451;1.202506185;20.21538367;-89.57447972;19.91959311;39.00235535;25.14553653;2.484222643;12.77537179;28.36953049;13.17037236;-0.623598854;-10.20698437;-23.30467279;13.78446886
-2.38474252;21.24147192;-6.925749679;13.19538649;-2.925357483;1.301340881;16.50117947;-97.94015553;16.45726759;38.09061766;17.28856993;-9.838491582;8.917214157;14.56364017;1.256038533;-3.833083378;-31.32503534;-36.71;11.99289677
-1.106014545;13.94945529;-8.633032143;16.25020279;-2.915153475;1.371194637;12.89729687;-85.85773934;14.63233238;37.01584038;10.67720579;-20.46118529;6.239464743;-1.201330753;-8.174973859;-10.13783284;-37.87317438;-53.68934951;11.51532533
-0.437288982;0.590369613;-10.19366103;11.12105891;-2.68310385;1.350360623;10.04135787;-60.76399517;14.7443586;38.31;6.992841657;-24.77497027;5.95205288;-9.566535711;-11.21644016;-15.93867724;-30.19626656;-67.17353793;11.73115017
0.544956379;-8.296262514;-11.28615723;4.378013718;-2.660564138;1.235602755;7.948278132;-36.65563883;15.34953714;42.29497154;5.294985324;-23.57329142;8.283216585;-7.375863822;-8.573523209;-17.65601859;-18.46436782;-73.35202466;11.62883658
2.151375159;-8.51299301;-12.488903;1.295628742;-3.269028994;1.084064183;6.210720128;-25.19503172;14.24187771;47.08946579;3.246038809;-21.58477855;11.96332859;1.028489173;-3.925720592;-14.16718516;-13.24025856;-73.92918266;10.61723493
3.58239549;-4.734871729;-14.87252791;2.691233102;-4.618541305;0.970510269;4.336118957;-28.76378645;10.00167582;50.15361641;-0.750775831;-23.18696899;14.53768425;7.775168671;-0.960442634;-7.620923811;-17.58565419;-74.37996688;8.855891714
3.530800285;-5.592197902;-19.05713687;4.803059339;-6.362921348;0.932514228;2.029342238;-40.04506503;3.038747754;49.99488933;-6.246692114;-28.92197158;13.57539055;7.311801782;-1.3255467;-2.016201371;-26.70193125;-79.33751841;6.93269554
1.353244899;-15.74645277;-24.47514126;2.198979657;-7.858239921;0.944836178;-0.651327748;-47.98169682;-4.565614888;46.80099748;-11.20295104;-35.47052954;8.117076474;-0.252618443;-4.471100131;-0.546601366;-33.97818712;-88.5766891;5.280659142
-2.221032071;-31.55963288;-29.43317316;-8.092611415;-8.550118815;0.941605173;-3.247669857;-45.54505532;-10.25707095;41.84155136;-13.64337677;-38.72242119;-0.616517469;-10.29046002;-8.739367508;-3.590078125;-36.95690908;-96.74501614;3.887642594
-5.475242936;-43.73592428;-31.96;-23.78860356;-8.322879999;0.868641838;-4.968227303;-33.85411792;-12.39798171;36.46786782;-13.04851318;-37.11615651;-9.823310386;-17.63669924;-12.44642511;-8.706636951;-37.71552571;-97.14386212;2.509749829
-6.883627816;-44.52452379;-30.86342528;-37.75713563;-7.54966229;0.726430739;-4.929507219;-20.25738391;-10.96428352;31.62028336;-10.42522385;-32.49367315;-16.7043075;-19.89884208;-14.29741491;-12.50884048;-38.11152481;-86.69596694;1.098344422
-6.12927996;-33.49099448;-26.31646857;-41.66356803;-6.801614952;0.573024685;-2.588254249;-12.50650091;-7.243545538;28.01;-7.216395969;-28.06940612;-19.99991483;-17.77850498;-13.41982979;-12.9480231;-35.44149031;-68.29949862;-0.039360938
-4.168975869;-17.31066534;-19.67573138;-30.88099616;-6.437345741;0.487229384;1.795610873;-13.6632829;-2.929306524;26.39763741;-4.168872097;-25.59391254;-20.46422604;-12.99145394;-9.589952857;-10.39091313;-23.56772566;-48.82817321;-0.540560161
-2.359344238;-4.134090013;-12.75050386;-7.671871953;-6.384712518;0.520564885;6.986045271;-21.20280491;0.692604597;27.3767803;-1.157430401;-24.27922295;-20.0191548;-6.327133009;-3.691241497;-6.898523518;0.920876219;-34.42590067;-0.460741984
-1.408764316;2.509848451;-7.021340845;19.56856043;-6.267723564;0.670677944;11.14733864;-30.16023955;3.019822271;30.75157378;2.036946553;-22.2647454;-20.26020186;2.214126829;2.202067174;-4.487178016;33.17295854;-26.74120416;-0.417937305
-0.999000828;5.216083113;-3.213629614;40.85155296;-5.753441395;0.888809759;12.70028969;-37.14570211;3.932306043;35.22093393;4.91537076;-19.04237071;-21.3963823;11.64882865;5.660105199;-3.788210942;60.83015453;-22.81580927;-1.172704913
-0.308695881;8.733265991;-1.330133267;50.19590748;-4.828719546;1.108519537;11.1991668;-41.92;3.494731253;38.95483562;6.335727999;-16.44468951;-22.31338649;18.85759591;5.365111302;-4.017500965;71.41520081;-18.3535763;-2.935292166
1.083359892;14.45049359;-0.983410274;48.61234682;-3.796804192;1.272721864;7.643760253;-45.78187877;1.859069376;40.81199003;5.497656152;-17.19732575;-21.58745374;19.81480181;2.12058868;-4.032160287;60.81020243;-11.52907477;-4.999756341
2.708858356;18.5683268;-1.776217539;42.38330388;-3.030226393;1.346029537;3.940087891;-48.89236443;-0.661753357;41.19689164;2.91610772;-22.32908818;-18.62244592;12.61621387;-1.585296315;-3.44422775;36.10660764;-4.347671598;-6.09653223
3.534763277;15.84186894;-3.526941806;37.8318544;-2.711472246;1.316231589;1.782360283;-49.39656559;-3.595480779;41.68055925;0.358040053;-29.8415762;-14.10495076;-0.276280642;-3.354477321;-2.877778717;10.65793799;-0.765192227;-5.279743719
2.814409651;5.652668643;-6.244265881;36.43733605;-2.773988142;1.195334651;1.649499205;-45.29568262;-6.5356054;43.52661756;-0.410755047;-35.97184391;-9.580339297;-12.85794183;-2.687512034;-3.291017489;-4.596263913;-3.367456307;-2.701318955
0.766458334;-5.304792662;-9.880263988;34.06285201;-3.05585952;1.022355101;2.567762268;-37.2740198;-9.440473906;46.31594218;0.877600408;-38.08913535;-6.605427906;-19.28304437;-1.327025992;-5.073197185;-6.898354367;-11.30707247;0.332154465
-1.453709216;-6.946624447;-14.02351752;25.01114324;-3.488043548;0.858446781;2.794661001;-29.58196967;-12.67673266;47.9561588;2.545433778;-36.77769359;-6.114669248;-17.72293702;-1.745380326;-7.72223824;-0.905582027;-20.8784518;2.095970568
-2.47035302;6.028280788;-17.78022469;7.782266287;-4.129672605;0.765174309;0.976672678;-27.64412335;-16.62959095;46.28727849;2.10371412;-35.28691429;-8.281384503;-11.33199552;-4.941114772;-10.3097252;6.670944545;-27.90868999;1.465598171
-1.580513241;28.16349416;-20.03213781;-12.20031394;-5.031223957;0.771631589;-2.958090292;-33.98196062;-21.09145116;41.09096246;-1.77553522;-36.74225855;-12.66542642;-5.540630611;-9.379945227;-12.22840123;11.92363961;-29.93656596;-1.477621783
0.770951861;44.91657445;-20.01800936;-25.50612711;-6.083342926;0.852122885;-7.708326744;-45.77140011;-24.92960198;34.79538749;-7.93940684;-41.40735535;-18.28934221;-3.874770603;-12.05172339;-13.51854932;14.63232762;-26.75969593;-5.60390961
3.210866795;41.7970942;-17.8903116;-25.44590325;-7.023102226;0.935754575;-11.31977951;-56.30538687;-26.43328299;31.07884826;-13.16508095;-46.26078776;-23.58172723;-5.657898221;-10.86351396;-14.51483817;15.98989409;-19.54231386;-9.440975624
4.186255302;14.80543858;-14.80072452;-13.55213588;-7.6090263;0.948472846;-12.24850277;-59.55020021;-24.26939624;32.25280276;-14.10994769;-47.24581353;-26.51342824;-7.297568003;-6.40808008;-15.20541866;16.62558406;-9.754704236;-11.88329706
2.803460246;-25.56232993;-12.32365892;0.704147557;-7.800285448;0.862031724;-10.15329851;-54.38818154;-18.47269331;37.38943097;-9.464823045;-42.38664419;-25.26268029;-5.820497467;-1.578695713;-14.95903386;17.08835378;1.080401246;-12.4863603
-0.676145476;-60.16292787;-11.51087412;6.198183226;-7.760526951;0.715390952;-6.023765249;-45.23273332;-10.7628966;42.71515695;-0.825177511;-33.32357322;-19.27275174;-1.504020751;0.746637114;-12.93252742;19.48978418;11.01408496;-11.33882724
-4.913452582;-73.21781423;-12.21327282;-2.012309953;-7.674588899;0.591735466;-1.645058986;-38.51;-3.864952848;44.11111808;8.27455197;-24.15653138;-10.01382934;2.617845426;0.087803056;-8.842905651;27.24226365;17.61961271;-8.817233726
-8.102681244;-62.22104891;-13.18687145;-19.1371941;-7.557212543;0.56608352;1.270906191;-37.79230076;-0.169724495;39.95097073;14.43753836;-18.61992344;-0.703602764;3.781538434;-1.187463059;-3.436749472;41.78260625;18.8543589;-5.492961374
-8.841010904;-38.90234002;-12.94987191;-34.10261081;-7.254954362;0.6593815;1.836201839;-41.44735393;-0.54688557;32.23213941;16.17505801;-17.78989096;5.124014167;2.241390992;0.19393593;1.779527831;58.93074189;14.3609156;-2.172057089
-6.842956802;-20.79477207;-10.78730374;-37.44361447;-6.659447605;0.828776108;0.263547868;-44.61163899;-4.057783802;25.22319344;14.29229243;-19.90074476;5.417078015;1.218546644;5.596450691;5.376905476;69.08532837;6.064331507;0.176176025
-3.114573839;-19.56574935;-7.179817585;-27.78842198;-5.927826491;0.996379936;-2.440226514;-43.74267058;-8.735342288;22.65570543;10.84240612;-22.09211574;0.580359182;4.045641718;13.09328281;6.772506049;62.70440445;-2.65614111;0.769403342
0.555346236;-34.26826197;-3.384147482;-12.30502407;-5.465038145;1.092873709;-5.173032851;-39.87270734;-12.89110873;25.45551051;7.540978229;-22.52505664;-7.05528447;11.00652145;18.71840941;6.358627547;37.581774;-8.800386324;-0.503188574
2.545698993;-53.75469758;-0.552152215;-1.167680438;-5.626418006;1.087233065;-7.411008862;-37.76067697;-16.06640622;31.475058;4.755840773;-21.31842729;-14.85372452;18.6720785;19.43684935;4.945975782;1.915551479;-11.34829521;-2.849600114
2.248016335;-65.75601657;0.908065905;-0.489057632;-6.376914618;0.990213106;-9.4233966;-41.58967358;-19.01106484;37.17428542;1.644097499;-19.93631008;-21.35018515;22.38176117;15.49557922;3.015590887;-30.13072335;-11.61075385;-4.897343557
0.277872814;-65.59732833;1.310218732;-8.881453216;-7.233040801;0.839991081;-11.85875151;-50.85041458;-22.77229099;39.90089483;-2.831622356;-19.8722859;-26.50665444;19.80670008;10.26449343;0.393188809;-47.62596203;-12.30389483;-5.478653584
-2.076547319;-58.36840832;1.201464101;-19.57267286;-7.60229664;0.685830462;-14.96748485;-60.05785258;-27.62074807;39.23655424;-8.822938498;-21.75847622;-30.7128751;12.61741067;7.650344073;-3.41580649;-49.84923015;-16.14957174;-4.397302311
-3.765684185;-53.64994036;0.977019823;-25.68064639;-7.282034496;0.577135929;-18.05007813;-62.85494678;-32.66704595;36.75611764;-15.21861463;-25.35342053;-33.57553485;4.93956716;9.087479457;-8.536126344;-45.55824305;-24.80777053;-2.634318526
-4.583477528;-57.45893029;0.962282483;-24.34173999;-6.695711966;0.553662554;-19.64873805;-57.3384881;-36.51894481;34.68150654;-20.21264488;-30.01952134;-33.72194938;0.044136114;12.44365567;-14.2578925;-45.28199373;-38.33352802;-1.794133528
-5.04217361;-67.7963087;1.753387741;-17.09904424;-6.618142621;0.631819525;-18.49567355;-48.19202855;-38.53688225;34.47010103;-22.4410329;-35.06070088;-29.94051591;-1.828246203;13.67530556;-19.18862894;-53.10197453;-54.91204561;-3.10154015
-5.679975561;-77.01125716;4.247227914;-7.395880651;-7.556794999;0.79232705;-14.61324033;-43.59802743;-39.7339887;36.13691728;-21.97107409;-39.72138085;-22.73056635;-2.709903518;9.938031112;-21.93795658;-64.67046324;-70.84517999;-6.567249133
-6.427810114;-78.77899097;9.049758956;1.931609917;-9.270814879;0.982606197;-9.71619654;-49.11875685;-42.53968605;38.47605944;-20.52776306;-43.16233728;-14.82213436;-4.081367193;1.783944029;-21.86576543;-72.75336134;-81.26902231;-10.83654995
-6.604775335;-73.99218283;15.63656431;9.15114221;-10.84096027;1.140654668;-6.466405425;-63.37328028;-49.4296374;39.86455969;-20.7910647;-44.74986312;-9.951966185;-4.72366828;-7.145348436;-19.39998717;-75.0784041;-82.03431582;-13.81195001
-5.561786675;-70.82673246;22.09490356;12.66243794;-11.28219435;1.228584115;-6.952517764;-79.12998875;-61.2839716;39.20903477;-25.13146649;-44.53670189;-10.60037723;-1.426528921;-12.57722611;-15.74412316;-77.34132533;-72.23778418;-13.69286681
-3.407251641;-78.77;25.97446041;10.63897666;-10.25094912;1.250954856;-11.40482707;-89.17698015;-76.63234537;36.66366614;-34.47412209;-43.42655452;-16.33366652;7.81255178;-12.31328686;-12.19297709;-88.51433958;-55.77029068;-9.875679761
-1.140576888;-101.0025755;25.85498802;2.39620945;-8.306872339;1.241146927;-18.07398452;-92.36778452;-92.40689916;33.79769821;-47.91175888;-42.68197733;-24.03976122;20.79858721;-7.275584896;-9.487859631;-112.3601601;-40.19683516;-3.279772279
-0.007351032;-130.7930126;22.47071191;-9.778054143;-6.530240117;1.22499458;-24.39850191;-94.83201889;-105.7839616;32.96367817;-63.25612103;-43.05179126;-29.93345937;31.1529798;-0.407737004;-7.569175898;-142.4405629;-32.85143835;4.016596568
-0.571067529;-154.6764444;18.36714689;-20.79030353;-5.797230839;1.192699386;-28.64466633;-105.0075185;-115.8878114;35.92111098;-78.17607956;-44.24737529;-31.87112556;31.82814578;5.440634971;-5.81863234;-165.070722;-36.2809575;9.62869688
-2.276501204;-160.346931;16.13869178;-25.87157303;-6.267346542;1.105864288;-30.85862921;-126.1212765;-124.1693308;42.3193639;-91.25035972;-45.28181193;-30.33460674;19.78738364;8.972585496;-3.605182702;-168.131363;-46.23616098;11.82082559
-3.89277372;-143.9513633;16.49261983;-24.63430812;-7.439690636;0.936473363;-32.50997488;-152.0662755;-133.1768783;49.06201362;-102.3669135;-45.43295872;-27.5476702;-1.549469412;10.38897144;-0.79935035;-148.9854127;-54.05892468;10.16614972
-4.481894653;-112.0413541;17.6791266;-22.40689868;-8.662126137;0.703786238;-35.20803739;-170.2958843;-144.5748005;51.34917736;-112.3498786;-44.98535138;-25.64363501;-23.93230686;10.31553477;2.050294691;-115.7198569;-52.22708775;5.643907451
-4.079906817;-77.24;16.86186402;-26.88398559;-9.628269847;0.472608094;-39.53498798;-170.0327288;-157.8013103;45.20929755;-122.1696739;-45.04482571;-25.41249789;-38.8784119;8.926694425;4.002553288;-81.40663853;-39.28977156;0.140118345
-3.515109319;-50.87844163;12.47068039;-42.0461394;-10.45505798;0.308301316;-44.84114054;-149.8626543;-170.282835;30.15928775;-132.2662148;-46.52786832;-26.46984123;-42.11;6.052204026;4.335241536;-56.2675758;-20.59661908;-4.41685963
-3.533801125;-37.52385073;5.71106266;-64.09314645;-11.32965782;0.224549242;-49.98562028;-119.0180642;-178.9843065;10.20294554;-142.3080623;-49.19014616;-28.36897612;-35.04556309;1.985126464;3.126921749;-43.40953199;-4.222915011;-6.869131472
-4.016492499;-34.51767506;-0.033106899;-83.08085985;-12.09626477;0.172140467;-54.23033422;-91.28515998;-182.1315992;-7.779549659;-151.3416373;-51.56989715;-31.39723682;-22.83734882;-1.986282835;1.406241515;-40.10753087;4.873992519;-7.186928251
-4.002714101;-35.91927415;-1.553579638;-89.54586164;-12.19329271;0.08564735;-57.46618875;-75.98199052;-179.9028977;-17.51091543;-158.07756;-51.94751181;-36.21499666;-10.80907427;-4.022521111;0.673760445;-42.09728952;8.032106168;-6.213906342
-2.538423259;-37.39486284;1.8233532;-81.19225734;-11.02714169;-0.046845902;-59.66302044;-72.59646014;-173.75357;-16.5751071;-161.1530292;-49.54854597;-42.688304;-1.859325486;-2.906516489;1.994235458;-46.81079218;11.00661894;-5.002249698
0.379805458;-38.50256516;7.679151591;-64.36261478;-8.473129308;-0.15291173;-60.22412098;-72.79306428;-165.1053071;-7.408058874;-159.4335065;-45.02660644;-49.12222159;3.803033201;1.022098477;5.204335508;-53.62554691;18.60803814;-4.182972259
3.612050248;-41.26278645;12.18620291;-49.06111112;-5.073786637;-0.120254536;-58.05632152;-67.85445305;-154.5413958;4.533436691;-152.4753938;-39.91383543;-52.82347159;7.156025014;5.98409332;8.811198849;-62.36895513;30.18245362;-3.763356056
5.658536159;-46.82460439;12.75531159;-41.50901476;-1.758100413;0.109184732;-52.49288643;-55.61635433;-142.0999982;14.09323192;-141.0451945;-35.6096309;-51.73945701;8.760499969;9.857288997;10.77248806;-72.42296073;39.59228572;-3.41628805
5.798182429;-53.25112498;9.659853267;-40.22260942;0.695345534;0.469294235;-44.32455242;-41.64735632;-128.2374711;18.99768303;-127.2936397;-32.78516515;-45.89532304;8.333772791;11.37190654;9.751868088;-83.19832793;39.77830581;-2.961339715
4.626332257;-56.23116467;5.487975478;-38.64588343;2.030068359;0.788203627;-35.92517821;-34.14985381;-114.4235521;20.18448065;-114.1838902;-31.5635861;-37.42240942;5.500418409;10.50402066;6.047385995;-94.65600686;28.34605178;-2.614351414
3.519960902;-52.0427118;2.969017678;-31.87838891;2.461354303;0.893716764;-30.11217548;-36.99189805;-102.658282;20.08539209;-104.2231694;-32.03174179;-29.11410979;0.728312886;7.925124568;1.524879899;-106.4216326;9.812528417;-2.799668942
3.464871352;-40.35416103;2.918742275;-21.64243752;2.315998991;0.732952829;-28.44859258;-46.52940242;-94.19076417;20.449566;-98.16453368;-34.35279598;-22.67319665;-4.513856821;4.191997236;-1.47574001;-116.0236972;-7.223892614;-3.702968421
4.235240939;-24.71569049;3.839324637;-15.21621523;1.71982967;0.415026972;-30.25767418;-54.58346435;-88.51390366;21.33688025;-94.59109996;-38.2676627;-18.04890793;-8.513387535;-0.499908864;-1.57663746;-118.5699877;-15.80188885;-4.977117119
4.633988161;-10.48113201;3.333616413;-19.2650481;0.606168926;0.139401356;-33.15198499;-54.89261808;-83.59206989;21.73170586;-90.83893557;-42.57154353;-14.28983638;-10.31503575;-5.833101459;0.816111017;-109.440304;-14.8992423;-5.89862493
3.605826423;-1.812328778;0.09376743;-33.8792649;-1.002596917;0.059119563;-34.71666474;-47.68316262;-77.30064014;20.88614653;-84.78842645;-45.38295098;-11.01249944;-10.16581215;-10.80283198;3.858845041;-88.57790327;-9.281960785;-5.894707854
1.277617229;0.115600161;-5.107397724;-51.94202907;-2.748512231;0.179432183;-34.07723733;-38.77435277;-69.01712491;19.08202254;-76.34285809;-45.35096574;-9.075744181;-9.129240781;-13.88984524;5.529568843;-62.57772661;-5.367261789;-5.030779739
-0.988399089;-3.230365342;-10.08378154;-64.39600656;-4.001831849;0.366363675;-32.1860666;-34.25996561;-60.09244456;17.22957771;-67.52547481;-42.93194387;-9.808951539;-8.243809592;-14.10302706;4.917719456;-41.7506719;-6.472518409;-4.045354418
-1.632814675;-9.450873161;-12.88794608;-66.9844383;-4.222461328;0.455712647;-30.69934653;-35.39524707;-52.77064917;15.85359556;-61.06376632;-40.49934654;-13.49317798;-7.849200577;-12.07645602;2.680997416;-33.42704257;-10.94528751;-3.859615094
-0.210064697;-16.68793824;-13.09284202;-62.87341118;-3.329405619;0.376747431;-30.43133819;-37.93858104;-48.36071473;14.53941219;-58.42530185;-40.82504772;-18.53098223;-7.462263486;-10.10411571;0.446481154;-36.50565437;-14.15403554;-4.905237274
2.112793686;-23.86394115;-11.78831803;-59.149562;-1.77112477;0.196385828;-30.65237195;-36.28224065;-46.08855551;12.4155851;-58.6873524;-44.85202613;-22.19146315;-6.158182468;-10.73029617;-0.304458872;-42.0183811;-12.34683848;-6.772190763
3.332091261;-30.01490469;-10.47364941;-60.38032352;-0.241255405;0.054606704;-29.7411726;-28.62894513;-43.5469992;9.241995633;-59.02788277;-50.48753272;-22.44840698;-3.15096423;-14.75401115;0.972571564;-39.91665922;-5.28220122;-8.44860348
2.106244638;-33.84857321;-9.848849298;-64.76745969;0.726221717;0.047450575;-26.57365817;-18.67684253;-38.4162678;6.075458628;-56.46624591;-53.57672206;-19.44039707;1.726833421;-20.19857698;3.892972232;-27.02238296;4.077513519;-8.986079199
-1.166041188;-34.25642572;-9.446138725;-66.0125706;0.976394926;0.152142012;-21.47442476;-12.38534979;-30.14641382;4.819573973;-49.63622774;-50.59652275;-15.34739137;7.810378657;-23.25876034;7.7308398;-9.728367953;12.0437988;-8.11596255
-4.527830444;-31.36852217;-8.260742573;-59.05881898;0.656099119;0.251114474;-15.99615651;-12.70312618;-20.35171419;6.92034895;-39.44926008;-41.20121059;-12.77699573;13.71339899;-20.78161599;11.93251757;0.944802237;16.59951587;-6.393357687
-5.792704712;-27.00168988;-5.746390748;-44.68652373;-0.00511096;0.230923349;-11.79515687;-16.93061672;-11.68752904;12.20999058;-28.37181061;-28.7261107;-12.96309768;17.75720087;-12.58224422;16.08190967;-1.893655271;17.98334272;-4.799852947
-4.050857781;-23.7709207;-2.355406288;-29.15200798;-0.81286808;0.074132152;-9.563729772;-19.10564255;-6.117615896;18.80846735;-18.97989802;-18.20130052;-15.16678261;18.60927316;-1.876686884;19.45564064;-15.45342427;17.51290657;-4.111996033
-0.272697152;-23.37414432;0.725019272;-19.4186365;-1.5423729;-0.127879952;-8.814300544;-15.38727709;-3.838453404;24.1715991;-12.7745378;-13.24399379;-17.59535236;15.87596824;6.579942691;20.7867229;-29.33751861;16.09281293;-4.467137969
3.383032262;-25.47406412;2.334934292;-18.14793452;-1.841426225;-0.246960565;-8.51182285;-7.683824008;-3.491658889;26.52292559;-9.825597601;-13.98656341;-18.89108854;10.32798594;9.398061782;18.74189697;-33.43088077;13.77384077;-5.372022573
5.014802064;-28.26303615;1.995447374;-22.46;-1.315045282;-0.214014145;-7.869570577;-2.153559931;-3.265734816;25.6947945;-9.130586028;-17.38334164;-18.89021175;3.584718295;6.498779716;12.96196634;-25.18234688;10.49155281;-6.077378823
4.148566116;-30.38153647;0.054988932;-26.94913806;0.185949443;-0.063372997;-6.636614836;-3.627709994;-1.926507391;22.93075136;-9.214307438;-19.50461245;-18.16678951;-2.5953065;0.829085195;4.867889749;-10.67086154;6.975039616;-6.029746184
1.876394377;-32.56058812;-2.630445977;-27.86269405;2.311830402;0.103272314;-4.816936641;-10.72453841;0.892033998;19.97281939;-8.635358867;-18.10861433;-17.05328716;-7.004831476;-3.792319596;-2.599286015;0.814873784;4.77275511;-5.131467362
-0.025033961;-37.38119329;-5.160706428;-24.85209766;4.293001888;0.196936317;-2.332881587;-16.17109897;5.032965359;18.15621386;-6.392233402;-13.79388102;-15.26230954;-9.265314883;-5.064081051;-6.428854983;3.778053455;5.288992629;-3.720839439
-0.308984446;-47.02707254;-6.917294518;-19.42970648;5.397414533;0.198306731;0.876443961;-12.63706247;10.18691306;18.03187581;-2.31155102;-9.204373694;-12.53433467;-9.608542122;-3.20464773;-5.353701734;-0.515876548;8.687440838;-2.359380948
1.013448672;-60.70659775;-7.685674269;-12.44675581;5.449163659;0.150620918;4.39808776;0.39120257;15.85697729;19.51712319;2.723223397;-7.096644012;-9.593331755;-8.435521025;-0.137480321;-0.766202586;-6.723635001;13.62167666;-1.570409964
2.826852487;-74.00215713;-7.650896243;-3.509128614;4.955345085;0.104380376;7.120039063;14.48494191;21.09476149;22.21341622;7.040725444;-8.635945456;-8.23562498;-6.036527783;2.208485135;4.021427376;-10.52093012;17.99194785;-1.629333348
3.724364062;-81.13379196;-7.320482727;7.148703024;4.657095216;0.068218828;7.728165592;17.24812473;24.55859719;25.57065903;9.080785509;-12.86385514;-10.11546501;-2.647327502;3.070922632;5.794749043;-11.39959112;20.07596074;-2.45083762
2.882382523;-78.86366952;-7.351135522;16.70436816;4.815060701;0.009491756;5.731285765;1.155736925;25.17351766;28.8733491;8.494561437;-17.40314725;-15.09881181;1.30728546;2.758545299;3.411778315;-11.29832017;19.20070925;-3.604889854
0.462719364;-69.26891785;-8.272212992;20.47825542;4.84077144;-0.099325938;2.181233966;-30.27169112;22.9968834;31.24621696;6.609579154;-19.81686058;-20.70671229;5.081124249;1.700493247;-1.608445644;-11.33563881;15.66952492;-4.490452362
-2.6124627;-59.13438273;-10.21303642;15.48891402;3.686509051;-0.234029066;-0.685509174;-63.76220537;19.4931102;31.84022349;5.684748186;-18.8972826;-23.44996641;7.750492092;-0.304349319;-6.271763542;-10.3880129;10.31574793;-4.640997772
-5.266814304;-56.00477664;-12.81125827;3.786458463;0.80381202;-0.317879437;-0.843924139;-84.37737903;16.76523112;30.15616118;7.273260844;-15.34957309;-21.27600503;8.538612383;-3.925696982;-8.20957712;-6.904835844;4.19109581;-4.029437981
-6.835016149;-63.35366162;-15.38791621;-7.966118008;-3.058815483;-0.272752667;2.042345795;-84.69922706;16.1616412;26.31746209;10.85686806;-11.58396546;-15.25723804;7.088308546;-9.448441347;-7.2101711;-1.739938523;-1.517791589;-3.171006382
-7.272589968;-78.08975115;-17.27582638;-13.14250844;-5.950384215;-0.083043335;6.226291331;-68.73044531;17.31638282;21.13482679;13.92384958;-10.59445974;-9.071924056;3.539022026;-16.10527642;-5.150223024;1.409919496;-5.672477423;-2.891665856
-6.968236152;-92.13885788;-18.06891693;-10.49416535;-5.822997852;0.17945375;8.975810526;-48.15740735;18.46339232;15.93874778;13.66380115;-14.28894997;-6.522266168;-1.551702457;-22.28771698;-4.475645549;-1.060889797;-7.704626951;-3.837022581
-6.364650674;-97.14914898;-17.64828763;-5.434614119;-1.968605503;0.391591351;8.429086785;-34.1703063;17.88537022;12.24824097;9.150815785;-22.08397733;-8.931755622;-7.325022996;-26.50479627;-6.401676176;-8.993871246;-8.186416485;-6.0082806
-5.674863771;-89.34599224;-16.05894647;-5.605645439;4.251613071;0.450833409;4.861703877;-30.8549437;15.40537204;11.35150447;2.353305459;-30.72136171;-14.40971628;-12.74344733;-28.2611517;-10.12405462;-17.80915756;-8.792309693;-8.651166161
-4.867638732;-71.5587509;-13.44113307;-14.04805389;10.01190821;0.332194439;0.457104968;-34.3708406;12.72658975;13.87615237;-2.922181319;-35.73983753;-19.49635337;-16.79088847;-28.08591421;-13.51348888;-21.9569725;-11.30699208;-10.62308317
-3.877580257;-51.35598487;-10.12247575;-25.80336771;12.65936875;0.093375073;-2.192025409;-37.47805495;12.30601086;19.48964976;-3.494097058;-33.9633193;-21.80410397;-18.77812661;-26.70715721;-14.66403394;-19.57294409;-16.17813381;-11.04133477
-2.825719178;-36.67807429;-6.74621052;-31.30173636;11.31376218;-0.16842493;-1.703496315;-35.25795356;15.60835366;26.92796474;1.101834406;-25.47267583;-21.52258657;-18.60819264;-24.15069724;-13.11385016;-14.00687266;-21.73528208;-9.802549671
-2.036036326;-31.73007813;-4.195407427;-24.23277132;7.338957025;-0.371574058;1.490616069;-27.77460262;22.07065593;34.45848501;8.42778466;-13.6307159;-20.67036825;-16.76223084;-19.63967153;-9.919064647;-10.62447107;-24.9179661;-7.629454797
-1.807723664;-35.43804087;-3.226966495;-7.504608659;3.367104894;-0.47930313;5.817803612;-18.52076438;29.51785477;40.61125386;14.95549213;-2.980791574;-20.8891293;-13.92851826;-12.47363276;-6.688738347;-11.75488831;-23.25307363;-5.613605519
-2.122782594;-42.97928799;-4.033261813;7.950284274;1.569433964;-0.492792051;9.797735619;-10.91160112;35.60971197;44.75094795;18.4532522;3.58884196;-21.76887351;-10.52916855;-3.164181675;-4.433133296;-14.61156162;-16.75036762;-4.562515796
-2.553679933;-49.04421323;-6.101784204;11.05646429;2.380068359;-0.42756456;12.81708966;-6.077598055;39.14104016;47.0874839;19.15841737;6.379924908;-21.17532697;-6.579289705;6.213484854;-3.095499877;-14.38321701;-8.278242623;-4.582471405
-2.49688902;-50.69852882;-8.549935333;-0.905733758;4.518683039;-0.300539058;14.97843284;-3.360921088;40.26518107;48.1131111;18.98790065;8.00047616;-17.2902106;-2.089323286;12.91906859;-1.994386197;-9.733611126;-2.019584569;-5.148569879
-1.587773568;-48.30326899;-10.70435889;-20.00326067;6.198357881;-0.137312934;16.40022124;-2.242782455;39.69558938;47.93602896;19.60899702;10.80048833;-10.58467933;2.292331357;15.1407655;-0.66960538;-5.322126672;-1.012286755;-5.567352702
0.027753723;-44.34658841;-12.44210993;-33.50191509;6.559984103;0.015261969;16.74526923;-3.371887891;37.7770019;46.11823787;21.00400424;14.69389306;-3.986448945;5.050058594;13.10199538;0.616521389;-8.386524798;-5.441395543;-5.477379576
1.805855177;-41.29368613;-13.98610426;-33.27753884;6.258143614;0.094128518;15.42229085;-7.655049923;34.29447359;42.21959506;21.60378558;17.11777239;-1.015513631;4.427123029;8.805943803;1.08835608;-21.9670467;-12.75583955;-5.038956335
3.234761705;-39.95077485;-15.3399477;-21.39632423;6.799869378;0.049771475;12.21304464;-14.54438898;29.08611315;36.58865461;19.68804489;15.13206809;-3.351452336;-0.356068211;4.569913582;0.117466393;-40.93084902;-19.33644388;-4.715058155
4.230039063;-39.26513374;-15.92375035;-7.695766919;9.184366964;-0.117512405;7.679979522;-21.55217633;22.71916606;30.61133309;14.75447845;7.910748287;-9.740703763;-8.187759893;1.444924186;-2.255570551;-54.99255293;-22.42348014;-4.845991538
5.140618375;-37.42981875;-14.85416615;-1.706951087;12.90382803;-0.344670409;2.940982452;-25.81760276;16.43256595;26.00278635;7.747905348;-2.418709379;-17.02195831;-16.30728495;-1.278575064;-5.331096302;-56.80126322;-21.0652024;-5.352771069
6.328855241;-33.34131574;-11.74453965;-5.634965762;16.07912242;-0.53262895;-0.99934327;-26.45080586;11.28601703;23.56954184;0.150841891;-12.22355601;-22.33968345;-21.75156706;-5.111346568;-8.193463624;-48.26278956;-15.79528331;-5.786307526
7.677265445;-27.36554805;-7.361713942;-13.83843679;16.65336813;-0.600031738;-3.776165483;-25.44254939;7.283473021;22.46143407;-7.077533687;-18.83570625;-24.76814713;-23.08273823;-10.72037606;-10.16;-39.23047309;-7.712416608;-5.673324905
8.490770443;-20.98899145;-3.474324366;-18.6072472;13.79003906;-0.529599123;-5.626122464;-26.10555198;3.356514675;20.68297901;-13.73623632;-22.0054191;-25.22730689;-21.15433764;-16.92516646;-10.90688907;-39.09298025;2.152474165;-4.89502597
7.96689728;-15.77736333;-1.836516527;-16.90347586;8.48267559;-0.375775538;-6.902653421;-30.26021926;-1.652504482;16.64204899;-19.73949436;-23.29088743;-25.08125675;-18.337693;-21.20267712;-10.32144116;-48.19120446;12.86414137;-3.819491749
5.913305629;-12.51003906;-2.996735767;-12.3504273;2.959990601;-0.228385304;-7.659958739;-36.61210001;-7.819005351;10.57305005;-24.46466659;-24.17510609;-24.83482608;-16.78997043;-21.42309285;-8.394966709;-56.64981866;23.38341292;-3.091337874
3.119245496;-11.09395226;-5.859416024;-11.19082399;-0.677053396;-0.156848966;-7.707777112;-41.79953184;-13.85835495;4.627942604;-26.9764849;-24.74389961;-24.0506182;-17.06352386;-17.5621155;-5.361642023;-52.19196155;32.66615503;-3.223088706
1.001441644;-11.13075631;-8.404106832;-16.18020437;-1.640748781;-0.171664578;-7.04295158;-43.23769007;-18.10960803;1.421276253;-27.09364073;-24.09531212;-22.35858782;-18.03685559;-12.06441588;-1.929420446;-30.78370883;40.12039938;-4.263107109
0.710264394;-12.44705173;-9.069407351;-23.92940778;-0.697955612;-0.226521883;-6.169508826;-41.26377847;-20.0365038;2.083023478;-26.2834623;-21.92433264;-20.40327037;-18.06265894;-8.44454872;0.775613908;-1.205485897;45.94807804;-5.753664561
2.345349297;-14.99651318;-7.768203142;-27.91917226;0.59775796;-0.256286229;-5.908976594;-38.69032447;-20.97333045;5.347772521;-27.3089498;-19.55431962;-19.68901782;-16.29645125;-8.970460396;1.744635198;20.57155236;50.89071281;-6.994133007
4.889910786;-18.24319759;-5.776769118;-24.33868392;1.052449717;-0.22321947;-6.797368199;-38.19390235;-23.40619437;8.434405954;-32.56942835;-19.18315147;-21.38877614;-13.15967304;-12.98955294;0.820551349;22.92567524;55.45983007;-7.430078125
6.932161488;-20.79167179;-4.622932297;-15.50739358;0.52964882;-0.140810374;-8.598182548;-39.92517168;-29.29020095;9.041680266;-42.31422951;-21.85291659;-25.22278836;-9.752770239;-17.10934326;-0.972976579;6.841634148;59.30907247;-6.926454488
7.627376524;-20.96670209;-4.870822183;-7.892104262;-0.21976881;-0.061362222;-10.41296188;-41.53442639;-38.72643768;6.887063871;-54.22934984;-26.02414158;-29.5099567;-6.953502511;-17.24528061;-1.924160417;-15.5787494;61.38778193;-5.78
7.170909882;-18.18512032;-5.737786283;-6.509680282;-0.342729163;-0.037269661;-11.36252673;-40.60207054;-50.03443361;3.618219202;-64.91041964;-28.29864624;-32.43622354;-5.083612918;-11.29150932;-0.737289198;-30.77501683;60.85053422;-4.504345869
6.457204918;-14.00948788;-5.774034598;-10.59462736;0.394830084;-0.081431787;-11.29166952;-37.22264465;-61.0881284;1.297234104;-72.20281992;-25.9810761;-33.44192417;-4.31664229;-0.697739608;2.526524069;-33.46651337;57.96961391;-3.551122178
6.258309426;-11.67519772;-3.990649066;-14.21514493;1.509493778;-0.151546571;-10.89269197;-34.27137844;-70.74147418;0.822640731;-76.60918834;-19.41947036;-33.47341884;-5.162367224;10.12303883;6.43351122;-28.80551309;54.2032666;-3.137132743
6.619925372;-13.96239797;-0.529894195;-11.22964039;2.341362071;-0.168635831;-11.12;-34.94901559;-79.15962384;1.606777794;-80.65049415;-12.04829292;-33.85973124;-8.254203419;16.27321323;9.186782728;-26.01851572;51.25635962;-3.24017425
6.947211563;-20.80033105;3.568327723;-0.370973623;2.725825262;-0.061225607;-12.3763319;-39.73641038;-86.89904868;2.620586788;-86.70081659;-7.914984221;-34.86822448;-13.43477112;15.24547833;9.943530295;-29.70450577;49.85746009;-3.702890997
6.643673182;-28.62223177;7.178787366;13.66091101;3.190357203;0.187302878;-14.16277205;-45.58514711;-93.73175747;3.644193486;-95.05172329;-8.651343204;-35.37035274;-19.04400138;8.424289828;9.422528483;-36.39091511;49.27273179;-4.334604899
5.703983579;-32.44865632;9.745087622;23.72044944;4.472501566;0.513791133;-15.51110651;-48.30253;-98.44838765;5.38998663;-103.7593989;-12.42662081;-34.09375525;-22.40774861;0.278184571;9.296604709;-38.81177664;47.98919011;-4.95064198
4.737273489;-29.54398191;11.29930286;25.23084739;6.734843514;0.789598417;-15.86206421;-46.23333631;-99.96310683;8.286297072;-110.3446886;-15.80016954;-31.43175297;-21.55801862;-4.270315144;10.81911596;-33.45472424;45.01932367;-5.376449001
4.427589722;-21.93206063;12.00932359;18.71934294;9.145310578;0.873127004;-15.66849508;-42.02921319;-98.7718925;11.12137698;-113.8882181;-16.90819523;-30.06639806;-16.97287678;-2.699293512;13.76717384;-24.31682545;40.75792047;-5.482224184
4.943470462;-15.52721379;11.8263654;8.381928626;10.2488571;0.679511035;-16.20225194;-40.78089312;-97.33219093;11.11393899;-115.7617596;-17.21552741;-33.4704961;-11.77610089;3.7377616;16.5610808;-19.55790503;36.71478577;-5.266063102
5.840217018;-16.06283345;10.62707303;-1.433965961;8.946939902;0.233420144;-18.66543628;-45.87737601;-98.72967687;5.83904033;-118.3997984;-20.23301929;-43.12524169;-9.870058594;10.87951973;17.49022624;-24.23496006;34.40354868;-4.918431031
6.534933604;-24.62193913;8.679965031;-8.629327309;5.388667125;-0.326198302;-23.24948732;-55.99527909;-104.4543404;-4.304024659;-123.1529595;-28.19704605;-56.57215491;-13.15844383;14.16222066;16.08093352;-35.69407584;34.34516449;-4.770350044
6.897761009;-36.23498812;6.873805004;-13.06506186;1.07248309;-0.799472058;-28.83053155;-65.79435118;-112.988504;-15.20091571;-129.0094225;-39.51909159;-68.06456363;-19.93977561;11.23205283;13.5144088;-45.63741972;35.96534873;-5.101775605
7.381094821;-42.94345984;6.317046322;-14.76665366;-2.004406291;-1.015940757;-33.52383603;-69.84025165;-120.4182695;-20.85303074;-133.2268468;-49.26400942;-71.74197676;-25.83531198;3.185677892;11.75904102;-46.89591435;38.32342017;-5.917175357
8.520192609;-39.35059488;7.511896365;-13.02681502;-2.611451946;-0.916697269;-35.71834452;-66.57856219;-122.7603438;-16.97545567;-133.3423531;-52.43591473;-65.30284414;-26.71902162;-6.128003728;12.11075568;-38.94892561;40.88680838;-6.866602356
10.22374316;-26.61326785;9.777279121;-7.496697468;-1.088218848;-0.582681334;-34.91657181;-59.15550454;-118.3664034;-3.870854585;-128.9447064;-47.52464443;-51.63240358;-21.54092703;-12.18330207;14.297349;-27.64180583;43.61109095;-7.41788418
11.50969529;-11.81760481;11.4880318;0.029348277;0.898808793;-0.19069919;-31.8896212;-52.54812696;-108.7086866;13.56132082;-121.8642575;-37.54649797;-37.20665329;-12.97733349;-12.01764979;16.82275206;-19.8276889;46.32987782;-7.200708873
11.00574626;-3.100111919;11.06820069;5.445296527;1.501495746;0.080158278;-28.13506469;-49.53826717;-97.10482686;28.76434147;-114.7664264;-27.85587908;-28.33634693;-5.498237486;-5.536500057;18.2099493;-17.94135561;48.18462468;-6.286521633
7.898358418;-4.110019531;8.048718134;4.672256311;-0.048500751;0.139120206;-25.03746654;-48.91454955;-86.47979824;37.32709829;-109.3707506;-22.55904207;-27.75898326;-2.383769743;4.572673584;18.09440414;-19.10095239;47.83280638;-5.180039063
2.614622346;-11.89969412;3.409712535;-3.137597052;-2.932402916;0.020246535;-23.22716115;-47.23226242;-77.85784572;38.99932751;-105.6589517;-22.30034179;-33.69362283;-3.897926765;14.08621773;17.30244583;-18.91906002;44.43366404;-4.495969419
-3.303908417;-19.66148533;-1.043203776;-14.37174116;-5.325972354;-0.152907549;-22.42092854;-42.34134628;-70.51333976;36.73300729;-102.4632184;-24.83116963;-41.62678556;-7.759070353;19.03582028;16.94531338;-16.00638253;38.6;-4.538756998
-8.06986531;-22.00837811;-3.806721203;-23.13633123;-5.64059713;-0.248060905;-21.71082265;-35.44256278;-63.30084473;33.84950131;-98.65679631;-27.4005996;-47.25026167;-11.19407146;17.37260361;17.39152989;-12.92635126;32.39182276;-5.098251579
-10.65007813;-18.67029128;-4.522885706;-25.40159576;-3.553368611;-0.198134131;-20.0583072;-29.87972132;-55.83151737;31.70354301;-93.81406687;-28.69620011;-48.47207526;-12.77452904;9.923926088;18.03472;-13.03492608;28.16704182;-5.62621091
-11.22340779;-13.94428193;-4.029726972;-21.86861473;-0.142917962;-0.02527815;-16.73437076;-27.88023827;-48.52358771;29.52691401;-87.8951472;-28.84140224;-45.483537;-12.71984717;0.21453953;18.01641165;-16.58888466;27.07847566;-5.667979096
-10.85537782;-12.71682822;-3.718508658;-17.23660109;2.897761762;0.191475;-11.56421972;-28.31435258;-41.71587931;26.17463854;-80.53368393;-27.95938458;-39.48667338;-11.8440156;-6.97692219;17.17103037;-20.04641937;28.36013337;-5.215685247
-10.70368798;-16.50151843;-4.723534179;-16.46456581;4.369493906;0.374157376;-4.969639645;-27.5984028;-34.91535083;21.95291382;-70.89582353;-25.13938784;-31.53563095;-10.44407998;-7.912748685;16.23729328;-19.27138375;29.95414136;-4.699306616
-11.32072777;-22.63289297;-7.43301292;-21.04118037;4.231973384;0.486682074;2.132179476;-22.98154776;-27.07103141;18.82569239;-58.47881084;-19.09473181;-22.44984039;-8.239232188;-2.010487787;16.05060853;-13.55343821;29.98098828;-4.614312092
-12.44300594;-26.93300845;-11.44959664;-28.16041599;3.443292024;0.535411296;8.528485909;-15.23615795;-17.72117867;18.86116783;-44.19686361;-9.960896349;-13.50485725;-5.268036613;7.490533748;16.42193413;-6.570945214;27.93172605;-5.081426485
-13.26934549;-27.28852314;-15.82269436;-33.22;3.193219093;0.540037842;13.0067591;-8.239745623;-7.925058177;22.36912319;-30.62837274;-0.335770756;-6.777514592;-2.635425679;15.01993214;15.82573062;-3.31859376;24.76164186;-5.70323246
-12.95817598;-25.0385089;-19.35489178;-33.38947431;4.12013799;0.506233671;14.74390356;-5.703548698;0.052267571;27.42844335;-20.86710883;5.849847824;-4.353052426;-2.13548849;15.7811093;12.42560693;-5.800829488;21.99035915;-5.855728333
-11.06319977;-23.19134069;-20.94904753;-29.36113221;6.009241165;0.424506984;13.70898152;-7.901384856;4.285972835;31.25858515;-16.5981057;6.087297232;-6.774250702;-4.909628747;8.720706763;5.7951917;-11.40379182;20.65213761;-5.201158399
-7.766599045;-23.31116677;-20.03122975;-24.17369797;8.051450071;0.292976296;10.88536711;-11.3298635;4.8104659;32.2855431;-16.80498716;1.463302795;-12.04889954;-10.33028407;-2.602652593;-2.07271515;-15.32850538;20.89762384;-4.012190327
-3.871620917;-23.97501842;-16.93123326;-20.48498089;9.35717057;0.13889328;8.078665522;-11.66994913;3.93539309;31.18581058;-18.19701991;-3.745491592;-16.33644859;-16.21802883;-12.04924501;-7.515764531;-14.73712135;22.35086681;-3.02377353
-0.530337459;-22.15917913;-12.90952225;-18.72055329;9.342906123;0.014403579;7.219416317;-7.476710202;4.838147583;30.10565732;-17.21285028;-5.0213427;-16.17592659;-20.33802748;-14.70278162;-7.455255062;-10.81925269;24.66075706;-2.891331206
1.280443936;-16.22244829;-9.591340671;-17.41209537;7.831380635;-0.034865534;9.384050327;-1.337760581;9.38921715;30.80364602;-12.26460442;-0.901044299;-10.79729161;-21.93902036;-9.973225723;-1.642476235;-7.082647573;27.6481198;-3.653458025
1.36390002;-7.725605326;-7.981777754;-14.98058005;4.979324216;-0.004345155;14.05947708;2.533977693;16.83209682;33.3027542;-4.667031969;5.990731313;-2.793819049;-22.00477164;-1.837158046;6.795079798;-5.732794852;31.00174526;-4.619723678
0.628105865;-0.3924813;-7.686083044;-11.1214092;1.226072771;0.061355779;19.19905291;2.123784445;24.32818883;36.09372858;2.376705563;11.02713499;3.475715608;-22.01219235;4.027084907;13.0853939;-5.661279628;34.02115062;-4.801405399
0.785056166;2.919031959;-6.996716567;-6.652583197;-2.690530989;0.096413352;22.22614624;-0.586672323;28.96447226;37.55265585;5.997843466;11.15346574;4.730579797;-22.33615374;4.232779162;13.77450263;-3.848608794;35.87719694;-3.598694859
3.425673503;2.603618682;-3.967595001;-2.314876196;-5.78926999;0.058343905;21.5110435;-1.490755906;29.72973309;37.2544276;5.56787947;7.159216772;0.884502839;-21.7807124;-0.04401537;8.950574139;1.343808674;36.28443001;-1.256676348
8.972455637;1.996876371;2.175525854;2.065247345;-7.11956879;-0.044495095;17.41284203;1.776241051;28.04203873;36.09125056;3.070516888;2.960761545;-5.03266025;-18.71211405;-4.160428745;2.237726283;8.253386023;35.9394339;1.243370675
16.24897717;4.671395318;10.31201073;7.218981078;-6.204562798;-0.163212617;12.13265667;7.508344473;26.55474429;35.25329673;1.821919663;2.614595537;-9.029850928;-12.80003906;-3.645149203;-1.406654707;13.18531319;36.16253885;2.794298036
23.08517108;11.67911777;18.00558858;13.40861358;-3.381610518;-0.247614473;8.368209592;11.34223308;27.24580062;35.12417424;4.476130261;7.48577406;-8.801600462;-5.762282528;2.35534776;1.396283952;13.56995352;37.88133068;2.862630373
27.64232892;21.01117399;23.05066343;19.9469286;0.248623539;-0.28318635;7.613457444;10.22040305;30.21980384;35.1167463;11.56697666;15.6622712;-5.022164346;-0.331104234;10.43978324;10.67191781;9.976939148;40.78264973;1.810004883
29.5394863;29.51194679;24.88206937;25.81909454;3.309608656;-0.297608142;9.263356335;5.294584711;33.970579;34.5160705;21.32985759;23.74956062;-0.529609276;1.782827033;15.63486111;23.3929315;5.236004281;43.44870151;0.636546157
29.9238923;35.35326217;24.79401668;30.68357306;4.795352773;-0.333773369;11.15998097;0.987110579;36.69129797;33.42934171;30.69835483;29.32369934;1.805784622;1.229765615;15.37482353;35.37233318;1.845536889;44.50218845;0.335882025
30.39113931;38.84608906;24.7904055;35.01656631;4.46764259;-0.412764867;11.18806879;0.890322641;37.51977783;32.85830534;36.77850892;32.0690846;0.900232037;0.500965238;11.715287;43.36791529;0.46087595;43.86904644;1.292197584
31.57036395;41.06651629;25.93238691;39.03761828;2.779214819;-0.516738664;8.762189378;4.221904157;36.84865736;33.76337269;38.04271197;33.01450943;-2.226441901;1.935080295;9.988301411;46.18012641;0.928364965;43.058252;3.091591107
32.50817376;41.88338592;27.4439251;41.48159389;0.452306431;-0.604013727;5.147766829;6.322108913;35.6963808;35.97607948;34.81189019;32.95975729;-5.569212245;5.865599196;14.75798427;44.44505087;4.433415771;44.10962919;4.82776421
31.40175919;39.5323677;27.26543251;39.76058386;-1.92466524;-0.642389355;2.459194379;3.150118415;34.8508707;38.02134557;28.98430551;31.68767916;-7.600481771;10.38942393;25.9978575;39.70338675;13.88502955;47.97646452;5.667627371
27.16379624;32.36731189;23.65;31.91796992;-3.998388086;-0.63334085;2.170763644;-4.098238199;34.51175346;38.13535455;23.21400968;28.57675819;-7.951646445;12.87988051;38.34694429;33.55223449;31.32047273;53.63365533;5.309266356
20.59397855;21.23405882;16.6223603;18.94925378;-5.478235993;-0.608914135;4.274085973;-8.765921211;34.56855707;35.6972706;19.84765402;23.79678495;-7.03997597;11.96583139;44.15473304;27.27090478;54.40207476;58.65420175;4.075273352
14.17850448;10.09943336;8.243174819;5.310019531;-5.980120533;-0.605657287;7.608356126;-3.95431972;35.05461036;31.88203427;19.9849632;18.73864551;-5.29032124;8.419904888;38.35671829;21.76766149;75.68483583;60.81567819;2.638830446
10.58026677;3.953982588;1.51808287;-3.326874991;-5.146635168;-0.636836934;10.91759182;10.62732764;36.23700812;28.95238699;23.04126968;15.13678878;-2.806306731;4.401614526;21.93406806;17.52014378;86.34754033;59.47935291;1.601358955
10.90958335;5.421988239;-1.255966174;-3.670048828;-3.002038611;-0.683074634;13.67714998;26.08254754;38.2527791;28.71381033;27.06445338;13.66692791;0.264176479;1.852785598;1.666103277;14.43565519;82.03261939;55.71830551;1.196521247
14.06152617;12.81212273;0.406472212;3.010739463;-0.202272368;-0.705779458;16.0768891;29.1056867;40.71033088;31.31650441;29.73882354;13.36916595;3.213664027;1.388016208;-13.6528152;11.8720153;66.07646987;51.23844662;1.273455213
17.60758939;21.31444601;5.248008743;11.96514863;2.161059116;-0.671625418;18.38319652;11.41846457;42.7489843;35.27251024;29.61583997;12.52161635;4.854941917;2.394826479;-18.11348071;9.045528159;47.19540338;47.103655;1.511847456
19.55983885;26.50906138;11.27374471;18.53928688;3.201559656;-0.571707809;20.44201013;-22.99966636;43.6195664;38.57360804;26.90649767;10.24639734;4.352509541;3.93390474;-11.71816745;5.687034446;33.31202192;43.31957712;1.679815195
19.69308138;27.44870615;16.89300987;21.39964467;2.902249298;-0.426193928;21.84821725;-58.73543882;43.32108422;39.98726632;23.35212734;7.412303166;2.136006923;5.448980022;0.118994843;2.454201586;26.56867401;39.46101759;1.748367339
19.48521368;26.93038194;21.47326744;22.83356391;2.253540616;-0.2753464;22.55556432;-77.94667623;42.7027438;39.60153135;21.20620543;5.975193296;-0.033318169;6.704490685;10.01503138;0.663459586;23.52360588;35.56628838;1.807812568
20.79466424;28.87084947;25.12941992;26.02758524;2.639516507;-0.162726319;23.1911778;-71.54250585;42.85677025;38.39430376;21.90096687;7.262518066;-0.146360661;7.266902852;12.75883296;1.401153884;19.88026819;32.34697636;1.890083008
24.30622495;34.99994607;28.11305235;31.78107099;4.813873497;-0.116148105;24.59820779;-44.74860072;44.23756326;37.35764934;25.18179532;10.65187436;2.535832133;6.319661265;7.74874633;4.618149664;15.06704596;30.50836272;1.869160357
28.87480534;43.49248904;30.32745596;37.53190813;8.180475702;-0.131925996;26.93683069;-13.26617482;46.21615249;36.90457106;29.22138237;13.78822497;6.756942061;3.21010294;-1.415060774;8.920572987;12.32846007;29.91472856;1.539002061
32.17559487;50.43722614;31.26134118;39.48778439;10.95331226;-0.170462415;29.2374628;7.022813082;47.46570659;36.8741402;31.6436396;14.20711718;10.04337328;-1.70738435;-9.565965597;12.29904265;14.45344906;29.5479662;0.81070377
32.13235782;52.73488421;30.27927493;35.90816641;11.18;-0.17138552;30.00743836;9.466927456;46.92117062;36.90131653;30.86049487;11.0882573;10.50605003;-6.795195938;-13.0305162;13.33631377;19.66131938;28.45597567;-0.146307577
28.13641609;50.05503635;27.01040143;28.59714573;7.990882779;-0.087679777;28.52964253;-1.02559843;44.59728208;36.72746637;26.96679495;5.803496536;8.299220315;-9.863358598;-11.30220048;12.05730825;22.20923251;26.85702329;-0.967678048
21.33992308;44.52459137;21.61191237;21.30775819;2.243534725;0.077724759;25.73295485;-13.4270092;41.65433765;36.26886191;21.7171078;0.932539996;5.562085712;-9.456991439;-6.56376953;9.840438446;17.71588414;26.26196793;-1.348581336
13.9960657;38.79835409;14.82562649;16.54489935;-3.875966238;0.259827444;23.73324199;-18.9844282;39.67500621;35.5829526;17.62954071;-1.403821977;4.839133584;-5.72784265;-1.684577663;8.491114792;8.243283863;28.27706873;-1.301465588
8.375650424;34.32410465;7.844675962;13.68118863;-8.040274394;0.361663366;24.25298027;-16.32298887;39.69117033;34.91141073;16.71746654;-0.659412675;7.188103981;-0.250274535;1.791054532;9.149248246;1.740619296;33.00153782;-1.193332113
5.879944814;31.09151014;2.027814517;10.07993984;-8.996965492;0.315793556;27.18;-10.30190814;41.63347067;34.73728123;19.5065311;2.194123965;11.4403912;4.987629776;4.284382726;11.73791418;5.397056516;38.48407402;-1.492319396
6.675057144;28.62663227;-1.490189315;4.146116042;-7.084269878;0.137650729;30.53387514;-6.686511456;44.50297344;35.61262802;24.8048337;5.553001849;15.1556173;8.583780656;7.127322992;15.18643075;18.4641053;41.94213605;-2.391051474
9.821316889;26.94459921;-2.187663634;-2.590820339;-3.823402164;-0.071840657;31.96777767;-7.44837389;47.02250537;37.6795358;30.29156103;8.072367218;16.46582905;10.05875338;10.76186962;18.10198698;31.4423873;41.92729306;-3.603308881
13.70982504;26.48714578;-0.377779893;-6.443171389;-0.959512121;-0.185166249;30.59931126;-10.17919547;48.24994613;40.20816103;33.59228989;9.029836546;15.34007813;9.588513662;13.74318544;19.36130419;33.38060767;39.64824691;-4.525689521
16.64044269;27.28779273;2.883355063;-4.894759469;0.406030496;-0.132602042;27.62547939;-11.27444769;47.79795126;41.67364741;33.30721106;8.253759048;13.34309924;7.694424828;13.53092651;18.33974712;21.6061478;38.18167303;-4.675974095
17.41671153;28.45628378;6.212154675;0.648609756;0.137436456;0.048942136;25.20226154;-9.561123305;45.69878047;40.57329483;29.52848241;6.016238883;12.22361442;5.260390617;8.648682223;14.89177448;5.24698298;40.00340244;-4.08055047
15.7951488;28.73015392;8.469611855;5.3156946;-1.176005539;0.242393176;24.58534666;-7.181594932;42.21036403;36.52855113;23.66426293;3.058452634;12.57600419;3.626965311;0.558706563;9.356884187;-1.390100989;44.77361827;-3.290604455
12.58250736;27.68754808;9.228262084;4.361222887;-2.702765665;0.336224272;25.18420598;-7.293386124;37.78137032;30.80823386;17.72190122;0.513510079;13.63681709;4.203990263;-6.448162663;2.672224925;9.241391114;49.28399996;-2.98049542
9.264622589;26.42679436;8.921204824;-2.952648501;-3.750132637;0.30532785;25.35062648;-10.93108635;33.10794367;25.7111516;13.42306762;-0.554791625;14.22480429;7.485626271;-7.703109296;-3.629272236;30.70063245;49.81843658;-3.419176446
7.293391035;26.90466552;8.609020514;-12.44484671;-3.919046655;0.223357217;24.12431451;-15.88671037;29.0367177;23.11511279;11.54058568;0.13599752;13.8615791;12.17118148;-1.461072766;-7.812723148;46.7570657;45.18164627;-4.232242627
7.392548527;30.35014883;9.456224081;-17.97058826;-3.127408867;0.195286858;22.25031921;-18.50926212;26.19258421;23.23406189;11.69020663;1.696179764;13.05617313;15.40733588;9.358109023;-8.701272838;44.24355139;37.97275706;-4.666832645
9.263519599;36.07853114;12.11517757;-15.96825522;-1.62735055;0.263656841;21.44112912;-16.77324197;24.52600738;24.55299704;12.59197716;2.494162045;12.59078333;14.45244099;18.53425833;-6.368386048;24.14276118;32.96368567;-4.1793969
11.83222822;41.75242025;16.26970706;-8.011402471;-0.007170667;0.36588153;22.52627654;-11.996183;23.16838249;25.01178199;12.64451263;1.267952625;12.58843772;8.782407514;20.37916581;-2.217062789;1.46311766;33.71713948;-2.896276609
13.84706289;44.9113704;20.58790521;0.588339315;0.946515818;0.380820286;24.27643804;-7.855988614;20.82844468;23.49849361;10.57592021;-1.888019886;12.307146;0.955914427;13.48411564;1.741418294;-6.398027035;40.0183711;-1.575289257
14.46195046;44.53479943;23.22403866;4.902962675;0.591455685;0.229952961;24.17941821;-7.625293218;16.54427013;20.45627662;5.932080484;-5.502858578;10.86156171;-4.757199869;1.710324211;4.010396819;6.583392493;48.10388097;-1.075545572
13.52281849;41.4518712;22.75286249;3.928822972;-1.16076106;-0.048712641;20.65387154;-11.8729387;10.27107466;17.15962741;-0.784742692;-7.792855372;8.143595995;-5.270430135;-8.350152672;4.393082895;30.47988754;53.49085319;-1.728921631
11.50908243;37.46422715;19.09628946;0.895275158;-3.658651271;-0.316835502;14.73032132;-18.31296771;2.848554739;14.35931663;-8.3994262;-8.014287309;4.993955123;-1.013525865;-11.65725773;3.910905752;47.70554552;54.18491785;-3.092137883
9.258953008;34.09429348;13.84048596;0.392984302;-5.761652248;-0.432877963;9.526766686;-23.67278148;-4.652699583;11.54410672;-15.6607348;-7.013847519;2.396790978;4.172343217;-7.700189965;3.947794602;47.13069199;51.79742924;-4.270799638
7.626122692;31.98068162;9.567133216;4.810078125;-6.448992878;-0.354322352;7.764058357;-25.96591059;-11.70722918;7.523380508;-21.85447519;-6.506595129;0.460370547;5.67583079;-0.153487773;5.264995074;32.26456873;49.81914984;-4.570251361
7.149536091;31.12874664;8.419977039;12.81236918;-5.41639432;-0.163403835;9.429417598;-25.48865836;-18.61034568;1.845240451;-27.07345628;-7.655418063;-1.753609522;1.404577239;6.264546611;7.581303017;17.03873753;50.56940953;-3.984053298
7.801817637;31.38203103;10.73964667;20.69168743;-3.247164216;0.003788373;11.7481839;-24.04973171;-26.0141012;-4.238036515;-31.95462939;-10.1095778;-5.230362208;-6.737251493;9.157442858;9.938696886;13.34200786;53.33286304;-3.164486238
8.938784549;32.45612743;14.72997001;25.1174165;-1.015615127;0.066397695;11.66588616;-23.29166497;-34.09097455;-8.23394145;-37.04827939;-12.28159402;-9.661458758;-14.28142797;9.50536488;11.47076015;21.2242618;55.14202588;-2.916571992
9.578946341;33.61757229;17.53742217;25.0417658;0.419172996;0.057012969;8.737659512;-23.45288196;-42.03204528;-8.081651294;-42.28916765;-12.62259268;-13.07846163;-17.40999042;9.902480416;11.94182156;29.90568677;53.46638778;-3.604535972
8.978012266;33.7142137;17.14300118;21.63083375;0.943839085;0.083029101;5.782758386;-23.36693852;-48.35988705;-3.736761341;-47.02511229;-10.85773838;-13.05787775;-15.51404676;11.77340841;11.69491871;28.08386772;48.53272371;-4.899630379
7.192555242;31.9915455;13.79061965;16.87697405;1.184581522;0.2260811;6.521674604;-21.50944355;-51.89611938;2.640625275;-50.65929212;-8.218270195;-8.715451089;-11.28384074;14.0443873;11.16901816;14.0899132;43.34669071;-6.024367855
5.195859042;29.14992051;9.887977125;12.3810575;1.991048513;0.4654427;12.13229706;-17.24543991;-52.67058536;8.112250465;-53.43738902;-6.550441526;-1.868502265;-8.496304111;14.30424842;10.46877863;-2.957346467;41.37998279;-6.289668423
4.326566622;27.45564046;8.359276767;9.145405228;3.797073045;0.68974878;19.79680515;-11.43597429;-52.04865885;10.92079667;-56.68940465;-7.057687272;3.745449426;-9.357059811;11.23782917;9.349043194;-11.55387886;43.76496079;-5.544577718
5.341563481;29.27686717;10.57216943;7.971459839;6.311528235;0.786069839;24.70865855;-6.055518793;-51.92027063;11.4777399;-62.17040052;-9.632329322;4.785255011;-13.35134491;6.023174916;7.564631275;-7.904166443;48.20693731;-4.261435824
7.737393555;34.88010463;15.32200304;9.517996567;8.728473652;0.730300985;23.95552893;-3.070558819;-53.50864471;11.68018787;-70.84619598;-13.16891642;0.467193687;-18.15141854;1.383804639;5.220970396;1.273999858;50.45301798;-3.245260588
9.920891677;41.35886656;19.61063367;13.69543229;10.26440455;0.602913133;18.89563973;-3.244593248;-56.65586505;13.20727929;-81.99667107;-16.46836302;-7.062049163;-21.51556603;-0.838619542;2.806615609;5.323347299;47.19653445;-3.177550638
10.222723;44.00435954;20.64186047;19.08049389;10.6209233;0.518416412;13.83211385;-5.619538011;-60.08224739;16.21802623;-93.38395916;-18.99003906;-14.3851537;-22.60906129;-1.334599892;0.912015988;-0.749656415;38.28825831;-4.255390664
8.074248;39.48280418;17.57862964;23.28808067;10.07268189;0.529867876;12.0602596;-8.105703448;-62.37553754;19.44993118;-102.4733164;-20.98336812;-19.17348786;-21.99992338;-2.60404286;-0.086312031;-12.35927948;26.7640613;-6.089440667
4.46496808;28.45996517;11.84619802;24.38894292;9.185537577;0.589228549;12.83670616;-8.939892751;-62.92889282;21.50137426;-107.8654328;-23.07905354;-21.44651591;-20.80047418;-6.418922586;-0.120552398;-20.23759689;16.8596452;-7.88352243
1.286722934;15.45115882;5.911776965;22.32587793;8.426826164;0.594802485;12.15912303;-8.060422963;-62.13514857;22.11806271;-109.8874958;-25.7467396;-22.92617562;-19.92045211;-11.7591552;0.686682646;-19.10748289;11.53348153;-8.809777592
0.00936931;5.793055286;1.595358386;19.03169492;7.951301732;0.482210746;6.847562819;-7.253535186;-60.77489974;22.38451099;-109.9231853;-28.94724095;-25.24789491;-19.89516431;-15.22108456;2.134657222;-11.92901388;11.12206177;-8.42434284
0.659524119;2.039288668;-0.815151428;16.95564577;7.651451732;0.280004272;-1.756312545;-8.642623988;-59.18498716;23.72194903;-109.0641967;-32.05377986;-28.59666582;-20.96904684;-13.76406693;3.898487781;-6.092234271;13.7316046;-6.929984668
1.851088574;2.654334664;-2.168595752;17.11421244;7.338750034;0.084443162;-8.126393365;-12.44383228;-56.9304319;26.62147834;-107.2126475;-33.99412028;-31.76989634;-22.93900149;-7.520884315;5.438564006;-5.731742252;16.75772702;-5.116072108
1.80977098;3.983161509;-3.379164785;18.29726514;6.860317556;-0.02063477;-7.096144041;-15.88952529;-53.22662579;30.2253622;-103.3693983;-33.61782262;-33.33531028;-24.82272159;-0.172636677;6.133344396;-7.913217741;18.40290968;-3.942495697
-0.408728322;3.659556892;-4.720087891;18.14776161;6.081519962;-0.026631587;1.222585292;-14.77175807;-47.6860127;33.09888898;-96.81010454;-30.29141765;-32.6844609;-24.97815075;3.628853623;5.721275094;-6.425469675;18.39910614;-3.960078125
-4.394808022;2.365048678;-6.002726658;15.25177634;4.836981823;0.007847784;10.8113058;-7.104698276;-40.67836777;34.51305035;-88.05585426;-24.50614247;-30.10511383;-22.07472335;1.771372511;4.744330235;0.786247011;17.83;-4.933440702
-8.83707796;2.367613485;-7.231642678;10.5097923;2.995481579;0.023977146;14.62053038;3.7337277;-32.94989309;35.15927444;-78.70323769;-18.02587504;-26.09136877;-16.37570686;-3.780845309;4.483671042;8.379656026;18.38753883;-5.97592716
-12.46687167;4.295487396;-8.882287838;6.667057579;0.652660682;0.023693168;11.1428241;9.438194123;-24.84077389;36.73595705;-70.19634034;-13.19384095;-20.85758114;-10.10032838;-8.734298057;6.169017937;8.484656919;21.43269007;-6.182026885
-14.72240277;5.409454895;-11.40014926;6.412209276;-1.713730419;0.066653628;6.729132139;1.657117833;-15.86007813;40.78451903;-62.62902748;-11.5989833;-14.68627211;-6.110896711;-10.04302343;9.88551217;-0.58313586;27.13808909;-5.345512996
-15.73424224;1.446791473;-14.41523505;10.56902957;-3.333042809;0.205392255;10.72704445;-21.38816276;-5.12145353;47.69965246;-54.73926781;-12.98220111;-8.686480806;-5.64590306;-8.294559327;14.05112529;-10.58106473;34.0315064;-4.205993939
-15.8724966;-9.201421797;-16.59979873;17.69059066;-3.515208108;0.419772502;26.62631642;-51.4494689;7.610673588;56.58539197;-45.25452641;-15.35887836;-4.883810881;-6.998761865;-6.898634944;16.09884659;-9.462216144;39.33338136;-3.954713041
-15.40196855;-22.72691423;-16.57641348;25.11895327;-2.092794466;0.615421547;46.50413898;-73.48562098;21.13310997;65.88239359;-34.49147713;-16.53601431;-5.075765111;-6.630958703;-8.832921495;14.11538817;7.065103724;40.24256073;-5.295014011
-14.5249367;-31.57071066;-14.22910395;30.46943096;0.405479067;0.694469125;54.32218963;-74.54490696;33.06184114;74.14242884;-24.72872521;-16.01019208;-9.179237313;-2.243107081;-13.83782881;8.31527853;29.09805027;35.67378982;-7.762952717
-13.57776545;-29.88746057;-11.18381407;32.45961505;3.039210262;0.640156661;36.88258795;-52.66511349;41.13957626;80.40642795;-18.79533005;-15.67200153;-14.61648994;4.615533946;-18.59271477;1.142336738;38.43376607;27.32611506;-9.897242425
-12.94681072;-18.62946922;-9.770249161;30.88032053;5.053472639;0.539911141;-5.291894915;-19.25443825;44.71499807;84.16978005;-17.85098217;-18.48125918;-17.68328948;8.888745589;-19.81133112;-4.289929341;23.35641795;19.04939202;-10.22805126
-12.61424386;-5.832115343;-11.10416489;26.31041959;6.374827296;0.521462796;-55.74647346;7.532630173;45.27158348;85.32203526;-20.16910178;-25.90719357;-16.1606389;5.594159707;-17.57840272;-6.401752581;-9.855057059;14.52281265;-8.386600077
-11.79027195;-1.281977023;-13.88827243;20.11143772;7.619101657;0.651438569;-91.15619034;14.46415739;45.53056328;84.33735483;-22.06949601;-36.14137046;-11.12662562;-5.896890616;-15.89470989;-6.328399725;-39.41106182;14.6428401;-5.472709288
-9.226593895;-9.380919043;-15.16076124;14.48794282;9.559024198;0.880354436;-95.80699119;1.914278812;47.72011969;82.52383803;-20.43245717;-44.73766301;-6.297280572;-20.42276266;-19.68246695;-7.046364982;-43.94059784;16.59458428;-3.340191085
-4.273327115;-25.77633023;-12.66577114;11.91750478;12.41051198;1.080844283;-71.30827758;-16.79366615;52.25144926;81.84608939;-14.86200551;-47.49454093;-5.164149325;-30.03132467;-30.536787;-10.95140843;-19.5556097;15.63699813;-3.295378843
2.056896337;-40.54076425;-7.022950719;13.73351895;15.46997252;1.148089212;-34.67124728;-25.17627393;57.73945085;84.08804232;-7.747854416;-43.48335549;-8.12818105;-29.4736837;-44.71883828;-17.67588753;16.14031771;8.644344947;-5.187214003
7.050809657;-45.48384755;-1.776773795;18.72595961;17.41910483;1.079398806;-6.409218973;-15.57893221;62.27402488;89.74947581;-2.142620677;-35.79118693;-12.02297647;-20.02111562;-55.20061342;-23.89265743;37.0370945;-3.106284231;-7.583687945
7.68537263;-39.83450389;-0.967634396;23.1613385;17.14418406;0.968475493;2.521413793;5.338026008;64.90199304;97.48756;0.816591297;-29.23797122;-12.55079466;-8.524841582;-56.34530296;-25.42196586;28.34902014;-14.16803017;-8.880382668
2.681190989;-29.87929986;-5.922831138;22.81302258;14.52852739;0.922885656;-4.230009766;21.62181508;66.17179167;104.6699129;2.788311059;-26.77722846;-7.713043734;-2.347183645;-47.69268802;-20.18753653;-2.776013669;-18.3535473;-8.452599076
-6.292777744;-23.128591;-13.81324416;15.90196105;10.65922663;0.977571843;-14.04071454;19.81689831;67.39863706;108.816979;6.637284455;-27.46473735;0.595732501;-4.131961901;-34.04094742;-9.843778939;-34.36963467;-13.07378477;-6.94997555
-15.35777273;-22.06580183;-19.33471078;4.750121203;7.269307363;1.077719514;-16.23968045;-1.192224124;69.36034213;109.0055649;13.68940007;-27.6898304;8.170862256;-10.526043;-21.94526713;1.168662775;-48.13950985;-1.406314197;-5.559653043
-20.8065083;-22.7514745;-18.47032385;-5.381248678;5.753387868;1.141566039;-9.589267191;-29.43669322;71.57120387;106.2837437;22.18402886;-24.67860334;11.90612249;-15.69510568;-15.4675254;8.471955713;-43.52570859;9.769590834;-4.926413496
-21.50387512;-19.31628864;-11.55614289;-9.673954391;6.38671734;1.143286216;-1.199747918;-48.50253659;72.75505942;102.857162;28.34703931;-19.30507029;12.10035793;-16.48463935;-14.34286727;10.42592317;-35.55843195;14.34592107;-4.686266562
-19.53196858;-10.27594557;-3.253414151;-6.892353427;8.24159868;1.139519694;1.027406697;-48.93495232;72.09937867;100.6866647;29.32860602;-15.70841619;11.69889754;-14.7482452;-15.54660514;8.73264949;-38.94203591;10.98241172;-4.010162846
-18.54126428;-0.981804661;0.68035998;0.125338563;9.830864064;1.214396914;-4.515301081;-34.04809796;70.19231;100.4906056;25.6264556;-17.84057827;13.23286131;-14.88234358;-16.47882922;6.691631285;-52.85458241;3.649795715;-2.64251759
-20.98870817;0.206194225;-2.517630356;6.939667823;10.03946054;1.391549387;-12.29581058;-16.3304943;68.79144697;101.7266584;20.9382999;-25.72411589;16.3231653;-18.85885173;-16.93082186;6.588569537;-60.38352601;-1.551157955;-1.447141759
-26.30264228;-10.97879535;-10.68477117;10.83365491;8.747243452;1.592694018;-15.07698799;-7.773341806;69.54010284;103.3314156;19.44423225;-34.62889201;18.16917303;-23.36456357;-18.38896012;8.233996249;-43.68480343;-0.779425643;-1.871202703
-31.31808866;-30.30202652;-18.35439091;12.20530751;6.786557982;1.683526973;-10.44189068;-11.65903905;72.63058186;104.4934872;22.63526518;-38.11694377;16.72761109;-21.94905314;-21.70717164;9.614889006;-1.899028834;5.253480243;-4.689011331
-32.60476061;-47.23704259;-20.64822142;12.98576947;5.330278417;1.572570215;-2.745998984;-21.6294734;76.48578466;104.8952872;28.21989221;-32.74938157;13.66003906;-10.7081014;-25.54690302;8.903170415;44.17453889;12.60244829;-9.078613917
-28.90748714;-52.3245182;-16.52016561;13.72703604;5.154644059;1.28240584;0.870379466;-27.91266445;78.7382377;104.4549489;31.98904929;-20.79514257;14.00948399;7.284009866;-27.13057552;6.086498568;65.81500248;17.64241061;-12.89533098
-21.91241524;-43.9435176;-9.056153871;12.26627848;6.24757905;0.935132478;-3.345884243;-25.25109654;77.7839472;103.0543578;31.14624923;-8.768964912;22.27344528;22.89012326;-24.64563444;2.975664335;48.09124499;19.82586539;-14.05465847
-14.89890334;-29.16391347;-2.854848001;5.508851366;7.953969491;0.665089527;-12.75337574;-16.36515761;73.78318955;100.6546124;26.4595015;-2.878256032;37.86758371;26.9890355;-19.07968082;1.780987628;2.007567461;21.48387324;-12.00105402
-10.43558875;-18.08461344;-0.668811284;-7.020622746;9.482300772;0.530556408;-20.79569054;-8.844234833;68.46282065;97.70279289;21.59249667;-4.841811544;53.98383691;17.17038733;-13.72895636;3.571420658;-42.95122596;25.10138596;-8.112663261
-8.884910849;-16.22345931;-1.837247193;-21.09381296;10.39277241;0.492969002;-22.51412847;-8.625378718;64.00499212;95.33112642;20.26970905;-11.15052353;61.43473582;-0.255852552;-11.66286694;7.829747456;-60.05598031;30.61116207;-4.70736564
-8.698613673;-20.92213631;-3.448705186;-29.48904266;10.75758396;0.47216683;-18.26875163;-15.50146902;61.91365509;94.94883261;23.61639079;-16.0591715;55.03221617;-14.64715469;-13.2369654;13.20525895;-43.57573252;35.13636168;-3.416953297
-8.035714153;-24.33749116;-3.015031625;-26.7218919;10.94584422;0.422759468;-12.71826938;-23.91389031;62.58745478;97.36070119;29.73173653;-15.74782991;37.70133658;-18.47988907;-15.7515466;18.52109423;-10.16580763;35.42143761;-4.180478793
-6.298815701;-20.29615664;-0.430180369;-13.29052111;11.24073497;0.364229753;-10.34627944;-27.79174913;65.62585833;102.0371434;35.61111294;-10.45397732;18.96003906;-12.15438638;-15.56551129;23.0604377;16.4466;30.82330107;-5.580187082
-4.436879094;-9.403519932;2.199373867;4.038190021;11.57975452;0.343999596;-11.65152092;-25.17379449;70.3162387;107.1535596;39.60892273;-3.314190386;8.628752661;-2.656815008;-10.94226751;26.08484212;24.11668018;24.2162685;-6.149559482
-3.971109768;1.501760755;2.450988178;16.44442199;11.59039337;0.374723555;-13.22371804;-19.02731753;75.7824389;110.4866855;42.33128546;2.605300317;10.33533628;2.48503708;-3.343176322;26.45533578;19.2924306;19.93228597;-5.532138303
