Channel 1 - P4;Channel 2 - O2;Channel 3 - P8;Channel 4 - T8;Channel 5 - C4;Channel 6 - Cz;Channel 7 - Fz;Channel 8 - F4;Channel 9 - Fp2;Channel 10 - F8;Channel 11 - Fp1;Channel 12 - F7;Channel 13 - F3;Channel 14 - C3;Channel 15 - T7;Channel 16 - P7;Channel 17 - P3;Channel 18 - O1;Channel 19 - Pz
19.71591616;0.653081568;23.62105377;15.31900236;4.620058594;0.565199922;-7.67091218;4.863626551;26.74794387;19.39524871;37.97705799;18.23964708;10.23513679;-0.802075254;31.91894527;24.03745548;11.88606781;1.269175685;-0.258572974
24.30523436;20.25111953;31.28096157;27.96067716;7.423012355;0.315899703;0.026170079;-10.51077504;35.00450078;1.003611782;48.96669923;32.3401664;23.31566538;1.221936548;39.23865938;34.11704613;15.91442414;7.686716551;0.407840137
24.85556537;43.84105982;34.55783357;41.4614083;9.10357365;0.192911908;20.93235309;-32.12400644;40.00873695;-16.75421433;53.81460821;41.58361844;34.11303723;4.127021283;39.05581542;36.41523201;18.40532899;15.94345519;1.30313952
22.4043768;59.70673569;33.6680563;49.55952233;9.030158228;0.25986078;42.15590363;-49.29512153;40.90667588;-27.8304489;52.82080052;43.41026942;39.11328168;5.599515429;33.89704227;31.78609224;18.03483292;20.61452217;1.851156594
19.34264691;61.04510131;30.82668546;49.14135415;7.466417801;0.434281646;47.44941082;-53.65038055;38.2768705;-30.15647547;49.00080576;39.09105249;38.07907769;4.500724377;28.57136528;24.42264305;14.79592639;18.63753744;1.763089705
17.54867789;50.0707201;28.29395382;41.80323737;5.340447626;0.561405873;28.47173296;-43.82036453;33.97495891;-26.52323688;45.91590784;32.84861266;34.05030386;1.818929339;26.94;19.38347004;10.49296839;11.43963622;1.242484918
17.21595555;35.61548265;26.78998964;32.39116;3.630899758;0.536457514;-8.847918705;-25.80511257;30.09813508;-22.27568833;45.30685098;29.02182801;30.9815085;-0.146790913;29.58126646;19.59809733;7.740350246;3.757430608;0.79073338
17.18812518;26.46404282;25.45520244;25.68791863;2.806258041;0.378423088;-47.60502096;-9.149535366;27.72122802;-21.60422011;46.17430199;29.32381116;30.86236296;0.286865241;33.94129905;24.29419969;8.060235827;0.096991421;0.778708109
16.35112221;25.70026398;23.15995392;23.63782418;2.678477604;0.202946629;-70.5181458;-1.458526868;26.38202515;-25.0649391;45.90495743;32.18541426;32.59172304;2.750305653;36.68554623;29.86606713;10.64955446;1.587426369;1.150692142
14.81937684;30.06406531;19.87798606;24.92742415;2.711550484;0.12476497;-70.26593091;-4.500442279;24.79235631;-29.8739707;42.55452339;34.53188657;33.41508411;5.079491283;36.34166671;32.53430819;12.97325008;5.591040581;1.510039063
13.91387025;34.02621457;16.9048903;26.86879238;2.506458416;0.172013715;-52.59352146;-13.97873944;22.24775225;-32.42952239;36.56413317;34.42696363;31.59969267;5.076049272;34.20659497;30.92025338;12.80512058;8.186915296;1.502465639
14.99384;34.65510675;15.78817182;27.84397731;2.093813811;0.276662019;-30.85362557;-22.79116225;19.54688176;-31.0234961;30.62818442;32.4140446;28.02593474;2.339202404;32.93474907;26.77190799;10.03461431;7.389221808;1.154283907
18.16533591;33.26854026;16.96463941;28.35;1.846321134;0.338235835;-16.73764867;-25.56704443;18.55223219;-26.83428641;27.81810499;30.58395424;25.36917619;-1.314301585;34.07458108;23.44885612;6.70337967;4.514529022;0.865794092
21.96937722;33.07949414;19.31946719;30.00482072;2.11714857;0.301091083;-13.93576555;-21.63893606;20.64315278;-22.76918128;29.35732186;30.36880583;25.66528768;-3.178091963;36.60891143;23.38471938;5.257179392;2.76478037;1.064596746
24.32299123;35.55565162;21.05085096;33.58182596;2.895204028;0.183856924;-18.34512987;-14.73483827;25.30985996;-21.30882965;33.67807018;31.1082347;28.44985723;-1.682862876;37.68064943;26.41139436;6.554894296;4.402864052;1.821695605
23.96064379;38.99148805;21.09598791;37.84936936;3.727053794;0.04775539;-23.21732521;-9.872872858;30.12273897;-23.02641624;37.42026356;30.66822861;31.12172874;2.431797403;34.88580176;30.09152547;9.357892448;8.93740106;2.763802576
21.2419222;40.39581676;19.91458138;40.19775067;3.947314897;-0.058163552;-24.50709063;-9.771669414;32.23077294;-26.68059994;37.61488871;27.51;31.19291451;6.629839608;28.25713825;31.66931595;11.6539854;13.71223327;3.355700437
17.73425421;38.60335092;18.99544289;38.50423243;3.052299827;-0.125787025;-22.63911517;-13.29390368;30.27773529;-30.4821419;33.49571389;22.28518856;28.41240191;8.305939747;20.34974008;30.09532761;12.4963326;16.18414753;3.308227565
14.96708983;35.47444832;19.53133727;32.70713736;0.983266992;-0.174188217;-20.46452633;-16.84830388;25.2561066;-33.36254167;26.75607742;17.45312094;24.87460026;6.435013688;14.40798203;26.64656185;12.60252799;15.81374908;2.768735877
13.37280069;34.01032331;21.37634136;24.88561807;-1.827953201;-0.217721252;-20.0833365;-17.4439887;19.67828201;-35.32419377;20.25444377;15.20888811;23.03207474;2.070820053;12.13726463;23.82007813;13.17884285;14.00458061;2.151162855
12.20764668;35.24962663;23.12459962;17.89075789;-4.646506845;-0.251401169;-21.33538617;-14.91563743;15.80236814;-36.86033812;16.23067943;15.5644036;23.41392514;-2.434837171;12.85892047;23.4784204;14.18621098;12.36269539;1.777328988
10.41477204;37.04260252;23.20533338;13.65140012;-6.739534411;-0.264393671;-22.63606681;-11.63954389;14.34219344;-38.17919214;15.25981945;16.33441936;24.12299583;-4.77781724;14.60940666;25.67498977;13.89372522;11.0408843;1.650363821
7.655337186;36.0520289;21.08627541;12.34676692;-7.656811466;-0.260723246;-22.71992375;-10.1885977;14.54860954;-38.98143249;16.43123513;15.09256991;22.59504224;-3.74914774;16.09497503;28.92199669;10.41640061;8.768054988;1.541105394
4.672433729;31.22133111;17.65689229;12.7870278;-7.381357202;-0.260253737;-21.52867329;-11.06878852;15.30112961;-38.92095644;18.28421404;11.37919596;18.06232768;0.415241313;17.72356153;31.49349697;3.999603578;4.535014844;1.27585603
2.758832283;25.39368251;14.57808528;13.4066584;-6.301471666;-0.277213021;-19.78666015;-12.51293312;16.03850333;-38.22308938;19.62728436;7.17368155;12.49718378;6.256453023;20.78891965;32.63641137;-2.121531339;-0.69439279;0.937565123
2.829713801;23.29122163;13.19439574;13.02984329;-5.016244937;-0.301174933;-18.16538844;-12.4232691;16.69512168;-37.79896284;19.74322466;5.164877981;9.129012617;11.60715396;25.55704845;32.8014017;-3.434269387;-3.996836359;0.788034894
4.85676644;27.37689028;13.84899705;11.06621952;-4.052013031;-0.306099998;-17.04586317;-10.60016135;16.92445686;-38.6536059;18.18259378;6.328410285;9.775816251;14.28311758;30.07016769;32.90853017;2.616355546;-2.482781486;0.990990252
8.040617948;35.22988999;15.99210804;7.42250174;-3.622761386;-0.284083722;-16.90056543;-9.116357779;15.67581471;-41.02054916;14.69666165;8.977483283;13.30527383;12.9314963;30.99093229;33.43010249;14.38305474;4.277179571;1.409811686
11.459483;40.97147726;18.78790702;2.541575052;-3.569906396;-0.27054318;-18.4797893;-10.38488254;11.85357425;-43.93581616;9.565584698;10.17510929;16.57838607;7.814955105;26.1044802;34.09470361;26.66869229;13.45375371;1.688930318
14.58887138;39.82195316;21.60466465;-2.431893391;-3.531591628;-0.328864855;-22.23695629;-14.63979052;5.620484796;-45.66936461;3.97886529;8.292635693;17.06815423;1.028990012;16.56448791;34.3557175;33.9271997;20.59029107;1.56277578
17.29774095;32.05044537;24.03559902;-5.772719381;-3.245886104;-0.498086815;-27.44423754;-19.2202463;-0.954567329;-44.79816263;-0.143055659;4.445365009;14.88644597;-4.274575806;6.917685102;34.05626709;33.63497912;22.48340089;1.114402594
19.45527266;22.92078804;25.62856641;-5.882843057;-2.782143171;-0.745548114;-32.05798216;-20.52650341;-4.838675997;-41.21237968;-1.106252036;1.494924659;12.47695119;-5.493881605;2.514390946;33.5870034;27.35770174;19.10159118;0.734545845
20.63732606;18.53696659;25.78022494;-2.293432733;-2.519379362;-0.970007324;-33.8358764;-17.0904592;-4.118419957;-36.351769;1.34755662;1.455800847;12.27570902;-2.132060856;5.939045403;33.36025947;18.93895314;13.11820554;0.792512115
20.29469254;20.95331854;24.03275355;3.800918463;-2.8603256;-1.061887589;-31.96524665;-11.0569616;0.400435522;-32.4641973;5.526497379;3.581549292;14.40700318;3.770319133;14.99270144;33.11308637;11.51187903;7.568478025;1.293494841
18.2717168;26.56540867;20.53813486;10.03581068;-3.874338619;-0.977902659;-27.79075988;-6.625577018;5.523055847;-31.31966892;8.549942562;4.84636443;16.43279242;8.752986173;23.78431363;31.77148335;5.78344349;3.601910053;1.826047328
15.18548912;29.07252274;16.20298717;14.16192269;-5.141980645;-0.771456454;-23.88890563;-6.640349163;7.854738512;-33.17473574;8.03;2.457156928;15.3741993;9.952424346;26.32529589;28.15022003;0.722239672;0.104447493;1.86587254
12.24298472;24.52843968;12.25778462;15.18850574;-5.948704802;-0.553896828;-22.18549999;-10.21662725;6.183347698;-36.63384124;3.55114404;-3.741074049;10.26448801;6.689388821;20.26254194;22.01629287;-4.367050441;-4.666677068;1.199251261
10.53819927;14.36362911;9.511340657;13.53234117;-5.722680046;-0.417428418;-22.69350636;-13.48997896;2.140462118;-39.49623356;-3.110155038;-11.00965518;3.071992857;0.601494174;8.304676064;14.65565085;-8.491740091;-10.96119434;0.1210409
10.33301421;4.076645089;7.879258907;10.16527256;-4.420520916;-0.380378682;-23.89815281;-12.89519931;-1.376729486;-40.06448992;-9.185109389;-15.78869832;-2.731312707;-5.634168488;-3.493613541;8.401643089;-9.612034096;-16.78978553;-0.759025807
10.88157588;-1.089483038;6.594125545;5.626738705;-2.587223359;-0.39417832;-24.32420686;-8.168650029;-2.657377891;-38.10839071;-12.64882335;-16.29710286;-4.684619818;-9.951293542;-9.334209679;5.367039137;-6.624664699;-19.2080796;-0.953580548
10.95062392;0.152828317;4.947669094;-0.145857921;-1.043563886;-0.398383604;-23.78449574;-2.493226438;-2.40561962;-34.903491;-13.24738601;-13.49968823;-2.847719639;-11.74603588;-6.816217005;6.240779632;-0.792962692;-16.58897836;-0.441812409
9.651756007;4.8723124;2.957279666;-7.033512765;-0.415498768;-0.372143407;-23.20091464;0.296798617;-2.736104326;-32.35492653;-12.17309063;-9.807126857;0.783741154;-11.53405722;2.182145543;9.973261629;4.765423;-10.05256703;0.330390503
6.975869419;8.843530725;1.396086534;-13.84918923;-0.818568824;-0.339671662;-23.31505399;-1.032101392;-4.902327548;-31.79469559;-10.8126358;-6.873182643;4.199293354;-10.00056981;13.046486;14.5205052;7.17912095;-2.921757443;0.76968807
3.680147151;9.862649781;1.153001714;-18.41129872;-1.879171477;-0.332559246;-23.6785503;-4.238421796;-7.849667955;-33.22817577;-9.658729602;-4.5280645;6.837139908;-7.393692458;21.09204049;18.07150598;5.769692064;1.382516326;0.516301143
0.69519194;8.73;2.456611741;-18.81019051;-3.027159099;-0.350462222;-22.99259769;-5.777990503;-8.951208503;-35.48007813;-8.222355114;-1.681706881;9.419092724;-3.714487461;23.68203755;19.91269959;2.277362476;1.455804209;-0.381948725
-1.435858981;7.552442002;4.621872651;-14.93427761;-3.825543257;-0.359171577;-20.4720773;-3.970230712;-6.325070768;-37.07570452;-5.866725101;1.884370728;12.59099795;0.673680287;20.86895479;20.45019359;-0.686852109;-1.418159419;-1.577786331
-2.670313458;7.397789203;6.548171931;-8.899924321;-4.128538177;-0.326053547;-16.8245721;-0.286180256;-0.684617964;-37.21527581;-2.702028534;4.744401635;15.86884639;4.77730202;14.71870019;20.5709291;-1.553021655;-4.357209408;-2.671992299
-3.140152884;7.599943411;7.566926434;-3.82173148;-4.028460275;-0.255831339;-13.75958235;2.312395102;4.961003716;-36.18677671;0.31107366;4.955433785;17.96790891;7.422290889;8.097376318;20.94324049;-0.514309058;-4.829498547;-3.391487108
-2.771747609;7.117924779;7.933615983;-1.749710763;-3.707454517;-0.189994213;-12.40398449;2.309818538;7.563806228;-35.0043811;2.139233722;2.059582585;18.14824826;8.051009454;3.596412509;21.75099118;1.296664254;-2.126160983;-3.602293558
-1.244362011;6.243115617;8.541264843;-2.378498956;-3.331089457;-0.169688299;-12.17341382;1.028436062;6.332009729;-34.61718958;2.597383011;-2.03168655;17.15373323;7.118891497;2.814528343;22.89152842;3.158750751;2.458578324;-3.227881436
1.663542405;6.662940937;10.07387888;-3.567977091;-3.023051622;-0.198755825;-11.32938357;1.160252488;3.10254671;-35.2911425;2.51741385;-4.332397781;16.67073716;5.692499933;5.934971621;24.2809714;5.310534837;6.622433119;-2.210960871
5.670748195;9.650392564;12.2947089;-3.233301543;-2.863214078;-0.244357528;-8.852534406;3.870666271;0.519445415;-36.55931576;2.930599915;-3.291237142;17.66617566;4.590304794;11.6169275;25.91364875;8.30327499;8.455009127;-0.581832465
9.938029878;14.19465071;14.08157753;-1.02361166;-2.853883974;-0.275769886;-5.880788417;7.313374549;-0.331150917;-37.66237552;3.938818807;-0.298555554;19.12852283;3.831592964;17.39498644;27.65480267;11.97963531;7.424165105;1.433363532
13.47100001;17.17124229;14.2361265;1.590314216;-2.882494346;-0.302732744;-5.181475683;8.108818448;-0.729480847;-38.05633765;4.304647478;1.284358958;18.50620987;2.865252661;20.68092767;29.05997777;15.22124702;4.524881819;3.390087891
15.68505858;15.79860497;12.46602749;2.814228001;-2.763016091;-0.371966034;-8.865607968;4.525223512;-2.891101066;-37.60815052;2.250499733;-1.10112705;13.67144596;1.316478385;20.03973419;29.5074156;16.77599264;1.641467746;4.753441471
16.678534;10.33493128;9.766094685;2.237268168;-2.381323613;-0.519131357;-16.25669983;-1.603886544;-7.625568845;-36.4469147;-3.055012126;-6.964746115;4.840170082;-0.491723314;16.02611426;28.61344934;16.34538657;0.492392882;5.121539049
16.9931599;4.439835702;7.849357568;1.210339863;-1.843869337;-0.718525246;-23.87789387;-6.136275264;-13.22769274;-34.75189195;-10.4877956;-13.01825904;-5.179950935;-1.760962685;10.95259799;26.58218339;14.80867346;1.658508479;4.413523695
17.06872362;2.506755508;7.984651677;1.553163576;-1.469852611;-0.880923792;-27.76772158;-6.05678978;-16.64361971;-32.7540271;-17.31634116;-15.77529106;-12.68359927;-1.985283292;7.586386252;24.13545617;13.29183138;4.171287556;2.912402186
16.85410221;5.982508104;10.05333638;3.746260734;-1.56815303;-0.910615221;-26.29815232;-2.024559983;-15.9332222;-30.93041658;-20.77454352;-14.31937448;-15.38301576;-1.532408004;7.521419565;22.00991117;11.95457817;5.932763882;1.142230872
15.89872939;11.79442149;12.50584468;6.245356072;-2.141890695;-0.779259605;-21.18780193;2.301342277;-11.90939124;-30.088081;-19.78140249;-10.91020224;-13.57601865;-1.460418647;10.25650475;20.40552973;9.722932716;4.83895311;-0.354758709
13.83309604;14.41024741;13.27847695;6.589718529;-2.783211369;-0.555107235;-15.94272242;3.559530277;-7.566839057;-31.0664403;-15.59798847;-8.972336065;-9.437354962;-2.690909434;13.5674319;18.86262037;5.352090938;0.032091397;-1.237402579
10.81018235;10.0446068;11.07318359;3.408155423;-2.915711075;-0.360374428;-13.15159191;1.576251564;-5.832866851;-34.14289882;-10.98870813;-10.25602807;-5.262062119;-5.251585148;14.89430189;16.72028567;-1.077272255;-7.477299786;-1.487182392
7.512750175;-0.326830737;6.170994303;-2.368248079;-2.259040162;-0.28875168;-12.94707057;-0.818773763;-7.561260659;-38.58699182;-8.521391899;-13.60316263;-2.195620002;-8.238068091;12.81410749;13.8196765;-7.637715605;-15.2683536;-1.376282455
4.708754145;-11.5620329;0.286787164;-8.106121445;-1.157568352;-0.347788421;-13.75610004;-0.831842314;-11.35210025;-42.81379648;-9.182614523;-16.25820458;-0.302098766;-10.4944962;7.698452647;10.87293433;-11.63235431;-20.81197501;-1.285572048
2.734999571;-18.04110166;-4.381500747;-11.3593584;-0.456934792;-0.468853434;-14.33511899;1.355544494;-15.09534772;-45.1682785;-12.13679844;-16.40315479;0.514997398;-11.38811458;1.296731474;9.149383389;-11.48254686;-22.78782482;-1.452908131
1.360550125;-17.47307939;-6.260604484;-11.46035957;-0.940920486;-0.570360721;-14.99997578;2.678385762;-17.67089891;-44.84792225;-15.56435151;-14.5928473;-0.063864877;-11.02823793;-4.288697051;9.669693958;-7.870390108;-21.56270948;-1.795983181
0.155494663;-11.89771582;-4.995315824;-9.549503028;-2.713599968;-0.618024565;-16.89308079;0.376761926;-19.29226372;-42.29454798;-17.8036927;-12.88033282;-2.341168755;-9.849843647;-7.494092922;12.51251434;-3.170953092;-18.58663538;-1.945149434
-0.959395975;-5.386968109;-1.27823688;-7.174332725;-5.013230339;-0.634373899;-20.15104087;-4.726310891;-20.41650981;-38.75;-18;-12.58732068;-5.679078316;-8.079890098;-7.615306413;16.77646139;0.347315948;-15.2519585;-1.50496502
-1.490467936;-0.624102621;3.800747548;-4.810175408;-6.655703402;-0.658262587;-22.98595971;-8.194531073;-20.5541486;-35.31443854;-16.03508482;-12.89684691;-8.241472404;-5.655027812;-4.662008357;21.23321631;2.052315549;-12.10485318;-0.389861133
-0.727901031;2.775216737;9.340957339;-1.640211712;-6.826656838;-0.698456751;-22.84253399;-5.634381316;-18.36096309;-32.24586648;-12.12386251;-11.62397232;-7.989521509;-2.63544494;0.852552851;25.15433469;2.996805384;-8.928223465;1.019230722
1.565743574;7.064688357;14.77490081;3.261943674;-5.649290228;-0.725401808;-18.72743904;3.077627922;-13.0564071;-29.0541547;-6.607980182;-7.442604299;-4.270249717;0.396708988;7.933101306;28.64748098;4.59359956;-5.458354744;2.061938058
4.70588008;13.66567493;19.61544882;9.490962775;-4.098368345;-0.705008005;-12.51108407;12.97281648;-5.790268663;-25.28516006;-0.108451765;-1.449284076;1.386827362;2.480196069;15.06247931;32.23137327;7.184613557;-1.999957604;2.243279419
7.306463123;21.45050715;23.18530922;14.99272018;-3.315433571;-0.637431997;-7.782161599;17.71075752;0.53648237;-21.3031537;6.270376061;3.472112032;6.105060833;2.925984214;20.43096775;36.00825327;9.760703358;0.629447614;1.618409988
8.088140649;27.40584793;24.6914589;17.25936246;-3.831125567;-0.560681587;-7.051115941;14.85409165;3.132033306;-18.34398146;11.1052383;4.990009766;7.591364987;1.870913322;22.57231527;39.14993918;10.97645321;1.74690862;0.793619268
6.708085187;28.9101971;23.66728912;15.09700475;-5.261876867;-0.514826403;-9.707326376;8.058777685;1.391525339;-17.69199991;13.25909365;3.270794788;5.651758466;0.144622679;21.12031134;40.19475431;10.43516143;1.42652985;0.489014163
3.989016528;25.58221344;20.42936119;9.528963686;-6.674057274;-0.502015571;-12.58520897;4.043295025;-2.610213669;-19.57845776;12.52853254;0.747221545;2.105851928;-1.496519457;17.14277214;38.01204052;9.042354725;0.518136365;0.966040018
1.35643023;19.2614293;16.10568327;3.128042965;-7.300837018;-0.482287972;-12.70764416;6.789256497;-5.721775932;-22.70385436;9.793499307;-0.10832314;-0.738276393;-3.053735412;12.69182569;32.72967248;8.145717786;0.029530035;1.774322972
-0.11731172;12.43171206;12.08644495;-1.647792674;-7.056962132;-0.410940438;-9.80925781;14.01642361;-6.126713341;-24.87666703;6.475610965;0.999785478;-1.716499865;-5.176333639;9.731505277;25.89199212;8.302529313;0.383235002;2.059564785
-0.374946487;6.631344622;9.211493006;-3.819704689;-6.497419025;-0.283026395;-6.413907401;19.12676292;-4.577364329;-24.42122703;3.665620133;1.996077655;-1.246176879;-8.283305352;9.069713881;19.66257687;8.809488217;1.126512089;1.235193457
-0.289076194;2.098022702;7.271081877;-4.044397636;-6.320315675;-0.142975601;-5.430925909;17.0289593;-3.491832087;-21.37540348;1.568572044;0.440872222;-0.41779475;-11.74539798;9.962757426;15.59562236;8.3718644;1.253000531;-0.496599156
-0.941384736;-1.449320807;5.222568377;-3.713928815;-6.844116954;-0.049667177;-7.463833043;8.757770323;-4.786559817;-17.57484239;-0.320905224;-4.090973688;0.225655431;-14.02353395;10.63389847;13.82468869;6.234351072;-0.192814737;-2.206033714
-2.830120037;-4.004114949;2.016144542;-3.912519215;-7.846189196;-0.028800853;-10.25921297;0.777084988;-8.32814948;-15.48126704;-2.479987654;-9.441417793;1.041871326;-13.83194485;9.364167035;13.20772126;2.734040069;-3.680237031;-2.867160168
-5.571099684;-5.320921381;-2.544459726;-5.013239624;-8.810437152;-0.055769444;-10.75142846;-0.473796446;-12.2243909;-16.51796145;-4.676182105;-12.66105966;2.556007206;-11.38338434;5.487030189;12.26603253;-1.140837699;-9.098525474;-2.09003418
-8.238704635;-5.598573846;-7.534868897;-6.938830872;-9.309521319;-0.083036681;-7.797343443;6.001241024;-14.50235367;-20.06475343;-5.923728667;-12.57349286;4.521332988;-8.544752981;-0.253414104;10.20490427;-4.640740808;-15.84290483;-0.390611827
-10.01;-5.813394205;-11.44188754;-9.518725572;-9.205883264;-0.084487895;-3.113193165;15.14046635;-14.57965066;-23.83943684;-5.156257542;-10.81685685;5.828007875;-7.592699958;-6.081464271;7.315156062;-7.680827589;-22.87865853;1.205758084
-10.60545623;-7.084188059;-13.10776614;-12.47978384;-8.587803988;-0.074917957;0.364070123;20.47734377;-13.30757821;-25.43704585;-2.125153298;-10.42596931;5.418997247;-9.505598231;-9.993968655;4.585891503;-10.43925006;-28.82163063;1.906580197
-10.25996686;-9.547568506;-12.39447324;-15.19816886;-7.61319285;-0.088670543;1.081603451;19.79599835;-11.80420976;-23.98042953;2.163519586;-13.205908;3.310880451;-13.22797562;-10.54802459;2.960327228;-12.64618032;-32.24989855;1.659230533
-9.367062403;-11.88730717;-10.09840427;-16.72540528;-6.470252382;-0.141530827;-0.000669209;16.66420517;-10.39424241;-20.73564612;5.843373149;-18.19167184;0.657599979;-16.57238381;-7.344390901;2.858873553;-13.40539676;-32.29453881;1.055868918
-8.163587178;-12.15459174;-7.227904515;-16.34254279;-5.468730173;-0.214964229;-0.722615034;16.54254808;-8.714264774;-18.24786318;7.198774021;-22.47646912;-1.277132505;-18.00448945;-1.152005646;4.256396471;-11.83332759;-29.17247955;0.770515448
-6.70129411;-9.282911089;-4.24022709;-14.25411047;-5.070235378;-0.277404575;-0.081658392;21.20386817;-6.74900657;-18.58042091;5.653385407;-23.58121888;-2.255463657;-17.75462085;6.26689448;7.06106527;-7.928128448;-24.16110875;1.025159671
-5.036462228;-3.955450185;-0.839202585;-11.70789289;-5.68388991;-0.318398835;0.744661048;26.80085073;-5.55231835;-21.87678038;2.116124942;-21.25286826;-3.143749311;-17.28135874;12.59922529;11.28649858;-2.78445357;-18.86373184;1.509598625
-3.366599129;1.9912015;3.537732644;-10.23569397;-7.302362786;-0.357643433;-0.247904677;27.53610003;-6.695758428;-26.25452584;-1.516306502;-17.2368143;-4.768298155;-17.60793047;15.68655818;16.76126828;2.124848068;-14.24935476;1.75731556
-1.933479521;7.093425117;8.977212476;-10.53142564;-9.294130242;-0.417161154;-3.501240081;21.56559991;-10.80473137;-29.11066319;-3.385619825;-13.48254822;-6.643232403;-18.11778277;14.37871024;22.64592942;5.951910256;-10.26375331;1.589994551
-0.788326942;11.294952;14.72236844;-11.92498236;-10.63539799;-0.48533381;-6.921454983;13.4523501;-16.5797521;-28.91269481;-2.627866573;-10.60093488;-6.938086577;-17.0205615;9.205062157;27.33405508;8.800058594;-6.396122118;1.224265429
0.305300097;15.52632672;19.48810819;-12.97875801;-10.5315654;-0.514335032;-7.482102716;10.48929964;-21.38832681;-26.19263867;0.252851187;-7.966984338;-3.972651185;-13.16184057;2.419400492;29.07963995;11.06940851;-2.712860484;0.981616982
1.662738278;20.27378437;22.20476411;-12.75108329;-9.009235768;-0.461608478;-4.046700009;15.94679629;-23.08230054;-23.03253529;3.745001673;-5.137712342;1.97208506;-7.52608794;-2.833737408;27.06923847;12.53550585;-0.327650478;0.922451965
3.302648019;24.5946732;22.60307096;-11.62681806;-6.996105456;-0.339407925;1.277503066;25.50042413;-21.49664493;-21.43964534;6.176534548;-2.935836481;8.234780251;-2.926081274;-3.995201415;22.16490465;12.22766138;-0.669024462;0.784698007
4.758172202;26.64710911;21.21754895;-10.9455935;-5.752827601;-0.221052081;4.720009766;30.58621558;-18.30489619;-21.84578234;6.571871055;-2.921832031;11.37481106;-1.942120264;-0.475280536;16.64497502;9.429810681;-4.011786933;0.297262557
5.320940001;25.33442801;18.88632418;-11.71881897;-6.027124902;-0.188267741;4.0974576;26.18424501;-15.39810737;-22.88157412;5.07801967;-5.671042923;9.644378425;-4.803192387;5.909376044;12.95782345;4.934365569;-8.593700879;-0.442996213
4.593625691;21.51314557;16.22094428;-13.57391298;-7.550367079;-0.26083993;0.785479163;16.1124531;-13.32736455;-22.59885721;2.772924945;-9.614811176;4.303074347;-9.089476772;11.85053667;12.27134278;1.205816144;-11.36563323;-0.928099283
2.910180678;17.52347862;13.47326536;-14.90698306;-9.262012902;-0.37326473;-1.499615478;10.5484084;-11.27139912;-20.16820793;1.003394339;-11.82409903;-1.369954283;-11.62472133;14.40120859;13.8287257;0.934956342;-10.09234141;-0.625032193
1.223531241;15.34739817;10.80225045;-14.16941774;-10.09495111;-0.426023217;-0.110839043;17.13802087;-8.486005394;-16.66640827;0.645432396;-10.29100971;-4.571969944;-11.00336073;12.68822084;15.58488016;4.946615128;-5.220039063;0.528745533
0.468482679;15.0402283;8.547168687;-11.19532546;-9.723685286;-0.371041702;4.036994139;33.03561923;-5.681553607;-14.26158305;1.707695756;-5.71522863;-4.892358363;-8.583855013;8.393365968;15.67484306;11.21297393;0.13050638;1.97727003
0.862999361;14.90671649;7.12472176;-7.418712185;-8.716979642;-0.254616685;7.274592367;45.13371342;-4.756296487;-14.40100468;3.486271559;-1.071891737;-4.084418112;-7.083650568;4.645497536;13.65724036;15.99095447;2.280009766;2.917184082
1.72;13.29463579;6.586511904;-4.79275445;-8.013969794;-0.174543223;6.661330711;39.25894612;-6.901400525;-16.47784391;5.13922172;0.810710523;-4.032115036;-8.024545161;4.0078767;10.65706444;16.3676807;-0.327794494;2.89838258
1.975940732;10.33019393;6.304214024;-4.341993122;-8.168382603;-0.185785662;2.969104339;11.51023905;-10.82718901;-18.1474509;6.286258403;-0.433309901;-4.836045374;-10.31964927;6.881801737;8.368849097;12.25207227;-6.02812023;2.146639871
1.07005127;7.913529135;5.250890763;-5.549532958;-8.958289754;-0.240759109;0.31487843;-27.33382894;-13.02525976;-17.15532536;7.227842292;-2.597286923;-4.780257867;-11.29286365;11.3915583;7.729702537;6.237148538;-11.3652303;1.334163731
-0.508040093;7.907419259;2.84760141;-6.987873215;-9.633141964;-0.224916215;2.600851302;-58.21417603;-10.26003906;-13.25368412;8.639881769;-3.130292849;-2.174140661;-9.228881075;14.79524842;8.283017867;1.507525711;-13.90392808;1.007332188
-1.466771781;10.21015309;-0.248294882;-7.502193947;-9.552031848;-0.063497531;9.90548378;-66.39362506;-2.359659907;-8.602998641;10.96744314;-1.660511948;2.698967652;-5.12403499;15.38759142;8.682641218;-0.421483733;-14.07080095;1.178673365
-0.617192198;12.61783942;-2.165960043;-6.863887031;-8.683380956;0.194000878;18.13943718;-50.84238822;7.16023506;-6.208681517;13.96003906;-0.420029297;7.429854116;-1.967201587;13.52165727;7.896121007;-0.289824947;-14.45492615;1.429853088
2.227791875;12.7652003;-0.865370345;-5.447607678;-7.594981534;0.392939077;22.38574854;-23.69856106;13.41448721;-7.551948793;16.70215818;-2.06293808;9.392749879;-2.090401006;11.05858768;6.148042749;0.292826784;-17.17044032;1.398689336
6.042099922;10.4406119;4.425875848;-3.481565823;-6.997864506;0.389368352;20.98320495;-0.934835173;13.6626543;-11.31500048;18.1503626;-6.81936128;8.05277666;-4.929371253;9.765928655;4.878298247;0.740775303;-21.59797526;1.17134465
9.238788938;8.087964103;12.45531443;-0.785771652;-7.241634061;0.167830649;16.69306366;8.173434825;9.169990122;-14.29886136;17.83254096;-11.67418078;5.566095837;-7.274819787;9.993382306;5.758817011;2.047240007;-24.55614629;1.198182978
10.71567854;8.876007131;20.54982847;2.700306674;-8.136645978;-0.140847257;13.93671802;5.141110691;3.931676156;-13.87432484;16.24015663;-12.52979135;5.04626857;-5.940019531;10.70081198;9.504061599;5.486971142;-22.8762614;1.811194809
10.53609204;13.95341911;26.26513167;6.245212087;-9.165858527;-0.359755521;14.70609307;-1.84741315;1.451309873;-10.01911309;14.63749884;-7.609114649;7.950316985;-0.600787109;10.7659591;15.31516704;10.76802538;-16.23499324;2.81400736
9.770520033;21.33605051;28.91876922;8.425821937;-9.844890467;-0.399414728;16.97175737;-5.568012115;2.368915588;-5.279166864;14.38177022;0.864016046;12.83494868;5.676426099;10.3758331;21.2899759;15.53531527;-7.79912844;3.566497448
9.650746055;27.45593296;29.85375077;8.168273094;-9.9421573;-0.3108749;17.05633828;-4.389150507;4.827176038;-2.671965599;16.14938148;8.238028267;16.52189298;8.751558441;11.16459535;25.44699426;16.92143405;-2.056605158;3.526616933
10.67417035;29.98868116;31.19864413;5.830545879;-9.471246918;-0.217223997;13.65806475;-1.125112023;6.89256516;-3.259361429;19.51344869;10.94700596;16.59432163;6.654735438;14.7967209;26.66538596;13.90568057;-1.593335295;2.764218567
12.290912;29.4;34.03981634;3.15970592;-8.586205317;-0.192056529;9.561526096;1.316403453;8.498637822;-5.41437513;23.1072195;8.954742404;13.04533293;1.040361631;21.10512224;25.02687935;8.371088902;-5.454002534;1.953161473
13.34746445;27.85353562;37.40295849;1.896400323;-7.537381253;-0.200084229;9.198862751;2.753735544;10.98123061;-6.399719297;25.28231601;5.12073538;7.786087567;-4.304150108;27.47475169;21.52630784;3.797837349;-10.33474875;1.808931917
12.91869293;26.62388079;38.85118127;2.151998112;-6.688812498;-0.154362705;14.22186766;4.735500925;14.76105685;-4.916427951;24.91446426;2.269792703;2.725692338;-6.516886586;30.30410825;17.48796128;2.603312632;-13.42838527;2.457509792
10.93124876;24.61433075;36.27984091;2.123175438;-6.457811254;-0.031394972;21.34705667;7.630750062;17.71363137;-2.424799895;21.94288126;0.767560467;-1.633155838;-5.640058594;27.6574176;14.05468802;4.369214045;-14.41703817;3.312224868
8.190722789;19.54417863;29.56872412;-0.348313466;-7.089859823;0.07425296;24.82143599;9.442710638;16.26902584;-2.043991009;17.3687079;-1.202242948;-5.813206126;-3.95536978;21.03362797;11.90141682;6.446188108;-15.02144875;3.592972403
5.865702526;10.75261716;20.85377394;-5.584695397;-8.390783854;0.020841263;21.54588918;7.813774834;8.647478432;-5.885039268;12.71278546;-5.113289915;-9.812755923;-3.520404073;14.62353483;11.1323783;6.345381506;-16.79277725;3.034888814
4.815049694;0.831335916;13.22077673;-11.25707391;-9.680856097;-0.240135805;14.18023233;3.063237202;-2.687163649;-13.03764685;9.220668883;-9.963968049;-12.2338331;-4.285664322;12.32642128;11.31191752;3.78338117;-19.38012198;2.141833888
5.167518553;-5.794281082;8.792404174;-13.93015606;-10.12512891;-0.586136161;9.127838823;-1.202802993;-11.96682632;-19.93855308;7.259967148;-12.79774121;-11.26305613;-4.474577481;14.70879536;11.67043721;0.633343677;-20.92795988;1.737996216
6.331084892;-6.366793508;7.584886162;-11.86668804;-9.28281211;-0.795107403;10.92195363;-0.995634263;-14.173163;-22.893452;6.271818877;-11.51400758;-6.71311826;-2.688304791;18.39286519;11.52079068;-1.017350047;-20.13094975;2.211758954
7.340222465;-2.252993502;7.874878767;-6.69426719;-7.475959715;-0.720090332;18.0143541;4.225202248;-8.98499885;-20.75015096;5.315900553;-7.23310412;-1.012459606;0.440531951;18.62582719;10.74344831;-0.792995711;-17.82236907;3.143539586
7.32110045;2.089869301;7.675087726;-2.32274278;-5.651488993;-0.418998428;23.95275626;10.6161604;-1.171648184;-15.62116179;3.850206208;-3.706405351;2.220686191;2.735405389;13.23833298;10.01146876;-0.131634473;-16.38572253;3.674782957
5.884279452;2.981309365;6.1621181;-1.838763108;-4.782375155;-0.11927156;23.12741744;13.13836157;3.109009811;-11.18937663;2.181446656;-4.021323873;1.106323877;2.656328445;4.88300087;10.47557413;-0.555157515;-17.40519658;3.297237226
3.338473415;0.821267798;4.068608395;-4.974299872;-5.228469088;-0.03751713;15.97007813;10.08638548;1.079957286;-10.0845673;1.205603383;-7.594990885;-2.665648063;0.988235416;-0.446552997;12.98137671;-1.885725758;-19.80095053;2.339213813
0.667344391;-0.300059204;2.92834219;-8.396327976;-6.530184808;-0.205307955;8.747862319;4.670774805;-4.856235108;-12.43633015;1.568728367;-10.47741266;-5.04061976;0.229383455;2.220720283;17.30780111;-2.249504181;-20.42207451;1.683988123
-0.76651189;3.440992664;3.904932276;-8.65922691;-7.777164848;-0.453374513;7.900725199;2.002862429;-9.755560055;-16.53438293;2.872184468;-9.039895528;-3.142727163;2.082834501;12.8101583;22.02556013;0.040930517;-16.82433759;1.957926879
0.240745641;11.59677108;7.102569309;-5.26655098;-8.247871356;-0.56986693;13.96289278;4.22341322;-10.73993228;-20.67221323;3.61821201;-3.813809485;1.845266982;5.423808751;25.70812863;25.20282485;4.539676695;-9.783895903;2.932157481
4.122148432;19.23975011;11.71565292;-1.094159015;-7.827592978;-0.492507314;20.74472892;8.445101431;-9.361192182;-24.37554564;2.103350959;0.261462359;5.206491723;6.889106287;33.40486918;25.55658749;8.66602887;-3.101075476;3.709434088
10.14510887;21.10702128;16.66032255;0.268843224;-6.931783675;-0.360755525;20.81739838;9.629439984;-9.604368227;-28.03661189;-2.277024474;-2.119160293;2.517643541;3.864036705;31.67708904;23.24935156;9.859778976;-0.598502798;3.55075514
16.50847169;16.56739568;21.05495142;-2.112933234;-6.084607032;-0.378142557;12.49889929;5.759609328;-13.49972787;-31.63345005;-8.27894252;-11.6089547;-6.346246433;-2.744349399;22.42370213;19.72054211;7.957226992;-2.858676382;2.584834007
20.99373376;10.77145677;24.24114091;-5.577551251;-5.555251808;-0.608889619;1.878207208;0.249476409;-18.63158006;-34.10187797;-13.29494572;-22.81088656;-16.59457621;-8.659896328;11.99393002;16.62932302;5.444029108;-6.698382223;1.718634412
21.92063399;10.49200163;25.57978862;-6.357140231;-5.330767834;-0.898565083;-2.304252317;-1.043561607;-20.14198111;-34.19549801;-14.88825223;-28.19919066;-22.10538208;-9.547461801;6.308997519;14.66270385;5.111596928;-8.051265107;1.791671953
18.94076386;17.97324109;24.47621124;-3.326022426;-5.34705868;-1.000701681;3.437475691;4.356813956;-15.56757512;-32.03543509;-12.37266423;-24.34199822;-20.35383185;-4.777039038;6.563451108;13.09333751;7.158797494;-5.805394413;2.740048828
13.23866635;28.25227824;20.78606817;0.51802744;-5.660801197;-0.802221411;13.8255749;12.48233011;-7.946463326;-29.646242;-7.321958213;-15.07072019;-14.48604038;1.736976891;8.806247752;10.42616012;8.552057242;-3.084012391;3.574344724
6.999904843;32.71443726;15.24793808;0.478364459;-6.349800406;-0.441794284;19.18532088;15.96897531;-3.932687605;-29.58569373;-2.62540286;-8.598387408;-10.65616801;4.613324463;7.603186022;5.653677137;5.576441608;-4.594192491;3.25212282
2.391137308;26.21755508;9.405504359;-5.451477321;-7.261436264;-0.203061474;14.04657604;10.83888838;-8.183085131;-32.64577544;-0.751873662;-10.79381798;-12.82175564;1.521085905;0.737617168;-0.825101033;-2.46879136;-12.22836841;1.679153413
0.56174958;11.72781104;4.855293135;-14.22423592;-7.941144644;-0.267238516;2.241163938;0.745806105;-18.94898026;-36.75344297;-2.432764715;-20.32124493;-19.46440372;-4.786165581;-8.876250655;-7.315777995;-11.82063422;-22.87609494;-0.105154354
1.175501938;-1.743074302;2.28526537;-19.86663757;-7.926084089;-0.545319675;-6.360964412;-5.700327871;-29.08314071;-38.38445217;-6.592150978;-29.90888733;-25.08500967;-8.825076865;-15.58165809;-11.88874792;-16.72236256;-30.62689094;-0.798508367
2.71416039;-6.385482408;1.073555955;-18.59328808;-7.200319325;-0.749568084;-4.801114751;-2.607283224;-31.9380174;-35.56826837;-11.36193502;-32.70022937;-25.14819593;-7.19361756;-15.65576988;-13.60461869;-14.03318806;-31.63500782;-0.021393287
3.396335014;-1.861366803;-0.14217175;-12.46972299;-6.360642072;-0.652202171;4.425271868;7.450468678;-27.05560527;-29.89740294;-15.24100783;-28.10669486;-20.09;-1.632204147;-10.39256759;-13.02069712;-6.059392514;-27.35667694;1.277778732
2.221010061;4.904161815;-2.294455369;-8.097506947;-6.224572862;-0.303174825;11.47302084;15.29912976;-20.42643719;-25.53174966;-17.52205755;-21.94765153;-14.82572555;2.450774137;-5.030210438;-11.65398404;1.054578337;-23.11831829;1.64060347
-0.447482475;6.289489569;-5.035869436;-11.03364856;-7.114889006;-0.002997669;8.355906414;13.53007813;-18.83365195;-25.73496563;-17.9122046;-20.76426098;-14.23383123;0.785150618;-4.391801651;-10.85098025;2.267723281;-23.1223039;0.461628854
-3.112760143;1.063541941;-6.943448671;-20.61755293;-8.430019531;-0.039991098;-3.066087017;3.900019531;-23.29017604;-29.83555534;-16.05712166;-25.53154917;-18.74752935;-5.876477135;-8.838281852;-10.91724835;-2.229248623;-26.38855786;-1.352677669
-4.099355336;-4.488317991;-6.681773161;-29.92446625;-8.965811007;-0.418855141;-12.02588833;-3.464986223;-27.73866374;-33.45369186;-11.70451334;-30.67448105;-24.11182907;-12.3519762;-13.91321903;-11.11253093;-7.355128988;-27.55731441;-2.119040313
-2.669250228;-2.640068359;-4.213722163;-31.33966056;-7.842843803;-0.829681793;-8.507128934;0.874821969;-24.62940403;-32.15908515;-5.473563913;-29.50304293;-25.5427563;-13.69408472;-14.0542517;-10.44361514;-7.80724866;-22.17951469;-0.939159701
0.42006958;7.87900589;-1.041255928;-23.23955071;-5.318627096;-0.901829585;6.872769733;16.20618051;-12.57551877;-25.6045639;0.633678894;-21.1243213;-22.38962594;-9.769492101;-7.401248731;-8.610520931;-3.036526761;-11.81067502;1.316986696
3.34655522;19.56217066;0.803278387;-11.92412387;-2.758853048;-0.529612988;22.17393032;30.85113064;1.119551162;-18.41915973;3.871588338;-12.1644569;-18.80333186;-5.499866783;2.221478187;-6.394033065;1.966049211;-3.92162695;2.608862519
4.440857029;22.06750057;0.2786987;-6.739144542;-1.686657506;0.021346875;24.20233072;31.80902424;6.082529784;-16.67345504;2.485489306;-11.12596859;-19.56967551;-6.331623414;7.846130671;-5.220894382;1.013427515;-5.988961301;1.525048365
3.402772513;11.6036433;-1.832862133;-12.22486299;-2.617924292;0.335439585;10.8947111;16.93029912;-1.760290491;-22.59023889;-2.674510545;-20.12127556;-24.94136328;-12.92485116;4.514164552;-6.242121818;-7.466236197;-18.53373538;-1.263870229
1.630761422;-4.676450939;-3.490237419;-24.0149596;-4.640453896;0.212227935;-5.430884876;-1.586067284;-15.48302903;-32.02833083;-8.151075882;-31.73872021;-29.61043839;-20.03653093;-6.956469379;-9.575104952;-18.38307772;-33.45048857;-3.303517547
1.319727529;-13.84584488;-2.968919379;-32.31888357;-6.135163485;-0.150000916;-8.030039063;-6.715789951;-22.1187607;-37.27468354;-9.923299697;-34.74583066;-27.39734171;-20.99921577;-20.49323157;-14.20395866;-23.87500865;-39.88176607;-2.354556472
3.855578808;-8.150446344;-0.239210478;-30.34609147;-6.090709228;-0.330764461;8.910553596;8.15591103;-13.85552214;-33.25769446;-6.258157418;-24.36338395;-17.76965116;-14.05680479;-29.12154127;-18.56431825;-20.08285943;-33.29884952;1.523364642
8.624129869;7.654338405;2.945200661;-20.48316328;-4.924260911;-0.08281034;33.17514279;31.74489496;4.090922228;-22.12502262;0.774879666;-7.999871662;-7.959735616;-4.737271082;-29.76078405;-21.40579764;-10.92689823;-20.05737321;5.683443305
13.16757482;19.53540925;4.352773059;-12.56323339;-4.086401295;0.40710978;43.2715369;43.00575597;16.53536868;-12.0881372;6.504955245;-0.411571415;-7.780019531;-1.567516918;-24.87144044;-22.40011066;-5.240780251;-12.86541922;6.879712558
14.70989234;16.05734689;2.989159657;-15.21234695;-4.738808134;0.65003418;27.02144303;29.37621901;10.87007813;-11.01697287;6.94417652;-11.23211743;-20.75442532;-8.332417433;-19.94238026;-22.17699368;-9.267815577;-20.14733929;4.036859
12.05211353;-0.917336017;-0.095353318;-27.49491124;-6.614236222;0.297712584;-5.616134997;-0.256583597;-11.02671934;-19.79047838;1.802341293;-35.14164585;-39.21409735;-19.62003906;-19.0370347;-21.83967303;-20.79920855;-37.96427676;-0.544772263
6.481976306;-16.35014695;-2.535170158;-38.40186681;-8.07869764;-0.479686127;-27.73713619;-20.33981963;-32.19639526;-30.99502146;-5.104892545;-53.86844105;-48.56280444;-24.17917351;-21.94129286;-22.29481013;-30.28090268;-51.82579134;-2.775123842
0.981498273;-13.94056881;-2.373920466;-35.45137138;-7.439833205;-1.039095972;-16.44418721;-9.29664032;-33.19752487;-34.45891016;-8.511115032;-49.87433022;-38.46446266;-14.12497048;-24.94962871;-23.78449306;-28.53653294;-47.93377648;-0.088985846
-1.764203237;9.404666271;0.502974203;-15.81248099;-4.470712436;-0.751021886;26.63900798;30.09840198;-8.522156337;-25.50345552;-5.523349751;-21.40350981;-12.32048685;7.359682083;-24.3436729;-25.84183014;-14.9889516;-25.29628804;6.151664467
-1.14938503;38.78242591;4.274398206;9.409219959;-0.857306332;0.443210339;72.77322827;68.37994489;26.71503315;-9.296731111;2.243333644;13.6779842;13.21507312;26.66610089;-19.59298937;-27.63171655;0.628939987;1.395430537;11.27491062
1.067473376;51.17631049;6.46097563;22.07998194;0.90493583;1.874095737;85.49393733;69.38367944;46.36284204;2.465268694;9.838243191;29.5989832;19.48025783;29.16034171;-13.76057429;-28.43435165;5.074195759;11.4421848;10.70117542
2.174192677;33.07241348;5.612669207;10.49147976;-0.62034989;2.563265125;48.24728369;18.53333248;32.65653658;0.282798207;12.55391833;11.81306948;-0.184504609;10.48559975;-10.98600597;-27.98131632;-8.065209358;-6.33746796;3.591852181
0.550340521;-7.964204187;2.209512855;-20.97404455;-4.634347852;1.932299369;-21.09707752;-62.7163051;-9.415665056;-15.6926741;9.188131329;-31.17644657;-34.52202387;-19.14911085;-13.21974297;-26.47425019;-32.64523681;-44.10913429;-6.151002282
-3.179098244;-47.34866068;-1.778420287;-53.82322565;-8.584658756;0.259449596;-80.92814396;-128.8996149;-54.40434106;-35.30873114;2.575387186;-72.9387773;-61.61796134;-41.48377866;-18.7950457;-24.3270977;-53.64692447;-79.31246407;-12.45858247
-6.718008368;-60.6377594;-4.248346702;-68.03726314;-9.983857646;-1.482519153;-94.55698086;-141.3769712;-74.16971378;-45.52684274;-2.850215747;-87.78868288;-64.28812892;-42.92771962;-23.78863497;-21.84566541;-57.71952623;-90.05015138;-11.38775692
-7.917965468;-40.87;-4.246277265;-55.95226891;-8.191942049;-2.29939531;-55.62393892;-95.32476483;-57.80747921;-39.60767459;-4.413534421;-68.95501153;-42.1112087;-23.95353435;-24.90395269;-19.08260099;-42.62074282;-70.27292458;-3.903865472
-6.426897135;-2.932209877;-2.375788579;-27.09590181;-4.816793316;-1.855172345;8.54372784;-22.64997336;-18.682492;-21.50453728;-2.849727094;-32.52219287;-11.11074118;1.83362991;-21.59714411;-15.96335635;-18.44772676;-33.52095401;4.927265177
-3.921444893;28.05467551;-0.245630855;-0.664105738;-2.466832927;-0.654017001;57.47477252;31.17101832;16.37291139;-2.481893275;-1.141800751;-4.535656079;8.400194103;17.95870549;-16.01285033;-12.56699023;0.032238742;-2.708076591;9.657346934
-2.794143229;34.99579301;0.50524089;8.257419869;-2.851658565;0.386648424;65.89920554;38.63702894;26.85378985;7.02696788;-1.750925733;-1.650210899;6.311407287;16.62566169;-11.12569483;-9.320502732;3.849096199;6.051440003;8.217911148
-4.346951433;19.70570132;-1.049043547;-1.744260283;-5.672255479;0.616861062;38.83906575;6.744936087;12.06410425;3.989388884;-4.640884388;-20.23497104;-11.34679124;2.938437714;-8.744336223;-6.926283113;-4.814688235;-6.530467883;2.95379718
-7.87439805;-1.168605773;-4.908547493;-19.63624387;-9.056269422;0.06462554;3.704941156;-32.51626036;-11.28358224;-6.769021347;-7.653280261;-41.57197489;-28.81991369;-10.68875342;-8.823240951;-6.047458106;-15.89695408;-25.85990071;-1.622890247
-11.28014686;-10.74311945;-10.33196983;-31.84841112;-11.07151089;-0.700157722;-12.414526;-48.48736173;-24.03358564;-17.62999638;-8.704566062;-47.89085207;-33.51547536;-14.72909677;-10.23349861;-6.964793441;-20.04433587;-36.01469957;-2.387975274
-12.67854136;-4.772869613;-16.13382183;-32.39674424;-11.08153378;-1.080633548;-1.864110564;-33.816729;-19.35637355;-24.05416948;-7.750692309;-35.94188368;-24.9487034;-9.070709153;-11.9767812;-9.437610222;-15.45074769;-31.59093609;0.331669968
-11.7278226;7.035565778;-20.96434889;-25.55082191;-9.958264805;-0.904370065;21.68170621;-6.098267276;-5.874444221;-26.61499412;-6.765879675;-17.76;-13.2626145;-1.276921042;-13.71867727;-12.83449948;-7.938228987;-19.99904431;3.582602854
-9.733926501;11.08886945;-23.63475092;-20.11071118;-9.153382605;-0.469627098;37.44303206;9.706786529;1.984688223;-28.35286388;-7.788918499;-9.217813022;-9.580449422;1.000595329;-15.38673222;-16.39086463;-5.061795408;-13.5474689;4.515195241
-8.557668339;2.069702833;-23.52909418;-21.12344543;-9.503975819;-0.208716313;34.64699458;2.181038864;-2.834360348;-30.63046594;-10.81117225;-16.63157359;-16.71142976;-3.411691668;-16.52203101;-19.38241482;-9.629161815;-18.64190257;2.648448694
-9.237834998;-12.9557991;-20.93477341;-26.19078135;-10.72736321;-0.298168959;18.9890324;-19.11807195;-14.54710424;-31.51870222;-13.43320601;-32.37714496;-27.66039366;-8.990509739;-16.23587021;-21.13568421;-17.88096878;-30.95589872;-0.075797685
-11.35031643;-21.18384548;-16.99431914;-28.82783046;-11.87180762;-0.548910659;5.261195727;-34.03838303;-20.62029393;-27.98635336;-12.68965228;-42.26779923;-32.39295474;-9.176110806;-13.93393863;-21.00194783;-23.2412555;-39.81846541;-1.227313666
-13.46112987;-15.10404325;-13.15591096;-25.08087024;-12.18490267;-0.634106829;4.344293837;-29.62231328;-13.29178944;-19.5095166;-7.561657862;-37.66444724;-26.52216786;-2.520640677;-10.13225941;-18.49348832;-21.93780053;-37.39200147;0.006218797
-14.19554918;1.553404503;-10.39728729;-17.20078989;-11.61670418;-0.415372671;15.81487551;-10.00485448;3.697423481;-9.466094423;-0.073089948;-22.03731523;-14.55183711;6.064095977;-6.497509087;-13.62567218;-15.69232981;-24.8026965;2.308749153
-13.09260669;17.45065343;-8.767831324;-11.32508627;-10.6229983;-0.06525523;30.81651583;8.852335175;18.58127661;-2.831718611;5.980249816;-7.135205727;-5.445170165;9.769371899;-4.878046497;-7.244957956;-9.638240422;-10.599617;3.58169095
-10.7324739;23.0521829;-7.633405331;-11.68821824;-9.60258387;0.109311581;40.51270421;13.64954622;21.66276363;-2.169369145;7.680775804;-2.872157491;-4.860637178;5.898901182;-5.987379061;-1.000504164;-7.776496202;-3.554301861;2.822206637
-8.246582793;17.55901728;-6.473716534;-16.83618151;-8.57655883;-0.037771889;41.74415034;4.472017163;13.08862636;-5.520158762;4.937677059;-9.816384444;-10.82464341;-1.854009583;-8.77469758;3.205818895;-10.04594853;-6.159782155;0.883247393
-6.703002439;7.938554613;-5.591914407;-21.22817724;-7.392514348;-0.354992202;35.85737107;-6.83498576;1.958190584;-8.128626357;0.284373589;-20.14473605;-16.17419939;-6.675478537;-11.04158375;4.073031468;-13.22904072;-13.91635811;-0.434329079
-6.75896754;1.766284998;-6.094687797;-20.58435846;-6.168246956;-0.534517327;23.9872376;-8.0505502;-1.814986905;-6.520019531;-3.155336986;-25.30036049;-15.13138371;-4.431416707;-10.92510035;1.548426825;-14.38421047;-20.19346156;-0.030161631
-8.602192998;0.668374922;-9.055031424;-15.97851793;-5.436224776;-0.393424865;5.112011626;2.852411613;4.506105948;-1.365662357;-3.813046345;-23.17077739;-8.094845215;3.018246701;-8.211260591;-3.177756485;-13.47937967;-21.90981169;1.595245595
-11.96907065;-0.010983707;-14.46515841;-12.91056253;-5.749601454;-0.034456574;-20.61745872;16.88088689;15.26712407;3.333901018;-2.308228395;-18.77871857;-0.728673964;9.643844513;-4.560904635;-8.361324327;-12.98527802;-21.18953595;2.91013956
-16.124901;-5.627365772;-20.84383282;-16.18746647;-7.071093761;0.256368713;-47.21010429;22.79266709;22.27038225;3.95373399;-0.3436604;-18.66623347;1.39058946;10.39230556;-2.498334795;-12.63435958;-15.13054151;-22.15819187;2.779162292
-19.93929625;-16.27697561;-25.92205534;-25.22468432;-8.546432386;0.274790534;-63.11427979;17.12568595;21.93195102;0.519432895;0.923360866;-24.60049777;-2.399172538;5.180927586;-3.842747051;-15.56732168;-19.5652298;-26.34378492;1.433471895
-22.2521332;-26.01079815;-28.00229066;-34.01466181;-8.978335397;0.080224672;-58.34682036;6.733051826;17.44839295;-3.333769452;1.565665571;-32.27806839;-7.672754385;-1.454939111;-8.581582771;-17.53296545;-23.5872146;-31.02833799;0.163530262
-22.47382522;-27.86571338;-27.02247866;-35.89213958;-7.700765302;-0.070011292;-33.26815564;2.173348873;14.6692695;-3.637536636;2.204475784;-35.7479427;-9.18508667;-4.391310716;-14.8397752;-19.06035307;-24.59040058;-31.88542367;0.095863547
-21.02947119;-20.09988879;-24.5283142;-29.0336819;-5.155470743;0.030258045;-0.909534063;8.280508069;16.09922888;0.333365693;2.864177114;-33.06592649;-5.520406389;-1.965091175;-19.89265818;-20.22752497;-22.37315968;-27.26732324;1.200415534
-19.21383473;-8.048214281;-22.55806319;-18.01401435;-2.663673609;0.335016677;20.62381965;20.21201639;18.77647932;5.360126958;2.65554268;-27.88317698;-0.020771726;3.269041768;-21.58164506;-20.57121357;-19.19462612;-20.12399354;2.397188249
-18.40972785;0.009738152;-22.25674441;-10.15746866;-1.52357906;0.579081444;20.67163495;28.02163517;17.78847302;7.07742679;0.709134044;-25.70714405;2.562490433;7.284539838;-19.34075353;-19.55866267;-17.62878376;-15.80080833;2.598638289
-19.15916727;-0.664330478;-23.22555461;-9.829538102;-2.115334388;0.517509784;3.624504545;25.34502382;11.79184537;3.820068359;-2.516151203;-28.54474419;0.44451926;8.0713239;-14.33942442;-17.2181249;-18.27793097;-17.68087716;1.696453701
-20.78910657;-7.954982853;-24.03558785;-15.41947366;-3.695414082;0.155637723;-14.78644183;14.620343;5.084424682;-1.837132178;-4.927171003;-32.99884648;-3.750734073;6.807158304;-8.765125075;-14.40759363;-19.44617653;-24.47843055;0.603973754
-21.93632031;-15.34003906;-23.45398753;-21.31384978;-5.01470021;-0.239497777;-19.79834824;4.718916306;4.078112827;-5.186578204;-4.07402136;-33.55457326;-5.612701784;6.037116035;-4.713651815;-12.48932635;-18.99079219;-31.44290484;0.360164315
-21.62732421;-17.67571363;-21.43287492;-22.90545599;-5.256281746;-0.361472854;-8.696762516;3.473076951;11.29349297;-3.335487498;0.836994198;-27.95782607;-3.085694381;6.918939276;-3.310142864;-12.62766704;-16.55618377;-34.31203785;1.149638034
-20.10202629;-15.23575331;-19.1569741;-20.29950639;-4.575659717;-0.127868336;8.12258975;11.55684044;22.38806987;2.361473109;7.842851987;-19.69033877;1.646302073;8.21725091;-4.488996376;-15.18880249;-14.09091384;-32.60061025;2.136670638
-18.72916467;-12.7538824;-18.196872;-17.76607373;-3.881520626;0.245244992;16.54316334;22.47285143;29.09892609;7.402903614;13.10728828;-15.22744558;4.130709417;7.854927687;-7.432249228;-19.61468402;-14.17371252;-29.58223794;2.243259195
-19.04711499;-14.70551895;-19.45720811;-19.73998413;-4.095907713;0.423261752;10.43486844;28.03672545;25.74528115;7.788149963;13.33153642;-18.49773876;1.583778975;5.339855581;-11.25789474;-24.7855861;-17.69254692;-29.25763777;1.142804654
-21.63599639;-21.18927662;-22.66568507;-26.97192665;-5.486745836;0.233068975;-4.000989642;24.53246779;13.79564003;3.151767016;7.999860781;-27.4484291;-4.747035697;2.607668742;-15.43064855;-29.5685906;-22.98706382;-33.05805319;-0.433524184
-25.65089849;-27.93505109;-26.64853001;-36.00290363;-7.528891176;-0.194586325;-14.33843428;14.88289175;0.696347023;-3.10959911;-0.162399553;-35.69067478;-10.78325658;2.397241205;-19.63869825;-33.19629207;-27.20461023;-38.97337511;-1.338062363
-29.33305187;-30.15560097;-30.04486234;-42.0904361;-9.29736465;-0.536086013;-12.68945463;5.917903517;-5.908235488;-6.612463441;-6.824516583;-37.69066156;-13.1382613;5.657661766;-23.35845093;-35.3242094;-28.61522588;-43.4992661;-0.999826165
-31.08910057;-26.65813868;-31.90210739;-42.84747784;-10.02815625;-0.538364862;-1.76905503;3.535003399;-3.640792197;-5.215835531;-8.584116108;-32.95573412;-11.75759075;10.43648056;-25.63611955;-35.8779061;-27.81;-44.43019808;0.121618259
-30.36089858;-20.65566197;-31.8596866;-39.56935188;-9.463060159;-0.211220192;8.525162733;9.328767997;3.811090705;-0.114003639;-4.676776208;-25.74856449;-9.439823574;13.35923612;-25.45911043;-34.91411439;-26.7804692;-42.1078905;1.002152905
-27.74964602;-16.81296907;-30.04601441;-35.50993925;-7.857337626;0.203395452;10.39900332;20.23991942;10.69560642;5.782069283;3.090346047;-20.92466739;-8.892935689;12.44023495;-22.54533852;-32.62955132;-26.82451422;-38.40611153;0.986998751
-24.45700636;-17.3339487;-26.97921282;-33.00983073;-5.787695587;0.442014894;4.857646124;30.36741026;14.1046309;10.4458912;11.78291278;-19.81364243;-10.13069955;8.74284422;-17.88850641;-29.4695282;-27.26661509;-34.7967231;0.34168261
-21.55681525;-20.49861938;-23.56614476;-32.06491598;-3.941175935;0.421731473;0.1050133;33.37248046;15.534969;13.9801896;18.92791561;-19.74682372;-10.54826494;5.431770805;-13.43825325;-26.17730971;-26.18554149;-31.42664481;-0.054628458
-19.5936956;-22.66629123;-21.00394812;-31.27401593;-2.933657665;0.269708172;3.529996414;24.75409332;18.20479937;17.63078466;23.24303383;-17.33403869;-7.483006141;5.078453449;-10.93791798;-23.66090899;-22.46784635;-27.87710078;0.438579832
-18.62501508;-21.68069302;-20.36261627;-29.83597255;-3.107265088;0.177221776;14.74313153;3.989091979;23.09042843;21.79063992;24.4264863;-12.19151355;-0.831237748;7.59694419;-10.71314179;-22.6889189;-17.25760134;-24.52220625;1.61519242
-18.46517688;-18.58190917;-21.94744177;-28.48695451;-4.321556117;0.224179737;25.88293786;-23.99207551;27.55807047;25.04769251;22.66295258;-7.576764181;6.65875668;10.56812154;-11.41720416;-23.55350752;-13.3807318;-22.85468991;2.600452627
-18.84879833;-16.29190693;-24.90517149;-28.54700962;-5.896460861;0.329009448;28.7075689;-49.47026316;27.79693668;25.23980365;18.46906799;-7.389425226;11.61082266;11.55777961;-11.0951787;-25.87924336;-13.12485;-24.2651392;2.630680117
-19.45629639;-16.73219925;-27.53726917;-30.21166729;-6.875990868;0.351764655;21.94680427;-61.81828674;22.63121108;21.54877272;12.88217225;-12.4040101;12.69045276;10.29787294;-8.854883813;-28.70116469;-16.24493204;-28.40625083;1.71597427
-19.94986975;-19.11114767;-28.30581355;-31.96190968;-6.567980474;0.238500658;12.33496464;-55.38178942;15.04758439;15.66719155;7.481418467;-19.2904491;11.34247087;8.801863726;-5.80974105;-30.81963166;-19.92799993;-32.83187864;0.59792477
-20.12749496;-20.85993989;-26.90795845;-31.81980414;-5.032773589;0.068161809;8.535192221;-33.70299153;9.953072478;10.87318447;3.843689793;-23.38350073;10.06492706;9.382591152;-4.400773821;-31.3082372;-20.81530507;-34.51311766;0.0692857
-20.08647437;-20.19704754;-24.59446302;-29.30837254;-3.125009711;-0.034732268;13.49629169;-8.45548306;10.1633596;9.687507562;2.653255864;-22.71244495;9.931423078;12.40184346;-6.473469358;-29.95196061;-17.47268025;-32.09928005;0.292822831
-20.17096838;-17.87494058;-23.3749477;-26.20132193;-1.970053711;-0.029068803;22.03661742;7.213024745;14.20123248;12.02164391;3.177592137;-19.65187249;9.675475018;15.76698469;-11.58816481;-27.38118445;-11.36712366;-27.01990393;0.7299951
-20.63877982;-16.52028439;-24.58953464;-25.21840261;-2.199506515;0.000510492;25.66305091;6.84054125;17.79036239;15.30642654;3.670320912;-18.7138535;7.127383996;16.60051248;-17.0129646;-24.7848372;-5.677496305;-22.4447699;0.711342661
-21.29480337;-18.22072619;-27.87625863;-27.73119749;-3.508342172;-0.070467677;20.20621897;-5.513895954;17.60211588;16.44334239;2.543781723;-22.47394275;1.600828649;13.60604319;-19.5883784;-23.30860719;-3.005997754;-20.92399652;0.09355302
-21.47281111;-22.56028975;-31.34141238;-32.50305371;-4.892394126;-0.274472416;9.498185723;-18.75642357;13.90056678;13.99132792;-0.516112399;-29.2660171;-5.026969815;8.111113451;-18.10897601;-23.4538554;-3.805910782;-22.62344823;-0.611372919
-20.50263999;-26.82396174;-32.86116299;-36.59824836;-5.405933633;-0.501233871;1.98256775;-23.05905044;9.884021277;8.954256608;-4.340412819;-34.65447778;-9.576966928;2.98671746;-14.31571407;-24.83305258;-6.570435718;-25.51176837;-0.741778491
-18.34125875;-28.12273489;-31.57034968;-37.67418206;-4.859575617;-0.580397352;3.416219515;-16.69104932;8.564009558;3.782922407;-7.143092774;-35.31207269;-10.07297756;0.470766974;-11.5798093;-26.43774923;-9.317374977;-27.17902009;-0.138914222
-15.7961113;-25.55485716;-28.42359744;-35.6701768;-3.914121125;-0.426699833;12.10814884;-6.27277437;10.13556671;0.598047278;-7.806643307;-31.84232866;-7.289414905;0.742750801;-12.18208633;-27.24212504;-10.97834445;-26.66212827;0.673554215
-14.02278661;-20.62372256;-25.40508931;-32.4978623;-3.503822405;-0.119013246;20.6771092;-0.637969369;12.13213617;0.038699222;-6.630290515;-28.10707116;-4.031054982;2.278968101;-15.30221125;-26.73702097;-11.65297194;-24.81393004;0.957070645
-13.59135997;-15.75697791;-23.99339171;-30.14479778;-4.057368381;0.156335044;22.48177637;-3.563800159;11.97899461;1.377979126;-5.033413404;-27.76032973;-2.853319166;3.407108315;-17.40019002;-25.05549899;-11.84857015;-23.13852932;0.440989573
-13.87340685;-12.38029554;-24.05476681;-28.96478582;-5.138399614;0.247562239;16.93419507;-11.27525673;9.406870948;3.44909399;-4.515816027;-31.11136615;-4.24221562;3.551816856;-14.8615399;-22.67825355;-11.68166883;-22.33127114;-0.415316411
-13.35568908;-10.19723718;-23.99925534;-27.64039686;-5.778393102;0.142717197;9.220511832;-16.39125845;6.497664497;5.458612179;-5.689913354;-35.03234771;-6.740691058;3.171495731;-6.982736722;-20.03645619;-10.85236115;-21.86291177;-0.831843838
-10.77700256;-8.076892204;-22.05774115;-24.69870618;-5.219411172;-0.045177688;5.117969945;-14.53762763;5.4881037;7.177351504;-8.048948244;-35.85404931;-8.693637718;2.735908919;2.979581169;-17.37754411;-9.293332922;-20.84571105;-0.420228602
-6.263540005;-5.494500911;-17.69003906;-20.05839052;-3.47992746;-0.187456198;5.866809925;-7.842616488;6.568676895;8.712738276;-10.51025988;-32.58813012;-9.872135435;1.970058594;9.578903848;-14.97141077;-7.676342289;-19.19975422;0.453467642
-1.530590255;-3.115443579;-12.06481055;-15.1599179;-1.334892172;-0.239510255;7.684889331;-2.536783654;7.818488897;10.33753703;-12.21265759;-27.65787903;-11.47718508;0.204406771;8.581071744;-13.36046486;-7.112590944;-17.92095369;0.99370371
1.120667684;-2.064576877;-7.28879122;-11.64706874;0.216848571;-0.247168902;6.049039329;-3.122804653;7.281543799;12.51098425;-12.96789025;-24.63517958;-14.61858749;-2.537534004;-0.352347738;-13.25497077;-8.223929618;-18.17733308;0.699157701
0.341796796;-2.696127829;-5.011276949;-9.950898575;0.553578369;-0.269893674;0.49782929;-8.43530926;5.097444055;15.7828663;-13.14482108;-25.11579003;-18.80370246;-4.912967541;-13.46424425;-14.98687108;-10.45107895;-20.11065462;-0.172350325
-3.320842502;-4.089338657;-5.451288112;-9.170189608;-0.31832914;-0.306961153;-4.617875534;-12.9811878;3.543908449;20.30417189;-13.22413418;-27.4905729;-21.94050321;-4.929337149;-25.14719567;-17.92136466;-12.32354189;-22.51207192;-0.826892404
-7.796391204;-4.743565449;-7.504825131;-8.331440547;-1.934814784;-0.301262219;-4.128798837;-12.11249024;4.865250555;25.19882356;-13.43284709;-28.55174819;-21.93038555;-1.515017596;-30.99022756;-20.43440027;-12.55841782;-23.7240372;-0.652612317
-10.90022704;-3.815437833;-9.735143111;-7.720933733;-3.707396107;-0.212066262;2.964786534;-6.217379623;8.92127334;28.48945773;-13.68847765;-26.35296344;-18.44311757;4.342142895;-29.71183285;-20.72603972;-11.07422348;-22.97996443;0.213685425
-11.73380204;-1.78918268;-11.41733763;-8.861785506;-5.128064757;-0.07656068;12.1933463;-0.16648758;12.93621397;28.02686735;-13.78431432;-21.77670377;-13.28560841;9.972241412;-23.12689274;-18.05003906;-9.031273381;-20.98973458;0.99116513
-11.06736275;-0.048816837;-12.86046327;-13.00569301;-5.793091495;0.009794782;17.3050372;1.344059885;13.70579466;23.01339705;-13.59896339;-17.59156321;-9.034177669;12.74991812;-14.69153231;-13.45832059;-7.838903045;-19.26911125;0.951245123
-10.51620456;0.187304039;-14.86426469;-19.51139645;-5.422221998;-0.017744417;15.66506291;-1.807824751;10.31974509;14.98444776;-13.18405018;-16.06211619;-7.126397395;11.85122866;-7.822526771;-9.357734915;-7.970249786;-18.84022718;0.089304421
-11.23857855;-1.367549064;-17.84230993;-25.74485289;-4.022965959;-0.120031433;10.50125019;-5.08698002;4.930087891;7.280750827;-12.73339994;-17.31182707;-7.026900947;8.681284116;-4.819936729;-8.010350091;-8.599464323;-19.46256096;-0.83639906
-13.17380197;-4.137091032;-21.33729804;-28.83943103;-2.100382822;-0.17364926;7.951702096;-3.607151056;0.850925772;3.125397099;-12.50169058;-19.71858051;-7.060599168;5.70820479;-6.445851559;-9.967589451;-8.370350022;-20.02824988;-0.955269867
-15.31432329;-7.317891898;-24.26970017;-27.93473692;-0.622608412;-0.075206291;11.54315636;3.122755716;-0.296851775;3.5788427;-12.70130682;-21.65442031;-6.022881185;4.707059014;-11.83541059;-13.60729401;-6.636287347;-19.68648099;-0.070193899
-16.64677887;-10.39913956;-25.65873406;-24.94901916;-0.569099478;0.160691116;19.03855774;10.38542352;0.181634334;6.880456233;-13.3724435;-22.75658088;-4.081230031;5.785882643;-18.6599342;-16.20847083;-4.113488969;-18.63636978;1.10742771
-16.92379678;-13.17614894;-25.22598699;-23.10951798;-2.262398935;0.40162878;24.47154479;12.21279113;-0.47322623;9.717668061;-14.27345875;-23.60980826;-2.262821284;7.789942743;-23.82528486;-15.85461018;-2.389759712;-17.89090624;1.494551606
-16.68757167;-15.47142491;-23.45891051;-24.38712483;-4.981988177;0.501850107;23.54498818;6.656069105;-3.694626706;9.525402195;-14.91470737;-24.43324978;-1.190536853;9.508381208;-24.84587875;-12.78186569;-2.685464925;-18.2897021;0.508167244
-16.66724966;-17.03616606;-21.18149173;-27.96880957;-7.260535215;0.421850075;17.56202313;-2.296019501;-8.07897426;6.158310715;-14.82179305;-24.36955594;-0.392724815;10.56404727;-21.35322974;-9.15016526;-4.865403235;-19.70785166;-1.448805221
-17.17632229;-17.78768061;-19.04389558;-31.05936724;-7.77643259;0.257452965;12.35863071;-7.872378737;-10.54100915;1.79586446;-13.92440595;-22.29302425;1.120085449;11.34049045;-15.64913303;-7.384021763;-7.473190263;-21.17457885;-3.279309835
-18.02920948;-18.04586778;-17.32590365;-31.33751426;-6.253283387;0.152349825;13.15208028;-6.023942099;-9.076028955;-0.709894293;-12.77375454;-18.38696995;3.606960563;12.25377789;-11.53495372;-8.321560226;-8.732813835;-21.73645462;-4.004634946
-18.93429766;-18.3478581;-16.11362588;-28.99189213;-3.693278778;0.172621481;19.86163934;1.453005118;-4.603760864;0.256691132;-12.31569393;-14.76825985;5.97348524;13.20729414;-11.8459745;-10.56928223;-7.732592836;-21.21875427;-3.428371765
-19.85833281;-18.87638435;-15.57021557;-26.62824925;-1.724942596;0.255836659;27.07313522;8.749571652;-0.220348952;4.23070836;-13.25110029;-14.1887685;6.507859492;13.74702964;-16.30127032;-11.54515207;-4.935688624;-20.18164519;-2.143754031
-20.927299;-19.05744819;-15.96567462;-27.13864867;-1.506758398;0.278966236;28.74328951;11.07176578;1.445821315;9.266727236;-15.39232865;-17.68417571;4.404523115;13.65936879;-21.35734969;-9.406582123;-1.735484563;-19.170519;-0.947188087
-21.95017222;-17.86595548;-17.38605034;-31.30836091;-2.973670284;0.18041443;23.55264783;8.435935428;0.373192636;13.30665497;-17.5398418;-23.23583896;0.684366097;13.31081098;-22.44070806;-4.402246579;0.518961245;-18.04270297;-0.198763446
-22.1112311;-14.74383882;-19.37543126;-37.09943588;-4.95873533;0.021697391;16.18944923;5.085489637;-1.113557998;15.28185943;-18.09213712;-26.85154792;-2.419707212;13.33083963;-17.12860551;1.338923529;1.306432783;-16.06788857;0.340695302
-20.3077116;-10.36259753;-20.88697318;-41.12126474;-6.063613909;-0.069972527;13.34470065;5.340920522;-0.674943052;15.37574042;-16.05576369;-25.43580463;-3.189255286;13.94991087;-6.986946501;5.351840257;1.066167817;-12.73670855;1.123159479
-16.03162681;-6.451181103;-20.72086496;-41.04269166;-5.608978563;-0.026019263;17.80372874;9.749687724;1.847920066;14.591967;-11.7664512;-19.19250319;-1.807634008;14.69709567;3.351854455;6.48942862;0.739445732;-8.503501129;2.28472745
-10.11332155;-4.672713785;-18.25252287;-37.07394388;-3.986124825;0.088761039;25.75607755;14.90103728;4.395168798;14.11991218;-6.781166117;-11.56682409;-0.198054975;14.83414518;9.263974713;5.457771258;1.132202764;-4.713708111;3.470120976
-4.609496258;-5.419047779;-13.98449145;-31.5570555;-2.232405301;0.125009414;29.79583765;16.81529628;4.780723769;14.82618669;-2.975907958;-6.719812082;-0.421299896;14.16528585;9.13640743;3.945696299;2.497473331;-2.708425902;4.151995944
-1.726267245;-7.559524571;-9.49788698;-27.24889122;-1.240412195;-0.017292796;25.26582094;14.61800556;2.895405081;16.90427089;-1.454689829;-6.54456334;-2.979813053;13.43577668;5.141514328;3.167107333;4.483912084;-2.865706235;4.129061782
-2.450579455;-9.403369658;-6.724298801;-25.73257087;-1.221065649;-0.288714574;14.66260037;11.12814762;0.91164128;19.679609;-2.000852897;-9.555385958;-6.443586914;13.85378521;1.343530243;3.021010038;6.363592912;-4.411275017;3.73501849
-5.870537355;-10.06868026;-6.893407722;-26.96840472;-1.751007292;-0.517075429;6.240332306;9.97998143;1.270741876;21.76261361;-3.391398933;-12.37371771;-8.66399769;16.06797571;0.697313194;2.476695667;7.379250453;-6.139121327;3.563487528
-9.713702063;-10.06742814;-9.759775527;-29.87222979;-2.235538239;-0.543040327;7.595682543;12.13;4.338182477;21.76744044;-4.277317019;-12.42138495;-8.494825129;19.47376497;3.219258575;0.746333612;7.085379318;-7.368184757;3.952319541
-11.75392367;-10.60503973;-13.60702882;-33.07788134;-2.338045331;-0.349382352;19.1268992;15.09722061;7.963639582;19.4082109;-3.981351727;-9.608744649;-6.565343619;22.49097383;6.540708971;-1.815002961;5.581249325;-8.281271074;4.681060421
-11.11327089;-12.26403509;-16.10854562;-35.26465249;-2.061426073;-0.072538602;32.54908795;15.63662267;9.432751016;16.22090141;-2.714001231;-5.867425937;-4.536590103;23.64069767;8.130400864;-3.856683403;3.522872407;-9.407554362;5.142446084
-8.593580566;-14.32736132;-15.61838447;-35.19165438;-1.537960869;0.112544204;35.9056114;13.2466804;8.050058594;15.0728037;-1.187723087;-3.267892529;-3.597970935;22.56853446;7.26623879;-4.087955563;1.839895636;-10.83450839;4.836625517
-5.907361517;-15.42966758;-12.16939709;-31.98634437;-0.830736989;0.133228324;21.67097079;11.04806125;5.934134157;18.36257123;-0.016975224;-2.496177532;-3.55605772;20.21271572;5.254212971;-2.339464875;1.235277177;-11.98350942;3.770402478
-4.456146928;-14.98335936;-7.565259197;-25.84400302;0.034688642;0.064505952;-7.736884943;12.98244819;6.184361777;25.95982429;0.658280986;-2.849652731;-3.25097383;18.04041547;3.969929657;0.260177456;1.734807567;-12.21138543;2.443118675
-4.54408712;-14.03750235;-4.444507077;-18.55564763;0.88491603;0.044418249;-40.84284261;19.78140044;9.989379997;34.50670256;1.155460216;-3.38162522;-1.81372913;17.02604601;4.158911804;2.137049828;2.604880722;-11.64560647;1.459558396
-5.488279151;-14.65025204;-4.806191141;-13.06102316;1.330009766;0.140338752;-63.73095783;27.50907607;15.29309145;39.00698734;1.974421016;-3.860408252;0.439260151;17.17989779;4.974536864;2.454330024;2.765550265;-11.35139589;1.108116953
-6.383461193;-18.16716221;-8.850224855;-11.90817132;0.975654215;0.287584967;-67.95095459;30.34996777;18.32519273;35.97507811;3.502679825;-4.633949495;2.279365859;17.88512902;5.028516242;1.676211139;1.488746901;-12.50401485;1.234795129
-6.852165043;-23.84756387;-14.84630893;-15.55189688;-0.223312478;0.353121931;-54.7403092;25.50750566;16.76939637;26.03945232;5.830019531;-5.756672586;2.706338057;18.59901011;3.888071594;1.090058594;-1.062620064;-15.20592711;1.465146284
-7.238307241;-29.10398293;-20.14557495;-21.83443036;-1.804258705;0.262633613;-33.34047038;15.99345882;11.83815348;13.99412651;8.664160308;-6.52291958;1.868037613;19.24435647;2.626277577;1.706380968;-3.831381731;-18.04618646;1.538448879
-8.202749375;-31.31052864;-22.73863071;-27.24574221;-3.046205766;0.072820914;-15.05522813;8.675485595;7.408268498;5.986332921;11.32641886;-6.078951112;0.900471976;20.01083506;2.93274986;3.426482482;-5.43298071;-18.96382511;1.464589185
-10.12021286;-29.79578405;-22.39919096;-29.17901418;-3.483902166;-0.077410062;-7.056614928;8.94916988;6.893251571;5.631957444;12.88848933;-4.554658265;0.838550138;20.88146211;5.576066783;5.110343764;-4.95115245;-16.85469898;1.411871037
-12.7440765;-26.42028011;-20.69532302;-27.53777754;-3.272578683;-0.091430056;-9.515516272;16.38202871;10.48253244;11.74068657;12.52374628;-3.444445841;1.606046195;21.42894822;9.555151714;5.438830408;-2.477861951;-12.62738;1.481554844
-15.3258995;-24.25214947;-19.86865699;-24.49647995;-3.068332364;-3.71414E-05;-17.11312166;25.01390025;15.06269077;19.2543198;9.99834707;-4.563705643;2.028961364;21.10846056;12.65873188;3.859577075;0.911947322;-8.757933185;1.599616097
-17.03208216;-25.36996612;-21.31378177;-22.649855;-3.477897846;0.071810345;-23.25592972;28.1692233;16.84203402;22.71609175;6.022461416;-8.312794841;0.900538593;19.75468976;12.96086699;0.90102746;3.709482878;-7.586660373;1.612674198
-17.35472811;-29.48257427;-24.6466575;-23.03509039;-4.507602268;0.027135018;-24.05299819;23.85178045;14.42986241;19.81037772;2.143824009;-12.84310695;-1.816186;17.78574391;10.05479985;-2.309457031;4.717641405;-9.656043083;1.46835342
-16.30973498;-34.3467688;-27.9558893;-24.54574289;-5.474489352;-0.104097337;-19.81451274;16.26333691;9.815628215;12.56383709;0.106976986;-15.11836378;-4.701897291;15.90752868;5.136977399;-4.861243874;3.599586749;-13.4003528;1.287643352
-14.39721465;-37.52018055;-29.05;-25.07536561;-5.486006707;-0.182285305;-13.73206931;12.19106381;6.54918921;5.582713794;0.981629496;-13.22678461;-5.793461637;14.59453813;0.047426094;-6.547464809;0.980579017;-16.42331024;1.254566174
-12.40137948;-38.01240372;-26.87445679;-23.34267747;-4.133707234;-0.080682898;-9.161940442;15.27753465;6.781881131;2.812416697;4.580797224;-8.075959042;-3.978565179;13.81951259;-3.846700551;-7.705758112;-1.913270578;-17.32111137;1.432082831
-11.10241929;-36.63296563;-22.19177828;-19.89864405;-1.86136267;0.194090287;-7.514037829;22.95825717;9.670823361;5.174291671;9.541268012;-2.957567709;0.222894697;13.23630032;-6.09750144;-8.657651818;-3.890515015;-16.58745726;1.685154105
-10.95567939;-34.97894744;-17.13141864;-16.60271904;0.286256742;0.492111041;-7.973717386;28.64834589;12.3478758;10.53785572;14.01374142;-1.190808434;5.058379408;12.57065895;-6.861145111;-9.298108422;-4.400333173;-15.92202013;1.789293935
-11.83744519;-34.05078334;-13.94388802;-15.13968818;1.349706394;0.633940932;-8.830922673;27.40349806;12.44042627;15.66698677;16.52641824;-3.685975533;8.743552198;11.79622527;-6.400369519;-9.2085302;-3.806017437;-16.59283275;1.628717901
-13.01533681;-33.615598;-13.76194841;-15.83781533;1.065642169;0.553058412;-9.102186316;20.35733744;9.932610627;18.4734547;16.52696616;-8.384683396;10.51450654;10.93831746;-4.988118434;-8.183955205;-3.157417238;-18.26770033;1.306544935
-13.45668345;-32.67664779;-16.09574674;-17.64634259;-0.032464588;0.34620593;-9.121235982;14.14280376;6.904523972;18.99566766;14.38676173;-12.00106179;10.807843;9.776831464;-3.209457721;-6.692075084;-3.544827777;-19.30493019;1.071448807
-12.39594633;-30.49336445;-19.27930428;-19.09869732;-1.05803348;0.190098877;-9.764754702;15.51681475;5.589794612;18.71300049;11.01728392;-12.60693127;10.59913434;7.861737194;-2.121257275;-5.818229311;-5.382268904;-18.25094088;1.12863642
-9.857196374;-27.27559666;-21.50768823;-19.35856523;-1.397097778;0.19708828;-11.16076514;25.31644622;6.539965275;19.04682623;7.419570041;-10.9664485;10.54996844;4.944084247;-2.807824982;-6.654090517;-8.073358858;-15.27276463;1.497014668
-6.768371105;-24.08718422;-21.81518629;-18.57091937;-1.060178619;0.332071096;-12.1505191;36.58525593;8.394408253;20.27966806;4.389820092;-9.6362359;10.63283616;1.456348123;-5.512140528;-9.530793376;-10.32937612;-12.29395534;2.02070425
-4.513340651;-22.16217234;-20.46760744;-17.46283658;-0.553656428;0.456806789;-11.0918303;38.66238095;9.244530231;21.55048318;2.400563341;-10.71103513;10.40510782;-1.474502333;-9.097667135;-13.63993311;-10.99503664;-11.65431343;2.502137481
-4.135506827;-22.18721518;-18.63424908;-16.72927974;-0.430217025;0.457154759;-7.363894022;24.56489082;8.266191786;21.68943974;1.576931841;-14.12249567;9.570658618;-2.639622918;-11.49566048;-17.33306192;-9.856418242;-14.30877456;2.829269288
-5.672730376;-23.96568948;-17.60345715;-16.71397399;-0.876380585;0.340686276;-2.215577387;-3.526318679;6.262478554;20.15557742;1.738668946;-17.79113209;8.323068293;-1.579482186;-11.01843324;-18.94040251;-7.856667708;-18.96028453;2.999510621
-8.059000183;-26.52868874;-18.00560383;-17.42780294;-1.608867712;0.223370522;1.93399302;-34.62430884;4.862255359;17.46660907;2.545517566;-19.32003906;7.237998632;1.022640173;-7.618100733;-17.62293637;-6.51733073;-22.80741579;3.05421115
-9.685988323;-28.54499828;-19.45376816;-18.60699107;-2.094661561;0.223272734;3.308615424;-55.06101739;5.249447238;14.96726031;3.728319744;-17.73123378;6.867186564;3.722188278;-3.075122332;-13.77358748;-6.921950015;-23.37029152;3.015684581
-9.30671022;-28.87714065;-20.77529528;-19.64688869;-1.898565003;0.357626568;2.208093998;-56.41500957;7.482566833;14.15138435;5.248232732;-13.92084289;7.363898338;5.188408997;0.134569838;-8.77783742;-8.954208579;-20.08675143;2.89336614
-6.756528881;-27.14556832;-20.70785426;-19.62976846;-0.930259474;0.530749668;0.756834559;-40.18772703;10.71944035;15.87266674;7.192450413;-9.735227464;8.37173083;4.918841249;0.512316493;-4.315471278;-11.32559626;-14.59492081;2.734305626
-3.083682613;-24.06522487;-18.69302405;-17.76934448;0.520509608;0.616742604;1.048242099;-16.45883107;13.84014882;19.76488773;9.412282327;-6.668481552;9.199832382;3.329181301;-1.483203873;-1.604485887;-12.37630372;-9.601061414;2.637182217
-0.024244931;-21.24470825;-15.32208013;-14.18869252;1.932876171;0.559646614;3.206655722;2.316507529;15.83826341;24.16769272;11.21241271;-5.239811785;9.168512825;1.303518912;-3.864080531;-0.958095533;-11.09492223;-7.197090777;2.688498856
0.894451798;-20.34123234;-12.13347189;-10.39979482;2.791244784;0.405227166;5.095492938;8.294536457;15.88977664;26.75153358;11.49799104;-5.253842855;7.974543675;-0.321577217;-4.589470077;-1.810479693;-7.677272231;-7.759070033;2.872892795
-0.835365134;-21.95212771;-10.79909431;-8.801352907;2.811847448;0.245324538;4.080529387;1.816947644;13.49459756;25.71834983;9.482567308;-6.318244306;5.924187561;-0.969654582;-2.959748983;-3.117316708;-3.309084823;-10.02857341;3.055942363
-4.377962692;-25.01434728;-12.11267441;-11.20024733;2.078805135;0.133831077;-0.536010238;-10.14278282;8.932647658;20.99530359;5.526194469;-7.973487648;3.886335388;-0.291873016;0.068616801;-3.88516656;0.588073414;-12.13154182;3.080814969
-7.889736684;-27.31310888;-15.37974656;-17.2953278;1.02316815;0.052729465;-6.503194982;-19.0936788;3.666790529;14.60109709;1.374614761;-9.468920355;2.897502134;1.785689828;2.756623549;-3.578105316;3.087392666;-12.74790876;2.907786578
-9.387080494;-26.92719855;-18.64140494;-24.37541429;0.221574859;-0.046209795;-10.04158385;-20.17294862;0.012312344;9.708994659;-0.628894418;-9.775875454;3.556545506;4.80054207;3.855869951;-2.256382918;4.024425366;-11.71210126;2.668356634
-7.753011033;-23.62058798;-19.68823783;-28.7387569;0.086832664;-0.171262162;-8.669372148;-14.22876986;-0.116981563;8.79228597;0.99107713;-8.20999703;5.573527221;7.577920149;3.29055388;-0.444830126;3.770932549;-9.828629414;2.568665454
-3.367834977;-19.07365312;-17.30955474;-28.01687598;0.623546108;-0.264368461;-3.144581576;-6.050826365;3.369356716;12.02409785;5.708801144;-5.246959295;7.854208964;8.594938668;1.849216052;1.161645227;2.825722445;-8.202517617;2.712043701
2.028896643;-15.66966104;-12.02093638;-22.75580727;1.42854924;-0.24699848;3.116359233;-0.485662379;8.364390588;17.1155833;11.13567224;-2.627345136;9.181992536;6.928912239;0.323942864;2.008085754;1.560246693;-7.582497688;2.994807874
6.261439089;-14.7207212;-5.793479743;-16.03680511;1.97532079;-0.096786862;6.70453127;0.713664813;11.81657895;20.84354397;14.50105316;-2.297487672;9.077099225;3.167683039;-1.083216739;1.884570778;0.216512497;-8.063053891;3.178093858
7.965227479;-15.54012332;-0.922656114;-11.35552175;2.0082906;0.117219939;6.77438588;-0.663343855;11.85653994;21.26104008;14.49703933;-4.82657947;8.171216136;-0.588501761;-2.608122952;0.970492409;-0.993679577;-9.191360683;3.087872794
7.41292532;-16.12319177;1.271632739;-10.30368045;1.756043842;0.27658328;5.386360312;-1.405129149;9.172869297;18.9930673;12.13063112;-8.646741781;7.72244799;-1.94188875;-4.264204056;-0.271112166;-1.879138988;-10.30481146;2.775988625
6.334546478;-14.86577607;1.106065412;-11.73642933;1.775529812;0.299420153;5.421636747;0.338443867;6.470944251;16.6394489;9.89944534;-10.98833835;8.566532109;0.084850901;-5.371336468;-1.292896584;-2.380689583;-10.8780655;2.496864816
6.745266689;-11.86203017;0.158781403;-12.94283056;2.513733348;0.19795952;7.923871317;3.755566672;6.365253493;16.72443594;9.865654978;-9.992853708;10.32320237;4.143547367;-4.801911332;-1.680749602;-2.668626461;-10.73529427;2.50582158
9.483268599;-8.687240316;0.128453192;-11.81249731;3.910900381;0.060958149;11.18011235;6.356357622;9.367169325;19.74798104;12.06629422;-6.363184213;11.55947555;7.324330294;-1.843549712;-1.315153749;-3.089417963;-10.08524069;2.838847265
13.44744807;-6.909665444;1.678339971;-8.326352864;5.365850599;-0.020220369;12.30167097;6.220544153;13.57571068;23.80705614;14.45871427;-3.119224673;10.86858033;7.165523858;2.973973462;-0.419253527;-3.974876734;-9.405901877;3.257195621
16.1364396;-6.715801552;3.998811092;-4.369118712;6.118860484;-0.016899351;9.866877976;3.595170425;16.26126169;26.02431561;14.42403648;-3.50341104;8.034110511;3.412763459;7.771303723;0.528111921;-5.463467982;-9.240019531;3.410198293
15.22560077;-6.932854717;5.337152555;-2.233743594;5.780636178;0.032345905;5.272043292;0.597108371;15.9606456;24.633851;10.66739435;-8.616076291;4.302367721;-1.877191461;10.11630185;0.984847675;-7.465999646;-9.978218176;3.093472812
10.1648747;-6.438592463;4.126951818;-3.107293052;4.611770205;0.072841439;1.601503728;-0.605785503;13.33990051;20.13577243;4.098652669;-16.6261766;1.469535534;-6.007750618;8.275315021;0.564772456;-9.762346532;-11.70588228;2.402956722
2.702733091;-5.611535952;0.000141427;-6.610505201;3.343818073;0.087741839;1.029689147;0.463357341;10.22849195;14.75264166;-2.873791659;-24.13686053;0.475516669;-7.74903284;2.162305138;-0.811975418;-12.0993555;-14.16595999;1.66882622
-4.058141221;-6.339797549;-5.92;-11.43601632;2.684247387;0.105186691;3.051670116;2.371201306;7.846065615;10.77784051;-7.97179808;-28.55222716;0.649735455;-8.146603051;-6.56413489;-2.89797955;-14.19370396;-16.84507325;1.225409911
-7.46431755;-10.37199496;-11.5791902;-16.26489307;2.879331044;0.157264656;5.07465548;3.17300855;5.883829317;9.177537297;-10.32035334;-29.56270598;0.254911829;-9.361496504;-15.27170501;-5.217057218;-15.68525965;-19.14464042;1.193641375
-6.780190912;-17.36923587;-15.03706693;-20.15462688;3.638102174;0.235286574;4.791259772;2.148930129;3.219107195;9.424192358;-10.53034289;-28.72771576;-2.090484463;-12.53602405;-21.52219253;-7.213379837;-16.17547525;-20.57110366;1.430797526
-3.387958617;-24.46168473;-15.38929811;-22.33574204;4.417497489;0.287186728;2.191220735;0.364113588;-0.52527898;10.42525364;-9.800333059;-27.7814486;-6.267594551;-16.53879514;-24.01068448;-8.379064091;-15.41177842;-20.87730113;1.666204707
0.308193943;-27.93776286;-13.08957082;-22.02233073;4.794882708;0.260487162;-0.559343037;-0.382386151;-4.160048828;11.56146279;-8.966680399;-27.2629427;-10.71841831;-18.73065464;-22.86347687;-8.339410547;-13.50589915;-20.10686729;1.70529345
2.42452096;-25.85852779;-9.57117132;-18.76674577;4.633702432;0.149781158;-1.191529228;0.771007885;-5.72062243;12.94441555;-8.260803043;-26.57239743;-13.631726;-17.17790464;-19.27887973;-6.929013239;-10.98236107;-18.53088621;1.549740888
2.525437996;-19.50159371;-6.449252486;-13.17225139;3.97685191;0.003287872;0.575700771;2.968839336;-4.194219847;14.84751966;-7.72911818;-25.12953193;-14.24540984;-12.46726583;-14.82800152;-4.289126024;-8.558470112;-16.5138267;1.360957931
1.436948824;-12.42993545;-4.763873724;-7.175228493;2.85893155;-0.117955569;2.843601252;4.436323002;-0.56822654;17.02951658;-7.637692054;-23.31377936;-13.20730262;-7.547573262;-10.83400625;-0.949008984;-6.781473287;-14.38344176;1.314011015
0.302921412;-7.93124376;-4.634729751;-3.290698746;1.276816268;-0.18991109;3.394343712;4.115486128;2.84784952;18.67648971;-8.307743864;-22.20023369;-11.79180202;-5.634605638;-8.099331226;2.215113557;-5.783740336;-12.375234;1.458204775
-0.276399699;-6.907016682;-5.427999982;-3.103043527;-0.639048529;-0.237955259;1.865791802;2.652926596;4.296850002;19.0057657;-9.543242499;-22.39180573;-10.76373435;-7.821104025;-6.968833081;4.233699621;-5.324536872;-10.66261242;1.68052507
-0.404677586;-7.845216164;-6.254187804;-6.088597804;-2.457807011;-0.301524112;0.202154027;1.842857836;3.977118373;17.90384114;-10.37112952;-23.21114188;-9.933151526;-12.28553484;-7.49111546;4.471628022;-5.043090138;-9.404191154;1.788998314
-0.402738152;-8.680763042;-6.476208056;-9.791685599;-3.541075584;-0.386449679;0.909265868;3.01975748;3.67988029;15.95400841;-9.61398055;-23.20107568;-8.746733561;-15.68914941;-9.426932867;3.026411051;-4.68017145;-8.71313152;1.655723337
-0.264395736;-8.751968126;-5.965311618;-11.39514918;-3.432656614;-0.452595794;4.656022368;5.833745712;4.948252349;13.83306854;-6.990324234;-21.57319855;-7.264062811;-15.59952706;-12.07115688;0.827613889;-4.095682174;-8.527881091;1.327643024
0.388285347;-9.103075479;-5.03571313;-9.609832764;-2.277602746;-0.451040083;9.396386502;8.491118944;7.411452646;11.68868435;-3.770731881;-19.20908606;-6.49247643;-12.03795765;-14.14056499;-0.710501123;-3.147348091;-8.496180072;1.034187346
1.820448728;-10.99485229;-4.181290774;-5.498725987;-0.893937635;-0.377116499;11.86112613;9.231232284;8.841658836;9.1251229;-2.213337779;-18.11123856;-7.65625271;-7.082279946;-14.07500732;-0.369657897;-1.65670808;-8.049783702;1.076859846
3.672192538;-14.18057605;-3.810775772;-1.637276534;-0.337689186;-0.288085061;10.17279715;7.729614474;6.966516238;5.811650895;-3.997679512;-19.62971132;-11.00841805;-3.08741879;-10.84762505;2.206782586;0.40602303;-6.742077896;1.651311641
4.981300112;-16.72139349;-4.108049699;-0.265653214;-1.197428471;-0.26428427;5.347037957;5.231925816;1.492540082;2.090354635;-8.83161738;-23.04348423;-15.29778756;-1.106082118;-4.900197922;6.248361272;2.660295967;-4.681317847;2.700009766
4.838728631;-16.64112422;-5.014093902;-1.805075025;-3.110692004;-0.343753009;0.429915543;3.399929707;-5.427787377;-1.06600815;-14.42978892;-25.91917475;-18.48433807;-0.698283378;1.513532291;10.17001953;4.292488745;-2.709543061;3.894649038
3.186932501;-13.9098573;-6.25483195;-4.749109074;-4.886160973;-0.486202765;-1.91888978;2.990263615;-10.71102657;-2.767048131;-18.03050227;-26.13198481;-19.1904152;-0.971423863;5.115594374;12.31077583;4.446046936;-2.055943491;4.785640921
1.075237794;-10.80073236;-7.376950308;-6.854346993;-5.20175006;-0.599014678;-1.298018679;3.548011081;-12.55489005;-2.929947349;-18.34934287;-23.85641018;-17.67946751;-1.648928556;3.351460976;11.70306611;2.821575254;-3.553600354;5.05211852
0.071480884;-10.07056578;-7.841124275;-6.644566597;-3.434836973;-0.605724156;0.611367885;4.259385535;-11.50285102;-2.303588086;-16.44856759;-21.69255666;-15.52353533;-3.126740319;-3.874346769;8.469731386;0.009815131;-6.910463786;4.701969766
1.19739989;-12.45011336;-7.240318791;-4.181305634;-0.077773777;-0.501978565;1.889916148;4.98155518;-9.584441843;-1.736526294;-14.8357513;-22.62988359;-14.25795063;-5.601724533;-13.69926968;3.66718366;-2.795246294;-10.62284049;4.079025905
4.166259547;-15.7265597;-5.602042872;-0.76254081;3.526022974;-0.355566093;2.078842456;6.336791325;-8.460503414;-1.391257645;-15.52798503;-27.4766211;-14.21716845;-8.326695294;-21.63263587;-1.301056963;-4.576030161;-12.74965153;3.650552404
7.513032239;-16.43875113;-3.576777896;1.986229947;5.935696169;-0.254357117;2.203387606;8.748309055;-8.301204824;-0.715340381;-18.63852738;-33.97891103;-14.57800764;-9.927251363;-24.10318708;-5.365770872;-5.188618085;-12.13588379;3.704726143
9.553803709;-12.90899616;-2.277303977;2.901974288;6.36684788;-0.24705126;3.262963048;11.44097172;-8.321021353;0.720946782;-22.56696203;-38.50637497;-14.52917556;-9.622519417;-20.6648762;-8.217783353;-5.397636495;-9.254872618;4.167061557
9.493330051;-7.024280903;-2.718605564;1.57690328;5.003063669;-0.322213851;4.79555341;12.58432257;-8.269186621;2.297313966;-25.5131906;-38.98993077;-14.42582503;-8.183489329;-14.36364607;-10.28761167;-6.16618878;-6.007514866;4.671643378
7.889903813;-3.090087891;-5.128669198;-1.721770327;2.746058661;-0.434079256;5.01894989;10.69898052;-9.254488934;2.319179026;-26.95857838;-36.65983924;-15.75447025;-7.549084513;-9.91100685;-12.32539043;-7.73571829;-4.520970131;4.837794524
6.162774879;-4.523052401;-8.607845519;-6.207337231;0.635697405;-0.544211063;2.497494779;6.144553065;-12.93480338;-0.848068837;-27.87593711;-35.08083743;-19.80376767;-9.203210589;-10.78875394;-14.82678783;-9.248160766;-5.736551074;4.544281043
5.523736716;-11.05139689;-11.48717551;-10.71891128;-0.680580494;-0.640662301;-2.241768617;1.231666326;-19.7239002;-7.31507087;-29.60562588;-37.24761608;-26.17801338;-12.64609556;-17.16586459;-17.6287957;-9.268999715;-8.786375031;3.992206041
6.113037961;-18.78047077;-12.28912848;-14.01326353;-1.155607508;-0.723760737;-6.764400528;-1.378766147;-27.73850602;-15.14683425;-32.50912518;-43.15071067;-32.56647086;-15.40300809;-25.96616194;-19.91957819;-6.861922553;-11.62774607;3.51437961
6.942580955;-23.15422399;-10.71960376;-15.28669127;-1.192198342;-0.781355825;-8.569289811;-0.757857529;-33.68293091;-21.38242116;-35.64626135;-49.82298499;-36.17515318;-14.79658533;-32.9501944;-20.6897546;-2.414351592;-12.49899031;3.293208415
6.651301779;-22.44264441;-7.99256408;-14.67239299;-1.295720061;-0.784333227;-7.150691137;1.527876126;-35.15941933;-23.9187906;-37.72286391;-53.76680611;-35.76552729;-10.16212713;-35.32716423;-19.38879517;2.413694484;-11.15673593;3.222399923
4.508138545;-18.93926739;-6.167368752;-13.25581664;-1.749544708;-0.709874952;-4.429855488;2.73431124;-32.52595473;-22.79814463;-38.35042864;-53.66085481;-32.61051912;-3.667887817;-33.15433599;-16.3851976;5.589898456;-9.016135263;3.025216465
0.957421306;-16.94212999;-6.845251387;-12.40313852;-2.470872584;-0.569772892;-3.108080326;1.301810553;-28.67010236;-19.86858265;-38.36234592;-51.07435308;-29.48834315;1.061642635;-28.75232932;-12.89364654;5.822624116;-8.123193617;2.523495509
-2.641300258;-19.22274783;-10.057349;-12.77279901;-3.091796105;-0.413974759;-4.340326893;-1.742213723;-26.77964186;-17.11455467;-38.83019035;-48.70024117;-28.46125845;1.542200795;-24.79662237;-10.33857886;3.15371875;-9.728190356;1.822079929
-4.857183799;-24.86315546;-14.10731843;-13.76114774;-3.205293861;-0.302155586;-6.754526825;-3.572396695;-27.90128612;-15.05990082;-39.70361548;-47.78440215;-29.25663392;-1.770752644;-22.57281515;-9.509358401;-1.258257638;-13.47396354;1.245280961
-5.020832191;-30.1258934;-16.52192274;-13.90102633;-2.642708143;-0.266323069;-7.675131099;-1.903059876;-30.2880471;-12.57502049;-39.46222944;-47.08578621;-29.63296828;-5.901580695;-21.56031184;-10.06223741;-5.871714518;-17.70952893;1.075946987
-3.512164456;-31.50195458;-15.52742196;-11.99740506;-1.625127762;-0.296153327;-5.487451093;3.102639105;-31.04097779;-8.21585089;-36.32691143;-44.29601921;-27.48531665;-7.654841475;-20.3892577;-10.75333144;-9.459970644;-20.60968446;1.319772838
-1.383514466;-28.38772016;-11.12315437;-8.146279368;-0.680203163;-0.357751611;-1.104749743;8.936973911;-28.63329681;-1.910242819;-30.12603767;-38.62790669;-22.96437854;-5.976857891;-18.21433738;-10.30876641;-11.41659153;-21.26376385;1.697739795
0.350518229;-23.32010506;-5.101426823;-3.815478847;-0.342313283;-0.42607244;2.689133064;12.68762197;-24.20752608;4.490132769;-23.1499768;-32.20163635;-18.80324466;-2.561541112;-15.39738317;-8.367124933;-11.70232228;-20.03764874;1.873832433
1.246159369;-19.81839565;-0.052638466;-0.887808315;-0.802712183;-0.500235197;3.407928968;13.08726567;-20.63068658;8.308293845;-19.01256245;-28.860852;-18.46599564;-0.333494098;-13.09207213;-5.823502813;-10.6825362;-18.12242095;1.723150034
1.464706492;-19.7795887;1.991301679;-0.392583896;-1.743364642;-0.589375741;0.692466083;10.98705156;-20.19877101;7.914461833;-20.17586161;-31.26567794;-23.50329488;-1.117736633;-12.22830361;-4.286495571;-9.007839286;-16.73830883;1.413176303
1.376195964;-22.50500002;0.480059814;-1.887693043;-2.496777845;-0.686233731;-3.641003944;8.104068071;-22.95085619;3.866661818;-26.01370688;-38.62264838;-32.17413818;-4.349381895;-12.77803633;-4.987026921;-7.473774015;-16.56158359;1.235772644
1.101901626;-25.85264206;-3.598240772;-3.906810954;-2.457685288;-0.757725506;-7.179105934;5.456848506;-26.91337411;-1.542261323;-33.00839567;-46.93282382;-40.42360626;-7.717206874;-13.82860817;-7.895124726;-6.742082609;-17.60936535;1.343843176
0.371612029;-28.20516176;-8.401736758;-5.032304376;-1.478240597;-0.764771756;-8.64050413;3.027308964;-29.87990927;-5.866645859;-37.05245202;-51.59824544;-44.4883092;-9.045136732;-14.28661393;-11.67863625;-6.986963814;-19.42144284;1.62451237
-1.20067343;-29.46629294;-12.16833521;-4.718762083;0.03519025;-0.694233288;-8.355641346;0.793983033;-31.07344613;-7.897980431;-36.16635158;-50.36278473;-43.19486781;-7.821862219;-13.59358681;-14.54367169;-7.732379283;-21.26559454;1.813734423
-3.656410444;-30.41863208;-13.90366823;-3.310644452;1.404285705;-0.572646052;-7.367325803;-0.229710979;-31.29611345;-7.85152242;-31.60939418;-44.40811111;-38.3449284;-5.249822279;-11.95587385;-15.36396235;-8.103367061;-22.28359271;1.741062251
-6.43196666;-31.34832547;-13.58873781;-1.437202125;2.142722179;-0.447666802;-6.237661174;1.602141629;-31.62866142;-6.468809315;-26.63316697;-37.01580193;-33.10495351;-2.997336299;-10.0697483;-14.31058591;-7.399365703;-21.70792284;1.48116711
-8.537527594;-31.42388341;-11.95482915;0.549273328;2.264124702;-0.353500534;-4.718096471;6.804256357;-32.04345862;-4.065480792;-23.96094086;-31.12534603;-29.77748625;-1.846039308;-8.695968697;-12.58;-5.583590834;-19.24074178;1.278576097
-9.085464731;-29.46312875;-10.0187534;2.600532385;2.211780943;-0.291868925;-2.426399956;13.38268065;-31.28939678;-0.454023148;-23.98327254;-27.77121009;-28.6039303;-1.337953841;-8.418561652;-11.48493986;-3.289385457;-15.41810083;1.319784687
-7.810633388;-25.31807816;-8.585433637;4.581536538;2.476032367;-0.245150146;0.354658388;17.64003906;-28.15849398;4.284739956;-24.94856822;-26.35840464;-28.24754033;-0.542103204;-9.620350916;-11.60553232;-1.315729632;-11.5879836;1.563459214
-5.220340884;-20.4843662;-7.894934633;6.007179372;3.200632683;-0.207010641;2.688432129;17.06555042;-22.92631537;9.094195764;-24.75352183;-26.07054737;-27.25470827;0.892328791;-12.46961596;-12.58495324;-0.014023377;-9.292686912;1.782535829
-2.274223397;-17.24896776;-7.555858286;6.289832272;4.076026751;-0.198248016;3.824161326;12.97791049;-17.56866746;12.19308273;-22.71511791;-26.88320774;-25.19340772;2.352065183;-16.76801283;-13.61118896;0.931490512;-9.316833548;1.776031519
0.172669264;-17.03547864;-6.823220972;5.304480816;4.582917847;-0.24934521;3.982563314;10.21307583;-14.44649204;12.27106544;-19.89897557;-29.29390504;-22.68590769;2.792439962;-21.76620915;-14.11199949;2.162584093;-11.05478202;1.553620375
1.776413853;-19.34306769;-5.111876763;3.675345449;4.37809743;-0.364203181;4.235884248;13.35114335;-14.52316681;9.657269029;-17.92422763;-33.25193087;-20.60077734;1.608821218;-26.21367904;-14.09644304;4.058169083;-12.76443412;1.323594055
2.710111604;-22.15592753;-2.458743628;2.386757227;3.52413642;-0.500358468;5.55229234;22.12617925;-16.61077163;6.381019065;-17.45454537;-37.55073978;-19.30046645;-0.940404752;-28.77959012;-13.93993779;6.406353166;-12.67609345;1.297833932
3.333171617;-23.43382551;0.38582967;1.965548783;2.415048565;-0.588703476;7.936554322;29.98208203;-18.27376675;4.918022567;-17.73489732;-40.44086738;-18.58756519;-4.03433313;-28.66462115;-13.89097012;8.58702881;-10.23950291;1.496291078
3.830474643;-22.43264574;2.35343685;1.961340338;1.499800436;-0.580181082;10.51288491;27.73546568;-17.63734071;6.521851381;-17.49723022;-40.96896874;-18.21135096;-6.906624888;-26.01446366;-13.77130038;10.05026473;-6.585320112;1.732228013
4.111791154;-19.87270849;2.715241856;1.271488721;1.040983603;-0.480698254;12.43820658;10.27212088;-14.65240971;10.41431904;-16.30844352;-39.7677613;-18.26644969;-9.165437363;-21.84822731;-13.11697934;10.64092973;-3.782268314;1.789765138
4.01264905;-17.04665235;1.553961696;-0.872899028;1.067975445;-0.343848319;13.6816696;-18.63394226;-10.9077508;14.42489631;-15.07435008;-38.46561609;-19.00619234;-10.60876426;-17.5490035;-11.59747677;10.52172194;-3.356666468;1.625273711
3.571207901;-14.82059343;-0.299673457;-4.081625702;1.486455647;-0.227705571;14.85140227;-47.39629398;-8.311774102;16.52173462;-15.21861371;-38.1523983;-20.26425418;-10.89170453;-14.2467643;-9.324985258;9.86786021;-5.13698493;1.402424838
3.097743182;-13.38904961;-1.836310462;-6.904506011;2.180557474;-0.153912689;16.27264892;-63.37601943;-7.803078593;16.03824218;-17.272063;-38.25825897;-21.14862897;-9.5479809;-12.43616717;-6.802914277;8.719653142;-7.305167223;1.328960205
2.950631135;-12.78348655;-2.535462022;-7.864134396;2.999478909;-0.104729837;17.37139473;-60.74974763;-9.035561915;13.76743092;-20.15130473;-36.91232148;-20.47369275;-6.459998653;-11.9488955;-4.605037356;7.169919721;-7.674605325;1.453973425
3.211544053;-13.38656596;-2.650954508;-6.614721668;3.686036523;-0.058129946;17.16150821;-43.89288284;-11.03065066;11.08581695;-21.8161541;-32.58021068;-17.70261513;-2.331460814;-12.17084727;-3.096624806;5.650985033;-5.30062138;1.626361046
3.565634444;-15.77619738;-2.932269422;-4.26171973;3.901651537;-0.024815875;15.45041536;-23.92823662;-13.01030307;8.993203489;-20.81040728;-25.64523459;-13.62687965;1.398215501;-12.34211407;-2.414492584;4.912784509;-1.252080034;1.663149747
3.531926378;-19.99236823;-4.02765095;-2.543021122;3.419303639;-0.048281284;13.46505806;-11.11755537;-14.67113277;7.830442974;-17.44072354;-18.59178327;-10.12958883;3.299820538;-11.86844394;-2.628403656;5.566162163;2.046329749;1.568836931
2.884226087;-24.99076772;-6.025987192;-2.509596448;2.362764391;-0.163674555;13.00152359;-8.682780922;-15.86383433;7.674811301;-13.65279408;-14.57268513;-9.087237297;2.842701727;-10.62380164;-3.813025436;7.549923296;2.470667796;1.581357377
1.915167467;-28.94460283;-8.432506036;-3.755730808;1.259650777;-0.352210655;14.68315083;-12.24510269;-16.25;8.772390781;-11.7229721;-15.4264711;-11.16226553;0.712704188;-9.133365833;-5.865412689;10.06423545;-0.295018081;1.969693539
1.296893154;-30.27397554;-10.50272464;-4.789822569;0.781792933;-0.536708586;17.04207447;-14.61189439;-15.43881747;11.43309945;-12.78554881;-20.58806428;-15.33994488;-1.716307444;-8.417106783;-8.211072569;12.1458934;-4.448723922;2.745479758
1.611360383;-28.58026598;-11.61029007;-4.205646139;1.306107418;-0.63003418;17.63365178;-11.72293177;-13.48964479;15.46751436;-16.24575074;-27.55999805;-19.50049704;-3.339641221;-9.37449739;-9.747725032;13.43704657;-7.172234674;3.55748022
2.902034896;-24.72252038;-11.39333708;-1.700351119;2.620642321;-0.600326909;15.48199736;-5.176880451;-11.17714564;19.80901329;-20.35106922;-33.4126975;-21.57669266;-3.955083222;-11.95649245;-9.252946879;14.42437404;-6.396208296;3.901838739
4.602949214;-20.03897922;-9.701976439;1.81924954;4.034735412;-0.497943733;12.57914976;0.078367991;-9.581093915;22.86751775;-23.32639039;-36.17169044;-20.52283157;-4.134624616;-14.73451715;-6.101096972;15.83920852;-2.059152233;3.507621422
5.919212233;-15.45652063;-6.560403369;5.010944362;4.851938818;-0.418124585;12.62367181;0.379880423;-9.241774298;23.48015013;-24.22;-35.32357426;-16.60597821;-4.563211594;-15.42952901;-0.816290083;17.7022022;3.926369922;2.584585833
6.387493592;-11.24453607;-2.271338455;7.037725449;4.864277793;-0.427074351;17.61214407;-3.71980669;-9.636282206;21.7102569;-23.04999491;-31.5356515;-11.09249108;-5.483611827;-12.35666338;4.978179692;18.93487105;8.90509837;1.710550124
6.208808506;-7.467917653;2.466161634;7.940078125;4.483223139;-0.511389154;25.21838567;-8.384155949;-9.535242231;18.80237325;-20.46861732;-26.19057683;-5.731101977;-6.688553098;-5.929867317;9.266405633;18.05776047;11.05458965;1.425725647
6.120078125;-4.483691753;6.684699283;8.289691311;4.392282049;-0.592606482;29.77434189;-10.03643664;-8.024043613;16.30482369;-17.4040009;-21.10571857;-2.312837156;-7.918148261;0.969181507;10.60860901;14.52181813;10.30843069;1.848303933
6.909169918;-2.82015745;9.60053731;8.58999767;4.982767664;-0.594637461;26.75416757;-8.254059186;-5.326717105;15.08731502;-14.8692439;-18.23642169;-2.262392271;-9.131693385;4.379175548;8.81307631;9.535506389;8.141853286;2.615380479
8.91543679;-2.490029297;11.11365642;8.997215836;6.01326994;-0.507700017;17.25594902;-5.652331586;-2.681032712;15.04763509;-13.7632242;-18.97642898;-6.106849071;-10.30857008;1.78710016;4.9719284;5.544653609;6.501160385;3.188887064
11.83098145;-2.503669798;11.90901053;9.507377959;6.763570392;-0.39574824;8.23430973;-5.176126086;-1.323313237;15.6549535;-14.46649464;-23.15007813;-12.93031695;-11.00491505;-5.845804138;0.925568661;4.634853031;6.652879604;3.269429137
14.87830313;-1.306112669;12.95661049;10.26035177;6.567567567;-0.342217897;7.331184989;-7.37148538;-1.437643788;16.71659459;-16.39645676;-28.46047541;-20.27042903;-10.26393383;-14.13812722;-1.500246032;7.108641967;8.659097639;2.982791422
17.19612568;1.981138572;14.71540032;11.53658593;5.316606947;-0.380272355;15.87495157;-9.984420827;-1.980594766;18.58947418;-17.99864963;-31.22276406;-24.88905245;-7.2248742;-17.71196934;-1.139372334;11.42174807;11.66749769;2.707462402
18.18666613;6.512936577;16.67109567;13.40979612;3.556272537;-0.46540531;25.94069921;-10.04011692;-1.539788403;21.64013809;-17.4801532;-28.37674789;-24.30212947;-2.072148253;-13.5856463;2.157108091;15.5221365;14.64227482;2.717724797
17.67643504;9.906677183;17.63933323;15.44574328;2.12176082;-0.511611007;24.84582572;-6.430263806;0.514633556;25.53287138;-13.97487016;-19.62111391;-18.25329576;3.533974014;-3.285294944;7.474934009;18.39898881;16.94507407;2.961147952
15.89225077;9.751497882;16.65057994;16.84745602;1.603451291;-0.459711051;4.623404286;-0.777152103;3.571159657;29.14105004;-8.309375447;-8.077945136;-9.09064945;7.154086162;7.861736187;13.10406646;20.45838916;18.41096927;3.152412317
13.32990607;5.371847528;13.7157249;17.00949252;2.032712842;-0.322227826;-30.52410042;3.999652019;6.37037716;31.2955423;-2.668407547;1.270075684;-0.587343702;7.104242191;13.92018039;17.12229562;22.44302769;19.02590258;3.075392582
10.57949177;-1.551967075;9.833000161;15.9914723;2.971355436;-0.171745114;-65.04033968;6.002347437;8.078770494;31.73172379;0.745840503;4.526730631;4.18648993;3.721718055;11.97171335;18.1805203;24.04320579;18.62361062;2.802272506
8.144333227;-8.050039063;6.232600024;14.43020738;3.868347859;-0.087114662;-81.41422526;5.556151101;8.8674577;31.29740179;1.125877365;1.239229557;4.571059543;-0.721654582;3.789048454;16.15994286;23.74574537;16.94492223;2.623311682
6.307191123;-11.81112194;3.528543732;12.91965214;4.379970002;-0.103040134;-71.79495557;4.460254023;9.498410562;31.08831627;-0.533970141;-5.504454304;2.423477595;-3.575215849;-5.49501345;12.2751111;20.34028687;14.01965305;2.7540956
5.123061427;-12.51011228;1.540280044;11.43222289;4.44769135;-0.199384184;-43.37760209;4.209073216;10.34003906;31.19576116;-2.35920745;-11.30881524;0.534178898;-3.753344039;-10.73838655;8.426495311;14.78352958;10.47402781;3.100058594
4.570683888;-11.56133611;-0.06993603;9.388208199;4.17107088;-0.329156156;-13.51595117;4.868396583;10.76453126;30.25017053;-3.101676649;-13.40934393;0.48739459;-2.54764874;-9.874666207;6.102569541;10.43939708;7.358889319;3.315134675
4.761975464;-10.65459744;-0.998138832;6.408801492;3.670860835;-0.453520519;1.881934447;5.500397158;9.546803133;26.3881699;-3.000053406;-12.21064338;1.531734005;-2.552321451;-4.769533741;5.533235755;10.90941002;5.482328036;3.125100879
6.000421697;-10.37300604;-0.227143613;3.101149466;3.082163839;-0.553742037;-1.770759363;5.528993593;5.988005964;19.04620001;-3.298073372;-10.42572526;1.304011509;-5.399862626;0.478662584;5.717162134;16.89206212;4.719370545;2.632651446
8.540973899;-9.987056749;3.049998444;1.070651165;2.629858817;-0.618069056;-16.44036786;5.616674839;0.819184654;10.12607334;-4.858452835;-10.64124066;-2.122941541;-10.02707618;2.40103957;5.343213785;24.79832088;3.935019486;2.310434841
12.15233454;-8.418848548;8.23077256;1.945225396;2.6204324;-0.627094981;-28.89828624;7.165903275;-3.916273647;3.389985337;-7.092184303;-13.25691008;-8.40609303;-12.93632939;0.185192081;3.920365126;28.81825134;1.783285591;2.644007847
15.83662509;-5.387594168;13.00125183;6.065870025;3.26198075;-0.559995708;-30.6005722;10.89049861;-5.982757852;2.269886423;-8.176516913;-16.33791553;-14.73188728;-10.49762761;-4.313060964;2.207010281;25.34316262;-2.05215044;3.695187716
18.06633241;-1.726778431;14.51136706;11.89030332;4.425832665;-0.419063003;-22.56659519;15.79493108;-4.266225625;7.579661788;-6.450299996;-17.36053553;-17.49574848;-1.777793653;-8.244717189;1.542762424;16.35312243;-6.102577218;4.951723415
17.56299963;1.268086491;11.35942799;16.68615256;5.585004407;-0.246943981;-12.41806114;19.57962162;0.639928157;16.81691848;-1.860797449;-15.37692241;-14.73013642;10.14326045;-9.737793687;2.583083923;8.706379378;-7.605602212;5.619383734
14.17541147;2.716194381;4.86070629;18.10569508;6.063984615;-0.113437546;-7.078199111;20.27359213;6.892284825;25.62066923;3.748587567;-11.88111765;-7.57521976;19.47021268;-8.825516995;4.496325233;9.295789075;-4.185979072;5.162377101
9.203353829;2.428725202;-1.56638437;15.54071177;5.473876405;-0.075372955;-7.5213786;17.83825333;12.44314408;30.36856139;7.795803008;-9.737723494;0.269444089;20.93947402;-6.946877432;5.3946861;19.49609127;4.2714001;3.692807428
4.802603774;0.496340354;-4.647517722;10.32830339;4.012311079;-0.139317747;-9.420590327;14.4504445;15.91438164;30.09206713;8.684683683;-11.03304835;4.779198115;12.9986603;-5.658171137;3.79961206;33.31898216;14.90185243;1.917715997
2.753146384;-3.143452883;-3.516036641;4.766185973;2.369475666;-0.257691507;-8.176510409;13.14899693;16.86227519;26.47449591;6.778097907;-15.47021481;4.043583894;-1.100128996;-5.563220102;0.045244192;41.13437461;23.03615067;0.685926582
3.398642831;-8.494838496;-0.226442199;0.757639111;1.276453594;-0.362417705;-3.344397691;15.73195101;15.56210727;22.17481252;3.931218739;-20.44545519;-0.675644482;-14.98113518;-6.073788775;-3.545249659;36.51478482;24.77312274;0.469388769
5.522944321;-14.764193;1.950941059;-0.947259319;1.025397362;-0.409574414;1.375335246;21.34397383;12.72333052;18.90462473;2.048006535;-22.67601438;-5.881370317;-22.5504236;-5.920943542;-3.999783071;21.11703006;19.40930633;1.139568721
7.286119561;-19.96378264;1.160931162;-0.569890738;1.330485312;-0.400553223;2.076991032;26.76449193;9.364001991;16.68060878;1.837892284;-20.1932823;-8.053221923;-21.08207534;-3.922048739;0.322692734;3.785882719;10.11346899;2.154465727
7.55568169;-21.6250765;-1.561990383;1.367716371;1.634326014;-0.366496774;-1.465993735;28.33836337;6.712560538;14.57908042;2.671952653;-13.39530944;-5.649751423;-12.27426799;0.433455491;8.525038588;-5.584432721;2.271354602;2.964854994
6.653070921;-18.39892193;-3.173869529;4.474754466;1.603982856;-0.333850659;-5.58810855;24.4544303;5.888966413;12.09341878;3.465370167;-4.631373135;0.305940036;-0.903174013;6.722306993;17.61602042;-2.842814129;0.426551419;3.320767322
5.967555422;-11.32646939;-1.163223895;8.375200655;1.403150644;-0.302432414;-6.196407525;17.04187612;7.374676492;9.831788389;3.701527767;3.203877024;7.218824556;7.885116669;13.61618268;24.28577758;8.065679056;5.694803065;3.28955801
6.758627568;-3.564126263;4.307363626;12.38246597;1.511330957;-0.252868767;-2.519677208;10.95581581;10.62969025;9.008667572;3.724864822;8.079246726;12.62515541;10.99182836;19.20945468;26.75966887;18.78636049;15.26003906;3.051459132
9.097958374;1.508822583;10.42571799;15.53656334;2.24238035;-0.17238625;2.371031176;11.23253082;14.25718434;10.29284818;4.181464637;9.479885029;15.42216536;8.287313439;21.70533835;25.5108586;23.1604767;24.22712994;2.698493408
11.78761015;2.495836513;13.93387161;17.17231865;3.378265923;-0.072513171;4.663996699;19.54118116;16.7456788;13.11304758;5.264598638;8.192232601;15.96581603;1.904586969;20.34344826;22.52998155;21.4620177;28.59820323;2.210699091
13.3136074;0.810305326;13.73605218;17.5571562;4.253934447;0.017780136;3.539350838;32.01197564;17.34018188;16.06760459;6.537133784;5.635285204;15.26813706;-5.292913864;16.10478097;19.88515397;19.07737558;27.46957285;1.590859035
13.06842319;-0.545335307;11.78315237;17.92139395;4.261586661;0.075536348;2.002972676;40.27609667;16.44266829;18.07838157;7.491112776;3.238169115;14.09721799;-11.01777226;11.57463081;18.65789818;21.04891267;23.139687;0.987812957
11.86135436;0.708540294;11.4914089;19.66310071;3.38409797;0.100582981;4.025766868;35.84584283;15.27426269;19.26086875;8.259764157;2.091868431;12.665908;-14.04318329;9.704970403;18.82703459;27.23955747;19.24333975;0.658626477
11.30190097;4.54447472;14.9489792;23.25873038;2.314666111;0.110037537;10.62894102;15.67379807;15.07384749;20.72111323;9.715346061;2.797939033;10.97618206;-13.98559894;11.99589976;19.82694162;32.23508013;18.29366533;0.781484772
12.53163169;8.944794374;21.14100092;27.75880721;2.025788586;0.117306027;18.53978883;-14.63070825;16.40830364;23.41675873;12.74007813;5.35603476;9.314823368;-10.93941378;17.24844932;21.07241134;30.06783269;20.28466221;1.281468202
15.28440339;11.69462225;26.59486185;31.33438178;3.078207635;0.117370451;22.7084588;-42.5985455;19.00396314;27.03891313;17.2474986;9.074270899;8.329837131;-5.413200078;21.9194982;22.02162172;19.7805426;23.15653319;1.834367123
17.98436591;12.04922244;27.9093004;32.48633852;5.172459374;0.093504418;20.486563;-55.40157801;22.06540301;29.89328377;21.838391;12.6495233;8.566548223;1.452081847;22.13440623;21.97647526;7.098299758;24.59758357;2.067361206
18.78309333;10.91230639;24.17023743;30.9735192;7.275360679;0.038914352;13.79428887;-47.4120779;24.72873706;29.96591266;24.50288427;14.55474142;9.889953226;7.801987077;16.19586023;20.14266596;0.630213213;23.78532551;1.808133723
16.74471163;9.55836508;17.43087238;27.75563371;8.235263592;-0.028649526;7.435895699;-23.9236419;26.33973428;26.40174716;23.91661803;13.6706531;11.38025359;11.52427869;5.89815068;16.17080949;5.469065252;21.82720525;1.189892578
12.34066875;8.220240875;11.03671761;24.0863175;7.456422474;-0.075302235;5.149695645;1.756921118;26.52913186;20.27373743;20.3604878;9.871318684;11.91324336;11.20443897;-4.368149253;10.78332152;19.17594846;20.67931689;0.535280785
7.002439632;5.903961205;7.252182974;20.59881761;5.188130143;-0.076397419;6.89105471;16.29372191;25.25302113;14.04459378;15.5621716;4.213084113;11.0364105;7.039404556;-10.23418223;5.79891123;33.26245309;21.44137394;0.118626024
2.19051332;1.586851955;6.046636563;17.17940993;2.288508211;-0.03572179;9.582466184;14.23673955;22.88770447;10.09581712;11.58855231;-1.44262413;9.436438701;1.022914919;-9.950966804;3.255345565;39.00460604;23.35128973;-0.003431545
-1.292621195;-4.374770002;5.790714939;13.66604625;-0.305252198;0.019964327;10.36855145;0.60870358;20.2463347;9.36215128;9.621517162;-5.225029487;8.552001552;-3.899680537;-5.190282846;4.115207933;33.19568812;24.25410346;0.030471635
-3.346120886;-10.03442759;5.011685126;10.62194608;-2.010517559;0.066724897;9.236145131;-13.43553412;18.31420082;10.98047734;9.4661353;-6.071468879;9.536736042;-5.331962666;0.450341249;7.518721899;19.74032032;22.21544275;0.060607766
-4.15450993;-13.16755026;3.610983873;9.332537062;-2.694022124;0.105512279;8.634544377;-18.60869748;17.71645719;13.08485152;10.00340867;-4.150582107;12.30922381;-2.719864951;4.066282611;11.2373153;6.365262816;17.09268901;0.069741749
-3.818229202;-13.02341809;2.601217856;10.87197107;-2.482790988;0.15878658;10.64371089;-13.39923108;18.2494512;14.07485833;10.07678593;-0.698628875;15.40740491;2.350489536;5.218728956;13.07458067;-0.665390157;10.88303765;0.191914951
-2.364998151;-10.97764259;2.804806259;14.97819527;-1.540525317;0.243312195;14.53824994;-3.902964534;18.88599745;13.44525719;9.084577881;2.59910444;16.79321083;7.031201928;5.596644692;12.19769518;0.103010474;6.531304781;0.561901379
-0.025957931;-9.469527771;3.832161392;19.76342109;-0.010742229;0.344026087;17.1632485;1.764836889;18.3601256;11.71036265;6.955040635;4.32489434;15.06552116;8.72271404;6.977979313;9.419990929;5.792740821;5.983790571;1.143153845
2.621182149;-10.09487362;4.304749838;22.67705676;1.884385144;0.415134497;15.82619894;-0.122162484;15.97080012;9.682507076;3.783086385;3.789726782;10.26219835;6.326811908;9.241982831;6.289006849;12.22339546;8.829433787;1.697426173
4.894740443;-12.45136364;3.096044635;22.11429269;3.767411851;0.411389931;10.98207499;-6.538159638;12.02774961;7.793538512;-0.348889938;1.092272715;3.763350977;0.600599027;10.12805685;3.780319478;16.61269643;12.47971682;1.944483535
6.472664766;-14.66149091;0.42991866;18.48301056;5.200312849;0.324877845;6.123235659;-10.80146774;7.614534643;5.986245764;-5.146375552;-3.117615231;-2.531587933;-6.414806806;7.012080702;1.669642958;18.08097759;13.78297042;1.797115674
7.634698256;-15.03749704;-2.181871461;13.90732804;5.912860166;0.195582555;4.861193581;-8.240152034;3.870813541;4.139028486;-9.773599496;-7.937746406;-7.112241324;-12.39558674;-0.696645597;-0.961912061;16.47870718;10.99792122;1.47841977
8.987020622;-13.40517306;-3.129434523;10.77725917;5.966756459;0.084852759;7.808453818;0.211749288;1.351200757;2.514410042;-12.92826676;-12.4072451;-9.273253411;-15.57922311;-10.50582378;-4.60442031;11.51804689;4.844569669;1.404024762
10.83412239;-10.98934798;-1.986906255;10.22124706;5.68397978;0.032211238;12.09510121;9.109046327;-0.095891396;1.728573973;-13.49797589;-15.59881869;-8.947963919;-15.16646342;-18.09841691;-8.590106075;3.475086521;-1.975074565;1.890087891
12.72628935;-9.099248382;0.216022499;11.5947742;5.369525399;0.030511636;13.96366588;12.98251624;-0.949211783;2.20397623;-11.39055033;-16.72912579;-6.343451852;-11.3638606;-20.05343741;-11.39401375;-5.313920907;-6.355655876;2.893463809
13.63003906;-7.914205082;1.938187126;13.25807001;5.057923846;0.039192745;12.07818537;10.36985513;-1.544834925;3.586514847;-7.838141614;-15.36720816;-1.827311867;-5.269503123;-16.01507028;-11.70214415;-10.22694098;-6.386242828;3.986749697
12.67639118;-6.511761473;2.440138466;13.93889642;4.520293624;0.023170391;8.54840711;4.303840949;-1.910083008;4.726504855;-4.79174913;-11.67253584;3.842679534;1.347205143;-8.705687997;-9.352186666;-6.624222349;-2.045906498;4.611113443
9.93579161;-4.075609364;2.332661634;13.60990402;3.555518595;-0.016551755;6.790791046;-0.658048641;-1.937681313;4.403955655;-3.732046214;-6.485681401;9.286485715;6.490735792;-1.848174785;-5.409047478;6.515894902;5.167410373;4.445257358
6.584769541;-1.089730267;2.923241036;13.28986162;2.325245685;-0.046713809;8.262298448;-2.013941379;-1.611110887;2.334734276;-4.739489756;-1.14100283;12.70404122;8.656902776;2.340557041;-1.403139231;24.46692606;13.12456708;3.632409416
4.257857359;0.693656652;4.963714601;14.05753155;1.41091053;-0.036043185;11.11790408;-0.551275128;-1.013844469;-0.34660768;-6.533192767;2.954882802;12.60487996;7.567971805;4.174800242;1.566447115;38.40954559;19.78175479;2.696517558
4.00116238;-0.387690092;7.88209126;16.12731322;1.4682308;0.010712853;12.02595061;1.34559738;-0.167282754;-1.641634765;-7.472514009;4.779723601;8.66419207;4.437005057;5.413824507;3.159754278;40.42940275;23.48036118;2.19685877
5.567731905;-4.357576023;10.12419441;18.68117691;2.693614398;0.049826865;9.419468973;2.307226417;1.015331743;-0.032713173;-6.775208191;3.983213444;2.092981105;1.417269388;7.176885382;3.468420609;28.65977497;23.10987651;2.360417077
7.568227839;-9.240540795;10.28259987;20.48929816;4.523369375;0.031345449;5.117202967;2.978950233;2.489430964;4.301958366;-5.036786043;0.937524309;-4.814809837;0.413732878;8.740019531;2.569679495;8.872530845;18.4908008;2.951564776
8.38499896;-12.29015953;8.08310766;20.7598411;5.868208464;-0.058244359;2.770775393;4.695486948;3.763209328;9.352143663;-3.681604691;-3.379453863;-9.734762084;1.958016916;8.263122237;0.532926555;-8.84721393;10.89198853;3.468766717
7.227680181;-11.8703984;4.507573701;19.58017557;5.799961153;-0.178516245;4.569614284;7.440997975;3.941039048;12.45723231;-3.80780902;-7.587155967;-11.33259068;4.916002811;4.774124734;-2.122367845;-16.21687477;3.103373284;3.52019853
4.631252151;-8.516284941;1.094739286;17.72296364;4.236686128;-0.258584872;9.282274177;9.343209525;2.322744784;12.07382388;-5.34772388;-10.20556685;-9.676439298;7.270605482;-0.409632859;-4.118594185;-11.52125794;-1.474457855;3.100832001
2.099320907;-4.40023087;-0.927445005;16.08737052;2.113204397;-0.245558791;13.47340387;8.363478643;-0.806184531;8.894624852;-7.194246204;-10.11776652;-5.915941841;7.452866995;-4.223309555;-3.859516186;0.122505559;-0.558517436;2.570906793
1.163418803;-1.725616915;-1.0538795;15.22995716;0.852410354;-0.142902757;14.74687026;4.593154269;-3.915449784;5.475089675;-8.165574347;-7.123225357;-1.579159731;5.277712401;-4.092078021;-0.536110952;10.90286392;5.477174518;2.362313115
2.470676642;-1.343512773;0.629257528;15.24031877;1.449169359;-0.011303291;13.92861095;0.821710538;-4.948094928;4.571618359;-8.015054654;-2.285748552;2.018673218;1.833441249;-0.075573744;4.940455797;15.69066072;13.45335212;2.642930498
5.436765477;-2.545348792;3.734249665;15.88722961;3.781004769;0.06837154;14.07490762;0.557898286;-2.676573156;7.337977744;-7.66098766;2.30014045;4.004950385;-1.522230334;4.932447132;10.10756394;14.83459617;19.03561102;3.19389988
8.615464789;-3.928382278;7.654880976;16.80544073;6.633150821;0.045051808;17.2151169;5.087291109;2.291716949;12.64454408;-8.429269309;4.438420227;3.933001539;-4.215983986;7.285503541;12.37102396;12.67647903;19.28838244;3.584107383
10.51866055;-4.434432482;11.48861257;17.59283457;8.444749579;-0.07107678;21.98253634;12.19211213;7.731986542;17.96470611;-10.88094608;3.060410173;1.78625571;-6.697924202;5.399154206;10.7654361;13.29994747;14.43963413;3.495641931
10.40913447;-3.760292241;14.14908556;17.87196319;8.285581625;-0.213118577;24.57128503;17.80127465;11.21927195;21.12314591;-14.13440094;-1.015713572;-1.894094995;-9.680834792;1.062168344;6.717912767;16.93702421;7.592813544;2.945065859
8.652639759;-2.094520496;14.85684832;17.42095799;6.413757419;-0.293289161;22.33665808;19.24085664;11.73577715;21.59837879;-16.2366085;-5.417023568;-5.937801719;-13.03881001;-1.869142255;3.131893531;19.75552808;2.565383456;2.240108764
6.471019803;0.253616105;13.71425485;16.35129432;4.056273563;-0.249409473;16.70521509;17.26626706;10.2297239;20.47639066;-15.36866913;-7.580109676;-8.804730738;-15.35101243;-0.437386175;2.387138853;17.09279027;1.418573181;1.727408171
5.240399972;2.865166316;11.79366691;15.16119198;2.58498112;-0.078672414;12.45024573;15.08367492;8.676316168;19.23430314;-11.06644274;-6.32285047;-9.228189319;-14.60572944;5.090597289;4.732287093;7.61;3.46567237;1.546143122
5.70055906;5.000438749;10.46399871;14.51124396;2.654153804;0.156823297;13.6404824;15.25434078;8.39568017;18.42915869;-4.631622497;-2.559739221;-6.934397223;-9.66466302;11.35678816;8.278740044;-4.825623285;6.382584231;1.578600504
7.497409017;5.699656221;10.35669293;14.77685114;3.85684081;0.355613588;19.78361984;17.31736903;9.003526615;17.37;1.521212247;1.354417757;-2.950539273;-1.437375201;14.38007813;10.56478535;-13.07258305;8.389520154;1.610808687
9.333143431;4.43600633;10.80842834;15.65926152;5.075928433;0.423337877;25.81679644;18.36;8.86;14.98315533;5.126024195;3.189167166;0.794001315;7.158679735;12.4043373;10.4333883;-11.27671368;9.655025826;1.540813648
9.687789103;1.850711734;10.33993873;16.17310226;5.240646469;0.319706186;26.30160384;16.07463515;6.637444295;11.07018271;5.133406575;2.185757122;2.418839805;12.55872509;6.926134867;8.750856557;0.999672758;11.77215263;1.447587232
7.74133192;-0.256512558;7.893044892;15.11391104;3.973345538;0.082134426;20.29946011;11.46021019;2.681725066;6.844488786;2.003351542;-0.744577488;1.064083438;12.42771557;1.222394022;7.462514293;17.91946429;15.81441534;1.473604907
3.965522334;-0.015979944;3.854494427;11.78919658;1.750043945;-0.189596349;12.50371342;8.474057181;-1.002567035;4.258479539;-2.790690844;-3.98703983;-2.676298064;6.899403428;-2.278973573;7.838774094;30.4940681;20.72738852;1.648380855
0.004297085;3.012016734;-0.011796395;6.598541741;-0.440657275;-0.383575683;9.328366533;10.62625284;-2.176145421;4.663375374;-7.580883483;-6.466566243;-7.080455375;-1.546545068;-3.577522233;9.397438823;31.80905947;23.58907468;1.83114101
-2.129416756;7.176738327;-1.740019531;1.104153013;-1.649674953;-0.434797181;13.19881846;17.42717243;-0.060709399;7.900155508;-11.10916907;-8.131582014;-10.15427058;-9.422328489;-4.399924429;10.38749866;21.10682978;21.72212687;1.834140594
-1.089762531;9.672478207;-0.537231449;-2.503499681;-1.383448236;-0.357759222;20.1791069;24.07323853;4.057122495;12.54238089;-12.6889502;-9.367697758;-10.52587793;-13.93731017;-5.97140083;9.39899484;4.191886012;15.02636246;1.612479506
3.133772982;8.544958532;2.734842698;-2.333331239;0.286168574;-0.231050892;23.38314774;25.14802438;7.781461898;17.03463159;-12.08430147;-10.0062682;-7.94914794;-14.12112864;-7.319962706;6.722739356;-10.06985366;6.577222294;1.335155395
9.278230262;4.247549964;6.325702072;2.292985146;2.859644463;-0.142995071;19.47427389;19.51338448;9.335813575;20.7380884;-9.41211423;-8.966619141;-3.264140027;-10.88682637;-5.71962717;4.294086269;-14.96042846;0.825472601;1.255054576
15.49613079;-0.5542829;8.926418367;10.3654948;5.632995729;-0.134586605;12.45175625;12.10797149;8.70790197;24.03148874;-5.198168685;-5.000306477;2.059566067;-6.215337843;0.959897022;4.227928448;-9.611596223;0.629016643;1.482232319
20.20445786;-2.876825328;10.43936608;19.41633644;7.899896202;-0.178697187;10.82728962;10.55355181;7.404930359;27.487192;-0.430536874;2.026806515;6.541426414;-2.061041632;11.91418407;7.111681289;1.00256304;5.321222628;1.863880977
22.61043603;-1.560718999;11.60042699;26.44352297;9.130764697;-0.208693805;19.90570421;18.73347737;7.170679347;30.97333122;3.650087891;10.46274466;9.232518942;0.428440126;23.10930593;11.42366151;9.600199779;11.27;2.08926966
22.73648578;2.028000816;12.90613052;29.18943778;9.15159426;-0.173344112;35.51457056;32.38468228;8.786013342;33.58414429;6.080524162;17.54032476;10.01886458;1.101093694;29.49311068;14.54341954;11.25715593;14.49248793;1.938843505
21.1260319;5.266848829;13.91204369;27.19564001;8.26958582;-0.075779209;45.02350201;40.68787066;11.85093812;34.51822376;6.738431884;21.01859234;9.593567165;0.487477834;28.18266824;14.57080889;6.189565016;13.35660395;1.462228361
18.54379189;6.432509935;13.60368952;22.06274762;7.220225504;0.032359964;35.88544774;33.40914131;15.5044988;34.09904482;6.486936055;20.56250965;9.08950474;-0.71075014;20.29450302;11.57739342;-1.000585086;9.416302664;0.926708826
15.8279279;5.955051908;11.51905555;16.68134455;6.860248595;0.094800182;5.628217518;8.697443768;19.24831545;33.90240354;6.662868068;17.77387882;9.492685319;-2.019615289;10.10399102;7.413112595;-4.868380682;5.926052953;0.581430944
13.80250963;5.778878119;8.545661284;13.75416524;7.707677536;0.096033063;-34.53524374;-24.28286867;23.07631482;35.66988839;8.151823592;14.85324646;11.09418702;-3.305671658;2.228347447;4.327320705;-2.896574524;5.334018282;0.451395234
13.07812371;7.450207022;6.531764102;14.39058153;9.598035294;0.071717179;-65.83055311;-50.2152696;26.87832775;39.76614807;10.67264893;12.97768749;13.27816569;-4.617829399;-1.072684742;3.507084122;3.069950289;7.688535062;0.351939612
13.7367856;10.60340842;6.888476131;17.58974046;11.71865862;0.076961992;-73.78506538;-56.9412597;29.83293125;44.45100848;12.83561028;11.68535527;14.80071752;-5.926861685;-0.647202895;4.560303413;8.530887278;11.00035696;0.112379961
15.13714469;13.13379828;9.317382727;20.94105061;13.05892207;0.139867504;-57.39212665;-42.91524037;30.53850918;46.70164197;13.02322626;9.683466629;14.43521547;-6.983369833;0.961441471;6.131562281;9.746635826;13.00626085;-0.20333903
16.11710984;12.88575339;11.80894602;22.12512905;13.01642716;0.23898805;-29.10596169;-17.7930128;27.92930985;44.12719687;10.5235148;6.287072447;11.62127328;-7.428970772;1.689582616;6.979176953;6.316852132;12.79339562;-0.302673195
15.61263765;9.418976622;12.05583624;20.28243182;11.75798329;0.322587205;-6.005384629;4.021789038;22.24023112;36.6273075;6.099869678;2.189475904;6.738802604;-7.103581847;1.138146166;6.639864044;1.137720096;11.08096059;0.079450994
13.34082877;4.402938695;9.232358668;16.40130828;10.08075624;0.352431304;1.212763409;12.25940699;15.14644477;26.58866155;1.539372797;-1.105504363;0.86805129;-6.311705623;0.082402783;5.326960192;-2.032147932;9.198470076;0.89041853
10.04397922;0.383357007;4.721295283;12.52734294;8.865645349;0.33485633;-6.317042037;6.152309127;8.853870337;17.48714974;-1.543403252;-2.648034266;-4.770842673;-5.788077559;-0.893568626;3.411788932;-1.43031082;7.837739789;1.70942855
7.041984561;-1.00376439;1.163052103;10.37132688;8.508405771;0.313350829;-18.78607764;-6.787410267;4.791051597;11.91655238;-2.796943898;-2.934778331;-9.319429048;-6.294299999;-2.198896884;1.101482395;1.58238317;6.662690385;2.019618274
5.34369667;0.048694454;0.525719375;10.25826229;8.728364059;0.329777736;-26.05149059;-16.9370672;2.891975344;10.40369637;-3.3086025;-3.46624168;-12.43589366;-8.071633511;-4.709874257;-1.417186952;3.853637857;4.956236854;1.601798942
4.93646522;2.030683967;2.670420254;11.07448899;8.872454002;0.387730877;-24.49155735;-18.93329158;1.975628841;11.678742;-4.714975075;-5.301919234;-14.10185321;-10.5451449;-8.46887761;-3.656576938;3.060493908;2.543668333;0.722615347
