Channel 1 - P4;Channel 2 - O2;Channel 3 - P8;Channel 4 - T8;Channel 5 - C4;Channel 6 - Cz;Channel 7 - Fz;Channel 8 - F4;Channel 9 - Fp2;Channel 10 - F8;Channel 11 - Fp1;Channel 12 - F7;Channel 13 - F3;Channel 14 - C3;Channel 15 - T7;Channel 16 - P7;Channel 17 - P3;Channel 18 - O1;Channel 19 - Pz
-11.12360771;-12.30507809;-8.132866881;-13.12056278;-3.453736421;-3.12359122;119.4389382;-4.968770735;39.19594695;-13.46801773;62.3914573;-4.002293911;6.130019531;5.042208944;-0.789351943;-5.837109928;-4.902527759;-11.08118947;-5.943670494
-15.37994869;-14.66911296;-16.83930103;-21.79267282;-6.702214768;-1.85198097;82.48946992;-3.345719789;24.03941688;-17.72405516;28.0701443;4.014756903;5.659182732;5.018925116;4.789136701;-7.407862724;-4.629071583;-12.03959808;-4.541323971
-16.78263323;-15.54600097;-23.56041529;-26.47959706;-7.993840482;-0.578857589;28.49221286;-0.80655985;0.97462981;-21.72914251;-14.0651842;11.43697047;3.375522362;4.774671409;9.580058594;-8.201166778;-3.418364275;-12.37591537;-2.529200129
-16.3609182;-16.4861659;-27.46865795;-28.39980799;-8.003270427;0.15838545;-12.57069589;1.376731992;-17.12047869;-24.55631895;-42.76565879;14.52707971;0.601955722;4.588912652;9.754696242;-7.997789817;-2.233261236;-13.15187564;-1.501101195
-15.71030628;-18.25807696;-28.83295125;-29.67921186;-7.880078125;0.275899769;-22.99319161;2.155759303;-22.50446123;-25.45667878;-47.51166964;12.4142287;-1.300087891;4.712022993;3.751914385;-6.911836389;-1.79956623;-14.63484662;-2.021220572
-15.85460002;-20.24494677;-28.55833078;-31.68265765;-8.461810728;0.095440251;-7.050487505;1.230347636;-16.81410355;-24.72959317;-34.02828615;7.575373917;-1.82776372;5.099419137;-6.182771828;-5.61274881;-2.300581831;-16.16311;-3.305682208
-16.741094;-21.19853769;-27.67511703;-34.19149063;-9.851617533;0.019192283;15.60831797;-0.996661477;-8.580414062;-23.91123763;-18.07992894;3.935502878;-1.561357286;5.422450607;-14.93399041;-5.100356148;-3.375832361;-16.8425229;-3.957832555
-17.64976267;-20.67196166;-27.0396274;-35.90363321;-11.56666219;0.208393897;26.21372638;-3.877669405;-6.312859539;-24.8822092;-13.05990808;4.064162555;-1.578057178;5.351040257;-17.52531314;-6.077443664;-4.390611203;-16.47585598;-3.145067739
-18.06641906;-19.82792549;-27.24779978;-35.71463972;-13.03707833;0.509839979;19.69878512;-6.97975546;-12.49178698;-28.47063321;-21.04392311;7.478232267;-2.557270779;4.857318726;-12.35059793;-8.394489315;-4.823657525;-15.92488187;-1.279164793
-18.24129574;-20.80422323;-28.60775648;-33.73423824;-14.02825744;0.650200726;5.241070855;-10.22733747;-22.70424156;-33.688007;-33.45856218;11.13305474;-4.299136078;4.261407877;-2.483699838;-11.08592327;-4.571644309;-16.56150171;0.314637481
-18.97130653;-25.03908468;-31.06964433;-31.31377746;-14.69370195;0.50174952;-3.8049422;-13.71637326;-29.97181816;-38.32499622;-39.59767115;11.59605026;-6.005016029;3.958907486;5.948032424;-13.06582256;-4.008061253;-19.20873806;0.440919526
-20.82442173;-31.90205843;-34.17561963;-30.16222327;-15.29674009;0.188231277;-1.055625182;-17.43069232;-30.43308154;-40.54042289;-35.42622365;7.324584461;-7.027004054;4.050751807;7.450235214;-13.96104033;-3.756711083;-23.40373425;-1.054398603
-23.49971275;-38.82640059;-37.17983261;-31.25953789;-15.89120567;-0.041657952;9.47168067;-21.0985932;-25.90621818;-40.21372448;-25.79874106;-0.42136952;-7.422002886;4.197583893;0.608086426;-14.36921029;-4.302447666;-27.58477405;-3.205771954
-25.89940937;-42.97239676;-39.38951317;-34.31139785;-16.24126419;-0.041456954;18.79819656;-24.25545089;-21.70724833;-38.96182527;-19.23322692;-8.449989335;-7.84493379;3.848136222;-10.96281215;-15.26663419;-5.675409276;-30.09423137;-4.699617646
-26.88717126;-43.19822923;-40.56670039;-38.01167016;-16.02977603;0.112132373;21.0526049;-26.4153496;-21.94333246;-38.78269581;-20.40858399;-13.54902596;-8.899296612;2.68144321;-20.8473786;-17.02865433;-7.420679227;-30.25988796;-4.85292747
-26.12608212;-40.80888276;-41.1005065;-40.82476645;-15.16092049;0.203985667;16.91491721;-27.23282095;-26.25931932;-40.41651039;-26.75801512;-14.18119796;-10.52752948;0.913212569;-23.8356752;-18.92326368;-8.888979462;-28.75918694;-4.036974434
-24.31334365;-38.47478699;-41.75929882;-41.75996486;-13.90027284;0.084480356;10.54050025;-26.6192954;-30.49077429;-42.76430859;-31.44457893;-11.03565219;-11.97879964;-0.790348085;-19.09707099;-19.60097793;-9.657343904;-27.02156843;-3.263038922
-22.61701005;-38.14134677;-43.12223282;-40.75095445;-12.74309036;-0.193878901;4.277788718;-24.83385265;-30.35771364;-43.84645857;-29.51774409;-6.312520163;-12.38910228;-1.742788825;-10.4742421;-18.25919525;-9.77768922;-26.14719701;-3.30950157
-21.7667524;-39.54393825;-45.05780982;-38.55851293;-12.11907766;-0.426423129;-3.134359407;-22.52142249;-25.00206848;-42.51587011;-21.80969215;-2.33528923;-11.48520815;-1.692620944;-3.793532406;-15.51196298;-9.661053831;-26.1588027;-4.090321077
-21.52315152;-40.46137391;-46.63929015;-36.33563806;-12.15134748;-0.444046763;-13.42724364;-20.59542547;-17.58249912;-39.50967879;-13.63140223;-0.342408619;-9.823538638;-0.967266361;-3.075616813;-13.13977386;-9.678488809;-26.1129128;-4.727322141
-20.93136593;-38.47241697;-46.61302454;-35.06055323;-12.61929366;-0.270368271;-24.59436437;-19.89247109;-12.70849245;-36.95183044;-9.976418968;-0.07261332;-8.37164448;-0.216598621;-8.176553449;-12.77819812;-9.79502101;-24.92369515;-4.225024913
-19.12742353;-32.82274638;-44.14816608;-35.03941925;-13.11;-0.110064392;-30.66920963;-20.70296913;-12.97733507;-36.67491502;-11.62276112;-0.246264982;-7.786282882;0.026704853;-15.28370613;-14.52881428;-9.553136022;-22.22570162;-2.213262165
-16.03622267;-24.97720125;-39.38097712;-35.68280699;-13.2246509;-0.178378413;-26.48314258;-22.4690736;-17.32205617;-38.68681421;-15.21742486;0.449052551;-7.975588435;-0.365362507;-19.68261812;-16.65111035;-8.459894641;-18.61545222;0.774270117
-12.42123144;-17.51716008;-33.39377237;-35.72312002;-12.7148397;-0.517415518;-13.10724288;-23.93714025;-22.16478162;-40.99674397;-16.69444665;2.500280792;-8.270319237;-1.16136622;-18.75537524;-16.71132766;-6.49540336;-15.12987416;3.635361076
-9.2956323;-12.34233361;-27.65167481;-33.86919586;-11.52033061;-0.953289808;1.600226896;-23.78458044;-24.11185774;-40.94580772;-14.66591614;5.348065543;-8.01187204;-2.044859502;-13.24223412;-13.40824124;-4.3207965;-12.42126165;5.364210961
-7.213690953;-9.60447282;-23.27788665;-29.6097381;-9.757045012;-1.227373952;8.712117945;-21.37767544;-21.9781459;-37.03457879;-10.92823205;7.895724733;-7.038624337;-2.845737082;-6.204467978;-7.694980977;-2.957409346;-10.30600556;5.587381306
-6.01323273;-8.10276979;-20.61953138;-23.675826;-7.699371196;-1.19129732;5.644872394;-17.15424719;-16.84981106;-29.9109135;-8.123430159;9.363001717;-5.681950176;-3.537573065;-0.737001504;-2.286342807;-3.110724404;-8.042962931;4.669334853
-5.15793566;-6.633511858;-19.3059737;-17.78176;-5.741605051;-0.908886527;-1.403749025;-12.33861826;-10.65725238;-21.88322076;-7.080412337;9.869149784;-4.334668652;-4.054228008;1.859769763;0.15198602;-4.616740004;-5.102142214;3.401942331
-4.313014131;-5.051907087;-18.64332266;-13.70370028;-4.294974944;-0.591504723;-2.676020982;-8.163926429;-4.763092238;-15.4411859;-6.297036866;10.32561493;-3.02448838;-4.158164996;2.354452475;-1.173391109;-6.442821586;-1.784858387;2.52787593
-3.622565981;-4.156092632;-18.00605891;-12.24919985;-3.625090643;-0.429857126;6.339692975;-5.1471174;0.352217562;-11.90550578;-3.759657171;11.72819865;-1.396511155;-3.541847216;2.461675065;-4.675123996;-7.29052219;0.83706931;2.38099215
-3.465874917;-4.597345278;-16.99865182;-12.82257114;-3.716970329;-0.460729641;20.11160147;-2.9311274;4.480296813;-11.05775928;0.889939065;14.39327501;0.878720047;-2.10807851;3.371243334;-7.537321964;-6.404555734;1.665253415;2.79979184
-3.962200248;-5.896498637;-15.42916666;-13.91973588;-4.278878208;-0.565890933;26.80684988;-0.780754675;7.153464398;-11.75108942;5.955616507;17.72090162;3.651432245;-0.173544933;4.964742647;-7.655950049;-4.029369139;0.456864227;3.303382352
-4.725432555;-6.551199011;-13.2987941;-14.22016381;-4.914641064;-0.586830868;17.88735098;1.679696544;7.895346416;-12.81814705;9.312383789;20.64092604;6.227657278;1.631260553;6.055445607;-4.967791268;-1.20427774;-1.842144528;3.403388414
-5.135992688;-5.239446574;-10.91635049;-13.48273934;-5.361035652;-0.451693822;-4.309008917;4.074189942;6.955142658;-13.58053336;10.36231342;22.34595749;7.794054577;2.739700518;5.267122771;-1.294484115;0.935059749;-3.617851906;2.884050657
-4.908699718;-2.10895011;-9.001103658;-12.57882225;-5.618610026;-0.216290259;-27.45076704;5.528573509;5.588456786;-13.79994182;10.41653165;22.7035863;8.003327092;3.017200289;1.919173083;1.051096487;1.838065215;-3.636794108;1.908369626
-4.432868755;1.024960852;-8.510406991;-12.6456301;-5.874578181;-0.002883689;-38.07637812;5.354301911;5.326742139;-13.42825098;11.2131178;22.05900674;7.238064552;2.805595996;-3.505639518;0.809462297;1.739172676;-1.882002311;0.894122097
-4.526610559;1.894332754;-10.10025387;-14.02733713;-6.280735895;0.09785119;-31.36459662;3.615466879;6.711216258;-12.55319982;13.09261302;20.71069322;6.328308071;2.584908186;-9.418044497;-1.585845532;1.298669789;0.442156374;0.231464567
-5.752559326;-0.458147902;-13.49509624;-15.85022966;-6.772954605;0.08043391;-14.05795971;1.143035248;8.63837279;-11.54920093;14.63730144;18.6431526;5.94731944;2.528851674;-13.64718961;-4.553849269;1.023854175;1.770563254;0.02312047
-7.852561468;-4.761113835;-17.279937;-16.59609183;-7.09045035;0.004288417;1.477139047;-0.993870123;9.071614494;-11.0925646;14.1274202;15.83204397;6.170567181;2.349724714;-14.31714977;-6.524941188;0.93529938;1.30563554;0.032951844
-9.806955393;-8.242367031;-19.45651946;-15.26030083;-6.986713063;-0.065065132;6.852651858;-2.139545566;6.70202744;-11.78393595;11.40683741;12.82120209;6.537260644;1.602095532;-10.81647157;-6.844679914;0.697671427;-0.39971885;-0.107148716
-10.53101232;-8.537052858;-18.57292407;-12.21353513;-6.455805825;-0.096661967;3.089650227;-2.352846208;2.223831346;-13.57237006;8.350154956;10.88902531;6.528833729;0.209514725;-4.381017022;-5.926456197;0.036769817;-1.843664188;-0.581752022
-9.688118463;-5.373797185;-14.7269451;-9.095428137;-5.773776782;-0.091629135;-2.003057445;-2.200452464;-1.917547645;-15.52598936;7.42785402;11.39181203;6.034602956;-1.262104692;2.21765145;-4.780919959;-0.955385981;-1.692578504;-1.223168771
-7.974120317;-0.777413233;-9.695680289;-7.792418278;-5.303717635;-0.058525761;-1.483445812;-2.282418707;-3.242817781;-16.32962377;9.627914209;14.63088313;5.399268647;-1.902095559;5.971910061;-4.400531021;-1.896480762;0.188466286;-1.645961116
-6.626658319;2.360317884;-5.9757111;-9.229931881;-5.214535923;-0.002277752;4.935781919;-2.882559274;-1.134003196;-15.2771595;13.58;19.17899859;5.015910539;-1.174205236;5.306539624;-5.366521731;-2.485080353;2.55540756;-1.591034033
-6.520886738;2.274522878;-5.287208019;-12.82688758;-5.346459018;0.062571536;11.63257265;-3.953025664;2.589909207;-12.99590461;16.63919893;22.42390864;4.829445142;0.497142189;1.037406325;-7.714089103;-2.809479609;3.619228383;-1.186205756
-7.538789032;-0.564892591;-7.527360183;-16.94912564;-5.344045233;0.097220837;12.98034557;-5.325036333;4.910203327;-11.21911452;16.95729351;22.17449509;4.211086013;1.812152972;-4.152266235;-10.91212771;-3.28198569;2.323375591;-0.869853177
-8.682896737;-3.965858443;-10.89322683;-19.97076712;-4.957788433;0.050636491;8.654601522;-6.878650586;3.74224242;-11.63231073;14.77003906;18.23476974;2.369776619;1.414884257;-7.483304665;-13.91592546;-4.213368457;-0.840799277;-1.00049759
-8.825877154;-5.654571348;-13.08962523;-21.16336301;-4.270732638;-0.102511512;3.58276214;-8.521323302;-0.632466081;-14.60380931;11.9090308;12.70541054;-0.981368441;-1.084453716;-7.880886159;-15.4270736;-5.375355864;-4.067168307;-1.46825803
-7.510790236;-4.767752536;-12.77652607;-20.8440636;-3.6610446;-0.331013195;2.964404513;-10.06923259;-5.86509198;-18.79060437;10.12079945;8.642622846;-5.223510241;-4.649974062;-6.467224656;-14.45286477;-5.952013461;-5.357694147;-1.669539196
-5.211793451;-2.146317275;-10.26101012;-19.81375201;-3.52409502;-0.557122289;7.305077593;-11.23982362;-9.266803858;-21.98084747;9.708743144;7.961638757;-9.046627337;-7.340610432;-5.369114982;-10.95824909;-4.995059461;-3.749549275;-0.931451953
-2.911654381;0.626984123;-7.012892912;-18.61696997;-3.973440702;-0.706378674;12.19;-11.83421415;-9.632278097;-22.57255527;9.559505087;10.11231723;-11.18094572;-7.522550768;-5.797635128;-6.135488401;-2.094812021;0.187755786;0.914991252
-1.375435884;2.557645203;-4.443953853;-17.19412613;-4.75637282;-0.757914854;12.91645633;-11.95092356;-7.862498249;-20.58020962;8.321431293;12.52237044;-11.15801933;-4.950009766;-6.971798751;-1.923600103;2.218967581;4.864784565;3.282708408
-0.687635315;3.870911356;-2.890905519;-15.10306618;-5.442933942;-0.751586443;9.437551083;-11.98088854;-6.076979895;-17.43641235;5.590589362;12.48095029;-9.581465488;-0.947693573;-6.787850673;0.077266062;6.659463846;8.743717909;5.146959416
-0.355489234;5.540931954;-1.524552889;-12.0222779;-5.72547197;-0.744635716;6.685635296;-12.30658162;-6.015182694;-14.81292995;2.163654921;9.055156102;-7.729537106;2.442898766;-3.686070149;-0.387709866;9.846990731;11.1655696;5.730566929
0.186540596;8.229530086;0.828701855;-8.083976406;-5.583962572;-0.755822435;9.640336928;-12.92182799;-7.923915456;-13.43512673;-0.625359509;3.644806372;-6.770217944;3.752247013;1.858378992;-2.05701004;11.01450485;12.40173169;5.036854087
1.11926984;11.57459962;4.640238805;-3.807602478;-5.196706578;-0.747396675;17.58859423;-13.32049365;-10.61155426;-12.79501533;-1.739859344;-1.140331469;-7.112263269;2.910854546;7.503302806;-3.024412873;10.30433843;13.05041395;3.810342574
2.172372474;14.40743945;9.206340962;0.226034163;-4.698416461;-0.662178874;23.18825138;-12.81532062;-12.42921;-11.866099;-0.809556684;-3.327055792;-8.285080695;1.084611095;10.75597712;-2.068826974;8.518467662;13.39379695;2.954835019
2.930704986;15.6751101;13.05928914;3.633938084;-4.017594729;-0.483119125;17.93953227;-11.07739858;-12.34725914;-10.09034415;1.958682053;-2.733684753;-9.35662439;-0.279362671;10.80940602;0.536713822;6.565984902;13.27895856;2.872853989
3.198325841;15.2732455;14.90250589;6.230657379;-2.951227513;-0.26091641;-0.120428904;-8.457077975;-10.40283254;-7.753662339;5.91549731;-0.677468364;-9.550863911;-0.450389429;8.966159332;3.348453005;5.01269532;12.55625556;3.245569054
3.108641659;14.10226384;14.37496928;7.868122303;-1.419758685;-0.082040027;-23.13649314;-5.786385991;-7.387262203;-5.494411336;9.965176131;1.336959803;-8.650338351;0.245900356;7.335418105;4.941116182;3.983125598;11.57380213;3.39911908
2.932920182;13.32112099;12.15907501;8.374660803;0.326914861;-0.001962572;-37.96042587;-3.782768828;-4.191623345;-3.514063306;12.71546516;2.784606921;-6.98252407;0.887796734;6.979208923;5.006023505;3.354509664;11.15917422;2.916378493
2.81;13.42679887;9.471443302;7.726327962;1.760697516;-0.000415629;-35.47500091;-2.525100083;-1.346042896;-1.328375902;13.10974183;4.236876667;-5.101683242;0.751586985;7.142779528;4.476920542;2.982651349;11.98991473;1.966056837
2.664606543;13.90967454;7.382494177;6.297557229;2.388361782;0.001577294;-17.50488578;-1.44145251;1.007628326;1.636500771;11.29702957;6.474905977;-3.454512399;-0.212523575;6.219523662;4.60478247;2.757711791;13.85961811;1.089701771
2.383246183;13.7509874;6.420437688;4.879983954;2.108908368;0.074990071;4.282479177;0.162559855;2.859311302;5.151348082;8.924675917;9.46271205;-2.253750563;-1.532062114;3.534444096;5.781200669;2.516095175;15.54283681;0.673413375
2.070459972;12.34923365;6.602079448;4.312303488;1.340483032;0.220650435;16.83753958;2.461079788;4.110879776;7.92206606;8.243457254;12.08019582;-1.567386547;-2.753166257;0.274601373;7.128959175;2.00180404;15.53337161;0.607151294
2.132278494;10.13089793;7.704455799;4.9271209;0.801473886;0.362498125;15.07584392;4.887998956;4.595793794;8.40029447;10.4341871;12.82346877;-1.454055514;-3.842975597;-1.357863701;7.237534177;1.015459061;13.19474741;0.456167722
3.084949169;8.360039063;9.50010863;6.271109698;1.084400069;0.401619752;4.950443372;6.537254915;4.294405387;6.138913642;14.49773768;10.89039982;-1.9738583;-5.110448129;-0.086545008;5.441441798;-0.334157176;9.43035489;-0.008053714
5.219877949;8.282303849;11.82531711;7.426455263;2.313104395;0.287803753;-1.937188157;6.868032947;3.535720343;2.560426024;17.86106714;6.818536197;-3.057643907;-6.765528793;3.127684932;2.543849887;-1.531499292;6.254176444;-0.422312072
8.369715133;10.23025385;14.53673721;7.796522121;4.109089374;0.053657251;2.221082302;6.143079443;2.988860245;0.346677557;18.46296796;2.253796897;-4.379502241;-8.559690745;5.644983142;0.314249188;-1.8953356;5.457668859;-0.001671847
11.93266661;13.32023465;17.46092389;7.772391834;5.866739025;-0.210926007;15.33185673;5.24584252;3.393874699;1.728189018;16.64143696;-0.916152853;-5.401422508;-9.860515194;5.19890745;0.107636037;-1.065573883;7.299920405;1.802323732
15.1166234;15.92217823;20.36011676;8.668461604;7.125098699;-0.418574655;27.16338729;5.030535253;5.154456726;6.886822747;15.06181876;-1.465230614;-5.622322255;-10.10834366;1.730993339;1.722473578;0.617197278;10.20265824;4.677385409
17.23162202;16.5501271;22.87416949;11.80669649;7.780571007;-0.530404822;27.30340394;5.730728709;8.022061374;13.69050279;16.50309102;0.706184519;-4.88081206;-9.254403278;-2.561725269;3.476460103;2.185015236;11.73076164;7.414962401
17.87936366;14.59059964;24.45545905;17.31617038;8.027486857;-0.558028545;13.0238611;6.879979009;11.08927278;19.00567966;21.28713271;4.639399412;-3.488369722;-7.79560579;-5.008336706;3.513785701;2.603865153;10.19984644;8.578744161
17.00702907;10.47652093;24.4227056;23.56033239;8.11900586;-0.531072479;-8.796348127;7.75638893;13.16730204;20.64413897;26.67297684;8.739052144;-2.075036186;-6.379168285;-4.535593639;1.338372653;1.469989874;5.788739472;7.430198463
14.88107033;5.323978031;22.25121805;27.77488194;8.15160868;-0.465668234;-26.72061183;7.93698365;13.39392185;18.54548009;28.96574493;11.34477719;-1.236031202;-5.325487074;-2.257714366;-1.665464755;-0.662312085;0.396151791;4.438103777
12.02466868;0.354960397;18.01950751;27.66007813;8.023405109;-0.361689457;-32.58713635;7.496978033;11.72644515;14.42840359;26.65458824;11.32936495;-1.213703959;-4.477092708;-0.150710781;-3.196270178;-2.592356819;-3.61608629;0.995808
9.098867044;-3.549987353;12.6917058;22.91415864;7.561903971;-0.225668898;-26.28579339;6.738993203;8.974465616;10.3329577;21.79342676;8.58542233;-1.819944392;-3.47928244;0.89694976;-1.784611755;-3.237135652;-4.890297836;-1.447001686
6.696374015;-6.021695174;7.891397711;15.61304244;6.69164106;-0.091599957;-14.4679787;5.766016281;6.285732395;7.25913135;18.23794728;4.163311808;-2.623588687;-2.211607206;1.807057692;2.00863389;-2.324146524;-3.774536823;-2.220342155
5.098987558;-7.15150752;5.133298615;9.068424892;5.506492274;-0.014452526;-4.919624779;4.338545942;4.388431015;4.889398314;18.17856648;-0.15050961;-3.238791667;-0.966440803;4.100009766;5.876472978;-0.536805713;-1.894447595;-1.685705315
4.1474975;-7.338712323;4.936039293;5.854229413;4.210602144;-0.03696755;-1.237094877;2.175719837;3.130348304;2.410574944;20.13871925;-2.731142447;-3.499959448;-0.216295813;7.88537365;7.333679875;0.966456538;-1.021704866;-0.810241187
3.363248865;-7.097231575;6.457223081;6.317955049;3.00087918;-0.155311723;-1.563864471;-0.570076904;1.70477908;-0.43013122;20.49861446;-3.001369051;-3.427606303;-0.195600323;11.05760646;5.403749442;1.296365044;-2.051212594;-0.444078415
2.303431431;-6.832348236;8.015338691;8.596477475;1.994145737;-0.312050543;-1.589358148;-3.127381975;-0.544498721;-2.97591221;17.40755777;-1.683461869;-3.070740686;-0.691855611;10.72524862;1.202923593;0.323019691;-4.672252621;-0.820456477
0.933512699;-6.636903087;8.229445596;10.11143021;1.241128967;-0.424390392;1.219245266;-4.448488511;-3.340750347;-4.239002742;13.45503845;-0.163486434;-2.402099574;-1.24126523;5.859395677;-2.936220059;-1.374156901;-7.7535561;-1.54990409
-0.264485165;-6.229578487;6.991784178;9.468794124;0.782577288;-0.429675427;5.685982624;-3.873402275;-5.388379574;-3.791941796;14.12169581;0.612180376;-1.371953612;-1.541890438;-1.164612441;-5.075399213;-2.971729811;-10.03148453;-1.992472959
-0.571267143;-5.139724145;5.535389955;7.403515686;0.669451552;-0.319049767;8.550058594;-1.619313117;-5.17810169;-2.134142021;22.61665099;0.856122047;-0.063347492;-1.690704498;-5.77629035;-4.821611076;-3.893840614;-10.66187738;-1.676446594
0.465020609;-3.084739761;5.49492497;6.114153741;0.914915263;-0.140276652;7.892942211;1.283738302;-2.165920998;-0.236158056;35.28544594;1.659732094;1.216363641;-2.017739578;-4.56681813;-3.279634468;-4.006193039;-9.459625948;-0.504774445
2.654141974;-0.29590343;7.624945039;7.513061119;1.424475562;0.028487276;5.272962274;3.571441823;2.572705891;1.266581715;42.06465062;3.892757281;2.028850183;-2.680814862;1.77523726;-2.017478186;-3.484080033;-6.892124106;1.282059351
5.207724195;2.48659448;11.13234956;11.70188878;1.987629673;0.116599444;4.686155872;4.426575607;6.806670344;2.467494999;32.76853534;7.185404166;2.045263627;-3.430509016;8.468017058;-1.931200402;-2.579088402;-3.919844428;3.258329858
7.194258575;4.422446772;14.14131287;16.79126614;2.372118913;0.091122694;9.128960286;3.818157526;8.508221066;3.836853376;5.073899451;9.909351438;1.260776025;-3.810582471;9.913757018;-2.817340535;-1.516689506;-1.675550025;4.962411531
8.091822146;5.13501184;14.95871869;20.17083608;2.47180996;-0.031920811;17.52155122;2.351068572;7.172681092;5.5173341;-31.97813774;10.29729339;0.017579557;-3.638085332;3.943123842;-3.793884815;-0.553222089;-0.969447802;6.024107561
8.047998248;5.006100749;13.20490649;20.26965129;2.396438522;-0.19655301;24.57229706;0.832521435;4.134733841;6.995376092;-62.30551325;7.876188254;-1.183613802;-3.297765776;-6.22570159;-4.060431709;-0.026061403;-1.788059926;6.293425175
7.672816679;4.930384323;9.991483467;17.52260043;2.413906369;-0.330926975;23.9996419;-0.1130575;1.630946051;7.506079876;-72.4853562;4.048446701;-1.943240555;-3.499936639;-13.96621199;-3.362534969;-0.237978284;-3.141670367;5.934939994
7.536123973;5.660412893;7.067339824;13.89419047;2.756468535;-0.377709933;12.99435729;-0.202549907;1.282276894;6.80192857;-60.1334123;1.268165684;-2.112564394;-4.626347957;-13.85012021;-1.928458781;-1.212895853;-3.533974185;5.386408607
7.750579505;7.219358867;5.625158312;11.39462045;3.410937711;-0.319390131;-5.246263096;0.517692367;3.088541709;5.521431913;-35.00501523;1.364948461;-1.758606182;-6.213852043;-5.537323425;-0.14030333;-2.544155161;-1.914503244;5.128527332
7.93901792;8.851411693;5.660865431;10.7241813;4.047026649;-0.18687506;-22.86887161;1.71494578;5.615691213;4.725579447;-12.13584338;4.271015165;-1.023301593;-7.094716906;5.909483118;1.662175632;-3.532399681;1.485438706;5.371629695
7.583072899;9.58785003;6.279349249;10.99813375;4.162665014;-0.045188807;-31.89874408;2.81586777;7.149297624;4.948249086;-2.097563764;8.121024739;-0.02173461;-6.198912593;13.51267087;3.126054609;-3.578102473;5.109676245;5.889125175
6.467379487;9.018291899;6.577412896;10.6317856;3.382915153;0.038622604;-29.00581412;3.157782096;6.900832066;5.617884623;-5.264936842;10.63652944;1.146446212;-3.437410513;13.13308401;3.810219994;-2.557080181;7.017762473;6.16652255
4.882720869;7.664936005;6.33418653;8.612800523;1.733878337;0.029149525;-17.3091954;2.308993624;5.4039922;5.45020255;-13.62237854;10.72741806;2.327518188;0.060462451;6.117272839;3.360799639;-0.889079189;6.249400194;5.797697061
3.454904937;6.640332044;5.994376043;5.196894138;-0.292439863;-0.060815361;-4.028912054;0.415519685;3.934251213;3.569430957;-17.9018098;9.118509126;3.300815551;2.62032602;-1.902824375;1.887621979;0.756903558;3.628738549;4.835499591
2.750862015;6.824923156;6.078113518;1.614335931;-1.948344406;-0.179856694;4.329070578;-1.724822694;3.527929216;0.422250272;-14.25235983;7.610583977;3.871665586;3.149272913;-5.020522146;0.156825208;1.887423306;1.333501771;3.802569359
2.958085705;8.192452788;6.62072143;-0.835340232;-2.609877627;-0.266962883;5.866699923;-3.049568427;4.379278476;-2.354560677;-5.749674889;7.637879047;3.997565847;1.869011085;-0.980214157;-0.747257307;2.414453738;1.436780745;3.322904601
3.843697;9.815175918;7.15252429;-1.536041313;-2.104458894;-0.282405228;3.622530486;-2.913415756;5.958741436;-3.100225239;1.44308362;9.249429078;3.823128083;0.092518625;7.577530325;-0.187318516;2.551358616;4.431907358;3.648107632
4.96989774;10.55716716;7.194247912;-0.660046387;-0.786927442;-0.224009806;2.377625677;-1.586104151;7.560449806;-1.42206814;3.392413892;11.204093;3.575573602;-0.77571785;15.11205346;1.41241782;2.53019819;8.825550185;4.455828213
5.965458347;9.923175164;6.765480649;1.252604851;0.685362583;-0.123207708;4.613634606;-0.132164751;8.711576152;1.450813338;0.822756773;11.95640495;3.406366454;-0.234276286;16.80412807;2.699511512;2.429624198;12.12707998;5.089091598
6.656657561;8.407236333;6.407230749;3.716558523;1.741395809;-0.026769323;8.843354763;0.324924468;9.149734505;3.569545162;-2.694427012;10.68771287;3.321223568;1.076970653;11.3570707;2.326074144;2.257075935;12.53075399;5.048722813
7.015371433;7.083352743;6.685569518;6.336295971;2.210631049;0.025152934;11.52143604;-0.556111528;8.57804466;3.704994115;-4.481794508;7.653995971;3.254976283;2.01671578;1.395538457;0.034856346;2.148048934;10.07648494;4.345967751
7.039087077;6.78118441;7.637041986;8.551825564;2.374079758;0.016286345;10.73617995;-2.043488611;6.634494059;2.162482615;-4.888325014;3.777323744;3.196836475;1.881678312;-8.409538159;-2.984536571;2.406612422;6.483569967;3.443874932
6.70580107;7.507118349;8.683851684;9.538247684;2.733483105;-0.037653757;8.33359036;-2.861971701;3.247146229;0.340889088;-6.190873948;-0.010161777;3.209631883;0.871983678;-14.04891842;-4.854799247;3.264151118;3.856545316;2.860087891
6.038813316;8.550118362;9.122500902;8.564875484;3.656365233;-0.092711399;8.40015564;-2.171456523;-0.938835138;-0.537692075;-9.711698756;-3.115172264;3.293126353;-0.242080864;-14.0834793;-4.386213982;4.545321777;3.275632745;2.775596464
5.185197268;9.139661869;8.755868643;5.623074152;5.123398806;-0.093769224;13.19614571;-0.242576942;-4.583480661;-0.422146708;-14.05615813;-5.200178663;3.228532775;-0.887608041;-9.899293811;-2.017284314;5.596493892;4.287533794;2.964672013
4.384120526;9.076052753;8.083730375;1.7542833;6.725538222;-0.001639224;20.07343168;1.709963703;-6.322988527;-0.320452909;-16.11545914;-5.982941245;2.618884537;-1.188913678;-4.508723757;0.453782526;5.657953149;5.546026732;3.067436057
3.805372634;8.801398871;7.845416102;-1.356224573;7.892333082;0.181359733;22.44302329;2.418526865;-5.68974786;-1.234438238;-13.84768157;-5.274496848;1.195954622;-1.779707047;-0.780722104;1.191217642;4.463954833;5.961526153;2.932330607
3.380140859;8.87683907;8.296108823;-2.371662755;8.194378583;0.403643622;14.62638808;1.484640766;-3.551005828;-3.125585474;-8.268199285;-3.266893376;-0.805931364;-3.136150844;-0.068249068;-0.30668183;2.58480872;5.411981583;2.718797672
2.791433766;9.353647583;8.870547405;-1.190614306;7.538467581;0.584394223;-3.020144381;-0.382843042;-1.620720511;-4.854964648;-2.862585413;-0.733362675;-2.559403742;-5.0535939;-1.830198453;-2.855752664;1.159302044;4.539435256;2.690436018
1.684839804;9.62510906;8.583298404;0.972182137;6.164795868;0.654372352;-23.02271919;-1.974464742;-1.314668243;-5.167877644;-0.939866577;1.186333954;-3.035595306;-6.737646172;-4.292649526;-4.528029783;1.138960735;3.959103049;2.918901877
-0.023155628;8.930966442;6.876234517;2.427965102;4.485569982;0.594212818;-35.17064856;-2.518314889;-2.778828162;-3.857974248;-3.174675285;1.575102896;-1.693890762;-7.41897864;-5.692536587;-4.138045785;2.594843126;3.654279489;3.192843868
-1.972401089;7.103992146;4.200724741;2.172948127;2.883396097;0.445312266;-33.43035735;-2.194695376;-4.83500566;-2.069152334;-7.302548941;0.287950066;1.023887093;-6.942479656;-5.373564941;-2.102164053;4.639269761;3.078550308;3.221727367
-3.488846966;4.897721824;1.798105948;0.494042093;1.577123525;0.285463782;-20.1873088;-1.851935991;-5.893454448;-1.434997953;-10.03410695;-1.973257087;3.8314022;-5.82812165;-4.093220677;-0.022037712;6.050128522;1.80559853;2.936365351
-3.973069954;3.546002057;0.795413312;-1.418996446;0.593406528;0.185459964;-4.441391119;-2.217662274;-5.132638526;-2.769801638;-9.478411185;-4.130437591;5.364321743;-4.792085065;-3.362255865;0.624076725;6.121209939;0.074831826;2.587569898
-3.299282824;3.838978431;1.325377479;-2.509225578;-0.182324251;0.175216524;4.765596509;-3.294743916;-3.051516768;-5.426055264;-6.176685782;-5.387103606;5.067133146;-4.194478099;-4.258525884;-0.395629188;5.07477408;-1.300097656;2.528865952
-1.937516187;5.43606372;2.403673096;-2.686332634;-0.921336355;0.238600245;4.635074594;-4.432843593;-1.014918069;-7.866896895;-2.213507312;-5.592865539;3.539267217;-3.911634374;-6.540721415;-2.005044093;3.735794612;-1.593019658;2.871020272
-0.682985205;7.00081066;2.70866157;-2.796781544;-1.76309502;0.333229998;-0.220338991;-4.965700332;-0.208303095;-8.956639681;0.541297262;-5.10772669;2.045557806;-3.70103571;-8.719636913;-2.791999491;2.78494584;-0.797862935;3.334518171
-0.148216766;7.121794692;1.676014278;-3.787935767;-2.737188596;0.414729638;-2.419216065;-4.825724515;-0.844388402;-8.855080481;1.544333886;-4.370632242;1.529687831;-3.645448044;-9.079167699;-2.148539631;2.252894151;0.356416062;3.464473126
-0.353996133;5.361894676;0.040105496;-5.780370501;-3.717156219;0.447996061;1.745830032;-4.593661481;-2.194065274;-8.748553881;1.388435095;-3.569773338;1.876536903;-4.184861611;-6.933350046;-0.635609248;1.687768303;1.054108652;3.04684613
-0.708765607;2.650466624;-0.636457248;-7.822883917;-4.440676399;0.406214068;9.454976025;-4.952261249;-3.306011847;-9.662975276;0.875137948;-2.651062288;2.007514722;-5.64900786;-3.201475229;0.660486768;0.81403698;1.153859401;2.36580404
-0.413221565;0.707002637;0.878025633;-8.534424875;-4.615966199;0.272611451;14.3668189;-6.032924418;-3.74058976;-11.40529271;0.375242487;-1.568719827;0.762890707;-7.715473284;0.134212414;1.145456841;0.04117454;1.388259607;2.054664671
0.964625368;0.897793586;4.49897137;-7.117316162;-4.082477531;0.055177597;12.71947101;-7.225704831;-3.709160058;-12.57656349;-0.055695229;-0.486692217;-2.09026802;-9.352406217;1.308214649;1.195794648;0.291599229;2.789541786;2.628852927
3.127692367;3.335510342;8.754876829;-3.943703164;-2.938943682;-0.195245694;7.071016994;-7.612365009;-3.585426713;-11.68056772;-0.209378499;0.268902751;-5.501056571;-9.411632466;-0.112791389;1.712277742;2.222633528;5.78602759;4.061999704
5.157560614;6.838053433;11.6942972;-0.281368089;-1.546108193;-0.387368494;4.211770843;-6.651961652;-3.319821694;-8.407344606;0.400057373;0.450046387;-7.723520775;-7.453841626;-3.017616504;3.204238144;5.495145437;9.70953456;5.741951389
6.0439355;9.735180279;12.12646115;2.587150684;-0.377084668;-0.426992244;8.845923071;-4.55835866;-2.35362312;-4.010572516;2.110289706;0.092767948;-7.441264735;-4.138692951;-5.495625351;5.269507245;8.770787599;13.13927878;6.844203691
5.309281717;10.9308283;10.34122968;4.153153889;0.211523661;-0.274923791;18.50068091;-2.102985579;-0.156069869;-0.454279765;4.6038911;-0.487019149;-4.632784529;-0.839794314;-5.949653978;6.955498844;10.54117158;14.84478218;6.840448415
3.33436686;10.50778618;7.86258066;4.812746014;0.153051524;0.014490201;24.39892462;-0.070344876;3.079279073;0.97250939;6.928077885;-0.891821568;-0.596921127;1.223634558;-3.858921801;7.667636387;10.18059471;14.62106715;5.780641596
1.177971782;9.540231009;6.47353301;5.334970169;-0.317306183;0.309378408;18.15623702;1.154293464;6.229427637;0.453196062;8.123239078;-0.876781776;2.822690935;1.658891467;0.135072097;7.771463541;8.382484541;13.40194639;4.193118367
0.001167866;9.334909558;7.198386258;6.166947248;-0.814329562;0.469960967;-0.880414165;1.577499309;7.801751174;-0.744255031;7.91558282;-0.473709007;4.24192526;0.89021678;4.65010176;8.289073794;6.610039063;12.59445309;2.742725871
0.445552512;10.64626875;9.858102285;7.131796507;-1.015422332;0.429386803;-23.77499172;1.30940302;6.907151037;-1.436270048;6.848739155;0.032700911;3.331521387;-0.420266107;8.132802871;9.905944256;5.987794379;13.14217044;1.921525224
2.326463926;13.32349646;13.35203405;7.687931043;-0.800491249;0.230825757;-37.61538859;0.380227288;3.937430429;-1.448168445;5.769211827;0.234759203;0.750831168;-1.942705075;9.373071315;12.16094232;6.51654296;14.96970962;1.93776081
4.791737848;16.48902339;16.34674271;7.450516006;-0.248372863;-0.005005498;-34.61436633;-1.114523074;0.433452055;-1.53961934;5.186284376;-0.208346867;-2.357064544;-3.737712137;7.953662405;13.59325789;7.22239105;17.12165949;2.757539736
6.811500181;19.01962102;17.88966773;6.512989123;0.475735153;-0.157874266;-17.74976399;-2.718474909;-1.786178182;-2.477446186;5.092842039;-1.361343597;-4.890863888;-5.829839077;4.577046829;12.82155601;7.07348881;18.39960802;4.153193565
7.688195735;20.01049036;17.64816242;5.337883025;1.239239125;-0.175998165;1.475907511;-3.581231146;-1.654028586;-4.140971894;5.316395582;-2.874179655;-6.08302798;-7.805465055;1.001402667;9.70750762;5.873992023;18.01803795;5.700019531
7.305753305;19.03286069;15.78959405;4.366584173;1.9791727;-0.089608254;11.49474423;-2.906737707;0.611900292;-5.490655912;5.919404661;-4.058909983;-5.591801059;-8.920535164;-0.688764481;5.625544027;4.395128353;15.90405055;6.814902875
6.029387653;16.17762465;12.71744963;3.69441174;2.646026967;0.030337583;8.880709453;-0.625886748;3.743136824;-5.449120581;7.156304205;-4.260731867;-3.545819388;-8.690019531;0.670835034;2.561124995;3.67646826;12.59297523;6.955086668
4.383438529;11.96585867;8.869495377;3.041775999;3.119764735;0.128685394;0.106409786;2.283510153;6.19305262;-3.924525017;9.025857697;-3.37335946;-0.572942936;-7.411878124;4.303514231;1.718997898;4.140583372;8.924299975;5.939371022
2.73933058;7.189675796;4.652712135;1.979176596;3.184164706;0.193656132;-4.259711508;4.230449399;6.939322612;-2.058828493;10.96215103;-2.119652697;2.322233459;-6.063768067;7.607782184;2.73740255;5.300598639;5.756860949;4.163541574
1.194058142;2.709311342;0.47494511;0.194101521;2.601529205;0.242490338;1.805478569;4.01625013;5.894417895;-1.430563732;12.12783702;-1.749165832;4.142406315;-5.556602681;7.688624869;4.119825986;6.29400854;3.776024298;2.473977634
-0.330530328;-0.758883891;-3.201489489;-2.360523623;1.256832553;0.289480977;15.02429207;1.711036469;3.802822409;-2.827522259;12.15015946;-3.191469304;4.412282456;-5.954182293;3.470573099;4.510145819;6.733010976;3.352341394;1.697079893
-1.87905887;-2.794926885;-5.84445916;-5.4336199;-0.712499552;0.331253581;25.42040905;-1.292325532;1.777303926;-5.579930134;11.6005091;-6.206174392;3.470911565;-6.383188649;-3.140859715;3.765257082;7.076993778;4.43414968;2.121639237
-3.307307635;-3.307842898;-6.919146583;-8.478227253;-2.888454769;0.361136907;23.9802388;-3.161427231;0.737392319;-8.001003517;11.65353713;-9.243663587;2.252179367;-5.801311187;-8.138652142;2.970743134;8.159922511;6.543371024;3.322804878
-4.289697995;-2.459539798;-6.060881022;-10.68579397;-4.688006227;0.392004457;9.362592175;-2.844999643;0.988478334;-8.597094847;13.11060872;-10.31365396;1.631909249;-4.018384266;-7.981558088;3.427978588;10.27257701;8.949820149;4.482934047
-4.487343183;-0.563983035;-3.315057068;-11.15914415;-5.59242542;0.457039297;-11.26975894;-0.753354997;2.106526485;-7.112812887;15.63374062;-8.376878214;1.802407988;-2.066775124;-2.110958707;5.476665242;12.63180069;10.97916162;4.974613895
-3.77295578;1.960068359;0.689402453;-9.294523548;-5.392412254;0.5803994;-27.48511145;1.586360522;3.19865292;-4.635399727;17.93453894;-4.241155803;2.174966312;-1.50691827;6.479467176;8.123541774;13.77498909;12.27461999;4.751839291
-2.370548983;4.593488608;4.810929011;-5.236017263;-4.320415607;0.743170999;-32.57281694;2.62297126;3.460783402;-2.735762128;18.82844106;-0.172349291;1.918443374;-3.158759745;13.17472929;9.762452797;12.63439824;12.8365206;4.248765473
-0.810085449;6.769827578;7.791205601;-0.073783361;-2.974946392;0.881119586;-27.12608736;1.808433979;2.761222773;-2.345831113;18.25150648;1.642725342;0.713900197;-6.300121307;14.83704137;9.380308374;9.438313537;12.83439683;3.897376065
0.300577652;8.041671511;8.832556219;4.486142476;-2.041362604;0.926046293;-17.16036835;-0.159284984;1.866892941;-3.206426071;17.32519668;0.701849284;-0.907144841;-9.06148567;11.80003906;7.278543028;5.680394313;12.37817713;3.698036506
0.57280517;8.294242045;8.016988869;6.910179478;-1.938526326;0.862088441;-8.98978699;-1.971812463;2.055056553;-4.215803992;17.3925187;-1.390336799;-1.957174963;-9.78860583;7.300936699;4.769509604;3.129898612;11.46096117;3.226332723
0.032270594;7.830078125;6.246893613;6.625093834;-2.593723534;0.748941819;-5.126820084;-2.674144627;4.232775297;-4.317172528;18.8753352;-2.11156965;-1.827484425;-8.32369671;4.859238739;3.141696842;2.622913299;10.1060576;2.070679889
-0.917966017;7.192133121;4.671230487;4.254035393;-3.501468815;0.686215072;-3.975419959;-2.233431303;8.0968547;-3.229509611;20.95158491;-0.016065615;-0.87700717;-6.172046491;5.670280296;2.732965845;3.548692957;8.528881314;0.303140983
-1.76441154;6.790647891;3.934426345;1.091820598;-4.057038342;0.741105988;-2.681935238;-1.374990469;11.97190907;-1.55108722;22.28084587;3.949698393;-0.259606736;-5.387818032;7.974372617;2.794721251;4.392833077;7.083695252;-1.460390336
-2.226220434;6.593919076;3.75985597;-1.831391152;-3.966991584;0.895072941;-0.143373081;-0.935916265;13.59177637;-0.291302674;22.04946597;6.839199941;-1.089590062;-7.032093242;8.708076295;2.157262781;3.882446493;5.971303029;-2.501864122
-2.450441125;6.141993823;3.184939066;-4.409289514;-3.462687189;1.053901934;2.388565003;-1.300822442;11.4333979;-0.264838521;20.37411505;5.571119137;-3.598986783;-10.3947982;5.927707868;0.102173754;1.855748677;4.959455031;-2.584289958
-2.911529361;4.910744409;1.310029297;-7.330594177;-3.155546909;1.116348009;3.161347638;-2.317605888;5.744190354;-1.75773713;17.80232433;-1.064306087;-6.963109302;-13.55796132;0.021601086;-3.217203558;-0.74255619;3.439206024;-2.16476701
-4.058166875;2.76336363;-1.960630873;-11.2461591;-3.616458974;1.048962176;2.080636992;-3.642839946;-1.477010833;-4.558151083;14.57180206;-11.66566736;-9.933696692;-14.82202728;-7.07094686;-7.009882341;-2.630473413;0.894386255;-2.022231914
-5.933725604;0.130928688;-5.720496266;-15.88081497;-4.966401456;0.908454783;0.986812918;-5.134415996;-7.598406715;-8.157056085;10.50177382;-23.17433924;-11.76506977;-13.87849312;-13.64596379;-10.40411774;-3.067358101;-2.523293203;-2.587000445
-8.037146099;-2.232750042;-8.556586978;-19.82438242;-6.770566009;0.794148696;1.830355965;-6.942769954;-10.84677417;-11.8938527;5.662598058;-32.71071172;-12.6924153;-11.88075072;-19.26978943;-12.83305737;-2.209414331;-5.803539648;-3.534537111
-9.543489404;-3.729123292;-9.396412057;-21.25254465;-8.314316851;0.768709666;4.593980592;-9.267358078;-11.16610994;-15.00590303;1.042779542;-38.95297452;-13.6062952;-10.47335242;-24.18808781;-14.03941315;-0.806965993;-7.536269735;-4.005320657
-9.759599942;-4.237780756;-8.125908493;-19.12783769;-9.058686684;0.810334972;7.085073186;-12.03819675;-9.896635893;-16.71184236;-1.703223567;-42.24577115;-15.23292333;-10.61988499;-27.91621233;-13.89484395;0.382022126;-6.787100767;-3.293044601
-8.52211431;-4.033127132;-5.587562121;-14.04199337;-8.941817162;0.833934274;6.980761847;-14.81305822;-8.595909468;-16.43893638;-1.456138769;-43.68827842;-17.51568602;-12.1130376;-28.70870109;-12.36162137;0.973719538;-3.778948438;-1.441850555
-6.278829149;-3.403380448;-3.018974199;-8.079754785;-8.318698478;0.763678774;4.332432596;-16.96542434;-7.937782241;-14.12654205;1.263609949;-44.14668254;-19.68820437;-13.99885094;-24.8139718;-9.684533824;0.947094369;0.155381645;0.744279518
-3.810887311;-2.346332525;-1.353606987;-3.751148436;-7.619158895;0.599006921;2.105435682;-17.99719385;-7.505860474;-10.38978556;4.465208018;-43.95547085;-20.92790368;-15.40624139;-16.60609532;-6.560838381;0.429737311;3.374001338;2.295020566
-1.795992854;-0.642152667;-0.825023949;-2.666800953;-7.022478693;0.422135347;3.892471146;-17.74780214;-6.542831449;-6.365502133;6.212716007;-43.29221651;-21.00372472;-16.05785046;-7.526791702;-3.962468116;-0.421195907;4.937844607;2.786122823
-0.505362549;1.756474899;-1.030642321;-4.777174436;-6.416248989;0.341213548;10.4387658;-16.40142536;-4.933175525;-3.266178385;6.226208027;-42.58960136;-20.37713715;-16.15371964;-2.472658398;-2.584501622;-1.35642505;5.114866043;2.590532559
0.191900225;4.399723479;-1.286545772;-8.586074915;-5.651166087;0.41235575;17.92693334;-14.36030896;-3.52014718;-1.870083008;6.015950037;-42.42527123;-19.71700737;-15.91982919;-4.407297832;-2.303080228;-1.971220282;5.022715543;2.475249355
0.574297185;6.442044621;-0.991587528;-12.10364773;-4.837843936;0.59835794;19.86709257;-12.10181889;-3.435315317;-2.219110866;7.270909019;-42.96313662;-19.29411331;-15.34584073;-11.76993383;-2.145258302;-1.851849832;5.689814011;2.894831265
0.785031356;7.156196531;0.154456093;-13.88218156;-4.386710391;0.792961595;11.65550275;-10.06335397;-4.980221993;-3.662043062;9.946527488;-43.55969319;-18.79506279;-14.34065849;-19.02063666;-0.937199974;-0.901872106;7.233730759;3.576748281
0.725422483;6.444601309;2.051768204;-13.53566097;-4.715064285;0.891286033;-5.439848399;-8.524513849;-7.03241824;-5.186160734;12.00048653;-43.06195683;-17.69517171;-13.05405053;-20.36158186;1.755764744;0.438224596;8.74754025;3.739045192
0.165462086;4.880525424;4.15218654;-11.57711297;-5.851923418;0.855944616;-24.04152123;-7.481850097;-7.577980421;-5.85789902;11.32368754;-40.68396684;-15.82659372;-11.93670596;-14.05852974;5.095616706;1.352874271;8.947814902;2.748930317
-1.0533562;3.193406754;5.505897656;-8.868070059;-7.294255828;0.734954594;-34.79423936;-6.603916409;-5.077347271;-5.188601783;8.234458321;-36.7586512;-13.61734306;-11.40259916;-4.034219535;7.321887937;1.162117194;7.090396679;0.671255661
-2.88652973;1.617242718;5.038574327;-6.14450154;-8.285986742;0.623473926;-32.26537063;-5.379606273;0.33351332;-3.306018372;6.015415623;-32.68653972;-11.78665329;-11.4092799;2.709171334;6.839281577;-0.184933406;3.503853042;-1.737338742
-5.093478852;-0.30561996;2.092375965;-3.895073679;-8.341206279;0.598969216;-18.53653856;-3.450550113;6.740739238;-0.883135154;8.470785304;-30.04766346;-10.77209787;-11.41572153;1.11830526;3.333740712;-2.039085456;-0.592668277;-3.563570256
-7.324689639;-3.224063356;-3.000736634;-2.516006522;-7.606636488;0.673543777;-1.865453003;-0.930172565;11.58083447;1.159647108;16.27731304;-29.54730854;-10.3957768;-10.84520825;-8.12064965;-1.859929163;-3.487418898;-3.803592668;-4.348584639
-9.192849958;-7.150953022;-8.733086321;-2.43921638;-6.758077953;0.791774183;8.775403414;1.555665778;13.21205905;2.083113684;25.46695093;-30.61142336;-10.0550124;-9.675744515;-18.88830778;-6.424863367;-3.966278734;-5.291106099;-4.288488909
-10.30110988;-11.02809356;-12.91633236;-3.990866606;-6.486865196;0.871128034;9.529164009;3.208241708;11.82262357;1.706146059;29.98478434;-31.91021344;-9.257799834;-8.595943971;-23.85628906;-8.351025192;-3.572678613;-5.080600865;-3.90887913
-10.29034381;-13.15582492;-13.72007813;-7.020907144;-6.966586976;0.85602991;3.790963581;3.580446526;9.091359194;0.522264489;26.74902252;-32.3412283;-8.031167649;-8.510786297;-19.53988061;-7.023741533;-2.850860423;-3.837439926;-3.541976921
-8.970136106;-12.27864038;-10.68045156;-10.6179513;-7.719285892;0.750665161;-0.809244798;2.906540529;6.955076054;-0.550013428;18.97711617;-31.68294686;-6.860039063;-9.769407837;-8.539115782;-3.441189292;-2.268560356;-2.360641484;-3.074142749
-6.499036338;-8.549868822;-5.028185388;-13.25940471;-7.990377892;0.611037132;1.637093642;1.968762794;6.451148243;-0.677114025;14.35695529;-30.47668766;-6.234149372;-11.77797714;2.495825312;0.525730087;-1.838550885;-1.151385861;-2.162860133
-3.472932471;-3.625245156;0.915426431;-13.4838677;-7.338295305;0.503180393;10.73675383;1.578483224;7.434355656;0.413447347;18.73007813;-29.36481692;-6.211666129;-13.36446205;7.481672436;3.313265763;-1.183936796;-0.275336579;-0.694670159
-0.784985337;0.238463;4.916465829;-10.77152465;-5.974927586;0.456121385;19.90252151;2.055219773;9.195297385;2.294793563;30.10214165;-28.51480886;-6.369361864;-13.61930654;4.691853406;4.532222754;0.056554105;0.494938913;0.955708084
0.736477584;1.468013389;5.851199538;-6.06447417;-4.594745006;0.442142974;21.0693582;3.090446374;11.29;4.135859287;38.31244479;-27.58458871;-6.155772863;-12.51622459;-2.781713861;5.020950042;1.871081729;1.422718737;2.122996733
0.726492575;-0.033018696;3.994159048;-1.475167996;-3.839246448;0.39958797;10.61265089;4.070444821;13.80874132;5.230454721;31.64686567;-26.15567089;-5.325679307;-10.80554237;-9.75969587;6.116432587;3.874850566;2.606355792;2.355180558
-0.531985074;-3.054946281;0.53357047;0.7942602;-3.826994694;0.284126954;-7.7852253;4.562445666;16.89669015;5.396208977;6.004879002;-24.18074803;-4.100878535;-9.310877302;-12.53835595;8.645284206;5.628382815;3.919301591;1.795004904
-2.269617927;-5.972066576;-3.219995442;-0.256093814;-4.112345641;0.111976645;-25.34131594;4.556184695;20.06387811;4.976815896;-30.42408;-22.07040398;-2.974287321;-8.278629362;-10.72125061;12.27126246;6.945618795;5.081019787;1.101241462
-3.647520079;-7.655445187;-6.376668164;-3.744463008;-4.081862024;-0.039612156;-33.81717509;4.29415887;22.04534625;4.473812844;-61.15541349;-20.4351182;-2.380009766;-7.358935727;-6.460258446;15.58943079;7.898791091;5.792805587;0.951491514
-4.176187077;-7.844199087;-8.545800732;-7.366561804;-3.451037558;-0.080698368;-30.57620619;3.903747843;21.50154762;4.103947433;-71.78740407;-19.78969002;-2.514631056;-6.197797479;-2.28350878;16.89938082;8.540931965;5.85555482;1.515722769
-3.898529705;-6.937408728;-9.657980166;-8.803816907;-2.463590795;0.025466896;-19.61435721;3.221976873;18.08049257;3.624459436;-59.41887409;-20.45564627;-3.387633972;-5.039046665;0.559648498;15.19128452;8.654433138;5.203676613;2.317734007
-3.268438453;-5.592286835;-9.865620227;-7.213423163;-1.656293029;0.228205247;-8.167956157;2.01370114;12.96679214;2.562555521;-34.2315039;-22.59508328;-4.933169162;-4.710607006;2.200414094;10.76048572;7.819056945;3.845007552;2.593883586
-2.843785154;-4.492967969;-9.610231718;-3.792018611;-1.407152099;0.417006781;-1.663167454;0.39092455;8.379978527;0.685088244;-12.1453052;-26.13965733;-6.984234832;-5.938449932;3.17929188;5.090181743;5.786280649;1.776182226;1.871423272
-2.98799511;-4.296034745;-9.61497013;-0.970720573;-1.642374781;0.495430391;-0.704237394;-0.997302818;6.300529934;-1.633155859;-4.080618259;-30.54425996;-9.118709286;-8.582169385;3.643637666;0.07739315;2.836408151;-1.011326367;0.331022089
-3.714522759;-5.486692789;-10.5275391;-0.735631208;-1.923468221;0.447329589;-1.935190723;-1.282325678;7.328773555;-3.423867053;-9.658869544;-34.61942245;-10.60664921;-11.51493353;3.444841408;-2.93145405;-0.224079429;-4.373607299;-1.300731933
-4.696838395;-8.001940037;-12.29149286;-3.221143771;-1.815946877;0.342901417;-1.54461544;-0.039783611;10.49479616;-3.559984868;-19.45418321;-36.79805958;-10.66692662;-13.3345779;2.764751731;-3.722930519;-2.467895872;-7.794385239;-2.224985487
-5.399134047;-10.87328146;-13.74688934;-6.585581119;-1.225466429;0.276799099;1.646900079;2.214944121;14.09858472;-1.385894143;-23.27202066;-35.88510147;-8.959365548;-13.35399385;2.343975411;-3.097069079;-3.3485539;-10.32514427;-2.055909005
-5.280590104;-12.36747369;-12.99844785;-8.293501323;-0.440426364;0.285779314;5.841756271;4.159844411;16.87171912;2.809482769;-17.67667691;-31.85733629;-5.950331597;-12.04173007;2.874530837;-2.18011209;-2.909736876;-10.87459019;-0.993901383
-4.033709207;-10.83208595;-8.58093189;-6.910058594;0.125044991;0.313772267;8.479754045;4.432590471;18.55833514;7.762621648;-7.279464889;-26.08799564;-2.793416203;-10.53559233;4.103022706;-1.659466239;-1.573030961;-8.796514493;0.382230013
-1.785039774;-5.83309099;-0.741278223;-3.117021299;0.261165807;0.25740784;8.732163349;2.529012892;19.55944322;11.71624818;0.289818594;-20.7142746;-0.713635089;-9.650655952;4.641371086;-1.445651588;0.262907576;-4.429701985;1.509376732
0.858889254;1.248940533;8.145802074;0.788220851;0.110756052;0.059413395;8.028606351;-0.812339199;20.09713383;13.21342054;0.893846418;-17.50942979;-0.301156514;-9.244311316;2.904533338;-0.934192911;2.441622006;0.847823681;2.140287571
3.013391667;7.758714429;14.54981931;2.53587247;0.052244406;-0.226205405;8.359885656;-4.037387077;19.74084618;11.8164219;-3.491170835;-17.02260393;-1.238123047;-8.484791805;-1.495006282;0.392737406;4.921701825;5.227189451;2.386624158
3.922816348;11.22498599;15.69044322;1.451478033;0.44021067;-0.456081276;10.18732871;-5.731170888;17.77283985;8.352189724;-7.567409277;-18.54631084;-2.665001047;-6.765658968;-7.122038566;2.500825376;7.485269287;7.437471629;2.537337128
3.359309834;10.76571117;11.1623137;-1.195634272;1.399883065;-0.497264586;12.08166163;-5.444004609;14.07672881;4.500244156;-7.791939717;-20.82304767;-3.884037931;-4.426953152;-11.52527526;4.799659632;9.623916963;7.436127385;2.810865408
1.744047237;7.430182414;3.152421832;-3.26731712;2.783744973;-0.330169522;12.46497759;-3.847568879;9.707321755;1.903783567;-5.095326378;-22.86286236;-4.824742951;-2.606751902;-12.90555025;6.545494398;10.76724814;6.300804837;3.197692165
-0.125355696;3.250930045;-4.930434933;-3.379844029;4.259067834;-0.072087183;11.67095457;-2.175989497;6.51516424;1.301751392;-3.188941218;-24.26655702;-5.903402866;-2.319971763;-11.27786064;7.295545612;10.67573462;5.353901993;3.464522032
-1.576351935;-0.222726056;-10.47165019;-1.820618126;5.433569772;0.101800195;12.0369706;-1.399480763;5.992362148;2.220664936;-4.500679539;-24.97766401;-7.431923485;-3.563234921;-8.154965704;7.067541005;9.638334204;5.142944572;3.300118682
-2.434907204;-2.750788926;-12.92685983;-0.11039118;5.96815654;0.081937268;15.50731307;-1.710053711;8.206666147;3.440341699;-7.699350938;-24.91082203;-9.127475236;-5.247926289;-5.064801661;6.141481713;8.274423608;5.051976705;2.525570082
-2.99101403;-5.000757788;-13.5610182;0.341918317;5.686993311;-0.102255802;20.76138505;-2.610877672;11.68753512;3.926123442;-9.011147341;-23.93953256;-10.19727944;-6.053488217;-2.258595631;4.739472231;7.096163889;3.863790461;1.265046421
-3.593194565;-7.393381184;-14.01982804;-0.653140638;4.687027603;-0.315032166;22.81445885;-3.447105811;14.39766011;3.563479598;-5.922261263;-22.26499763;-9.975930948;-5.487603306;1.18670419;2.881291789;6.208103343;0.850643717;-0.027131681
-4.220290658;-9.318224058;-14.93675915;-2.085151011;3.380241265;-0.424739773;16.25075438;-3.939990922;15.06302444;3.140679995;0.262229235;-20.70312973;-8.592778746;-4.248316037;5.931335573;0.508723433;5.394452545;-3.471889331;-0.741004465
-4.414854325;-9.497121922;-15.63930919;-2.798899823;2.372134454;-0.402811516;0.023759851;-4.354047093;13.8614958;3.578437159;5.357161079;-20.41884843;-7.074470475;-3.579343419;10.93871255;-2.29138066;4.484294115;-7.556012948;-0.438104858
-3.666116436;-7.216461858;-15.04995065;-2.609659448;2.168191987;-0.334008098;-20.13701237;-5.235360759;12.01165868;5.012294522;5.840358556;-22.1464189;-6.720334985;-4.176571657;13.5156225;-5.20994975;3.627923204;-9.866643879;0.842854078
-1.931904586;-3.299496221;-12.88948742;-2.459638458;2.861325662;-0.33497513;-34.33065811;-6.953272269;10.69955796;6.504512854;1.800068359;-25.48929323;-8.17995754;-5.5858278;11.09431636;-7.858564945;3.209301592;-9.947912058;2.521124315
0.169761687;0.175830312;-10.0906428;-3.434685174;4.037354509;-0.452916858;-34.87588612;-9.366330961;10.27387095;6.706371179;-3.262142589;-28.94467786;-10.92911808;-6.599109768;3.468232932;-9.971641442;3.478780498;-8.660180794;3.757601796
1.725234836;1.351547749;-8.059419608;-5.480361125;5.025309155;-0.62944534;-21.93041483;-11.80753348;10.32543196;5.019503942;-5.44280697;-30.74835205;-13.55979561;-6.290694046;-6.372885175;-11.44874886;4.276368586;-7.395048791;3.961597994
2.203852258;0.102691452;-7.446162958;-6.990900036;5.362179916;-0.756739997;-3.849284564;-13.37486776;10.44203717;2.327916875;-3.506736798;-29.94937411;-14.69133988;-4.791394017;-13.69137457;-12.19918216;5.146456919;-6.908636738;3.199010949
1.9063172;-1.722888885;-7.531150103;-5.78075673;5.139673537;-0.774224643;8.449988775;-13.36036134;10.8323884;0.620639452;0.581063513;-26.91561762;-13.8504202;-3.144061695;-14.84939335;-11.98912497;5.769144991;-6.734843708;2.193275116
1.780255298;-1.667865621;-6.810708833;-0.801772573;4.946266353;-0.721089524;9.175451749;-11.60813913;12.17446523;1.663888724;3.824223631;-22.93518894;-11.70599557;-2.389384153;-9.539651799;-10.5304283;6.300709803;-5.669948761;1.867448607
2.700029297;1.379043802;-4.327204717;6.725653555;5.412846554;-0.700075684;1.615480672;-8.636323799;14.81324434;5.670482904;4.851220974;-19.30666501;-9.534227765;-2.688203182;-0.813781341;-7.816611784;7.257259651;-2.930700704;2.712792804
4.763763104;6.211963181;-0.610080566;13.74791595;6.694584208;-0.785446287;-4.778561258;-5.452104463;18.10412275;11.00015615;4.663679192;-16.66222573;-8.339555288;-3.229996899;7.028173191;-4.41196353;8.984913194;0.987847452;4.428444519
7.180689749;10.16341723;2.622416894;17.20328763;8.301985948;-0.955944677;-2.070510086;-3.115903143;20.63521033;15.18723663;5.091306025;-14.95890567;-8.26352615;-2.975983;11.08003906;-1.342059022;11.17611824;4.503024875;6.110269417
8.863797934;11.15613402;3.82344217;15.98875804;9.438698741;-1.111329663;9.606482892;-2.243307662;21.27990624;16.58033983;6.74820563;-13.93138178;-8.652677365;-1.566958982;11.15671977;0.46842011;12.91609486;6.075515381;6.874015637
9.266823373;9.318933125;2.941998884;11.67308161;9.6;-1.158318422;21.75672155;-2.705794903;20.21458449;15.39272866;8.57585958;-13.44061626;-8.661895171;0.386333042;9.125900297;0.836328673;13.31162721;5.385182018;6.469193296
8.791233923;6.855212514;1.586033671;7.456415065;8.961953564;-1.0919207;23.83480491;-3.724220157;18.94715434;13.40495441;9.297306266;-13.38980111;-7.914829991;1.844046529;7.115048739;0.497991113;12.22243165;3.594181382;5.436340834
8.429655569;6.260379966;1.817991935;6.130749021;8.243580798;-1.00210359;11.37947282;-4.334180713;19.19055988;12.59385025;9.112209535;-13.42922756;-6.757862066;2.195648269;6.141722069;0.585321814;10.46206632;2.466808774;4.697991032
8.939584332;8.332045323;4.506664698;8.463405877;8.144225922;-0.999766273;-10.25958078;-3.955011931;21.44089245;13.76349001;9.725610108;-12.94354934;-5.970965287;1.677840774;6.081681164;1.733093223;9.23433537;3.04246976;4.898575606
10.23596435;11.59022636;8.568134186;13.04003906;8.805257844;-1.124776823;-29.44338824;-2.697223953;24.47602585;16.19060191;12.55124001;-11.50563274;-6.176656593;1.026183268;6.612954221;3.517279292;9.213034657;4.924047848;5.99017513
11.51524883;13.57388569;11.75765336;17.50823242;9.73023561;-1.313716891;-36.30017638;-1.201625256;26.29939092;18.44339839;16.9084076;-9.398005908;-7.36385976;0.733732866;7.998212509;4.733799424;10.01159185;6.744095819;7.35676236
12.01118913;12.94823609;12.44203215;20.20756286;10.22363446;-1.453985011;-29.22616137;-0.131257594;25.8392809;19.6050282;20.21598376;-7.576965991;-8.835183231;0.624495316;10.9;4.378240821;10.51071549;7.411346244;8.343095971
11.73992246;10.70021706;10.97329541;21.03757488;9.980892459;-1.47806993;-15.1221413;0.305048047;24.00148197;19.88636162;20.28760946;-6.90316426;-9.599659671;0.132470997;15.46050167;2.588568603;9.820097656;7.10387864;8.74676876
11.57911715;9.446566006;9.55598352;21.10837235;9.337380984;-1.418823484;-3.598049633;0.442154798;23.11857599;20.21200965;17.64401059;-7.221719085;-8.959224324;-0.989123871;20.62631206;0.774651195;8.110696339;7.181744023;8.886247554
12.56853506;11.4043752;10.65137864;21.63820427;8.969151327;-1.380291794;0.080469326;0.808991238;25.1356124;21.25936504;15.47791121;-7.193685441;-6.929136507;-2.212475061;24.48921379;0.754181954;6.623874982;9.071527403;9.222108808
14.97741988;16.62978234;15.09392572;23.00718782;9.29913597;-1.449388351;-2.09425307;1.637203848;29.95955015;22.8474381;16.98089311;-5.242614705;-4.236920239;-2.503539735;25.47061982;3.491615333;6.802114365;13.01331522;9.879788462
17.91111712;22.88108321;21.32876891;24.59514228;10.11374908;-1.621695781;-3.892323243;2.636414236;35.34227786;24.18;22.31761767;-0.970536577;-1.897195023;-1.141390431;23.38639163;8.371253763;9.182607497;17.68191871;10.49509382
19.82541271;27.15477582;26.34421278;25.35190235;10.72321392;-1.801132127;-0.807820908;3.219354419;38.46010132;24.63450255;28.12245994;4.171087436;-0.621408399;1.5865053;19.5067889;13.54661135;12.89193342;21.00818569;10.52211779
19.5988801;27.66506216;27.62432823;24.54684355;10.54405322;-1.871656291;6.145554699;2.981718206;37.96729801;24.30120926;30.25048325;7.684446338;-0.437127993;4.413468482;15.59105829;17.09784364;16.12688462;21.58793361;9.743998229
17.35807849;24.7974459;24.73377223;22.16073554;9.622502133;-1.781991516;11.79094765;2.027452593;34.892407;23.75178043;27.47891438;7.804764695;-0.771771385;5.866561947;12.73739471;18.14031032;17.2726546;19.61805596;8.543551352
14.42486936;20.47966737;19.47264027;18.79045894;8.655156384;-1.577541444;11.83249544;0.864942186;31.67738449;23.2847838;22.76511107;4.837618238;-0.94898183;5.212804658;10.98075126;17.11709884;15.86711305;16.67758066;7.677810574
12.42042248;16.66077691;14.60250662;15.32060477;8.47072767;-1.359473445;7.061319961;-0.028600052;30.17618959;22.43624051;20.71250785;0.895902746;-0.742873994;2.89166494;9.839284546;15.17765903;12.78073627;14.55565446;7.707064467
12.1899747;14.15242606;12.1189347;12.66440113;9.379596322;-1.208788987;2.995539541;-0.587305291;30.27128304;20.33117207;23.37029538;-1.809213847;-0.562993993;0.166586631;9.144877318;13.23444003;9.573563755;14.02150317;8.523215318
13.3204959;12.59338225;12.23945214;11.63345052;10.91141042;-1.136013406;5.139587094;-1.140567231;30.22663046;16.65360123;28.21081001;-2.703761771;-1.093235651;-1.691793013;9.287177381;11.45347196;7.53646338;14.41994678;9.362635533
14.54893012;11.27599533;13.63803861;12.77044692;12.1523711;-1.090225664;13.80168052;-2.009081196;28.42411418;12.35084961;30.33894195;-3.115107869;-2.631464732;-2.101335671;10.62695559;9.485964505;7.044156688;14.3142895;9.319386137
14.694664;9.930257968;14.54823202;16.02673574;12.4162631;-1.011251258;22.90861964;-3.073972525;24.96476111;9.302609934;27.12453625;-4.818480731;-4.655008755;-1.341794383;12.69524677;7.103956265;7.533973009;12.62649689;7.987644526
13.41093453;8.787737783;13.86045862;20.44249771;11.72450158;-0.878269606;24.09427203;-3.725463257;21.7403754;9.039584837;21.00594491;-8.150521406;-6.019733016;-0.229067423;14.07282859;4.609913917;7.983253727;9.419408152;5.760885307
11.26245268;8.036113813;11.5361297;24.19220619;10.73407135;-0.718575192;13.07441057;-3.284871057;20.8892562;11.47413922;17.60827564;-11.42145874;-5.729012096;0.392634378;13.25574338;2.65917214;7.514906437;5.803629293;3.574311451
9.18473289;7.356009811;8.278854535;25.22610593;10.19609435;-0.577579927;-6.612840357;-1.58239799;22.9329472;14.71844911;20.54686083;-12.26020579;-3.729224449;0.035299632;9.873791246;1.687929;5.808858487;3.118951986;2.2895168
7.813629409;6.090253518;4.909711348;22.30377411;10.38855852;-0.481333727;-25.48074996;0.784472578;26.17731607;16.25416087;27.59634868;-9.79323976;-1.09892941;-1.280183485;5.200320185;1.482015423;3.194616041;2.022650973;2.169063893
7.180420236;3.9148696;1.947136764;15.81429243;10.96090668;-0.422671628;-34.28742318;2.747963189;27.91034445;14.622991;32.09407719;-5.717319299;0.582303877;-3.063255798;1.400830917;1.276095639;0.46035243;2.103320367;2.795641892
6.905065363;1.336693921;-0.430698129;7.775207689;11.27779341;-0.376876469;-30.00123547;3.415091054;26.43371214;10.34844274;28.88148546;-3.182372745;0.268368731;-4.540711727;0.012604509;0.302250882;-1.520397286;2.214790007;3.446326321
6.623493948;-0.538840792;-2.21041377;0.876890338;10.95141141;-0.327631967;-17.25466006;2.574594437;22.28763359;5.386314456;19.66888675;-4.278045111;-1.874251737;-4.981539543;0.834499601;-1.660601043;-2.20753954;1.244079045;3.610396684
6.266760073;-0.850106423;-3.410450701;-2.915424188;10.12620842;-0.279784502;-4.492774084;0.697016955;17.72500787;1.572056057;12.57164533;-8.197244843;-4.6528496;-4.084120055;2.128957524;-4.147025893;-1.670607497;-1.188786802;3.274257642
6.014050514;0.289603631;-4.077128692;-3.345058571;9.310270682;-0.251481757;2.035894013;-1.52714173;14.94813236;-0.677241972;15.30480995;-11.6756835;-6.74329002;-2.212419992;2.008531266;-6.317623684;-0.533197492;-4.479577456;2.811326274
6.045370581;1.849570979;-4.304724475;-1.810584703;8.926806294;-0.256881588;1.930527669;-3.703684876;14.59462904;-2.393536043;27.33775554;-11.42653675;-7.581118527;-0.245569946;-0.054705442;-7.420538901;0.454007051;-7.317668198;2.619998555
6.356313673;2.73021053;-4.164897625;-0.328828376;8.972305614;-0.295431375;-0.457831263;-5.884885513;15.64639566;-4.878881899;38.05084455;-6.59914222;-7.555644285;0.96933176;-2.738747142;-7.066244748;0.97902681;-8.309720583;2.813301573
6.783622358;2.69368089;-3.586534315;-0.217969933;9.053582172;-0.353910335;-0.455450018;-8.269511226;16.6539635;-8.372380305;33.59923897;0.740048828;-7.403439416;1.221574883;-3.734959817;-5.235215634;1.452220827;-6.650327735;3.179348221
7.169644444;2.560796842;-2.351589026;-1.374655926;8.747432922;-0.415464364;3.026375575;-10.76135763;17.05891087;-11.71510286;7.957388258;7.428406742;-7.373100855;1.10693855;-1.2927337;-2.194051976;2.707393726;-2.55810879;3.397532588
7.479365397;3.469436809;-0.303606632;-2.590661853;7.964301043;-0.467146518;7.201208395;-12.81103367;17.41650888;-13.29565394;-30.5199839;11.70875575;-6.922230927;1.539066929;4.637750366;1.500650714;5.247875375;2.709499741;3.306613474
7.761953823;5.797636988;2.352559626;-2.630312518;7.011081199;-0.503474025;8.63372048;-13.71398177;18.41193736;-12.46735509;-62.92169103;14.26385661;-5.239100275;2.918320788;12.32264954;4.953264837;8.594091603;7.30261341;3.012161255
8.019711467;8.660899272;4.934460131;-1.274261581;6.311830916;-0.528630693;6.918721127;-13.1390341;19.7192142;-10.23007813;-72.01153493;16.98105868;-2.145151168;4.63788124;19.07524362;7.056868792;11.32613579;9.537127204;2.772969918
8.138178427;10.43099038;6.534995123;0.420336133;6.031123364;-0.557672356;5.431775459;-11.45491915;19.91748223;-8.584084636;-54.08320289;20.67468699;1.437135604;5.419095164;22.35657167;6.925794583;11.93794625;8.640155846;2.781682314
7.96275504;9.885471626;6.540630514;0.83032218;5.91960323;-0.611679663;8.321124548;-9.576038768;17.69331703;-9.058892667;-21.52771216;23.91670738;3.93695147;4.306929305;20.60879444;4.445986152;9.951167725;5.108269414;3.019364206
7.457512495;7.089511102;5.059850137;-1.050092773;5.513677114;-0.703009089;16.21355234;-8.427587162;13.30356071;-11.58223959;5.901277431;24.12291177;4.222600491;1.551369519;13.70527794;0.524115863;6.428820865;0.464140716;3.285638492
6.798724844;3.345572266;2.925176639;-4.785489242;4.532541502;-0.817418304;24.41936739;-8.4180314;8.90054941;-14.55499798;14.5774365;19.99442092;2.471915636;-1.396990428;3.127434897;-3.263858764;3.401219726;-3.481098777;3.364033092
6.312993541;0.300775792;1.231131177;-8.626469233;3.159068959;-0.909998173;25.58842091;-9.278421825;7.219878885;-16.0201139;5.246091407;13.13567048;0.104408447;-2.870566603;-8.175592092;-5.493537781;2.538782896;-5.459929167;3.188810093
6.305083544;-1.065360651;0.719134389;-10.5326724;1.983126481;-0.927631547;15.17755802;-10.32819129;9.559380694;-14.98036734;-9.643916445;7.307167805;-1.209405838;-2.216775794;-16.50704722;-5.655745133;4.03407478;-5.21995337;2.893086917
6.90471856;-0.840424366;1.435173998;-9.426059231;1.643498058;-0.84982956;-4.396950154;-10.91710639;14.69034174;-11.89013206;-16.6433281;5.789780969;-0.707107484;-0.285925503;-18.82017607;-4.330488385;6.548165671;-3.418309409;2.711782882
8.025518399;0.201561517;2.87117905;-5.849221703;2.423272064;-0.718003991;-24.35683046;-10.71820259;19.67163434;-8.082300616;-11.27414543;8.985102851;1.022527803;1.248906767;-14.29980286;-2.660714218;8.272964109;-1.093549962;2.81149561
9.423095185;1.307173897;4.430574372;-1.599909019;4.073510243;-0.622638113;-34.87217422;-9.734415243;22.00006104;-4.735083031;0.201197609;14.21848717;2.614673591;1.208416334;-5.128991784;-1.534664511;8.287945851;0.892595622;3.160386423
10.77284574;2.160087891;5.831146602;1.405110427;5.963152923;-0.645806357;-31.42288136;-8.138654312;21.40884302;-2.243818312;7.6165472;17.88267261;3.01804048;-0.208581985;4.354162083;-1.078987364;7.161200672;2.109990628;3.520741518
11.71782392;2.760902734;7.149126921;2.278268966;7.426170655;-0.794764628;-17.60904406;-6.163901845;19.88032724;-0.391620831;5.9047652;18.13752577;2.227440904;-1.684821432;9.908727482;-0.781856851;6.36114558;2.463489511;3.573308305
11.91402366;3.04222728;8.527859948;1.572851442;8.067171963;-0.978718866;-2.365331038;-4.133773806;19.88430203;1.01764974;-1.287757551;15.99918623;1.13693894;-1.9369147;9.743371217;-0.056831695;7.005694206;1.966654707;3.107708507
11.12663572;2.685578174;9.850705526;0.720972756;7.855877266;-1.056389292;6.31497836;-2.521441109;22.29;1.745589347;-5.794083261;14.08641306;0.731339261;-0.762823367;5.386671779;1.248440139;8.986120979;0.648294732;2.171333499
9.366673078;1.341917099;10.68657138;0.919393303;7.013143826;-0.930132552;6.481280482;-1.855984626;25.64450768;1.310734152;-2.618225859;14.25761329;1.333069747;0.894148275;0.430061035;2.768662336;11.14553552;-1.341412627;1.080083008
6.967985367;-0.976549903;10.56343156;2.241161145;5.826855781;-0.622149272;2.504868611;-2.436896538;27.36443643;-0.443591107;5.79346114;16.17995128;2.488256566;1.863382863;-1.97536824;3.928434283;12.28328221;-3.596046264;0.26088244
4.497241919;-3.750199289;9.332400082;3.571323282;4.543187882;-0.273973295;0.687327591;-4.041526761;25.822659;-2.994228306;12.17386669;17.90497691;3.476602945;1.781845045;-1.063389893;4.303372106;12.07795183;-5.517536007;-0.004914046
2.500391509;-6.242789956;7.299921358;3.387171596;3.375057091;-0.062317313;3.941525551;-5.899257707;21.6206426;-5.381121631;11.21157526;17.72728305;3.91374411;1.302130347;1.505923923;3.743987848;11.14660112;-6.630777469;0.211973786
1.234356785;-8.012082633;4.997048935;0.833506014;2.553905043;-0.085593858;9.839571448;-7.050458947;17.0648942;-6.874833145;4.253175152;15.58289681;3.916510057;1.307504491;3.34128403;2.271976446;10.25737781;-6.944524914;0.481583283
0.576304702;-9.214880261;2.761469232;-3.634063869;2.318483655;-0.299412498;13.41482766;-6.911660326;14.36214985;-7.496863616;-2.171550607;12.83287531;3.769525049;1.899233701;3.248063902;-0.014275077;9.471956165;-7.055584612;0.25176009
0.185079577;-10.45491133;0.475979093;-8.450227255;2.804252434;-0.546390251;12.10749204;-5.669432088;14.0520105;-7.935157652;-2.446834707;10.83368241;3.504411117;2.153465665;1.824433114;-2.861942392;8.040968662;-7.851612531;-0.788029384
-0.205930109;-12.30620811;-2.303303261;-11.83039297;3.904873912;-0.659265077;8.434343984;-4.200829727;14.90373294;-8.913479823;3.059831413;9.754171276;2.846225241;0.946317212;0.406493456;-5.728963889;5.17334586;-9.966814419;-2.447127858
-0.594272537;-14.89218615;-5.900997372;-12.76656815;5.230535914;-0.56562592;7.876211872;-3.533128658;15.22377983;-10.53611866;8.558256194;8.73;1.581228393;-1.864932042;-0.496938373;-7.86855711;0.980810218;-13.34587407;-4.077054852
-0.764205899;-17.81291067;-10.09310102;-11.52130578;6.238240424;-0.324326244;13.59783725;-4.18417907;14.36750738;-12.14625585;8.461746621;7.077468899;-0.043277994;-5.012708359;-1.744108861;-8.738334025;-3.297684778;-17.21230955;-4.932403245
-0.537344738;-20.40410973;-14.04199733;-9.368278184;6.488828179;-0.074611827;22.54194065;-5.822869581;13.17438822;-12.8089529;2.886222166;5.256352765;-1.331712474;-6.635347996;-4.551179985;-8.466917699;-6.070623177;-20.4629179;-4.639211879
0.001699013;-22.07425194;-16.69052839;-7.796903689;5.882523585;0.06011964;26.63325324;-7.48;13.04969707;-12.02898071;-2.11638636;4.553742854;-1.621543337;-5.722188216;-8.913604754;-7.916313402;-6.555210019;-22.22899257;-3.45822073
0.505729394;-22.48737197;-17.37188055;-7.680431526;4.718909519;0.045308313;18.75489005;-8.169534465;14.58921669;-10.14655948;-0.009205164;5.76280491;-0.824736948;-2.957585927;-13.04943271;-8.123678278;-5.339484626;-22.25895845;-2.14363988
0.604571581;-21.56255965;-16.2156043;-8.865567974;3.530960888;-0.060238997;-0.962357286;-7.506775114;16.9851448;-8.127154324;9.893577039;8.18740049;0.473504143;-0.197456325;-14.57055996;-9.446234618;-3.850019531;-20.92653848;-1.467721701
0.197721362;-19.41405302;-14.04887006;-10.35619936;2.78944795;-0.161575755;-23.72904153;-5.919337361;18.71611151;-6.92367265;21.0526582;10.07044015;1.482393805;1.019401089;-12.45960783;-11.09485658;-3.167379617;-18.92015274;-1.722219201
-0.431153985;-16.31996442;-11.83255303;-10.93162123;2.662179901;-0.199111017;-37.265058;-4.323084858;18.8926137;-6.872241661;24.9489546;10.20145535;1.85140229;0.670483204;-8.047167737;-11.53899239;-3.195537725;-16.83863258;-2.538904375
-0.76712491;-12.67016275;-10.00298872;-9.834971146;2.977152779;-0.184123289;-34.11823554;-3.489321008;18.08233696;-7.505327559;18.71219909;9.257138902;1.934452298;0.138340292;-3.93958008;-9.584794618;-2.88244226;-14.91488485;-3.156422686
-0.368160335;-8.804976723;-8.179870538;-7.16161197;3.400068359;-0.179751874;-16.98889398;-3.525805458;17.91248378;-7.845187495;8.436915132;9.532387841;2.447418629;0.905650663;-1.676759287;-5.315972972;-1.270897771;-12.9635102;-2.946759246
0.895891476;-4.794389443;-5.473062034;-3.746437347;3.690680405;-0.248083767;3.091923454;-3.812029662;19.78926182;-6.945801506;4.779996567;13.10722729;3.835078979;3.218783169;-0.195034627;-0.103649432;1.561799608;-10.52016823;-1.829981465
2.811436546;-0.373372517;-1.214534334;-0.615918683;3.853472189;-0.402953993;14.56189898;-3.428361885;23.78570195;-4.366933013;13.90012626;19.94186121;5.916653059;5.901224731;3.326580018;4.397973872;4.506712279;-7.086817855;-0.290032349
4.969184882;4.785709568;4.373531211;1.675219168;4.083973253;-0.598077058;13.36041285;-1.795164217;28.55984389;-0.37451734;31.05596967;27.56843179;8.110305405;7.461327479;10.67937832;7.49523904;6.35466105;-2.40384911;1.002126677
6.949688186;10.56615373;10.06040631;3.393930673;4.568330503;-0.753362535;5.215178701;0.901712375;32.29567201;4.171251983;42.52793648;32.7398652;9.993831188;7.466396512;20.20647894;9.892035379;6.811326174;3.322295062;1.666593076
8.425905612;16.06680522;14.1789627;5.377948258;5.304087458;-0.799101423;0.557998936;3.787611257;33.87304951;8.162517821;35.09379489;33.72736206;11.64609609;6.907182211;27.07241568;12.88354974;6.675028152;9.3246078;1.838483878
9.175090968;19.82156286;15.55560569;8.271265533;6.087248964;-0.711213888;6.050078125;5.837733681;33.39560897;10.68821175;6.173713981;31.39825287;13.42788315;7.19583421;26.4835338;16.91490485;7.008833162;14.40536611;1.98536061
9.07652003;20.56965209;14.1885053;11.74199879;6.672094862;-0.520416443;19.21966213;6.523186639;31.81587229;11.4010759;-33.09644172;28.25326076;15.40866723;8.71117513;17.58634085;20.73279641;8.05504937;17.31349331;2.478348209
8.152410937;18.06724084;11.19969963;14.31623309;6.96542427;-0.294491384;30.23172186;6.120275485;30.11261368;10.62601775;-64.43811575;26.33308585;17.01482922;10.26846483;4.898868048;21.98377724;8.899251328;17.25559477;3.260683046
6.622138999;13.28830979;8.071495841;14.13470406;7.085026882;-0.105943399;29.30566119;5.450417637;28.70603517;9.116072122;-74.04472323;25.79961858;17.30435015;10.08998479;-4.190557044;18.97228531;8.244384976;14.3039373;3.87430897
4.886308053;7.781306035;5.688258056;10.27773318;7.224164259;-0.00218882;14.06372432;5.208366173;27.44185344;7.557850786;-60.98756255;25.2998278;15.69769065;7.473964633;-4.298085897;12.27498903;5.65817458;9.461859338;3.823623446
3.400394768;2.640107169;3.867572625;3.756697525;7.432193321;0.008112511;-8.657926667;5.346668421;25.94477226;6.124639529;-36.73623716;23.59838737;12.53647484;3.646959502;4.234909709;4.867522661;2.189388526;4.301410029;2.994234274
2.498761669;-2.071903073;1.731701548;-2.685255364;7.506177343;-0.05171124;-27.62694573;4.984852439;23.9235551;4.398420035;-16.73275999;20.88828868;8.938652924;0.928479439;15.56875969;0.463540494;-0.25611425;0.322791539;1.802759223
2.287590457;-6.920827218;-1.346687794;-6.079789248;7.111018039;-0.146988437;-34.77620455;2.971042425;21.22517967;1.754119792;-10.46861171;18.5942734;6.014314012;0.820872791;22.39779282;1.131661907;-0.334478987;-1.645132294;0.958992798
2.677240603;-12.01702568;-4.945589245;-5.174647355;6.059439431;-0.252590038;-29.87867203;-1.244609368;17.7801136;-2.04756283;-16.91874794;17.94497998;4.080667577;2.657665916;20.80082349;5.885285246;1.676659435;-1.692936767;1.013293877
3.510517837;-16.19197921;-7.596977657;-1.445674525;4.536823543;-0.361490004;-19.32039432;-7.03025805;13.67192403;-6.506503741;-27.6227463;18.73375243;2.544131963;4.051992516;12.40841233;11.31067515;4.074652029;-0.606705112;2.017864058
4.668924511;-17.28020342;-7.6739383;1.69596968;3.075444572;-0.477622063;-10.61240289;-12.73908769;9.330485222;-10.56993058;-34.02645697;19.46910425;0.552484158;2.861603;2.565394938;13.84736145;5.054242841;0.688265944;3.53798866
6.073839208;-13.49602617;-4.565513311;1.138073377;2.264669034;-0.601054456;-7.233660977;-16.57922743;5.580940438;-13.25556688;-33.22019128;18.76855305;-2.152966053;-0.965554339;-3.755746895;12.13612239;4.091397051;1.69559438;4.986272584
7.609280293;-4.948369585;0.725206225;-3.741511769;2.390478137;-0.718681175;-7.515133643;-17.64170405;3.316280758;-14.25735928;-28.36453566;16.65467181;-4.93743626;-5.272110801;-5.024739778;7.796949811;2.269353811;2.605789176;6.021719696
9.070976408;5.911414115;6.052254648;-10.52253755;3.263662107;-0.808338462;-7.628183621;-16.40058748;2.916715195;-14.08017279;-24.64092264;14.49783519;-6.79464534;-7.462519625;-3.104258477;4.129305661;1.299043434;4.098658832;6.725283069
10.21710749;15.40020134;9.395417391;-15.32860582;4.362384053;-0.852698077;-5.508152748;-14.34336228;3.871800461;-13.61505174;-24.7250539;13.63960845;-7.230854675;-6.688120522;-0.701907494;3.703836633;2.05314209;6.80456629;7.445247895
10.88859932;20.60723367;10.05946317;-15.48824737;5.181526694;-0.851198605;-2.289671678;-12.98795445;5.001823922;-13.5029557;-27.35407001;14.01086656;-6.721936417;-4.562966414;1.112500412;6.567824079;3.81230598;10.74455215;8.452995869
11.08861173;20.93129802;8.967330491;-11.35290095;5.530636541;-0.820530297;-0.451338798;-12.96667659;5.208465865;-13.78087915;-29.43609551;14.10857129;-6.325847979;-3.750048828;3.162087323;10.30063252;4.817989909;15.10542102;9.677028297
10.94282204;18.11536433;7.859963992;-5.920169183;5.572911011;-0.784392562;-0.873406833;-13.79373457;4.205121634;-14.04224257;-29.22037861;12.43340565;-6.782747222;-5.590525347;6.277864091;11.81982526;3.661762073;18.53597757;10.70659412
10.57720705;14.84094462;8.0062529;-2.536699603;5.607389006;-0.761729482;-1.778052043;-14.42543236;2.638708296;-13.90495654;-27.62816498;9.074744379;-7.89733447;-8.813373776;9.389596236;9.624989715;0.396986157;19.84713213;11.04790881
10.03540919;12.95914086;9.366397528;-2.421999292;5.795535794;-0.761638553;-0.532226948;-14.14639773;1.497880095;-13.34587634;-26.89707886;5.899680809;-8.754833179;-10.48582591;9.70501796;4.909690474;-3.467755717;18.72521098;10.43814104
9.323324279;12.59614341;10.7880199;-3.9083196;6.062155693;-0.784487793;3.51923243;-13.09919772;1.307622904;-12.62414877;-28.15074719;5.030942827;-8.581518846;-8.464925163;5.07773219;0.798506755;-6.018694815;16.00244964;9.000263451
8.53898516;12.60585797;11.02914685;-3.969414271;6.23978119;-0.822310861;8.059575568;-12.07485866;1.798401526;-11.9164011;-30.24134065;6.900368289;-7.479659355;-3.30525698;-3.529429502;0.256941765;-6.173950372;13.25138555;7.154801626
7.944675617;11.80678229;9.795937349;-0.816349289;6.311790226;-0.854994671;9.822807477;-11.76315538;2.322106898;-11.0535711;-30.81468996;9.662285691;-6.368425335;2.004136848;-11.93301555;4.088747735;-4.2092155;11.88290497;5.379174177
7.872752581;9.954178215;8.008902787;4.516195193;6.52179323;-0.848867154;7.913283892;-12.07837208;2.619906827;-9.639907545;-28.4692929;10.62682648;-6.166117589;4.295745972;-15.50800051;10.33270463;-1.324832654;12.28142653;3.991600109
8.509693307;7.77851606;7.129289619;8.884131597;7.229290871;-0.768830328;5.250755186;-12.11342292;3.221401638;-7.455460292;-23.99939073;8.578834337;-6.934128029;2.628177688;-12.81278282;15.42412453;1.24942257;13.550293;3.08565557
9.737443599;6.263434226;8.095632499;9.510352835;8.61146613;-0.605386317;6.395726619;-10.78679205;5.072227545;-4.752287297;-19.67913486;4.98409429;-7.755939156;-1.12133217;-7.023594487;16.35162311;2.883248051;14.0914867;2.61204701
11.19199288;5.906695914;10.68770908;6.259433774;10.45480328;-0.399542861;13.21555593;-7.709201812;8.678235639;-2.131997057;-17.34467073;2.966371965;-7.48687884;-3.912364888;-3.72272068;12.44389952;3.562790704;12.69971318;2.503951461
12.52342111;6.5753147;13.7676174;1.8759338;12.22493296;-0.239643892;22.07845562;-3.61760431;13.50674765;-0.07804278;-17.01647785;4.838983425;-5.738485181;-4.016242775;-6.538275257;5.704507432;3.524380474;9.472364826;2.740213732
13.6551186;7.935516327;16.15785931;-0.045504373;13.38788371;-0.218691049;25.4353506;-0.033092432;18.18985854;1.442697589;-17.18274386;10.23988706;-3.238796239;-2.252057031;-14.0274095;-0.449134113;2.975744996;5.907927991;3.31933051
14.81424206;9.916656677;17.44995547;2.217636713;13.75180477;-0.372713663;17.21217718;1.640412352;21.39494537;2.923848534;-16.31648231;16.42758581;-1.242171466;-1.033439953;-20.39178939;-3.20456012;2.132640494;4.0746797;4.198774129
16.28190462;12.70705825;18.1398374;7.240467023;13.57041695;-0.644663702;-1.89520775;0.963795359;22.65942754;4.817803205;-14.16400176;20.45888674;-0.489614821;-2.143243617;-19.66847907;-1.873889328;1.382949185;5.351727448;5.271377225
18.05207101;16.2930689;19.04544372;11.61975359;13.32441244;-0.909185473;-23.5412006;-1.307730148;22.52893371;7.011370914;-11.69517463;21.38366715;-0.618107995;-5.18139985;-10.28484244;1.965397388;1.24022429;9.547504451;6.399810983
19.6862223;20.03280025;20.51854662;12.64617128;13.34100331;-1.051140534;-36.50420771;-3.737855392;21.9469832;8.757136255;-9.925043379;20.63149116;-0.532228608;-7.976154442;3.480534288;5.682311522;2.002500206;14.96456026;7.467276988
20.51080079;22.75422746;22.08725817;10.35531971;13.53648378;-1.045074373;-34.03461425;-5.088060683;21.47574059;9.166965813;-8.844123944;20.37620743;0.584972515;-8.522781457;14.23859232;7.288314754;3.410454016;19.35810513;8.387917332
20.03140429;23.39461772;22.7895;7.35025182;13.47619828;-0.973034301;-18.50393553;-4.973169227;21.02557511;7.88982579;-7.511161845;21.41947521;2.503986862;-6.72335953;16.36128008;6.507632673;4.693810949;21.15787186;9.065651506
18.25548881;21.69500313;21.90435489;6.581884873;12.70987438;-0.959051535;0.164031818;-3.905759562;20.26550452;5.424159744;-5.192704485;22.49720539;4.099484996;-4.433554381;9.403433813;4.606672191;5.077329017;20.18456046;9.349924517
15.67824829;18.38631147;19.49674457;8.897082167;11.13604816;-1.063585409;11.30198582;-2.782895596;19.24857033;2.811957283;-2.396549681;21.59246813;4.301160204;-3.826937308;-2.232277832;3.239043786;4.372609852;17.47237947;9.051935345
12.9465498;14.71599494;16.36838587;12.3202365;9.127551058;-1.2192972;10.68829271;-2.228103761;18.59773617;0.971985151;-0.708870621;18.02711202;3.03246029;-5.531536887;-12.75815843;3.20289052;3.142258498;14.42052538;8.03647182
10.46185317;11.6940193;13.48588857;13.61859483;7.322641809;-1.265687279;2.940009766;-2.24483289;19.024663;0.210239996;-1.452250647;13.4088874;1.330116659;-8.140725036;-18.73565487;3.981732959;2.25430421;11.90485999;6.332398503
8.217086443;9.626131466;11.34816943;10.87244832;6.224089488;-1.066881862;-2.546689151;-2.369057558;20.59948768;0.259010619;-4.321509002;10.53172752;0.534261038;-9.47015426;-20.3818984;4.300492696;2.173510336;9.924110653;4.173860746
5.96417557;8.212880943;9.768228376;4.998384269;5.881209979;-0.628695627;0.972787491;-2.142740273;22.46056502;0.720471892;-7.27735753;11.1449086;1.226255092;-8.428970939;-19.96624544;3.172716918;2.586879947;7.917687121;1.926926614
3.54723369;7.01098219;8.197561359;-0.949054512;5.869583543;-0.123323701;12.30426469;-1.524398588;23.29702116;1.45755672;-7.940058594;14.51490574;2.798446593;-5.895306861;-19.14494001;0.610853976;2.690822683;5.418399806;-0.057774678
1.122906731;5.809243976;6.304538762;-4.085692265;5.579930526;0.206473369;23.03632243;-0.932673366;22.26904559;2.577015642;-5.416167641;18.02755479;4.001211572;-3.901007941;-17.64010267;-2.479702707;1.899167711;2.525467161;-1.567245087
-0.897053773;4.647160901;4.348852761;-3.758002586;4.624683353;0.202336758;23.68;-0.905883471;19.64403085;4.077436617;-1.053269071;19.32683066;3.996764338;-3.895760769;-14.1676104;-5.016422536;0.362445963;-0.114123193;-2.543929216
-2.114672249;3.590900808;3.077530695;-1.765815227;3.100920173;-0.104218545;10.69538969;-1.644479489;16.65637156;5.5789195;2.547487403;18.19024863;3.045059225;-5.597912667;-8.405108042;-6.407768473;-1.150232566;-1.739106278;-3.005298892
-2.40460828;2.596557949;3.237826946;-0.674409614;1.54778783;-0.511770207;-10.68185819;-2.78839052;14.72968139;6.480194018;3.514692079;16.59983998;2.275373681;-7.354880262;-1.933423643;-6.65351415;-1.901385196;-1.968998307;-2.9522137
-1.97521693;1.643945042;5.07131041;-1.653364331;0.631546835;-0.780852268;-29.75867052;-3.613318609;14.67542724;6.461345309;2.120364868;17.01477798;2.756619856;-7.601928352;2.838284168;-5.927302262;-1.80083112;-1.017238676;-2.359646696
-1.215313579;0.985726188;8.137242312;-3.582825087;0.755577867;-0.784878181;-37.34998112;-3.526515136;16.41241949;5.867893529;0.515705758;20.33103487;4.628306518;-6.111143744;4.782322751;-4.168751109;-1.456017524;0.480126616;-1.266030898
-0.465347175;1.179766002;11.55377885;-4.076005835;1.829443064;-0.577007107;-31.41450363;-2.513552288;19.25413418;5.553766941;1.022876308;25.18726277;6.962007332;-4.005823142;5.156979119;-1.163183632;-1.623679816;1.857079256;0.121351494
0.125732402;2.749031473;14.45480507;-1.512989138;3.327192693;-0.334068388;-17.57662083;-1.198083285;22.37098589;6.22438437;4.340379481;29.07542214;8.41220879;-2.656703177;6.497312639;2.940839952;-2.547527406;2.761397292;1.422101412
0.596272204;5.687360836;16.34766596;3.577145788;4.589822176;-0.226794541;-4.580545519;-0.433790872;25.03590189;7.804010131;9.034230794;30.23108526;8.116211986;-2.526155396;10.10102326;7.235129613;-3.752096423;3.266600506;2.229593263
1.074188887;9.242540618;17.17888297;8.850479821;5.185447144;-0.311833489;1.716795504;-0.685943223;26.63165784;9.401622135;12.63289662;28.76096266;6.183214874;-2.967792373;14.33678611;10.32068417;-4.450903759;3.746405349;2.336390805
1.676819985;12.2371176;17.15196991;11.85756187;5.113862309;-0.515113858;1.485970784;-1.641438098;26.70579384;9.979263291;13.41065136;26.24947044;3.50297317;-3.044487444;15.50303212;11.20588596;-4.191200718;4.636524382;1.884540371
2.455738804;13.75806753;16.50558316;11.73379519;4.742235315;-0.70395882;-0.659120716;-2.362838929;25.25961331;9.216448256;11.50352151;24.38565283;1.125937175;-2.500518506;10.85874236;10.14991372;-3.171063069;6.226784657;1.318858277
3.378876116;13.72639468;15.43861003;9.586755672;4.524902311;-0.784524655;-0.187179445;-1.932374509;23.05503739;7.846983243;8.62596033;23.83142619;-0.301715696;-1.950185919;1.46620397;8.666204263;-1.979299668;8.561512208;1.150989814
4.333951372;12.92745037;14.19944125;7.403941541;4.692414302;-0.754349163;3.686142676;-0.162862503;21.47864664;7.139757909;6.759298983;24.13329551;-0.734625725;-2.146482325;-7.646226091;8.519307516;-1.02917296;11.44913719;1.675973287
5.163554221;12.48686284;13.1884235;6.464070404;5.111131592;-0.683973131;7.971019476;2.142047999;21.76852241;7.898135303;6.869609824;24.47878759;-0.579278567;-3.089128415;-10.52265582;10.41203757;-0.214312242;14.54066244;2.820160468
5.745990646;13.17815636;12.89655331;6.527758095;5.401819107;-0.655992051;9.171773436;3.616969365;24.0315896;9.777231544;8.520699464;24.46023435;-0.413341078;-3.880993274;-4.464537767;13.41719448;0.910731834;17.43249079;4.210214925
6.090496997;15.02740015;13.64524835;6.348336783;5.232916713;-0.71257568;6.834279489;3.209872177;26.87587729;11.49243139;10.46007813;24.21981264;-0.734591553;-3.517803331;7.795065175;15.68484026;2.613672937;19.7605318;5.403477513
6.365313688;17.40714125;15.29045746;4.949241264;4.583900088;-0.843060198;4.227743062;0.914691453;28.17466305;11.78299514;11.57065385;24.06459685;-1.762499034;-1.886394276;19.73285677;15.92461098;4.625353109;21.26549189;6.120115481
6.795446317;19.44694554;17.14387422;2.559779783;3.79031301;-1.00582452;5.480844697;-2.167512871;26.59367175;10.37878169;11.48927165;24.10477666;-3.289746293;-0.009667913;25.44837061;14.47537048;6.280353607;21.82345096;6.335722762
7.469067143;20.43152536;18.25191047;0.478194874;3.329915424;-1.156662586;11.5302333;-4.517960316;22.76015214;8.204153629;10.62239058;24.28079042;-4.677672736;0.754295861;23.64717441;13.05104688;7.036864792;21.45018962;6.206122988
8.198294226;19.98764282;17.92;0.054002506;3.491797421;-1.262806052;18.37565977;-5.18744257;19.04801558;6.655944235;9.764449289;24.60541036;-5.129194735;-0.117912245;18.23832422;13.31905197;6.906944024;20.29249049;5.912314868
8.580019531;18.09635374;16.15864353;1.664395151;4.159778169;-1.303632808;19.40828999;-4.403142074;17.95064636;6.522253256;9.666325634;25.18692316;-4.208602773;-1.830425462;15.10971618;15.45969386;6.408783779;18.60820021;5.548314697
8.262870142;15.06952262;13.73134088;4.481937523;4.869711773;-1.27168265;10.31704893;-3.374524716;20.17156189;7.379468158;10.72435396;25.90541442;-2.300924872;-2.945020616;17.53342621;17.92049424;6.084673301;16.72119149;5.115323825
7.244982266;11.53653988;11.73262722;7.131554767;5.111737434;-1.180353551;-7.127832655;-3.441851239;23.91410248;7.913609461;12.77772662;26.12965107;-0.597463331;-2.664230089;23.69039447;18.61862007;6.018668102;14.94185972;4.592968285
5.963399929;8.350846609;10.95071831;8.636033697;4.673935229;-1.068888839;-25.46193406;-5.171030806;26.02173143;6.892089058;15.03363462;24.97055325;-0.455323504;-1.600130513;28.17760932;16.63204246;5.786142994;13.47683861;4.009150908
5.067024825;6.332967753;11.43783974;8.907053873;3.789307952;-0.990615285;-36.05472334;-8.018297153;24.20326308;4.041359567;16.2765207;22.06037082;-2.474311121;-1.324448921;26.30841964;12.97751012;4.879653992;12.38578507;3.453025745
5.006323891;5.931991869;12.57564027;8.500953512;2.982081949;-0.984082509;-34.6079849;-10.76018622;18.69383118;0.211322496;15.46849526;18.19289255;-5.95768374;-3.041208123;17.87954498;9.804059815;3.232718536;11.63331341;3.035226433
5.730154987;7.032630766;13.56914352;7.979334628;2.718893621;-1.046041509;-23.69245564;-12.33547851;12.08993183;-3.217493913;12.51094097;15.07258164;-9.238506191;-6.489685387;7.49901823;8.650613064;1.38022806;11.2157184;2.837074232
6.715149973;9.076626518;13.9905672;7.470751546;3.105904534;-1.129855654;-10.60364879;-12.48445506;7.480693534;-5.186950698;8.594676382;14.12415353;-10.73104861;-10.00822641;1.221803789;9.220333919;0.115739788;11.26137707;2.880320658
7.307270617;11.42154839;13.96896922;6.757008399;3.836936239;-1.175436026;-2.280178682;-11.77345512;6.290839546;-5.476027306;5.652081684;15.23955312;-9.980498914;-11.72497118;2.079294683;9.715137753;-0.062682676;11.9905815;3.116560006
7.123755194;13.65018883;13.91200946;5.698744053;4.417200755;-1.150719001;-1.063457401;-11.07678542;7.433526271;-4.628980845;5.056632561;16.59509131;-7.934238279;-10.91871987;7.928005161;8.468091408;0.73476444;13.51492136;3.423819284
6.233298715;15.58799801;14.02717916;4.529819346;4.493846442;-1.073141932;-4.180322644;-10.96822617;8.320142451;-3.506274641;6.45485973;15.89323163;-6.229036317;-8.484023788;13.23976372;5.498082955;1.937188028;15.60363157;3.618464021
5.021487394;17.06856605;14.07205514;3.714493526;4.057882316;-0.994046302;-6.829786305;-11.47200944;6.851894075;-2.857940142;7.764786923;12.15716139;-6.04260622;-6.196185433;13.40984007;2.642057254;2.941169249;17.62167509;3.510203098
3.892749286;17.74739116;13.56463176;3.497451713;3.386896863;-0.95831667;-6.094702365;-12.27793132;2.852205949;-3.150029297;6.614848389;6.614608692;-7.380988715;-5.42857394;8.22929191;2.097217465;3.438533402;18.76081166;3.006543641
3.056419763;17.23466188;12.28037303;3.583622331;2.792846038;-0.971280914;-2.629218347;-13.1436528;-2.037453659;-4.573554591;2.299198902;1.858970834;-9.295715171;-6.330159775;1.845859889;4.557873533;3.419161184;18.47432453;2.214498139
2.527694142;15.49455648;10.59027838;3.292154515;2.378560207;-0.998331476;0.783564097;-14.0993589;-5.716111628;-7.03415408;-3.317599191;-0.104178785;-10.76259956;-7.990113945;-0.707326043;8.51796953;2.961113795;16.84233255;1.4481794
2.267399123;13.13510431;9.298108315;2.118160676;1.989699132;-0.99565573;2.083850818;-15.29772628;-7.049187115;-10.05509613;-6.904059646;0.663206852;-11.4473983;-9.281430066;2.35045355;11.38095711;2.103094948;14.59645522;1.089359166
2.280435718;11.2209699;9.050216326;0.257587133;1.392950868;-0.945839458;1.569625363;-16.69436182;-6.304761506;-12.74629555;-6.167032429;2.26237773;-11.74887567;-9.615513405;8.03202187;11.52369397;0.953396915;12.74592206;1.357917407
2.575725522;10.62736244;9.780179407;-1.372005036;0.536022686;-0.870058594;1.10725686;-17.89727583;-4.488350472;-14.03913635;-1.840442694;2.69880413;-12.18113644;-9.081711291;10.92462163;9.637624698;-0.119992226;12.02582221;2.14615649
3.063058101;11.39715003;10.67382577;-1.71404376;-0.318603261;-0.80944186;2.038601031;-18.36331355;-2.358794776;-13.18038977;2.627084338;1.632975069;-12.73458656;-8.073620307;7.59133128;8.215468465;-0.524054705;12.51938096;3.057711602
3.543662615;12.64751968;10.74916921;-0.376364213;-0.700920993;-0.793180236;3.994378186;-17.79638173;-0.016981832;-10.20021779;3.767902842;0.622040564;-12.83385836;-6.906028484;-0.415605418;9.537539953;0.181252755;13.68280081;3.651325831
3.854715721;13.16983866;9.640883785;1.951273328;-0.218034037;-0.819283784;5.738330215;-16.4055261;2.711578809;-5.99326869;1.207374358;1.643797646;-11.92641675;-5.777082914;-7.346007052;13.73470256;1.81322382;14.71590163;3.721039497
4.047802911;12.29;7.976148581;3.851043789;1.178524397;-0.860295388;7.001573534;-14.78433114;5.652256096;-1.886035826;-1.462742264;5.207635823;-10.12707088;-4.960508773;-7.345169233;18.47292225;3.45011448;14.99665371;3.3930969
4.405289952;10.31003906;7.014160591;4.154339187;3.127018213;-0.884636154;9.140730366;-13.48856544;8.137403552;1.061325684;0.764824242;9.742491287;-8.270540061;-4.839969817;1.199411767;20.54520701;3.902705999;14.3023855;2.951931459
5.223485644;8.179887376;7.785190146;2.91153168;5.035083334;-0.873725187;13.54470186;-12.64608822;9.527046847;2.561346555;9.861475182;12.84901492;-7.260970551;-5.601314787;14.31470131;18.18196702;2.527810991;12.7514879;2.534230326
6.517946296;6.69380751;10.36021271;1.637786379;6.382805955;-0.823260962;19.10094596;-11.91250421;9.878654369;3.091862368;21.80161485;13.35883613;-7.271660456;-6.850589406;25.08521981;12.36184585;-0.206793337;10.62383826;1.963412546
7.919031636;5.911907852;13.78869991;2.528314063;6.954326914;-0.734321034;21.43465301;-10.8051482;10.06174447;3.428428429;27.84936381;12.39800866;-7.530757147;-7.629321621;28.28681259;6.200916382;-2.880401481;8.263780055;0.904296463
8.894604699;5.299141986;16.73176086;7.012960566;6.867173244;-0.609219882;15.48491056;-9.142189999;11.11125079;4.086152933;19.89930485;12.47582454;-6.942801034;-6.99376567;23.62;2.945734345;-3.951961415;6.114223516;-0.750854743
9.152633199;4.422480697;18.29790214;14.53406926;6.413914207;-0.459954559;-0.009596861;-7.235281061;13.33201151;5.056256998;-3.519050013;15.31773155;-5.056124986;-4.767141854;15.35135584;4.053915858;-2.698606293;4.73946611;-2.584868581
8.88820839;3.522669003;18.46841586;22.41456812;5.848110651;-0.321025858;-19.80074974;-5.691842464;15.93680801;5.950846403;-34.92034018;20.26555447;-2.548425847;-1.808067876;8.941330099;8.630811503;0.399044472;4.666842154;-3.750354364
8.634769046;3.369404296;17.85664077;27.07636873;5.257342569;-0.249379871;-34.14462287;-4.998665483;17.56563295;6.351865208;-61.33280113;24.61851572;-0.782652723;0.526720579;7.384282908;14.37823303;4.064097379;6.057680058;-3.474454319
8.803616227;4.463747011;17.07230293;26.00381334;4.577660339;-0.30181054;-34.92448277;-5.221815977;17.27911535;6.053238876;-71.66807458;25.66510601;-0.768995774;1.361748809;9.898477438;19.13871436;7.070412317;8.443995747;-1.64517017
9.280534159;6.298026215;16.23100754;19.2775267;3.695636558;-0.499019103;-21.6295262;-6.043684145;15.21592062;5.046859988;-63.22752893;22.74702353;-2.380301791;0.93465495;13.51622328;21.88676088;8.887198856;10.80977762;0.970724665
9.436683556;7.422546571;14.9673571;9.659972069;2.540276056;-0.799936997;-2.391695931;-7.072959913;12.40416649;3.361831709;-43.01;17.69321031;-4.460761832;0.339532605;15.82820664;22.67477278;9.705935817;12.07225328;3.097456776
8.588900481;6.415417797;12.86551368;1.078245236;1.109753013;-1.107297625;11.30457467;-8.147729144;9.943208718;0.985884255;-23.00589503;13.33858267;-5.717726586;0.583170933;16.48440462;21.93229511;9.961610459;11.68862146;3.697357964
6.569013264;3.042504289;9.900078125;-3.597763972;-0.544068717;-1.306669297;12.68892403;-9.377188173;8.278237747;-2.015446335;-12.7616392;11.40344716;-5.641635704;1.750301266;16.44095802;19.90073992;9.838142872;9.959085161;2.585888961
3.950135539;-1.359871363;6.531455438;-4.062941617;-2.313207372;-1.319496497;4.492652823;-10.90034318;7.144377826;-5.292457474;-14.2219028;11.4444047;-4.7113872;2.985966018;16.05182453;16.64589859;9.180204672;7.779422572;0.482377527
1.735019743;-4.681803922;3.435165353;-2.38193653;-3.990058594;-1.141111257;-3.409349511;-12.58101534;6.120223849;-8.151703617;-22.01070815;11.58989649;-3.786805034;3.293647311;14.07851565;12.44536577;7.818214065;6.001172344;-1.5266761
0.732658426;-5.471364238;1.143260442;-1.25407016;-5.232335695;-0.842973904;-1.937656377;-13.9126746;5.194440356;-9.78035129;-28.35453142;10.26266203;-3.291181765;2.435529288;8.724442565;8.012153835;5.935787457;4.868276052;-2.705513053
1.088362632;-3.914222341;-0.115176099;-1.986985836;-5.618514052;-0.538357393;9.708932964;-14.2395381;4.791534728;-9.654684263;-28.73132651;7.36949895;-2.931067171;1.137495967;-0.196906077;4.246611079;4.09567591;3.953107131;-3.046990662
2.295177378;-1.608476234;-0.335138478;-3.646500204;-4.823690375;-0.329858992;22.93048684;-13.15375113;5.261024035;-7.858797373;-24.25516622;4.056398053;-2.175196865;0.423716544;-10.06402878;1.722517215;2.879222112;2.629810511;-3.075633619
3.622764276;-0.332303648;0.383483372;-3.99114878;-2.839874445;-0.265370406;26.04550388;-10.79521008;6.37350896;-5.077764781;-19.60670361;1.451851734;-1.002290949;0.682306745;-16.6229723;0.395717545;2.463437359;0.697369899;-3.295584189
4.585445976;-0.789313172;1.80481112;-1.459517262;-0.092234096;-0.323535609;13.32136127;-7.850994484;7.378403307;-2.253141748;-18.69832085;-0.346885808;-0.171742784;1.303234498;-16.87881498;-0.18256838;2.524182858;-1.357414328;-3.760440599
5.089658269;-2.29485847;3.415846335;3.340979275;2.664214128;-0.434175281;-10.22673019;-5.255656912;7.644527449;-0.122138705;-21.65465968;-2.139861718;-0.702255334;1.219335607;-11.40974912;-0.344708564;2.562548261;-2.679494197;-4.103120364
5.216340822;-3.568279243;4.41750902;7.840058594;4.651231465;-0.521302884;-32.00755541;-3.774752181;7.317891047;1.071148281;-25.23276345;-4.574406234;-2.974751924;-0.122683036;-4.083725517;0.034572634;2.372123034;-2.698504854;-3.957264459
4.917571966;-3.897732544;4.030437014;9.303330947;5.419180603;-0.544570829;-40.60044303;-3.696663094;7.343434094;1.542461584;-25.8889077;-7.262192146;-6.249713855;-2.215433894;0.783998509;1.379277905;2.237188344;-1.589553092;-3.372231727
3.956057587;-3.688999714;1.999582114;6.864975668;5.03974007;-0.515656754;-33.44010868;-4.764004398;8.718995737;1.68840184;-22.72084066;-8.953943573;-9.063011978;-3.845232882;1.633550499;3.89551728;2.685608785;-0.162092649;-2.84346277
2.159857212;-3.982623576;-1.082323277;2.21296991;4.025377763;-0.480412771;-17.77258716;-6.336948497;11.53910067;1.782406632;-17.93341363;-8.642109713;-10.2169267;-4.032460046;0.610579057;7.169114591;4.005081308;0.747328686;-2.922745143
-0.255677594;-5.413453567;-3.966536655;-1.634611564;3.029317957;-0.478952997;-4.547108796;-7.687804468;14.63545612;1.839360519;-14.72909221;-6.572069135;-9.568626638;-2.74408948;1.420735048;10.25007813;5.930741587;0.900499286;-3.741525439
-2.63702655;-7.537532018;-5.423816741;-2.537537234;2.509814707;-0.511351934;-0.309199406;-8.304755282;16.1905654;1.691112194;-14.62987928;-4.195797004;-7.98852252;-0.795267258;5.802069414;12.16919068;7.760318831;0.797641096;-4.861160823
-4.225933563;-9.106532046;-4.975135031;-0.722382914;2.548662146;-0.534450682;-3.374508618;-8.101226358;14.93233317;1.167730816;-16.49623948;-3.04078742;-6.56630927;0.907503858;11.56054108;12.46717787;8.792779778;1.204537353;-5.591205756
-4.647671691;-9.053855861;-3.164614734;1.586432548;2.900983988;-0.494220516;-6.788526632;-7.453464392;11.04298218;0.237847663;-17.87022413;-3.440156359;-5.766151968;2.061043631;13.94264574;11.33310902;8.732444016;2.423762187;-5.524231774
-4.167633428;-7.370462174;-1.183035223;2.058718873;3.2078822;-0.371359094;-5.030948981;-7.027701398;6.120837129;-0.969105853;-17.25406281;-4.21217323;-5.2347916;2.984309664;9.428087302;9.308832962;7.760175755;3.882604343;-4.854403951
-3.499987679;-5.164999376;-0.126140721;0.132693584;3.223617927;-0.205268512;1.359878563;-7.433835695;2.241876634;-2.23299867;-15.26537237;-3.575039317;-4.359010319;4.013045651;-1.025035326;6.880389369;6.273595253;4.388246552;-4.225289969
-3.307269628;-3.884630027;-0.41712516;-2.631241211;2.933085382;-0.074960673;6.94810768;-8.846423097;0.805784398;-3.328392248;-13.75658213;-0.548010252;-2.999441049;4.919759183;-11.96979984;4.321402278;4.565581744;2.908644785;-4.235286595
-3.770457296;-4.327051625;-1.74838226;-3.962714957;2.524692906;-0.047091899;6.967061245;-10.80211184;1.935134301;-4.07391705;-13.84482444;4.289386659;-1.691257391;4.980262937;-16.93552166;1.862735958;2.719382505;-0.655924588;-4.99639695
-4.538850903;-6.177250156;-3.470285702;-2.854176074;2.265929915;-0.127851471;2.176311115;-12.33755069;4.716069951;-4.353639967;-14.71723625;9.242724078;-1.114126539;3.677376688;-12.90118086;-0.071733137;0.765119342;-5.2525104;-6.080618502
-5.057786724;-8.327609097;-5.04189197;-0.436318055;2.35846648;-0.255191038;-1.401823265;-12.4576978;7.953310483;-4.146900918;-14.30035786;12.72834751;-1.329148185;1.386016466;-2.468006573;-0.884565694;-1.106587087;-9.170739058;-6.864484388
-4.985831063;-9.631668329;-6.203282568;0.978904407;2.833636175;-0.339135688;2.19848166;-10.70894153;10.83991838;-3.574384084;-11.16556726;14.28599454;-1.528600027;-0.665267137;7.89373582;-0.138912381;-2.518064232;-10.93453464;-6.9740972
-4.379987742;-9.498080861;-6.847121059;-0.114532324;3.5220469;-0.321917265;13.01726439;-7.521623059;13.15278647;-2.915389786;-5.934759518;14.65695073;-0.610023193;-1.240172121;12.24732037;2.063570347;-3.116851225;-10.02184593;-6.487211529
-3.550183664;-7.984535992;-6.842246378;-3.074754604;4.111936963;-0.214647881;23.91444102;-4.082957806;15.01755713;-2.53564795;-0.916363925;15.00856553;1.857264944;-0.086095035;9.066515111;5.015842272;-2.841493323;-6.987509146;-5.778958409
-2.755434028;-5.506696395;-6.048499469;-5.564943206;4.288592445;-0.085452786;25.39178773;-1.769962175;16.55949866;-2.71918032;1.708147789;16.00976417;5.100322109;1.782277393;1.906046556;7.758642938;-1.993837122;-2.979665749;-5.189640473
-2.008700883;-2.523104009;-4.505240346;-5.454567312;3.906412474;-0.010995122;12.92687266;-1.449631648;17.70510064;-3.490009766;1.546712888;17.43992418;7.554866793;2.800237632;-3.400133636;9.608591913;-1.03748135;0.97065194;-4.802428527
-1.123497622;0.563723597;-2.554660353;-2.600239493;3.101701929;-0.029470334;-8.958242786;-3.053153061;18.17208362;-4.561061472;0.069861809;18.47736609;7.953673133;2.023297551;-2.823903975;10.4714641;-0.282556959;4.403232822;-4.479039207
0.082327857;3.343750986;-0.707174372;0.983928118;2.254171171;-0.128022215;-29.23807749;-5.674028737;17.54652698;-5.493632054;-0.903970911;18.29414758;6.243749488;-0.188765284;3.384367043;10.73902776;0.28499898;7.372688659;-4.062659365
1.617626474;5.381894648;0.674157478;2.731869209;1.780508562;-0.266990503;-37.74686735;-8.119504786;15.39807256;-6.004382653;-0.893009446;16.49162508;3.602060863;-2.51120128;11.32840626;10.91169289;0.899450687;10.01552186;-3.535738929
3.303855769;6.34824014;1.578583355;1.59921699;1.864256521;-0.414189386;-31.85260367;-9.567526056;11.49163329;-6.214890521;-1.06295307;13.20337272;1.542644829;-3.705273139;16.3962498;11.28128156;1.742035415;12.13928837;-3.00356027
4.882654458;6.1871638;2.22729264;-1.096757931;2.303649521;-0.558886086;-17.54776492;-9.929193734;6.119152972;-6.62617977;-2.891470559;8.998491171;0.834662148;-3.503553012;16.22046989;11.8932724;2.739967717;13.19642274;-2.558497792
6.129376484;5.146332983;2.730581896;-2.757582144;2.611952936;-0.698285923;-4.447541697;-9.721597693;0.378494402;-7.763841483;-6.434103079;4.751223839;1.079388037;-2.641297363;11.7093552;12.71658181;3.60381824;12.69490342;-2.182499817
6.90260606;3.626722374;2.875612507;-1.612173595;2.339242036;-0.816586593;1.199482654;-9.578844168;-3.922855078;-9.69199131;-9.835106342;1.46402212;1.229927592;-2.098567959;5.803417149;13.76482923;4.058766126;10.73496473;-1.781417862
7.155443903;1.998810194;2.307713542;1.868521491;1.410800097;-0.882719259;0.149377733;-9.754861937;-4.930019531;-11.75198935;-10.62863889;-0.067226108;0.563945375;-2.265520977;1.198718952;15.00317607;4.066033694;8.213116732;-1.296745402
6.962948214;0.545498634;0.982212116;5.374071825;0.235026851;-0.872724482;-1.929056434;-9.954563321;-1.751097306;-12.79359193;-7.756372957;0.296244321;-0.719044492;-2.738249566;-1.264443807;16.13734156;3.852822535;6.431885688;-0.765012025
6.553923479;-0.482247481;-0.563921917;6.587785907;-0.523361876;-0.796055496;-0.028204429;-9.590475806;4.788727419;-11.84661545;-2.54016482;1.764607692;-1.745472231;-2.841542177;-2.634832642;16.54876972;3.738528995;6.284792607;-0.264758689
6.2642671;-0.873998533;-1.493187949;4.914135456;-0.371535142;-0.698072523;5.948757581;-8.268416218;12.25312417;-8.834612847;2.273576839;2.855355501;-1.799338137;-2.331268589;-4.633968161;15.53717751;3.907529936;7.553351512;0.175496924
6.360367288;-0.651254173;-1.394515226;1.721274267;0.670621324;-0.631479349;11.63306832;-6.15698394;17.6799226;-4.824443853;4.602228981;2.146467942;-0.995714179;-1.621443375;-8.264330635;12.74545334;4.302165391;8.867174671;0.585486491
6.81362208;-0.305038207;-0.86817929;-0.983996685;2.053855153;-0.619052113;12.61681362;-3.985517229;19.09530168;-1.560968001;4.465333318;-0.880080566;-0.213779787;-1.367995435;-13.16976558;8.441472747;4.693324289;8.475789451;0.949495805
7.214751314;-0.759155562;-1.362518073;-2.220624061;3.016666019;-0.640501725;8.831438271;-2.67232478;16.5478061;-0.513267083;3.583398808;-5.482413786;-0.349595612;-1.844255939;-17.95828512;3.415995773;4.845869169;5.404036098;1.106384862
6.965723648;-2.877479691;-4.199629702;-2.595303614;3.01450815;-0.656128044;4.979305797;-2.827576702;12.00571309;-2.02463776;3.596615441;-10.05044079;-1.522368839;-2.704815067;-21.04654864;-1.436401104;4.649147351;0.222075627;0.802557032
5.680420633;-6.74672923;-9.428647722;-3.355333035;1.97936309;-0.646151177;6.507089994;-4.440558529;8.178681562;-5.127047404;4.585270178;-12.95911447;-2.899944689;-3.330895163;-21.41602223;-5.527286052;4.14663705;-5.155212963;-0.088528086
3.524790243;-11.29317366;-15.40743837;-4.883833311;0.27625902;-0.628530965;14.43064264;-6.91799519;7.009227253;-8.144074712;5.255846196;-13.28697357;-3.292926104;-3.38800789;-18.93748109;-8.672725162;3.492486805;-8.588107767;-1.35582573
1.221212126;-14.67293456;-19.55745633;-6.077897921;-1.549964084;-0.63645978;23.43963335;-9.40455652;8.755783653;-9.667342026;4.574617622;-10.98907186;-2.044567244;-3.0451346;-14.28674246;-10.86328753;2.896906103;-9.035831844;-2.474727896
-0.33239992;-15.31628702;-19.87239417;-5.244966997;-3.024253733;-0.674850214;25.1976818;-11.15964287;12.15477187;-9.248758878;3.227719894;-6.603932866;0.477750675;-2.665999724;-8.653439468;-11.97766672;2.584108857;-7.172040199;-2.92041748
-0.586741617;-12.93653681;-16.16432417;-1.762992497;-3.842964975;-0.698396874;14.59912474;-11.78419598;15.43357314;-7.390325015;3.381320194;-0.908324974;3.147984701;-2.324355154;-3.398596081;-11.74178011;2.73931065;-4.839340557;-2.561317237
0.35190549;-8.744763628;-10.18999028;2.996317147;-3.854791187;-0.638538135;-5.753410212;-11.244414;17.44677942;-4.950528389;6.781116009;5.180097656;4.868114925;-1.680296059;0.299581795;-9.982750053;3.428541264;-3.71163872;-1.806053101
1.832895194;-4.669700094;-4.603112449;6.407853959;-3.051113859;-0.463232391;-26.42722693;-9.785593919;18.22668493;-2.501573655;12.86709118;10.55569794;5.269298426;-0.390971983;1.80377413;-6.929904158;4.529814884;-4.121702591;-1.341095247
3.08128698;-2.148963627;-1.496916179;6.500812846;-1.634273704;-0.219452765;-37.01143372;-7.851770824;18.69804322;-0.14164952;18.74715284;14.08100894;4.840185264;1.338632182;1.295839582;-3.252978603;5.747409804;-4.90950317;-1.629130649
3.609361922;-1.395009886;-1.50555567;3.489979118;-0.077765593;-0.016155101;-32.82725516;-6.029232617;19.85457559;2.170083008;21.31020729;15.09241424;4.465406169;2.66800888;-0.192727997;0.236950366;6.738199201;-4.400318879;-2.55931089
3.357795638;-1.640193847;-3.90892756;-0.361489236;0.98175105;0.047473558;-17.71750667;-4.931677345;21.98021119;4.157221737;19.79531476;13.93592145;4.782144995;2.708184421;-1.142622745;2.983479276;7.285328644;-1.775016263;-3.542077496
2.555696421;-2.049513105;-7.406602664;-2.472226861;1.067529773;-0.044428441;-1.027996226;-4.962972917;24.39586806;5.150615695;16.55780707;11.97943571;5.827935663;1.336043191;-0.271764677;4.84226431;7.398370706;2.207140991;-3.984181148
1.504472252;-2.451599626;-10.83467684;-1.856581565;0.224028851;-0.20893367;8.867217564;-6.036117111;25.8501645;4.539178937;15.21703761;10.86617714;7.161600815;-0.516446497;2.661849587;5.888412626;7.265742955;5.686460415;-3.758495089
0.489040988;-3.248777677;-13.35793021;0.345568088;-0.884871955;-0.323504943;9.747770311;-7.463889526;25.2942093;2.38576542;17.65733521;11.43475724;8.267354703;-1.466649395;6.449231697;6.103975677;7.105373198;7.022728933;-3.278369955
-0.17026202;-4.645565586;-14.26779657;2.12305836;-1.311157752;-0.3164657;5.873760174;-8.208734921;22.58389108;-0.361746657;22.46192019;13.1367373;8.892936084;-0.766813764;8.819517376;5.307249537;7.046991782;5.96104649;-3.1137725
-0.087130945;-5.990368444;-12.87844146;2.517714904;-0.435355075;-0.21862346;3.670521808;-7.450742491;18.70630998;-2.340151936;26.21117067;14.4908646;9.104908241;1.030688141;7.651566984;3.459312518;7.147554132;3.778403947;-3.47315036
1.057140962;-5.957225273;-8.825118955;2.531836695;1.56587839;-0.13577061;6.424212967;-5.153108619;15.3801184;-2.629287448;26.57514199;14.29045473;9.10643857;2.450964666;2.457268834;1.084291098;7.510402293;2.337307783;-3.989275924
3.26883889;-3.537715806;-2.549777044;4.199082414;3.778059915;-0.164770504;12.14518308;-2.211354276;14.21035751;-1.346024188;24.46085397;12.61172368;9.02460169;2.281182378;-4.813515769;-0.660627297;8.366566735;2.798774121;-3.988987242
6.10945197;0.971377696;4.561421805;8.583022741;5.149063253;-0.32036733;16.0274321;0.006040325;15.83394354;0.506099382;23.20081592;10.77256692;8.83395509;0.610693811;-10.42718421;-0.505855327;9.994072829;4.961804492;-3.018439544
8.856092936;5.89505927;10.70649062;14.42803449;5.221794347;-0.529230668;15.17412626;0.497176238;19.53427967;1.823476696;25.37611174;10.23684121;8.424549218;-1.159520477;-10.92891383;2.082332754;12.49599134;7.651461796;-1.189871839
10.89122216;9.210465023;14.59800116;18.69739774;4.450307336;-0.691594893;11.45300079;-0.698815172;23.57789992;2.196288014;30.09876777;11.35497806;7.706664647;-1.395376916;-5.495646638;6.352692278;15.60680784;9.735001162;0.91460582
12.03287406;9.927293437;16.11848161;18.68389532;3.839068805;-0.756581236;9.929342549;-2.483726552;26.12394093;2.072256621;33.36922648;12.99916056;6.656829359;0.456104022;3.056421763;10.52390134;18.70985193;10.89350416;2.661360798
12.53488193;8.722460921;16.18301419;14.05440788;4.161941457;-0.749803785;14.05236237;-3.39951893;26.2037203;2.18060063;31.48749612;13.41711176;5.301815869;3.38490021;9.630264272;12.78132265;21.09796053;11.56321075;3.729724997
12.75945617;7.313503447;15.91776343;7.196693711;5.358814377;-0.735642038;21.65432962;-2.590786553;24.1989111;2.73598251;24.65359893;11.60286106;3.699321908;5.561766046;10.02997987;12.36725642;22.31296007;12.21430205;4.141549652
12.81837165;7.08606643;15.8225979;1.574750502;6.587698194;-0.752669107;25.45891045;-0.36319623;21.53881038;3.138159367;17.42512464;8.045046815;1.949944306;5.696825903;3.937166183;9.989967849;22.32462061;12.7017434;4.01551075
12.51813236;8.097776145;15.58552731;-0.630202246;6.903313589;-0.780969386;18.30710921;2.058808025;19.82071512;2.464374496;15.23985678;4.245470162;0.209014819;3.912276917;-4.54935152;7.245665211;21.42825891;12.32328888;3.362925913
11.66974893;9.242842747;14.64793413;0.208041594;6.032382309;-0.768530547;-0.647831999;3.398384977;19.9117887;0.358672081;19.72297091;1.446197423;-1.355214018;1.459267984;-9.541078012;5.472657296;19.96038117;10.55262288;2.168787314
10.46776851;9.368427993;12.97334348;1.853550474;4.624296172;-0.689795443;-23.75891607;3.186985714;21.57088175;-2.457440709;26.89427315;-0.33880522;-2.655973359;-0.415970243;-7.573631952;4.879827782;18.07166461;7.77016821;0.670110024
9.536515498;8.339169304;11.30914279;2.165238039;3.759463357;-0.580834687;-39.00365924;2.002090746;23.75434667;-4.554941527;30.21417014;-2.181100228;-3.758142822;-1.463349402;-0.410053711;4.577004439;15.73800619;5.26401529;-0.516937412
9.511550969;7.128927505;10.68733364;0.682130161;4.085599676;-0.517078063;-37.92233806;0.938197418;25.318171;-4.827558202;26.26372964;-5.147318552;-4.836991145;-2.454050485;5.831119334;3.44277125;12.9812671;4.381658673;-0.680468933
10.45861188;6.893607622;11.58282397;-1.363646816;5.258729723;-0.55132614;-21.69273126;0.741911123;25.62333302;-3.384255974;18.24264535;-9.223567724;-6.021116056;-4.274976833;4.911097154;1.130482718;10.08708063;5.470019531;0.424936174
11.64433045;7.875145259;13.44991761;-2.429507745;6.141997268;-0.665750854;-0.651787447;1.278207727;24.71238927;-1.564663655;13.85047481;-13.16729727;-7.225981661;-6.92628381;-4.842121992;-1.574495313;7.602926684;7.491987238;2.207600452
11.9412007;9.124404785;15.03643201;-2.129403765;5.631854417;-0.780203445;12.73763706;1.716045493;23.08585778;-1.009359353;18.67296677;-15.37657166;-8.120749736;-9.31687774;-18.88642346;-3.313025972;6.08023393;8.710853462;3.469173705
10.6320262;9.300150764;15.2231894;-1.509602664;3.493720045;-0.810786178;12.52203326;1.252242388;21.3636222;-2.468718197;30.27536014;-15.01429863;-8.287390655;-10.04722397;-29.27902265;-3.17621014;5.740492731;7.97678919;3.180114409
8.004516838;7.851516064;13.72243701;-1.970932837;0.577521412;-0.729956318;3.138949288;-0.219135946;20.08660564;-5.258150732;38.25217201;-12.47580348;-7.48471698;-8.519700667;-30.07356193;-1.390518533;6.319712852;5.633765252;1.250043945
5.234138681;5.554415698;11.13061045;-3.870214077;-1.747456791;-0.579435309;-4.418419503;-2.021484916;19.67833338;-7.777408382;31.08601837;-8.922711704;-5.836956089;-5.448255406;-21.39666678;0.866050602;7.218123592;3.326759404;-1.333612817
3.590358281;3.933869908;8.392681055;-6.084575993;-2.516978144;-0.428947973;-1.354178627;-3.247191962;20.39868393;-8.694965393;5.128911211;-5.413161554;-3.805274088;-2.357555758;-9.187101721;2.366233374;7.855877984;2.830973983;-3.1686258
3.545415534;4.062514592;6.186548303;-6.94350174;-1.783727989;-0.319917251;11.84252189;-3.492509928;22.16982637;-7.900591626;-31.17472238;-2.41439937;-1.947214358;-0.501017935;-0.803204321;2.748609383;7.988184045;4.77744752;-3.430276838
4.465169699;5.743291325;4.700523008;-5.71232551;-0.501127571;-0.243356536;25.40019095;-3.184810869;24.38248582;-6.531243611;-61.53951633;-0.008551924;-0.6158601;-0.072374742;0.183200502;2.735042547;7.772916942;8.216986958;-2.429507667
5.119985299;7.726058423;3.840388609;-3.312311651;0.190941405;-0.167610577;27.46329222;-3.240757832;25.95286747;-6.097135409;-71.99559117;1.605709705;0.208663562;-0.289484117;-3.88698858;3.480425157;7.569548087;11.30670647;-1.29944873
4.616836224;8.711271856;3.506399319;-1.613083718;-0.264271103;-0.085395485;13.12027041;-4.32065783;25.79027178;-7.39764271;-59.81281744;1.967587461;0.853758314;-0.185056758;-7.177244414;5.551588289;7.633450025;12.55669878;-1.067490085
3.033787082;8.25428136;3.595482865;-1.867970576;-1.546243261;-0.032502634;-11.53078543;-6.254138429;23.49368867;-10.01853626;-34.82341172;0.791749153;1.707709706;0.605041134;-5.250759472;8.319912323;7.922462496;11.7032489;-1.862531347
1.289971376;6.84403645;3.763778405;-3.61999716;-2.780968174;-0.057666172;-33.33290241;-8.075096933;19.80323211;-12.70785632;-12.35224219;-1.453047456;2.955067664;1.676438822;1.463779133;10.25;8.131932569;9.636734929;-2.884766661
0.396729945;5.210470977;3.322577117;-5.035496575;-3.182151168;-0.16970638;-41.05203319;-8.642589256;16.3793942;-14.26454068;-3.067525672;-3.507437163;4.455500778;2.345629501;8.269299867;9.906952281;7.91;7.572235296;-3.129202072
0.708876355;3.594287314;1.569303547;-4.431823617;-2.536470487;-0.311826262;-32.70440094;-7.400709067;14.90665482;-14.25874121;-7.034671929;-4.057754973;5.825040559;2.279826037;10.17584193;6.976430897;7.095622325;6.185190567;-2.23842213
1.755359631;1.685896282;-1.588537398;-1.753964323;-1.241674963;-0.391721624;-15.98579893;-4.753455982;16.0345413;-13.12901994;-15.73118863;-2.732028531;6.650122462;1.707006416;5.908875275;2.575878421;5.827913251;5.349726384;-0.779078652
2.730351188;-0.743526456;-5.251285091;1.232033523;0.042953073;-0.347787586;-1.928038698;-1.827275406;18.87587717;-11.72155308;-19.68557901;-0.507747547;6.693451974;1.086519257;-1.276123215;-1.369220811;4.471097504;4.548895662;0.254153358
3.192772901;-3.190391915;-7.847608304;2.231985022;0.832508287;-0.198366254;3.040009766;0.183487389;21.4746687;-10.70949645;-15.51576912;0.896744721;5.975349951;0.615665911;-6.473455269;-3.26592383;3.411014812;3.484986137;0.25
3.386658412;-4.474424766;-8.075144207;0.206455162;1.051314892;-0.032253831;0.609292469;0.652620882;22.01132719;-10.29996272;-7.272518768;0.241487107;4.709928972;0.057065863;-7.162341627;-2.755368688;2.844458503;2.339977036;-0.588539765
3.943464144;-3.586129997;-5.814584913;-3.749588938;0.97936899;0.054308071;-2.478630475;-0.219906714;19.97958681;-10.30982353;-1.879891249;-2.332955102;3.173424489;-0.966248264;-5.003539098;-0.807052455;2.67959899;1.528489914;-1.525276205
5.248679165;-0.64689566;-2.298008868;-7.111416267;1.021876992;0.025726253;-0.941994074;-1.60410449;16.54383543;-10.39823065;-3.010224079;-5.40106315;1.614561571;-2.505986534;-3.979679899;1.00359275;2.606442452;1.259236973;-1.984295579
7.015245018;2.88194693;0.656555809;-7.663959495;1.475666619;-0.071618544;4.710420609;-2.504065989;13.81284483;-10.2195715;-8.424129499;-7.229809154;0.26202361;-4.095922657;-6.565737632;1.513613605;2.307584491;1.355509244;-2.01719799
8.411681014;5.022207706;1.81084444;-4.960892558;2.399509679;-0.148419078;9.431238491;-2.218044221;13.49436303;-9.457475127;-12.46847254;-6.864560395;-0.616294519;-5.00948644;-11.24904974;0.61847262;1.696333226;1.493335792;-2.144822917
8.631805375;4.558814717;1.22365108;-0.463673078;3.601882968;-0.13837266;8.965459403;-0.604012354;15.82019962;-7.871787183;-11.10030492;-4.564939006;-0.712083149;-4.741239651;-13.55235083;-0.819590786;1.033912959;1.595514038;-2.760337729
7.4548862;1.810209624;0.02826061;3.631138947;4.719358555;-0.040138562;4.312508395;1.906791433;19.45324751;-5.45107586;-5.055564095;-1.437435155;0.191145564;-3.312875351;-9.76352376;-1.653103358;0.824943555;1.966605196;-3.678526437
5.387612792;-1.669339048;-0.488490664;5.902599746;5.363380577;0.091504129;1.230485035;4.51510247;22.42404962;-2.570019531;1.232935673;1.274778233;1.999600794;-1.196072159;-0.310296858;-1.212775358;1.516410222;3.003461195;-4.269095808
3.330847644;-4.164079742;0.240197039;6.430992802;5.30420864;0.190046387;5.062392968;6.399603341;23.44941716;0.063899884;3.628168906;2.681878071;4.170845969;1.007457467;10.01188648;0.339307041;3.165686731;4.730510238;-4.059100322
2.064003331;-4.78872079;1.861959516;6.326952895;4.616375298;0.217984217;15.31771868;7.083220798;22.73480979;1.762064548;1.600063477;2.351649458;5.825630152;2.81650902;15.21602523;2.221781122;5.299343078;6.60235302;-3.238320673
1.916171184;-3.707910109;3.607859062;6.600097656;3.680760312;0.17610411;24.85230478;6.65613947;21.72463847;2.305041064;-1.796365061;0.279255018;6.130506539;3.882505089;12.26812861;3.57706319;7.093557624;7.803488952;-2.568374028
2.779301129;-1.601780265;4.97450033;7.334088324;2.992203817;0.085496044;24.76552345;5.709624938;21.98859975;2.11944437;-2.889742563;-3.027534626;4.756995344;3.880480074;3.073147153;3.941658185;7.80504382;7.838234049;-2.730466425
4.334171228;1.001966613;6.011102366;7.770181862;2.855111725;-0.031995142;11.34802269;4.96807311;24.02055917;1.958242934;-0.523159836;-6.46520806;2.110346011;2.525346696;-7.055137408;3.373511585;7.198721226;6.929128243;-3.671234632
6.245851086;3.920949606;7.067016471;7.109561156;3.164278064;-0.155985521;-10.45547165;4.810373726;26.77919467;2.259067664;3.259512086;-8.626307648;-0.870600791;-0.199012782;-13.09247711;2.257621864;5.693013404;5.87766472;-4.543737717
8.199743368;6.982201814;8.340132285;5.291077412;3.448563029;-0.258292722;-29.96997643;4.996939343;28.28696119;2.676528981;5.243201427;-8.593797116;-3.254473971;-3.79267663;-13.34984032;1.021024555;4.112702689;5.479042792;-4.342693289
9.844921915;9.64668861;9.675271853;3.096864772;3.182568387;-0.303588137;-37.98294786;4.828940689;26.88441887;2.225298457;3.765344285;-6.774699072;-4.64778365;-7.27842664;-9.834872506;-0.025364087;3.196700506;5.952133732;-2.728750051
10.79536884;11.10338709;10.7448906;1.541843703;2.16410879;-0.270879667;-32.75071824;3.67746863;22.30621967;0.024940709;-0.201489924;-4.98163858;-5.339045447;-9.628567351;-6.111734891;-0.682525526;3.173643921;6.833703924;-0.356403841
10.75201887;10.83912672;11.34962196;1.087965804;0.682780875;-0.180451873;-20.38111772;1.52847244;15.8901622;-3.863858795;-4.238172591;-5.378778803;-5.948148791;-10.33444129;-4.614518291;-0.824631018;3.671145324;7.40380504;1.573078434
9.65937894;9.16264247;11.49506192;1.33021975;-0.656293137;-0.096366655;-9.638668033;-0.866802698;9.83232827;-8.165714272;-6.553130061;-8.852965617;-6.849209624;-9.699542395;-5.402536448;-0.449424361;3.997724886;7.279961711;2.168242052
7.756488497;7.130613991;11.19254699;1.388430409;-1.33374111;-0.090006104;-5.498973465;-2.387023365;6.025224845;-10.96801776;-7.023787935;-14.05087038;-7.826879158;-8.615237407;-6.883738326;0.212624264;3.593431398;6.697832292;1.42106557
5.47199688;5.843106657;10.27584036;0.673112046;-1.248805314;-0.185126415;-6.446287519;-2.230418837;5.229940677;-10.81668689;-6.527498415;-18.02395479;-8.258368341;-7.972252797;-7.467527921;0.698546456;2.35558513;6.275491264;0.068437858
3.250204171;5.673588855;8.547379091;-0.57786682;-0.741234026;-0.328115018;-7.180553226;-0.410827549;7.018786088;-7.593757581;-5.566168483;-18.22543652;-7.692004493;-8.137728836;-6.68748177;0.552247656;0.659183102;6.49261133;-1.076783303
1.441152677;6.108832055;6.215313932;-1.394507588;-0.299312583;-0.414299535;-3.946105496;2.298698269;10.35094391;-2.57413033;-3.710476799;-14.43119584;-6.345367027;-8.853383239;-5.153071028;-0.281474506;-0.892624491;7.338899109;-1.721433675
0.30260727;6.363269416;4.195537714;-0.725228567;-0.190522475;-0.358519611;2.212352205;4.921290735;14.24993643;2.361610379;-0.371336307;-9.043230581;-5.069042192;-9.558751514;-3.795166889;-1.203503291;-1.795468433;8.419846515;-2.131813455
0.037913074;6.237893054;3.844557618;1.817897386;-0.301275844;-0.159903421;6.878618164;6.898656734;18.10691997;5.791306015;4.043611482;-5.403031047;-4.730796033;-9.823542903;-3.256813036;-1.136729046;-1.853299902;9.403580919;-2.665187162
0.761073685;6.440732001;6.137438689;5.61130637;-0.297689199;0.089674053;6.823757237;8.306196147;21.53828049;7.364540371;7.95267133;-5.324078152;-5.464055552;-9.548777068;-3.790982365;0.85486123;-1.196486736;10.39540086;-3.29113771
