Channel 1 - P4;Channel 2 - O2;Channel 3 - P8;Channel 4 - T8;Channel 5 - C4;Channel 6 - Cz;Channel 7 - Fz;Channel 8 - F4;Channel 9 - Fp2;Channel 10 - F8;Channel 11 - Fp1;Channel 12 - F7;Channel 13 - F3;Channel 14 - C3;Channel 15 - T7;Channel 16 - P7;Channel 17 - P3;Channel 18 - O1;Channel 19 - Pz
8.149666633;8.155891619;2.410844334;11.10156518;1.414644815;4.550350051;-6.392790093;29.93866197;62.94272323;13.21150016;95.50730514;2.864362867;30.22209981;15.64497343;24.33952135;15.44467475;7.480544249;4.411723029;8.869491478
4.752077758;6.605314422;2.432889359;4.412240915;4.252152239;2.375405133;7.506802987;33.68456284;80.77537158;18.77366432;88.80818607;11.75442061;39.07551547;19.74103233;31.51386619;23.58139987;7.911220035;8.825765418;1.575502841
3.976697223;7.437463263;4.443568691;-0.418787191;5.368944644;0.149942513;24.24841319;31.06101877;74.82736125;18.50232564;43.05667176;18.49;39.53298299;17.93580671;33.32495561;28.97653791;11.07964279;14.36443544;-3.221195074
6.220409364;13.50148112;10.23658506;0.003449443;4.522249663;-1.09754202;31.57670218;24.47054716;48.26520197;14.06909615;-19.32667021;21.73;32.9722568;12.00061125;31.89270959;30.4983099;15.65868215;20.7125669;-4.229277054
9.832329633;23.82858616;19.26592793;5.781837005;2.3545988;-1.148171557;22.87224507;18.16733582;16.45193491;9.12588606;-65.32470692;21.71158756;24.05873171;5.81303341;29.62950522;28.38177757;19.21885678;26.22744956;-2.563867078
12.44331605;34.37410282;29.03868315;14.19132837;0.096600104;-0.577272174;1.909702099;15.48052875;-3.352526858;6.851110411;-72.64720892;20.11271793;17.79910914;2.770903405;27.83795648;23.84696675;19.91338193;28.81961908;-0.644915645
12.71334026;41.0420805;36.86153128;21.71629312;-1.059570051;-0.192154368;-19.77504433;16.83810361;-3.465162662;8.019504776;-43.94621575;19.01716806;16.62139593;3.694487915;26.20648309;18.38987675;17.72674859;27.32149943;-0.366676148
11.12730807;42.48375866;41.45357171;26.03137693;-0.577155364;-0.401236639;-30.77926737;19.90183972;10.09030806;10.90869828;-3.490368821;19.65525766;19.39577338;6.68975201;23.3872849;13.2615172;14.3989526;22.37574399;-1.903077822
9.2710457;40.45199856;43.14167019;26.69494387;1.155880724;-0.988915002;-27.12766289;21.56237492;23.52806244;12.94738856;21.01114541;21.77747819;22.86802995;8.935097144;18.3022718;9.32813103;12.14706354;16.21534838;-3.927087324
8.267871106;37.60248851;42.65299989;24.50877564;3.054566154;-1.406724367;-13.92218598;20.23468158;26.23125678;12.73320812;17.61481824;24.05968136;24.25885437;8.915116542;11.41411604;7.109171624;12.17636163;11.4655017;-4.897809322
7.72938283;34.77459689;39.7807427;20.43472923;3.938049394;-1.282010663;-0.755394554;16.80071457;18.03475696;10.88364577;-3.766831187;25.17199066;23.06524734;7.375081223;5.085884811;6.696359724;14.04344557;9.714081926;-4.305509572
6.121137344;30.17395918;33.3108382;15.00307943;3.173328627;-0.714208636;5.218176983;13.6721939;7.652148951;9.213680137;-21.90746205;24.66650119;20.87403187;6.368663237;2.529751849;7.52833959;16.20525412;10.68880656;-2.9256245
2.241924154;21.21309647;22.43559372;8.475066528;1.005201396;-0.150562366;3.458166801;12.86991487;4.387063107;9.088820575;-22.02450827;23.03956447;19.60131164;7.307547559;5.709759714;8.327830267;17.1892746;12.46863238;-2.016334348
-3.439852725;7.460426406;8.440058594;1.333009883;-1.608877287;0.005559877;-1.01297151;14.64115718;10.40653815;10.37938731;-6.429331937;21.04014395;19.73525372;9.66408581;13.47615242;7.526070207;16.46154811;12.57111578;-2.238659994
-8.763938154;-7.863419954;-4.989827316;-5.482493326;-3.557866311;-0.29574575;-2.308629645;17.5552403;19.74733553;11.81241199;9.568247918;18.92610692;20.01044835;11.3699422;21.43290434;4.119716262;14.46306126;9.33530614;-3.210443297
-11.27850807;-19.27671481;-13.46570416;-10.80274114;-4.199316415;-0.76345532;1.880364272;19.78555299;24.18423454;12.26622724;11.8087624;16.3746081;18.67547827;10.53675267;24.12130026;-1.559669925;12.01683556;2.913686846;-3.982897361
-9.998516351;-22.41617645;-14.54268451;-13.7003466;-3.675839987;-1.047683381;9.148612508;20.42388702;20.42168833;11.76688584;-0.909969459;13.12059619;15.19823503;7.0661678;18.4386586;-7.789626682;9.737031087;-4.628984177;-3.929862731
-6.134716439;-16.87659833;-9.320078125;-13.84262836;-2.74227163;-1.023700524;14.69371512;19.81940232;12.44922064;11.2849769;-16.84787097;9.680489637;10.94196572;2.847050521;5.995013121;-12.31510586;7.891698932;-10.22697154;-3.245134072
-2.200280289;-6.369471105;-1.667058616;-11.56913983;-2.222919474;-0.842982103;14.79046099;18.86546304;7.483988355;11.56960636;-22.16101233;7.368879231;8.241423294;0.399866371;-7.518875146;-13.64931599;6.638734986;-11.37108797;-2.658180251
-0.174901663;3.876080204;4.457483562;-7.763224459;-2.451696346;-0.742521114;8.845068362;18.03257486;9.483976125;12.17007813;-12.66363599;7.412944599;8.635835248;1.050634181;-15.8785107;-11.95719746;6.207579534;-7.542194569;-2.693648659
-0.1385213;10.47550655;7.616012401;-3.622167082;-3.057977623;-0.811307426;-0.903911977;17.04573113;15.97812863;11.65894669;3.408004641;9.826401052;11.68466314;4.032698916;-16.43376013;-8.899851327;6.745109642;-0.66949944;-3.177488894
-0.403689612;13.55881008;9.481774512;-0.328472288;-3.23324026;-0.926279633;-11.0839242;15.42022229;20.69266547;8.981020606;13.25754593;13.05972348;15.29293839;7.132533092;-11.70904487;-6.537421375;7.991624466;5.807473299;-3.426522556
1.001380802;15.72233591;13.01683526;1.38581875;-2.292848074;-0.896594222;-18.71376187;13.2585321;19.29662286;4.766882334;10.56411235;14.91546432;17.25711546;8.299735995;-7.104008546;-6.054323575;9.218742364;8.866711588;-2.919913107
4.677756934;19.34463791;19.72240663;1.619026454;-0.148946629;-0.663415183;-21.79052399;11.49255589;13.09547877;1.34882707;0.114044016;14.176313;16.81179358;6.984447779;-6.304271227;-7.180923811;9.648841114;7.674401319;-1.822698879
9.296006537;24.47203161;28.14089351;1.301446675;2.626333725;-0.363336419;-19.32952182;11.2903885;7.631330999;1.254155258;-7.37092259;11.69599576;15.02977102;4.296275334;-8.011331832;-8.662379859;9.071670601;3.986810143;-0.883782623
12.51482915;28.83363283;34.76671707;1.62667203;5.182178217;-0.200630197;-11.59791922;13.1264101;7.747431018;5.272967121;-4.963439505;9.987464208;13.87844896;2.03782801;-6.829976543;-9.370109008;8.080125598;0.79372289;-0.806189683
12.62946382;29.77138814;36.6136194;3.162564839;6.938632474;-0.252847374;-0.632001963;16.33364637;13.60051732;11.66682848;4.939375776;11.46324942;14.75526583;1.453217337;2.037852497;-9.222842775;7.601557881;0.060850513;-1.659702404
9.699248406;26.42058293;33.40799601;5.291417482;7.912809289;-0.392552029;9.699061143;19.54367695;20.94487058;17.24908605;13.72141487;16.578008;17.61725382;2.585287996;17.84896588;-9.270422201;8.029981297;1.19333745;-2.856923679
5.371813708;20.42257959;27.71409454;6.542746124;8.595548366;-0.398410952;14.85550389;21.65195079;25.07;19.57727006;14.83887548;23.29466712;21.23565719;4.53745294;33.26021569;-10.91733993;8.706057844;1.445414739;-3.699675157
1.635844029;14.70065711;22.93458059;5.733480334;9.481509032;-0.156273529;11.8569487;22.50622011;24.68318812;18.57984088;9.530736956;28.35165527;24.20167533;6.252331784;38.54293917;-14.85255793;8.296698474;-1.897286631;-3.991578693
-0.509948632;11.31697741;20.75359214;3.086500721;10.61036673;0.228709469;1.307324027;22.77868014;22.41398443;16.36923029;5.019851477;29.45307298;25.82651188;7.173294171;28.35549678;-20.41039974;5.891805795;-9.138725167;-4.160567674
-1.525427899;10.03161698;19.95421935;0.335850713;11.46981364;0.507292579;-12.3198302;23.19866522;21.87514003;15.43364519;7.333241084;26.79155761;26.3291562;7.420999946;6.110683539;-25.76165779;1.966046377;-17.45887015;-4.7822736
-2.713761656;8.56597476;17.43752991;-0.477721404;11.34533236;0.482773085;-22.7057833;23.854631;24.23751633;16.67411025;15.61489225;22.8077323;26.36966591;7.552825799;-17.51797865;-28.79917979;-1.646601378;-22.56565819;-5.93855207
-5.096479636;4.318142659;10.61758415;1.275552214;9.870637603;0.161521527;-25.03012308;24.16624711;27.42218266;18.82461563;23.09362203;20.40541104;26.45981456;8.193828532;-31.15703324;-28.19706531;-2.8834956;-21.612662;-7.001335675
-8.629068085;-3.669052351;-0.566931118;3.96794149;7.378990982;-0.264169267;-18.63024594;23.50038087;28.37061413;19.62840445;23.54547304;20.95525268;26.71941585;9.743119774;-29.7959005;-24.08070601;-0.907429927;-15.23410931;-7.063632686
-12.23835545;-13.74809314;-13.37860186;4.608453239;4.79215437;-0.575896073;-7.284538961;21.83110386;26.02023355;17.72584045;17.08003906;23.49204118;27.01233548;12.17946277;-17.40975154;-17.99722272;3.216916949;-7.129012142;-5.671719667
-14.5194648;-22.26;-23.78607144;1.012372188;3.110325538;-0.690297035;3.107325054;19.82939898;22.16408452;13.70265946;9.895502155;25.54486602;27.15277175;14.94869759;-3.507574851;-12.23316959;7.171810791;-1.45309722;-3.24144484
-14.5240272;-25.29929866;-28.61209056;-6.343965702;2.844976382;-0.691057117;8.025208493;18.30673343;19.55103521;9.524535168;8.355865761;24.84170508;26.92163928;17.01815645;3.607191563;-8.810702277;8.905146299;0.046581174;-0.800233153
-12.14571649;-20.67939969;-26.95075413;-14.31215052;3.768164861;-0.720779095;6.841577956;17.52944448;19.21190344;6.942194445;12.99175676;20.62678155;25.95690494;17.22733703;1.915205804;-8.614008848;7.910413162;-0.981598184;0.741618187
-8.001773562;-9.103982518;-20.18497631;-19.10736031;5.121850046;-0.839916171;2.808164231;17.03307284;19.61488812;6.23921149;18.01305063;13.82084996;23.79821784;14.89496165;-4.230790241;-11.03673434;5.371800988;-1.069067842;1.202724049
-3.055691196;6.018415615;-10.91989804;-18.97428922;6.113691597;-0.976582384;0.576426899;16.10452127;18.3888834;6.294594697;16.76980021;6.224429056;20.22548963;10.36059851;-8.402644467;-14.32028777;3.165788944;2.221430619;1.149678048
1.714539989;20.02478087;-1.689908535;-15.45491881;6.350845236;-1.001019472;2.874300786;14.48928415;14.86382384;5.756304294;8.106395993;-0.425894038;15.6668163;5.032577086;-7.074455403;-16.43885101;2.546993773;8.38688434;1.344985644
5.480444987;29.01957675;5.844601729;-12.20016567;5.943846412;-0.848472926;8.511322323;12.67420676;10.92836079;4.213283855;-2.248906298;-4.916816527;11.24889145;0.769983577;-1.589674725;-16.10876994;3.481157735;14.41598434;2.099856665
7.631958716;31.46751884;11.01896161;-12.14485978;5.270271099;-0.580126477;13.05933791;11.47824942;9.351628376;2.366896578;-6.56298081;-6.562968567;8.277711861;-1.093812122;3.789740507;-13.41450774;4.975549906;17.0809447;3.048145121
7.856121952;28.53499485;13.84597703;-15.19766786;4.622156588;-0.335154473;11.83628678;11.30916756;11.14993567;1.169760553;-1.852039772;-5.226277607;7.425954833;-0.460805317;5.574391015;-9.732802896;5.957122393;15.19757471;3.478614132
6.221812183;23.01901815;14.60220191;-18.29143734;4.006495946;-0.223491491;3.271414233;11.75058797;14.49527649;0.820661599;7.539740835;-1.61701422;8.232538143;1.572416316;3.358092331;-7.017910177;5.924345179;10.12646989;2.906659213
3.173891383;17.53457877;13.53231157;-17.8598674;3.213267091;-0.252485162;-9.62342195;11.85669778;16.22258548;0.566581776;13.77109969;2.446802947;9.357522747;3.463929629;-0.7216838;-6.856723799;4.953618192;4.319119029;1.412999282
-0.622306822;13.10800031;10.74152834;-12.89696252;2.048547117;-0.340392265;-20.79197542;10.90697191;14.57191335;-0.544034158;12.22822248;4.445020722;9.469782022;4.143204343;-4.300239762;-9.791903624;3.284216311;-0.705036796;-0.47887988
-4.516850899;9.05296707;6.283614471;-6.211735808;0.521304473;-0.390971915;-24.80069904;8.967630069;10.66412725;-2.71789766;5.157641386;2.426254007;8.132367934;3.480761299;-6.586937303;-15.19722569;1.035450584;-5.232495423;-2.217202788
-8.043212618;4.092707555;0.399957869;-2.781906272;-1.158607088;-0.359075161;-20.24010529;6.780103483;7.39111907;-5.210461678;-0.831033206;-3.522549671;6.029264992;2.089180891;-8.282395382;-21.64144726;-1.63987395;-10.48607498;-3.555331943
-10.92998928;-2.231603125;-6.244116281;-6.288423933;-2.741161526;-0.259864998;-10.53595815;5.094373921;6.779589406;-7.066144071;-0.868863488;-10.78309864;4.382676025;0.744336487;-10.18475124;-27.44599728;-4.202732687;-16.96992169;-4.566075334
-13.0112621;-9.032206335;-12.56687817;-16.32603858;-4.096916862;-0.132648586;-1.562592889;4.055306266;8.256456128;-8.08782912;4.080527418;-15.40536915;4.034632947;-0.0802872;-12.1454403;-31.15907837;-5.693977851;-23.61734225;-5.410858286
-14.17308135;-14.8577896;-17.46600176;-28.34985914;-5.233902431;-0.005556847;2.318569062;3.197328461;9.368813075;-9.055569064;8.680965363;-14.48765209;4.902294944;-0.300275518;-13.38582466;-31.85146085;-5.265009777;-28.52422484;-6.131524124
-14.4089089;-19.08655149;-20.438105;-36.45164765;-6.161962955;0.108584828;1.023909598;2.051844524;8.238149073;-10.88883014;8.584966445;-8.170097656;6.182071592;-0.053690295;-13.62048165;-29.28576389;-2.933965394;-30.55884683;-6.652719389
-13.90764609;-22.62776989;-21.95798704;-37.03266794;-6.734152952;0.196637015;-1.627128713;0.807994025;5.46044183;-13.466877;4.565674634;0.269360754;7.065943522;0.422506948;-13.57676503;-23.99665684;0.111879474;-30.30202181;-6.939258372
-13.02016073;-27.12966148;-23.18284851;-30.84655867;-6.623134105;0.241339219;-1.104665826;0.39043085;3.708912774;-15.2497981;1.635968811;6.455807434;7.352432742;0.759455162;-14.19163479;-17.2088964;2.081862745;-29.34841237;-7.095719137
-12.0408673;-33.1618625;-25.00392366;-22.11946663;-5.488366957;0.239787636;4.196523889;1.804982992;5.404960613;-14.23653824;4.152827397;7.750665905;7.478779346;0.449827718;-15.27333036;-10.49028974;1.738605863;-28.50021173;-7.271542885
-10.93392866;-38.85640799;-27.05663558;-15.54758343;-3.2386962;0.219464506;11.55896632;5.242452321;10.54704742;-9.630489921;11.61360514;4.880039063;8.016362399;-0.898378584;-15.17202378;-5.183475713;-0.670669518;-26.4869843;-7.455689417
-9.248568602;-40.34505242;-27.51351929;-13.3695186;-0.209797215;0.220940942;15.77981556;9.677071183;16.59342519;-2.86182234;19.08467289;1.206501278;9.108854754;-3.108926696;-12.15140573;-1.879862073;-3.431728786;-20.54040488;-7.382977874
-6.37288615;-34.02258783;-24.03746714;-14.4532852;2.881779661;0.251109376;12.85287707;13.33586761;20.4337597;2.994018266;21.77991276;0.229937473;10.33778838;-5.198080915;-6.416995961;-0.26840201;-4.372083548;-8.628353165;-6.686977744
-2.018130973;-19.17547238;-15.41319001;-15.7372777;5.208475888;0.251680322;2.816085776;14.74211378;20.68993599;5.12526454;19.42252067;3.193355215;11.10189932;-5.756026334;-0.814582857;0.513372886;-2.171561822;8.335562527;-5.200818729
3.391381774;0.948548025;-2.752583633;-14.69063356;6.18707493;0.12737669;-10.1778258;13.59540371;18.4396856;2.858361892;16.2976066;8.50958637;11.15578689;-3.882106094;0.882883255;1.256456451;2.915676272;26.16690696;-3.151428146
8.732010702;20.54381854;10.66914282;-10.92693002;5.728390538;-0.17280983;-20.41037127;10.88360654;15.97219605;-1.897519971;17.01817035;13.26137242;10.83889714;-0.030201072;-2.935952035;2.23375936;9.348051147;39.47423138;-1.068577934
12.64690663;34.27391355;20.98290622;-5.981435124;4.249972154;-0.585998925;-23.81998145;8.197924745;14.88944129;-5.967034317;22.07464382;15.44299405;10.80797594;4.002304604;-9.769227959;3.245177734;15.27311082;44.77350948;0.525950293
14.19570611;39.90418134;25.73188083;-1.745249567;2.451247676;-0.948135617;-19.78157835;6.774211124;15.23071637;-7.0017757;27.40845908;15.16159766;11.50329461;6.14721515;-14.09780656;4.065161489;19.45324121;42.44994005;1.395303087
13.28620536;38.84846548;25.01117967;1.030396471;0.976251916;-1.097449064;-10.69838659;6.904042151;16.13107297;-4.836436801;28.4022718;14.00710378;12.78183485;5.535252937;-11.07974489;4.856650442;21.58114842;36.1749973;1.61786816
10.63892984;34.4932031;21.04741126;3.013076;0.143869662;-0.995161867;-0.290817085;8.013910478;17.05450053;-1.232764538;24.46018354;13.35568827;13.99575393;3.245989724;-0.184415163;6.133986447;21.98316218;30.24747654;1.389278946
7.352933778;29.72351704;16.61924766;5.315694653;-0.116756746;-0.762871422;7.967922723;9.221385434;18.27093529;1.616664141;19.76019788;13.1837441;14.43851647;1.648933924;14.05792364;8.2515358;21.14323302;26.80211864;0.817875609
4.382427525;25.45931894;13.46870046;8.239036767;-0.105334202;-0.595969656;11.55641043;9.9191279;20.21599157;2.599238541;19.38154445;12.39298809;13.82003906;2.704858524;24.89597212;10.8436311;19.46626557;24.81951589;-0.08076233
2.231683797;21.00595473;11.71429245;10.82678463;-0.075478116;-0.614858821;9.131346164;10.0410373;22.6110055;2.139524813;24.43875321;10.23187337;12.44890992;6.463152042;27.75361095;12.75284743;17.33819069;21.45498344;-1.204297717
0.963346862;15.52766004;10.42389538;11.57138104;-0.028833439;-0.773228397;0.960412606;9.960209854;24.45317394;1.471925765;30.88499913;7.398588449;11.03679901;10.92863658;22.98921602;12.63169943;15.22162668;14.51831899;-2.223125918
0.384515789;9.188700227;8.655380099;9.647722701;0.277853069;-0.901191575;-10.47970143;10.18871044;25.00056876;1.495350005;33.23812583;5.703366614;10.29232098;13.46288907;15.14290869;9.852801853;13.54566776;4.240733052;-2.690644215
0.207892294;3.023384086;6.085769455;5.662807766;1.108798044;-0.850669266;-20.64865659;11.07137554;24.71581474;2.1438658;29.79262856;6.494681298;10.56053012;12.69640708;9.479796313;5.064153544;12.44464586;-6.822981782;-2.375074746
0.105360686;-2.149576126;2.890319643;1.345794639;2.464314154;-0.62330922;-24.62995639;12.57376324;25.03160188;2.62657171;24.35240923;9.242482864;11.68313562;9.509343555;8.531659306;-0.058281055;11.64142441;-15.4571755;-1.531728215
-0.262805944;-6.58366151;-0.739662524;-1.552540368;3.958303925;-0.373404963;-19.89324765;14.20654329;26.9393164;2.148129978;22.69638401;11.64776404;13.10430834;6.345283637;11.04432389;-3.729419476;10.68941653;-19.66371627;-0.821578767
-1.119234674;-11.29893997;-4.790058594;-2.320828179;4.989471676;-0.282143321;-8.312834411;15.14243697;29.68475836;0.446790399;26.98413332;11.37776487;14.1391766;5.406382219;13.68461165;-5.019547859;9.444759579;-19.46709947;-0.854831707
-2.345805169;-16.79620827;-9.077732242;-1.595122187;5.128397606;-0.408030482;4.403649515;14.56870953;30.96532674;-2.185042658;33.41812596;8.074106974;14.28296884;7.121349494;13.81871939;-4.213507396;8.366757011;-16.32271257;-1.679372742
-3.342759128;-21.95210481;-12.76137484;-0.816783656;4.458408075;-0.63889327;12.03807858;12.18638763;28.72976757;-5.206007421;35.58442528;3.916003643;13.43813249;10.01926838;11.20174098;-2.371139663;8.325392786;-11.83323502;-2.639302836
-3.182681119;-24.22656381;-14.36614242;-1.321471428;3.598258796;-0.785300723;11.87865664;8.579038604;23.13014286;-8.052950263;30.55313252;2.122406536;11.95695403;12.01221103;7.63517859;-0.47420741;9.991433352;-6.812827124;-2.77566947
-1.092442553;-21.26822926;-12.57106654;-3.660058594;3.335925512;-0.736299181;6.493895189;5.124579562;16.84806272;-10.12889201;22.01462887;4.476933503;10.4587234;12.0095206;5.324813269;1.195279509;13.25929776;-1.260610027;-1.512687466
2.98074825;-12.80003906;-7.271516993;-7.430039063;4.08972977;-0.547195129;1.745924538;3.351039151;13.32147361;-10.76515372;17.24813691;9.840444617;9.494218902;10.60723858;5.419281299;3.032749777;17.1689568;4.983249919;0.882400224
8.111473522;-1.309214752;-0.02919629;-11.4994219;5.572719159;-0.388398317;2.326362506;4.042614541;14.22816675;-9.446834508;20.4386242;14.89998021;9.242677487;9.411996739;7.652001424;5.54591826;20.42003906;11.58467983;3.433851262
12.70386024;9.126301542;6.62690547;-14.37648156;6.927452433;-0.402013128;8.102025869;6.677384377;18.29303006;-6.270168301;28.51846028;16.62794163;9.439179536;9.66183085;10.91337838;8.738181564;22.11550332;17.60989396;5.107696073
15.26111666;15.17646426;10.70663077;-14.62942364;7.274776415;-0.588044427;14.08116442;9.649742644;22.4023849;-2.218752216;33.71938059;14.53053359;9.594492321;11.29795326;13.98785932;11.92295476;22.20796112;21.99327642;5.499062057
15.17229014;16.19152201;12.02443764;-11.40748649;6.310345957;-0.812327823;14.11112959;11.2217124;24.0642069;1.159973877;30.90626646;10.90704508;9.360253505;13.17224675;15.94700549;14.09020598;21.37181865;24.16621141;5.045345828
13.01213414;14.4211608;12.2514785;-5.012992238;4.525544134;-0.922289748;5.569164514;10.60811131;23.15803898;2.633831122;23.01700235;8.929677884;8.773130162;14.09800359;16.27377344;14.5320291;20.4603757;24.37;4.618516499
10.14368251;13.40236655;13.63368342;2.805999868;2.885591876;-0.867257623;-8.449719221;8.454045554;21.61465031;2.125730128;19.10939812;10.10376179;8.196482139;13.80028007;14.99607127;13.26784924;19.97321273;23.45206924;4.824011503
7.873195553;15.62419185;17.25572713;9.277647369;2.18792569;-0.722713081;-21.02357112;6.358788175;21.48817501;0.808334784;25.96560347;13.15232059;8.015875954;13.00159871;12.7989489;10.98003906;19.86943274;22.30318962;5.546028013
6.711270151;20.98848931;22.10445437;11.83374363;2.556875231;-0.60626059;-25.89089863;5.768633412;23.19272634;0.257709423;40.36654429;15.1904759;8.342727269;12.66986678;10.78132418;8.523571288;19.74727641;21.2987862;6.071396465
6.218037066;26.96561626;25.62822858;9.580943712;3.426806056;-0.567241935;-21.25177889;7.007954272;25.35784371;1.229956544;49.35577946;14.17970366;8.965084102;13.14977639;9.73813276;6.355002647;19.16144176;20.0756268;5.671737146
5.499938064;30.20391646;25.40885029;4.024062659;4.002404439;-0.550039063;-10.36183824;9.106581801;26.20563162;2.997920194;39.41982298;10.61631868;9.562575233;13.92523147;9.448558369;4.268977599;17.84767886;17.78086115;4.184768622
3.97168226;28.49062124;20.76634245;-1.667113154;3.839573472;-0.460538743;1.054738377;10.50092639;25.04144838;3.815367762;7.744262215;7.058912368;9.967368744;14.15344169;8.736148502;1.626558034;15.7994433;13.67857168;2.163060579
1.827386936;21.88916024;13.189592;-4.595933461;3.124568405;-0.27114828;8.328963668;10.07661905;22.53820831;2.217338798;-33.70729702;5.897843744;10.21906353;13.43833362;6.53264542;-2.049259503;13.27875821;7.794376643;0.507467431
-0.099087711;12.52197322;5.353930877;-4.049953083;2.481113643;-0.065909915;9.829386513;7.827155678;19.77842239;-1.804834792;-65.2227733;7.23779216;10.36692807;12.1514094;3.166931463;-6.477986739;10.81467275;1.209890567;-0.115299195
-0.94229035;3.321541905;-0.510338698;-1.972307183;2.495190123;0.01812923;6.573939846;4.736249371;17.19648506;-6.649632739;-72.55260718;8.695012121;10.23370552;11.05917905;0.605323932;-10.43149984;9.125973218;-4.244080292;0.353714107
-0.399440363;-3.4069609;-3.732824644;-1.496016075;3.330991295;-0.096069068;0.572951707;2.063847088;14.518503;-10.10560865;-56.30682047;7.353890586;9.423252154;10.64262102;1.074001888;-12.15335509;8.881049639;-6.81950556;1.426289095
1.134751012;-6.82;-5.098116707;-4.483442907;4.692179284;-0.356437188;-6.394298829;0.590707598;11.65139264;-10.77618983;-30.51270519;2.344342339;7.645650691;10.73834238;4.971765888;-10.23565833;10.34910354;-5.774218155;2.450111821
2.960039063;-7.460586911;-5.759449113;-9.886183497;6.084802543;-0.61748293;-12.85076216;0.311723059;9.425521282;-8.905985458;-11.86552486;-4.061475056;5.118845107;10.80298173;9.912237213;-4.482024633;13.17087961;-1.813518371;2.997714367
4.637834338;-6.529582899;-6.110482873;-14.27432322;7.121201499;-0.751647556;-17.2167961;0.675548998;9.217984442;-6.066644358;-8.29197652;-7.814356094;2.671505548;10.52220274;12.08062079;3.785049221;16.47433479;3.28098812;3.006020463
6.254667285;-5.069563422;-5.507514858;-14.30144821;7.636019945;-0.743322428;-18.01126517;1.083277993;11.66321547;-4.012089196;-15.37716873;-5.975604892;1.365226124;10.17809598;9.17681898;12.23739576;19.32230556;7.647593689;2.648623191
8.169288511;-3.552896064;-3.0098383;-9.323963523;7.605358037;-0.688736543;-14.84698642;1.255723096;15.7058777;-3.571000705;-22.37835265;1.022233931;1.839855435;10.41682057;2.636363527;18.64114263;21.19081962;10.33180845;2.121876447
10.47340616;-2.006935118;1.520382841;-2.119835234;7.046050633;-0.705269227;-9.228510196;1.272374059;19.07626335;-4.318707914;-21.89762084;9.451206209;3.846822063;11.60658659;-2.906544301;21.90300239;22.11429577;11.6116782;1.536056003
12.65321422;-0.419037167;6.909338656;3.014046239;6.049516573;-0.828290709;-3.9985337;1.366483066;19.9671019;-5.125651495;-15.08840633;14.67820492;6.340166593;13.35721802;-2.819706794;22.4140432;22.39459077;12.47356851;0.952100486
13.7890853;1.000368481;11.24197398;3.489598107;4.907994245;-0.980294872;-1.436933867;1.701668785;18.48955782;-5.054356328;-8.88254168;14.16126265;8.099970491;14.65656641;4.045592266;21.48713161;22.14963482;13.67187018;0.452514088
13.18568758;1.950779177;13.13829565;0.530952576;4.129922115;-1.033753242;-1.448389611;2.289610701;16.57287957;-3.9286185;-8.735724179;8.959475128;8.472669805;14.56856723;14.40281645;20.29982829;21.13024573;15.10010514;0.121257254
10.94487425;2.449183354;12.76508051;-1.602822445;4.200058594;-0.91219783;-1.542638361;3.046980657;16.33216725;-2.261368876;-13.71878062;2.805926515;7.730534971;12.96458304;22.95448429;19.09595451;18.995892;15.92531272;-0.069328208
8.001059956;3.097890479;11.7524753;1.100135559;5.192488066;-0.647553893;1.037275751;3.888413801;18.31985567;-0.745076451;-17.95809823;-0.459839123;6.833666155;10.7121516;26.24585131;17.19582829;15.80339521;15.31;-0.336308971
5.547173353;4.845740331;11.98462663;8.992553685;6.559390585;-0.353272892;6.594589189;4.770841022;21.18955028;0.231052584;-16.4443115;0.748534905;6.794170363;9.152730898;24.78024336;13.75359719;12.22582847;13.08314021;-0.997439944
4.269357574;8.273818922;14.1076187;17.89343216;7.363992352;-0.142459397;11.99498257;5.681658458;23.01038339;0.708473499;-9.562003395;5.12952145;8.079480247;9.229956759;21.71624063;8.642333789;9.22694141;9.809014081;-2.224015456
3.979033056;12.89714028;16.87864864;21.66169223;6.893518103;-0.058783857;12.55031477;6.606187609;22.97352636;0.943133719;-2.360387452;9.76275087;10.40239068;10.87464543;19.44617592;2.775272424;7.413092201;6.260180191;-3.805846813
3.928179818;17.10201978;17.91949948;16.5533982;5.235234555;-0.068211118;5.58784597;7.492858609;21.92663877;1.097892863;0.332463823;12.17115262;12.94371886;13.05033346;17.22773403;-2.365131984;6.624860141;2.834403856;-5.135022828
3.549181836;18.95596505;15.41465803;4.230748706;3.341950889;-0.105327633;-7.007442008;8.208925974;21.32740387;1.083873254;-1.834671294;11.71516899;14.79012342;14.39557657;12.09733869;-5.598871231;6.174775098;-0.51102402;-5.47632541
3.013165812;17.4620869;9.559775733;-8.894416012;2.451970233;-0.128350274;-19.39180262;8.498512963;21.70958645;0.613512663;-4.957768007;9.54930444;15.31401672;14.01844727;2.29442031;-6.65181902;5.580215826;-3.743806676;-4.377668389
3.140399913;13.39208211;2.687988108;-15.71468421;3.227525738;-0.141351303;-25.27617498;8.00222214;22.17101839;-0.623999454;-5.025409372;7.458180126;14.34831671;11.95022933;-9.982496219;-6.0912489;5.159758867;-6.194828393;-1.95287672
4.719731007;9.017928385;-2.074800098;-13.12096427;5.236616587;-0.178459642;-21.88779929;6.400794206;21.34584779;-2.77750819;-1.828367996;6.557713712;12.16330435;9.033146193;-19.25945875;-4.754881684;5.90963886;-6.612883024;1.156905455
7.779928023;6.806670509;-2.713664654;-4.033275741;7.189468619;-0.275363715;-11.56726436;3.660180227;18.85301742;-5.696557951;1.070280738;6.724730434;9.318750059;6.381483877;-20.69114377;-3.202111417;8.663880432;-3.990632146;4.118178539
11.40607238;7.914632091;0.531549606;4.691286431;7.790387294;-0.452970712;0.005273085;0.232743668;15.76293767;-8.872290283;0.096270424;6.955432095;6.451060558;4.779020535;-13.98058501;-1.59724247;13.18982285;1.422037874;6.312123603
14.26332899;11.5131029;5.539408194;7.015832533;6.599304147;-0.714796691;7.471235059;-2.97381012;13.62969153;-11.51232109;-4.607227034;6.216085205;4.045590658;4.355424714;-3.841026109;0.021555563;18.0098228;7.815613209;7.558053258
15.42794856;15.40889003;9.841539604;1.80860697;4.285514942;-1.042908571;8.649616818;-4.935793264;13.08840345;-12.80382961;-9.120540582;4.149864035;2.27579944;4.678455654;3.635737681;1.486756856;21.20728578;12.67983278;8.050455625
14.88985803;17.49848008;12.14542888;-6.572371802;2.114968271;-1.385618002;4.816024344;-5.021441623;13.45209765;-12.31536646;-9.409227509;1.250361004;1.007056955;5.150316798;5.780932584;2.585080791;21.68190973;14.36382139;8.117399725
13.37115792;17.0167741;12.76820093;-11.5165616;1.083052649;-1.652486669;-1.216594302;-3.366846549;13.70097853;-10.32832158;-5.178454771;-1.482533216;-0.011038182;5.438747001;5.254260679;3.396523189;19.91941357;13.23186439;8.01083554
11.66218133;14.74982216;12.81716716;-8.865601727;1.340844465;-1.739855854;-7.27350305;-0.854949635;13.77951177;-7.829714131;-0.209791534;-3.116932118;-0.884673555;5.675626374;7.373865534;4.475457876;17.67952716;11.49236545;7.863194631
10.04692547;12.19462409;12.94040664;0.210601515;2.291554182;-1.587776411;-12.52034985;1.333738427;14.73587988;-6.057163215;1.176595553;-3.265316396;-1.457102698;6.308638363;15.12504544;6.554670482;16.81904831;11.70819494;7.768583252
8.271831323;10.41408575;12.74;10.06611253;3.192100195;-1.233649529;-16.5739101;2.35110139;17.42581217;-5.800644354;-1.799175337;-2.248016206;-1.455040851;7.712536655;26.16417237;9.908736136;18.10145993;14.98366292;7.831274927
6.020394191;9.461712418;11.29480979;14.40826052;3.726690993;-0.814679161;-18.39644327;2.116984831;21.11173523;-6.900473863;-5.623406151;-0.887788904;-0.799215949;9.827906062;34.46269883;13.90343564;20.80713233;20.10274688;8.074045941
3.419378139;8.690019531;8.241188521;10.36713076;4.108260558;-0.500728206;-16.42248927;1.302075492;23.62329595;-8.317255997;-5.799394123;-0.03677802;0.197301003;12.08637245;35.21960627;17.18637101;23.31732634;24.23476284;8.270485337
1.094820648;7.519298869;4.369528254;0.09109683;4.704918191;-0.393496105;-10.03762296;0.881944893;23.28447591;-8.784152118;-1.118632065;-0.07448204;0.961981513;13.689336;28.79936259;18.45925076;24.14820619;24.71556817;7.898283058
-0.283351098;5.946578317;1.133372732;-10.97038447;5.591594645;-0.462400888;-1.052860871;1.54452834;20.87566507;-7.633929748;5.141064971;-0.673346636;1.067141287;14.0532402;20.27264762;17.2582976;22.69974884;20.67808703;6.363475416
-0.554648051;4.421011115;-0.53465322;-17.6512073;6.453457724;-0.568614386;6.441258301;3.305253565;19.48542427;-5.24299749;8.249839332;-1.021306722;0.577294826;13.10669431;14.97581017;14.13150644;19.34707841;13.46742409;3.427300779
-0.199871341;3.333818653;-1.030658052;-17.99477494;6.915557806;-0.56557096;8.216614251;5.53860329;21.90453255;-2.785434729;6.458047342;-0.414030217;0.013435949;11.23637248;14.00745534;10.10187424;15.04717696;5.670937449;-0.452455463
0.103474102;2.693139932;-1.708987556;-13.74679509;6.967451958;-0.40495178;2.706530964;7.377860345;27.71764811;-1.469694068;2.63810119;1.160444868;-0.07984188;8.956860669;13.64107805;5.91173362;10.88407994;-0.465667219;-4.173084181
0.135115342;2.30284849;-3.555330127;-8.502537251;7.054937631;-0.170183908;-7.614293562;8.22580087;32.99310811;-1.786837657;1.540532436;2.886752768;0.390001221;6.601069597;9.15775791;1.706924157;7.797658794;-4.146612429;-6.497588615
0.409468983;2.212387541;-6.033018979;-5.146287418;7.708479934;-0.013025552;-17.4463443;8.071530352;33.40357191;-3.271463119;5.211784444;3.60188009;0.981522347;4.295933635;-0.357205216;-2.617235638;6.421972333;-6.031202468;-6.743307179
1.783754216;2.897963915;-7.19876076;-4.411413297;9.006182366;-0.042067963;-21.78951883;7.435644205;28.34124532;-4.895825401;10.92238462;2.592919861;1.147332815;2.213967848;-10.62671884;-6.826856321;6.876060408;-7.335481183;-5.184391893
4.675360013;4.882624017;-5.163103468;-5.265382922;10.34844674;-0.247435925;-18.88909793;6.988781573;22.17568936;-5.775184767;13.66525234;0.127314427;0.816683938;0.808848146;-15.58065376;-10.1775303;8.573498337;-8.798724334;-2.858155403
8.53225289;8.080908915;0.216004943;-6.373992244;10.78614912;-0.515898656;-11.04246223;7.084494611;20.92908243;-5.679294284;10.97932875;-2.71279052;0.580639543;0.719967161;-12.62090707;-11.91273106;10.34316404;-10.2372207;-0.877346714
12.03441143;11.50837836;6.845084385;-7.235765501;9.686573584;-0.719559551;-2.824771807;7.506896142;26.79591668;-5.03160826;5.554294018;-4.788992563;1.228794032;2.322392938;-5.057579497;-11.99026324;11.03549854;-10.87505648;0.276546837
13.92565626;13.75565877;11.66640671;-8.104043561;7.227112187;-0.805916088;1.945857128;7.613119001;35.41290026;-4.468135764;3.010405626;-5.658676596;2.969238164;5.26925611;0.585659247;-11.27523267;10.33656222;-10.06872945;0.966318741
13.85465233;13.96254524;12.8148304;-8.989795787;4.325823555;-0.82023422;2.433176355;6.804270217;38.96221434;-4.324960416;6.729044446;-5.692824098;5.022551232;8.479319398;0.178896579;-10.85077808;9.147723071;-7.82934608;1.959968048
12.57402213;12.52418662;10.98799208;-8.866202658;2.054226355;-0.848136537;0.830513621;5.027353798;33.15207461;-4.427779419;14.49741135;-5.445617506;6.052802172;10.71763761;-4.376678411;-10.92501772;9.057939889;-4.778574716;3.67666818
11.33964094;10.89722274;8.894535687;-6.018082156;0.973823195;-0.930007324;0.412441579;2.952639518;22.12578741;-4.298627972;20.24778403;-4.825835879;5.211889835;11.41564332;-6.757079767;-10.3065766;11.13155725;-1.625232225;5.710978965
10.97175188;10.57841043;9.137715042;0.53659152;0.877361987;-1.01878716;3.04716391;1.654792232;16.27466346;-3.585222932;19.53654263;-2.865123489;2.986033683;11.10242487;-1.794537715;-7.069234415;14.90700567;1.41091789;7.029706313
11.2889439;12.01837105;12.15126657;9.645812283;1.082527419;-1.015030124;7.829405464;1.958397324;23.62505086;-2.378055479;13.82773715;1.561461818;1.078487666;11.04715265;9.777856867;-0.050477198;18.50074108;4.776870689;6.715883313
11.31635174;14.31144739;15.79796007;17.91908603;1.003982;-0.85003418;11.62853463;3.86836074;41.424332;-1.187074987;9.503543929;8.528160304;1.274926809;12.30842932;21.59375202;9.954810783;19.90248278;9.189351534;4.690446986
10.06550393;15.8854747;16.95144657;21.34023232;0.556089932;-0.549765965;11.09289984;6.489873212;55.46584681;-0.605185252;12.213644;16.36142908;4.076851584;14.88133017;26.80331733;20.31879494;18.52930436;14.87971076;1.831724596
7.272982215;15.61749021;13.83707427;17.72398758;0.124791041;-0.228244696;4.818761428;8.528641588;49.12861771;-0.904604997;21.52271989;22.1941012;8.158265713;17.60365712;23.71133698;28.03627616;15.75957646;20.97739563;-0.635064568
3.574666953;13.49584556;7.343399591;8.372385507;0.206456837;-0.014432065;-5.595991798;9.054421591;16.14172499;-1.852542647;30.79767456;23.58773251;11.13410458;18.91908984;17.02813887;31.45319273;13.89089233;25.524393;-2.030402922
0.069188977;10.38209794;0.365288787;-2.33896237;1.039257484;0.032786082;-16.16947958;8.00977842;-32.73885226;-2.878754514;32.72446838;20.14313788;11.13716167;17.93320847;13.62460881;30.97563409;14.25267917;26.28884905;-2.701127094
-2.323694711;7.204136086;-4.213730981;-9.384209776;2.488309092;-0.040858501;-22.4411211;6.119328059;-75.05072;-3.485976313;25.73341735;13.89039579;8.063671876;14.97395344;16.44907855;28.29265449;15.99514447;22.04169248;-3.688896472
-3.229653119;4.351292784;-5.303766962;-10.06455447;4.190992898;-0.124262949;-21.6412943;4.290689363;-90.86755324;-3.622020289;15.57759517;8.065347752;3.582905566;11.26730838;21.88128645;24.85128874;16.64016524;13.56156568;-5.810244867
-2.743569207;1.772410224;-3.884423569;-5.607318497;5.769016312;-0.122915454;-14.0379117;2.971947972;-75.83060632;-3.743480324;10.45367802;5.064651419;-0.063029263;8.035677616;22.84067266;20.88915963;14.08332432;3.63813174;-8.847422284
-1.13126242;-0.432887603;-1.79633773;-0.280617275;6.928755532;-0.023454953;-2.840234689;1.949774175;-43.45302139;-4.497997383;13.82460317;5.017483878;-1.548723684;5.750538044;14.98839839;15.779959;8.493383398;-4.146233635;-11.49798843
1.345018784;-1.628547492;-0.218199593;1.462414173;7.443886922;0.103490485;7.240543877;0.715692443;-15.17034593;-6.216920282;21.3440207;5.990235304;-1.160537243;4.086863123;0.684046676;9.262743144;2.527834863;-7.297185471;-12.17591371
4.343343759;-0.969150141;0.921173668;-2.039677866;7.147764919;0.160143879;12.06047152;-0.926890288;-5.738877579;-8.566895482;24.83066774;5.640617338;-0.279047459;2.512821784;-12.6997186;2.341759899;-0.431751262;-5.841639006;-10.1124261
7.282016994;1.762038225;2.306204669;-8.536709551;6.022530543;0.094183163;9.788084254;-2.53298093;-14.70087703;-10.63391056;19.97152849;3.065837153;-0.165701378;0.936042481;-18.63419596;-3.053016706;1.274381766;-2.327500148;-5.961557151
9.390964057;5.58116564;4.181181153;-13.37714493;4.313514932;-0.065012342;1.577513827;-3.253383641;-29.46873363;-11.43143805;10.85796186;-0.531358809;-1.032791926;-0.158607464;-16.4293433;-5.427421472;6.355269021;-0.238919682;-1.461760535
10.06131489;8.65883026;5.962753487;-12.66913128;2.505315035;-0.229809223;-9.063226852;-2.464471376;-36.49026654;-10.51582856;6.903768956;-2.813737828;-2.04563845;-0.149108431;-11.14656182;-4.931281374;11.5348829;-1.733829568;1.61722103
9.262238863;9.500537794;6.867647782;-5.990019531;1.09164184;-0.317606382;-17.87045781;-0.290648739;-31.24751587;-8.283083485;14.27098454;-2.12590421;-2.11549409;1.155085718;-8.659895683;-3.304599744;13.96828445;-6.158821639;2.509011581
7.663828953;8.080370872;6.880058594;3.176370679;0.281344288;-0.307269648;-21.66474023;2.402722972;-19.75761222;-5.717132953;29.02747855;1.246786082;-0.7599299;3.3476491;-10.29236852;-2.511094489;13.23050697;-10.38177671;1.769360494
6.297450032;5.966690472;7.020078125;9.582686843;-0.102024977;-0.248940117;-19.63432663;4.552373349;-11.68735139;-3.745233589;38.34112079;5.302643138;1.630693773;5.788171262;-11.76186429;-3.153062339;11.37103184;-10.81039573;0.713236166
5.945727693;5.209281968;8.508103376;9.52250599;-0.394957142;-0.221556268;-13.5061063;5.56534341;-11.76998064;-2.654959488;29.58699301;7.795902057;4.20886316;8.1130815;-7.358201196;-3.997464364;11.08708207;-5.813383567;0.425478379
6.677392489;6.748099645;11.47650531;3.112462617;-0.699448773;-0.26935354;-6.51900197;5.615075468;-16.71444146;-2.001756632;0.5572879;7.7963303;6.305615274;10.38460448;4.321693131;-3.048181362;13.53893838;3.053043221;1.059552675
7.840250421;9.547148194;14.39614318;-5.918701424;-0.673608707;-0.363292776;-1.665145883;5.370925447;-19.39251549;-1.080583061;-37.36811311;6.187005926;7.745510366;12.73364598;18.14860247;0.679535693;17.53;11.8366914;1.875839237
8.488445715;11.1663563;14.86735466;-12.71203792;0.239945508;-0.416440959;-0.080093384;5.405257494;-15.79978512;0.396318895;-65.96626257;4.834650444;8.68567402;14.87036875;25.82927408;6.113993086;20.59175587;16.48294669;1.913300761
7.926999159;9.420058594;11.29252409;-14.30941389;2.256158843;-0.345420554;-0.500177635;5.747499801;-8.443427823;1.948434328;-72.04030223;5.179091857;9.267851242;16.00955268;22.18537607;10.65387151;20.96744143;15.13914892;0.757154435
6.029213741;3.953388525;4.164449408;-11.22772873;4.801178427;-0.137662654;-0.21889295;5.906071037;-3.55365566;2.603258072;-55.70933242;7.331762802;9.470455754;15.39766126;9.196428662;11.85052273;18.85127081;9.029838747;-1.147441113
3.204219268;-3.380104988;-4.051064594;-6.659815742;6.618921715;0.122192838;2.897925346;5.300913891;-5.147862196;1.623109238;-29.29944252;10.23864795;9.259040236;13.04186753;-5.454755503;8.949277252;15.97408532;1.463216729;-2.813942515
0.14607046;-9.592248493;-10.38282183;-4.043139707;6.486697242;0.289029343;8.56339075;3.751584926;-11.48158172;-0.85408439;-8.230159301;12.5644414;8.785346455;9.968992874;-14.04632858;3.185825569;14.04410644;-4.254865406;-3.388784094
-2.424606499;-12.33104044;-13.09436867;-4.784853443;4.098368516;0.239218038;13.72468116;1.663920264;-16.875941;-3.75702803;-1.032323223;13.46143532;8.335183536;7.671217134;-14.07041632;-3.22610329;13.4362939;-6.621600612;-2.691041978
-3.927505611;-11.17366934;-12.47132481;-7.666987431;0.4628334;-0.050667775;14.23504672;-0.1861192;-16.93094845;-5.686930315;-5.57072871;12.66608079;8.016250163;7.080289339;-9.053366671;-8.497154785;13.18189663;-6.421856749;-1.269461679
-4.041025901;-7.678554562;-10.22818506;-10.14227506;-2.554755719;-0.47797755;7.683428318;-1.088310695;-12.27384194;-5.78685527;-13.1883014;10.0936312;7.50309919;7.866491144;-4.759549585;-11.99646181;12.11772613;-5.815189892;0.01473039
-2.825050327;-4.299254219;-8.151065775;-10.3747279;-3.325116751;-0.860491254;-4.478957014;-0.766817285;-7.627410601;-4.287271678;-16.45266682;5.576336061;6.168763213;8.661657138;-4.307204685;-13.97673655;10.08119623;-6.792856964;0.565327792
-0.784260442;-2.939805678;-7.042119581;-8.46420081;-1.477669022;-1.031555592;-17.16698921;0.499736577;-7.359745318;-2.373936979;-14.19149227;-0.826410745;3.586179538;8.083042341;-6.248709575;-14.82129415;8.093680261;-10.000193;0.409518655
1.272725903;-4.010197611;-6.606814537;-6.059341186;1.843160758;-0.93005127;-24.41938709;2.009436123;-11.72129301;-1.487609046;-10.60657725;-8.208735842;-0.005564226;5.775120097;-6.805958746;-14.61314288;7.438363295;-14.51028181;0.13581872
2.624500403;-6.396797679;-6.089478441;-4.854555306;4.682065306;-0.633242363;-23.04060621;2.918398616;-17.05631594;-2.515189071;-10.36802168;-14.63688372;-3.718210527;2.649228629;-3.861752045;-13.34363258;8.514450769;-18.48469117;0.484775169
3.090316486;-8.195202669;-4.954726514;-5.268994824;5.484182047;-0.313358543;-14.66066777;2.570853867;-19.46768159;-5.343573431;-14.39631015;-17.90848261;-6.576818903;0.136603749;0.934859972;-11.37724107;10.48943534;-20.20961109;1.860672169
3.206120739;-7.724386935;-3.09052675;-6.333638718;4.027097924;-0.142939121;-4.670048828;0.79923986;-18.3239984;-8.966010627;-19.63242258;-16.92126967;-8.197125871;-0.935465186;3.633922045;-9.548553103;12.00771752;-18.93499651;4.052134646
3.906281807;-4.338538981;-0.586653965;-6.746853448;1.492156829;-0.20285905;1.367307748;-1.906478237;-16.38572978;-11.99641634;-22.23927803;-12.62026006;-8.998671387;-0.935769252;1.481519165;-8.680302391;12.27372247;-15.16415006;6.310639025
5.853596121;1.264616969;2.477389867;-6.095361966;-0.324377318;-0.444127912;1.371475738;-4.489717814;-16.65310378;-13.28056815;-20.91;-7.616790919;-9.739128968;-1.024124647;-4.720673559;-8.937764319;11.54893426;-10.33490288;7.731563625
8.880147773;7.331315187;5.945797033;-5.157072973;-0.113809524;-0.722251889;-2.112039523;-5.740607658;-19.11132194;-12.33710601;-17.4297667;-4.539988572;-10.7438152;-2.101672689;-11.33635453;-9.648559621;10.69033777;-6.076650831;7.721882063
11.98881674;11.83228556;9.359026604;-5.043486079;2.22688409;-0.881172998;-4.103194856;-4.899508242;-20.54366735;-9.501385854;-14.47482223;-4.249734037;-11.50444806;-3.98888515;-14.85422055;-9.806368169;10.23777481;-3.394399241;6.299265375
13.97674907;13.43020519;11.98060183;-5.977521554;5.653913597;-0.837157488;-1.109500464;-2.119109728;-17.60791017;-5.758060888;-13.06218348;-5.291080311;-11.04500383;-5.505473841;-14.42985325;-8.836654798;9.926497429;-2.193940022;4.066356059
14.25716586;12.1695061;13.22852874;-6.850078125;8.687434482;-0.616288833;6.089007771;1.553966758;-10.26283142;-2.315267478;-12.01253171;-5.09641515;-8.80497133;-5.385060432;-11.9790208;-6.948114143;9.055527655;-1.443782181;1.889099306
13.26725335;9.462811802;13.17917856;-6.043818632;10.27200717;-0.328979379;12.81708436;4.74923728;-2.273507347;-0.052584538;-9.626447843;-2.071563349;-5.313099419;-3.285857469;-10.08101149;-4.774431334;7.3263063;0.064196084;0.475503693
12.13638442;7.283871581;12.6097909;-2.891163442;10.26345796;-0.102217316;13.74931718;6.573307021;1.793078239;0.919751529;-5.686123039;3.060743511;-2.039689974;-0.095916978;-9.757404136;-2.67380446;5.33668036;2.800841988;0.097945131
11.84783343;6.9792901;12.39369557;1.497978454;9.315131081;-0.012545731;6.675866579;7.107295047;0.447345156;1.316061233;-1.775745083;7.764296711;-0.45712746;2.691907483;-10.00404205;-0.375663041;4.24625273;6.062942163;0.593852092
12.52150089;8.435936309;12.68240605;4.866954706;8.323708765;-0.05757454;-5.841039879;7.238949033;-3.421317431;2.220956002;0.313884807;9.687504038;-0.994061167;4.027251736;-9.166215382;2.66182583;4.890118247;8.381658451;1.586972575
13.35586201;10.18306989;12.60979625;5.527354443;7.829994556;-0.176195631;-17.94441254;7.938486972;-4.980228638;4.323355746;0.460232799;8.564416394;-2.698098097;3.959951456;-6.625398541;6.496125875;7.104327262;8.536302151;2.73216459
13.25917204;10.39792879;10.89032625;3.797886396;7.740400376;-0.296571857;-23.91806506;9.507186561;-1.494899784;7.319504694;0.501764907;6.440291852;-3.904254571;3.437173085;-3.23467551;10.25994001;9.814337953;6.420078125;3.805728446
11.67506681;8.135010793;6.917067992;1.900380693;7.4965643;-0.376778098;-21.24340546;11.35616883;5.493799662;9.946532298;2.621712081;5.959981524;-3.442396858;3.451345424;-0.329986989;12.50045357;11.75632004;3.046603826;4.623974226
8.979934856;3.919183525;1.46774995;2.231431045;6.536296033;-0.413874454;-11.51997084;12.46635405;11.59666853;10.71529718;7.287874675;8.051170969;-1.503724749;4.2258064;1.496494898;12.08594188;12.19173568;-0.355751838;4.938988388
6.188413598;-0.690339594;-3.619518249;5.294856571;4.724666562;-0.423651977;0.857556446;12.15067203;13.19322903;8.888590145;12.61155906;10.90334899;0.460360843;5.046805699;2.616933021;8.972776686;11.08250835;-3.417586757;4.483716188
4.247126255;-4.180722212;-6.60360598;8.994945651;2.473930968;-0.414908863;11.01347513;10.51154379;10.07296006;5.008335334;15.69636442;11.17480107;0.720575205;4.824424863;3.498196057;4.248470983;8.763263345;-6.88031988;3.187553571
3.486455489;-5.950989836;-6.922293339;10.02718706;0.482799327;-0.382661628;15.47035983;8.24927758;5.026382328;0.555642304;14.80294039;6.584921376;-1.577396596;2.925620364;3.7898822;-0.52426431;5.599702753;-11.64813904;1.385426707
3.620544374;-6.320555812;-5.335310278;6.446795573;-0.720436772;-0.324614252;12.97634341;6.017513248;1.097789246;-3.034951984;10.5236556;-2.114457389;-5.88223699;-0.33211297;2.401730405;-4.10079061;2.024410565;-17.32509951;-0.215840206
4.211188435;-5.779919523;-3.052263088;-0.547276328;-1.11026277;-0.26171776;4.519081481;3.893563311;-0.872962089;-5.27687981;5.116847507;-11.38298326;-10.63924857;-3.841458322;-1.473772804;-5.920526676;-1.177599726;-21.55583317;-0.8884049
5.145401797;-4.230902094;-0.628156687;-7.108037665;-1.13001709;-0.237385553;-7.054421665;1.423383653;-2.355317245;-6.764818279;0.739950527;-17.24700556;-14.28107238;-6.3578196;-7.430674374;-5.956854112;-2.842638124;-21.05277887;-0.354959681
6.709653234;-0.964735195;2.408487542;-9.30892747;-1.306201567;-0.287800063;-17.77487691;-1.799128354;-5.137391069;-8.455553736;-1.880970057;-18.0128868;-16.11047697;-7.181201601;-13.94672882;-4.424849713;-1.981961131;-13.88799794;0.967606364
9.220566311;4.537710764;6.887992584;-5.933585451;-1.791244936;-0.403912395;-23.84651612;-5.531600494;-9.343032394;-10.70023679;-3.39885482;-15.29943894;-16.5362776;-6.4558615;-19.38475167;-1.730423986;1.383487239;-1.440233482;2.178942557
12.55652352;11.67225502;12.90911658;0.632016543;-2.192946042;-0.519605283;-23.32022328;-8.817252116;-13.3070497;-12.84289556;-4.76572105;-12.65831803;-16.6132578;-4.977390672;-22.8754351;1.362899346;5.850416195;11.65173581;2.456477148
16.00652503;18.53956452;19.31991407;6.133792379;-1.857586262;-0.545053192;-17.26696798;-10.57465391;-15.23105928;-13.73987607;-6.268542163;-12.90814692;-17.28044764;-3.702150538;-24.26330832;3.734868922;9.236342147;19.86870144;1.578497838
18.57257994;22.85268954;24.26317044;7.525367355;-0.43005127;-0.428501725;-9.400645258;-10.40558781;-14.8686024;-12.78432522;-7.480158897;-16.24078935;-18.80669954;-3.274553015;-23.38794526;4.361278264;9.884173496;20.09934404;0.022926511
19.48676196;23.32908188;26.34531325;5.03894983;1.728927736;-0.201666064;-3.941391726;-8.966413758;-13.61261638;-10.57506876;-7.926060037;-20.45554018;-20.72848147;-3.802790057;-19.77170775;3.002654534;7.723667226;13.56271874;-1.433323051
18.55170825;20.49032506;25.44673589;1.665760168;3.625299727;0.030806499;-2.895755142;-7.565488648;-13.0254582;-8.634685644;-7.631870507;-22.95183008;-22.21586762;-4.932249871;-13.36728818;0.520147618;4.233931964;4.915080647;-2.304564937
16.09087904;16.18525579;22.5188366;0.48746021;4.216220981;0.158310709;-4.691192874;-7.256814097;-13.36182235;-8.355951763;-6.995574721;-22.7761421;-22.57290175;-6.113162833;-5.722343093;-1.616909933;1.296757746;-0.921630388;-2.717284013
12.62377291;12.14754446;18.60989441;2.00827932;3.104110196;0.143253901;-5.386923544;-8.112524353;-13.54193705;-10.00377168;-6.234758548;-21.12;-21.57536756;-6.896427303;-0.102313347;-2.397016173;-0.159476538;-1.988900172;-3.219388936
8.57140533;8.702760397;14.02458721;3.656739332;0.824281836;0.052904142;-1.81918201;-9.23819798;-12.51317885;-12.57605986;-5.120371854;-20.04266199;-19.51243126;-7.114747648;0.192961843;-2.090138277;-0.646137551;-0.285269699;-4.249746136
4.204923635;4.674288504;8.362133031;1.9059402;-1.517831125;0.015700147;5.575852647;-9.529989682;-10.54654003;-14.63818058;-3.361235823;-20.6481422;-16.98815621;-6.883886066;-5.678799623;-2.099975345;-1.386679132;0.12422001;-5.71602569
-0.209511582;-1.3909187;1.348845535;-4.654583152;-3.019525565;0.129308021;12.50759658;-8.599479019;-9.119751322;-15.45468729;-1.237139955;-22.28611944;-14.64324426;-6.456572986;-14.96392197;-3.877764892;-3.061565434;-3.606048623;-7.036714011
-4.291771653;-9.630844817;-6.362502204;-13.78483841;-3.595580317;0.386227192;13.58931318;-7.156182693;-9.497027633;-15.50464237;0.281609752;-23.34530577;-12.94738091;-6.039188975;-22.91511247;-7.739586759;-5.143854478;-10.91279408;-7.614073764
-7.615667045;-18.21990549;-13.23532266;-20.92949202;-3.965847898;0.672760382;6.255347133;-6.544098465;-11.44840659;-15.98189951;0.227127346;-22.80070213;-12.12762721;-5.694873375;-26.20917491;-12.55852266;-6.394811674;-18.32682555;-7.339164969
-9.906722977;-24.2879061;-17.77499204;-22.50021015;-5.01843021;0.844090298;-7.021736076;-7.766272359;-13.42689531;-17.7222138;-1.42056191;-21.07979824;-12.20388932;-5.38788742;-25.40898654;-16.59419278;-6.04305922;-22.17466009;-6.694681707
-11.16350485;-25.81316917;-19.55606317;-18.60974733;-7.039852621;0.821639798;-19.93620228;-10.71785428;-14.06547686;-20.46635407;-3.480979887;-19.51352399;-13.05350222;-5.111761575;-24.18056362;-18.76524505;-4.557135206;-21.32671787;-6.352700193
-11.56680273;-23.09301594;-19.44194986;-13.12662469;-9.421842115;0.642312158;-26.22777779;-14.19771802;-13.52041675;-23.07611147;-4.416804042;-18.96721879;-14.44509417;-4.972410677;-25.67358923;-19.30358752;-3.290141414;-17.88465751;-6.592362029
-11.26308341;-18.65157321;-18.78478715;-10.95522599;-11.09366104;0.42562013;-23.54170861;-16.69989907;-13.31101207;-24.51577398;-3.647982553;-18.99979793;-16.04531486;-5.132496922;-29.14966659;-19.28736175;-3.299430714;-15.37243802;-7.029865422
-10.25763824;-15.58937774;-18.29689924;-14.56574791;-11.35927082;0.285991557;-14.62103579;-17.42123893;-14.78580591;-24.76740638;-2.160019531;-18.39719144;-17.45473234;-5.646108157;-30.09010678;-19.54381915;-4.403535498;-15.95062034;-6.911683428
-8.563782535;-15.54383124;-17.5825278;-22.34890385;-10.4855985;0.256520909;-5.140508294;-16.76880194;-17.72455328;-24.89853251;-1.745568848;-16.61814585;-18.31818528;-6.322591005;-24.17877707;-19.95240127;-5.341179369;-18.87538935;-5.759753321
-6.489283413;-17.72271545;-15.73087674;-29.94101503;-9.562402534;0.278169292;0.141720018;-16.01064239;-20.48158933;-26.19987519;-3.419493335;-14.7615778;-18.47801144;-6.754512359;-11.9880856;-19.77186567;-4.90850344;-21.35782715;-3.85
-4.747617991;-19.67148096;-12.41460211;-33.39985458;-9.710699352;0.256500662;0.202774777;-16.32043216;-21.55765237;-29.0778686;-6.373631831;-14.98964875;-18.06076646;-6.520363052;-0.078280952;-18.63105741;-3.056218444;-21.03479141;-2.110902482
-4.170518541;-19.15453742;-8.46866108;-31.78385802;-11.22612186;0.138214627;-2.224577555;-17.88932997;-21.03723198;-32.59302113;-8.485624605;-18.69408551;-17.39524422;-5.429753574;3.145512755;-17.16929433;-0.944162669;-18.00029521;-1.475047641
-5.136175867;-15.74433398;-5.376409641;-27.29107308;-13.30762543;-0.050221969;-3.122795392;-19.72721502;-20.40779449;-35.02129646;-8.079966843;-24.91210293;-16.77630661;-3.641573004;-5.973735449;-16.61366073;0.118047451;-14.74776332;-2.155972548
-7.138374672;-10.99737901;-4.076620911;-23.10106656;-14.58735178;-0.225334151;-0.213980789;-20.29496667;-20.86770459;-35.01;-5.464104541;-30.47529314;-16.23395788;-1.586403433;-22.60923833;-17.58947852;-0.10449542;-14.08188382;-3.406987586
-8.912291954;-7.200794109;-4.151568133;-20.82057009;-14.07824132;-0.30632373;5.512422808;-18.53738487;-21.79821791;-32.45350472;-2.798809384;-32.03483496;-15.50504004;0.228397266;-36.06955589;-19.25616766;-0.512868314;-16.69321771;-3.975442484
-9.155357994;-5.728492046;-4.170699377;-19.59448045;-11.85077774;-0.263895831;10.55979445;-14.61498556;-21.03733317;-28.46493117;-2.196255678;-28.51808877;-14.26818364;1.390558834;-37.30509148;-19.67714315;0.335668324;-20.35941858;-2.953419238
-7.405225021;-6.255059268;-2.970240855;-17.4586264;-8.964703941;-0.126719185;11.20770589;-9.843022317;-16.88768186;-24.53966964;-3.529711848;-22.07615105;-12.47634668;1.660184954;-25.68584764;-17.27398785;2.842459227;-21.45621115;-0.430529116
-4.447013476;-7.323673325;-0.803188374;-13.63777576;-6.739080932;0.048478736;5.774159928;-5.88852985;-10.01530009;-21.59871487;-3.932158536;-16.66041585;-10.49763562;0.996159951;-9.643887897;-12.20159793;5.846524976;-17.6591487;2.506818246
-1.905332037;-7.684823681;0.655525973;-9.748163893;-5.913717817;0.211725792;-4.37896931;-3.776523097;-3.316765656;-19.61864479;0.186921047;-15.20441076;-8.892218448;-0.392600466;-0.414554234;-6.441835147;7.506590056;-9.80054144;4.423771774
-1.250313483;-7.273760682;-0.466061885;-8.808160655;-6.291512285;0.333558903;-15.42035933;-3.371180607;0.34918029;-18.02650071;9.79520931;-17.51724174;-7.951847804;-1.985293015;-3.566647757;-2.442006648;6.884163449;-1.494988647;4.3860949
-2.883798398;-7.077873961;-4.72991115;-12.7887419;-7.054883637;0.398103722;-22.72657357;-3.651008798;0.601853765;-16.4269101;21.08795835;-20.49144875;-7.369481993;-3.00078593;-14.86762904;-1.359829075;4.857208021;3.180956385;2.453541285
-5.930790481;-8.103951803;-10.8090588;-20.6664318;-7.446734732;0.395812761;-22.86522016;-3.535911871;-0.13326239;-15.02253579;26.57197696;-20.46900921;-6.360451583;-2.669142285;-23.70878129;-2.340024414;3.513737694;2.270264257;-0.462320037
-8.861056689;-10.38601774;-16.31302585;-28.60988978;-7.280319549;0.33134617;-15.14396951;-2.649036793;1.158534696;-14.41261848;19.27796944;-15.97410413;-4.217194115;-0.651349885;-21.42384146;-3.398148694;4.464555298;-3.007885562;-3.215742808
-10.47811428;-12.88891525;-19.37463714;-32.31988836;-6.936379673;0.239369868;-2.164645656;-1.47549161;5.264020552;-14.99986489;-2.355247996;-8.779503006;-0.903281373;2.661008807;-8.060518531;-3.140150806;7.467050198;-9.321078905;-5.073322354
-10.57702918;-14.36170848;-19.77478018;-29.90877178;-6.932465611;0.185060675;10.94524024;-0.850739595;9.933398015;-16.54517948;-32.22961005;-2.578639982;2.795905683;6.24316196;7.53576694;-1.861128017;10.53055055;-13.48255689;-5.987506551
-9.855156884;-14.37133785;-18.79701818;-23.27656513;-7.461152793;0.235065576;18.54144851;-1.218620755;11.91802115;-18.25361304;-58.87208473;-0.335709367;5.737332848;8.960646768;14.22749137;-1.131618026;11.44735127;-14.2660545;-6.399527038
-9.230532794;-13.60248444;-18.03945282;-16.99494749;-8.264805288;0.412464652;17.02169023;-2.256769967;10.04752154;-19.31613742;-71.30234708;-2.293734388;7.184573664;10.21030653;6.617973487;-2.294590703;9.501771976;-12.65961692;-6.796588905
-9.139441012;-13.1652769;-18.19975978;-15.43437152;-8.90352082;0.670292626;6.732551454;-3.155548066;6.482652965;-19.46154874;-65.08769678;-6.007562867;7.293307978;10.22984707;-11.31675494;-5.21140989;5.967691519;-10.68393633;-7.367100678
-9.341442607;-13.54295172;-18.77069256;-20.02921514;-9.151856746;0.910559941;-7.922131999;-3.302385624;4.878302563;-19.08082488;-44.84136965;-8.204975039;6.935709476;9.839923347;-29.28178768;-8.325997886;3.028148051;-9.869377898;-7.963315724
-9.317162207;-14.15745762;-18.76227176;-28.42148942;-9.182135531;1.042298415;-20.49194924;-2.794700871;7.047438396;-18.84182652;-21.51663489;-7.005489437;7.00015758;9.810393144;-37.65241028;-9.928464239;2.058904956;-10.50884174;-8.325858585
-8.867049373;-14.00403204;-17.7257457;-35.95411344;-9.395633106;1.03957406;-25.69818763;-2.35029917;11.19281585;-19.1153525;-6.101922425;-2.947635402;7.724230602;10.34045921;-33.15795664;-9.46;2.701243173;-12.00215645;-8.346411679
-8.382382722;-12.83019289;-16.17924399;-38.50296423;-10.06049629;0.95675409;-22.09899657;-2.689163639;13.42974877;-19.66929745;-3.61158801;1.695048777;8.588734109;11.04794815;-19.6628155;-7.722885426;3.422205935;-13.71296249;-8.157697177
-8.553980624;-11.75548134;-15.11355423;-34.87727701;-11.06193344;0.888608512;-12.63003906;-3.90808561;11.31806492;-19.86668854;-11.04487798;4.588355392;8.835766953;11.43603289;-4.44811424;-5.892810801;2.97848508;-15.47923722;-8.006232287
-9.758136328;-12.60134371;-15.05207844;-27.3676987;-11.96166405;0.903857523;-2.669533996;-5.380278709;6.209940149;-19.20957722;-20.3564516;4.751257473;8.160019531;11.40080798;6.596181431;-4.322741811;1.472924352;-17.39;-8.040196305
-11.63020529;-16.28875547;-15.48341115;-20.17966895;-12.30598529;1.000049591;3.210277463;-6.26685656;2.22090141;-17.80374778;-24.194152;2.885673743;6.991417784;11.31412523;11.52326539;-2.28779815;0.119316652;-19.18175813;-8.198614133
-13.19407516;-21.57923728;-15.13755716;-16.74329447;-11.9303958;1.110319732;3.818867999;-6.197749336;2.692225777;-16.37045198;-20.45059061;0.681259982;6.146006063;11.60167597;11.74422805;1.08408324;-0.000534457;-19.96423102;-8.290039063
-13.48089733;-25.35868168;-12.88029544;-17.54256471;-11.02953525;1.153139161;1.687868613;-5.524881068;7.335264802;-15.75855483;-12.71255073;-0.234429694;6.161832319;12.20812673;9.852987111;5.586633432;0.969200014;-18.67513877;-8.186313771
-12.18784948;-24.54043977;-8.540974975;-19.8121803;-9.962085335;1.086380418;1.020622966;-4.920275886;12.65524126;-16.28157476;-6.712804794;0.961310825;6.89085351;12.47738057;7.911382868;9.627673119;1.701394312;-14.97704767;-7.960248125
-9.891430937;-18.32518793;-3.095464059;-19.3576786;-8.970186575;0.928270572;4.59718299;-4.680588124;15.24269801;-17.360986;-5.703775068;4.093647077;7.677744014;11.63364713;6.967700017;11.2532627;0.826137875;-9.846162499;-7.841120133
-7.659299327;-9.09209957;1.860721307;-13.44547815;-8.046058295;0.736569449;11.63394867;-4.390787579;14.8632862;-17.78358913;-8.245582493;8.213653286;7.937778748;9.506296917;7.190668367;9.706433755;-1.837227891;-5.261892902;-8.011255143
-6.341786662;-1.075729599;4.940389878;-2.947744439;-7.042912508;0.567904709;18.00356162;-3.311423474;14.46150752;-16.47586383;-9.868043386;12.01776474;7.60848298;6.872453088;7.864126163;6.188753262;-5.027660191;-3.077458019;-8.404359739
-6.041706243;2.38419882;5.582353146;7.744320832;-5.92035954;0.448404712;18.74865805;-1.204809697;17.08848867;-13.31959683;-7.028121195;14.33795045;7.084283681;5.055022259;7.39769961;3.12519937;-6.97965768;-3.810058594;-8.679013725
-6.111421273;1.087616983;4.194001467;13.17449261;-4.903044533;0.371161042;11.36704032;1.135227192;22.68145411;-9.442265349;-0.093829917;14.60887936;6.720920383;5.015492959;4.103804322;2.485816913;-6.74725434;-6.216028998;-8.41268631
-5.640154988;-1.946250756;1.874843693;10.18227296;-4.400477034;0.312713552;-2.205476325;2.211632658;27.80370906;-6.708215862;6.98093568;13.1241111;6.385990714;6.621906327;-2.164730437;4.498220143;-4.823294094;-8.000030518;-7.386878298
-4.065169636;-2.67377425;-0.066100899;-0.043488982;-4.728696137;0.250022583;-16.26779621;0.869863009;28.67556448;-6.657182789;9.877588621;10.85773129;5.48718142;8.671947625;-8.747998418;7.725447309;-2.611056158;-7.221778235;-5.750078125
-1.495469837;1.075421693;-0.608541212;-12.68671304;-5.839980312;0.167106598;-24.42727952;-2.736569175;24.67457457;-9.548592972;7.300705255;8.838818921;3.475720136;9.676347042;-10.9436938;10.32363349;-1.284881062;-3.476297738;-3.926083714
1.421477494;8.097288312;0.595377814;-22.39184879;-7.277205597;0.055071672;-23.27619346;-7.087862819;18.9639902;-14.16540029;1.784031101;7.43985632;0.39138005;8.824707984;-5.099837985;11.35895798;-1.02813436;1.918263713;-2.326457024
3.933242523;14.76485084;3.076636288;-26.57807895;-8.413595308;-0.085181804;-14.37928583;-10.29378549;15.58981728;-18.55955798;-2.599024722;6.133131523;-3.028705294;6.437216891;7.917338251;11.14221316;-1.209801277;6.814671556;-1.0828991
5.587178429;17.66488066;5.757607824;-26.59414024;-8.828810856;-0.236206659;-3.241461534;-11.42573464;15.77957771;-21.27;-3.553315166;4.004227515;-5.778681826;3.63306819;21.87565301;10.49691093;-1.191951636;9.58489684;-0.00670477
6.357287327;15.93782196;7.49618077;-25.88773388;-8.562044725;-0.362671854;4.173216228;-11.13887568;17.01945182;-22.17436288;-2.083844955;0.706719053;-7.195511103;1.549937929;28.42591167;9.810495412;-0.945960936;10.02987182;1.190295645
6.480622946;11.6416206;7.716330597;-26.65296746;-8.056273785;-0.424897475;5.155351741;-11.05721754;15.86485302;-22.35467659;-1.059886747;-2.912196172;-7.266388884;0.732347548;22.70226778;8.796793274;-0.926862416;9.297952118;2.587692928
6.19085412;8.005619152;6.730978491;-27.67296422;-7.819287534;-0.403410713;1.738372716;-12.37478639;11.7685893;-23.05784344;-2.263655807;-5.134997295;-6.437676303;1.071299691;7.212668986;7.108607959;-1.41223655;8.941451394;3.911306584
5.564504051;7.008872382;5.498750442;-25.20996453;-8.030565278;-0.316458173;-1.064691436;-14.77751787;8.053154524;-24.52240666;-4.636814503;-4.538424495;-5.166890388;2.173523433;-9.261027991;5.068679542;-2.02877354;9.789366548;4.677412873
4.562774315;8.115626271;4.943502634;-16.36851597;-8.372936768;-0.212868424;0.913663864;-16.56541169;8.807823271;-25.59019602;-5.283846902;-1.148480826;-3.64095605;3.722577408;-17.41490754;3.669783854;-1.992051363;11.37961279;4.524245383
3.185930948;8.991595816;5.317318336;-2.250556906;-8.221793118;-0.140799482;7.768860068;-15.91245975;14.58035064;-24.46686881;-2.261468777;3.371019958;-1.865266675;5.516832217;-13.77581479;3.734200871;-0.876113736;12.27485545;3.477870618
1.586834482;7.470058594;6.086880256;11.80975611;-7.077228989;-0.114474643;15.19359602;-12.29464621;21.27759745;-20.12007813;3.450697225;6.756710223;0.058936964;7.266669271;-2.871514167;5.002743001;0.815070535;10.99949991;1.950417026
0.049208505;3.169658892;6.42314371;19.43752196;-4.946840759;-0.106207835;17.33358862;-6.976694526;23.88843885;-13.27165089;8.663070005;7.691636002;1.825467447;8.499192847;6.51363415;6.085105861;1.864968111;6.974754629;0.480416576
-1.144878927;-2.400053711;5.883660662;17.57722268;-2.408143399;-0.072672508;10.87487786;-2.18735166;21.8329209;-6.188136526;10.77604821;6.684803183;3.135839884;8.79420026;8.172377929;5.457222439;1.238811295;0.895532935;-0.576606758
-1.855751683;-7.123244071;4.71667842;8.682842971;-0.292883046;0.004026816;-2.456909164;0.369847454;20.50560519;-1.351785693;10.11417197;5.593307459;4.01686498;8.18977282;3.121774115;2.709015605;-1.085212839;-5.611313989;-1.17695391
-2.143644456;-9.781141353;3.545214947;-1.029929226;0.803456656;0.094429917;-16.67011563;0.542767332;26.50493518;0.059476922;9.601556929;6.157748431;4.870424425;7.341474416;-1.541947052;-1.05267713;-4.065485768;-10.77637778;-1.473440363
-2.221699322;-10.59326665;2.738898785;-5.988490817;0.859030792;0.139596343;-24.96202639;-0.417433998;39.98729209;-1.205223441;11.99252482;8.700866145;6.119823718;7.173473902;1.33983737;-4.043218525;-6.382014493;-13.45277258;-1.599769908
-2.345233164;-10.54658967;2.06952072;-4.953803705;0.385865879;0.09742562;-23.52139276;-0.950509473;51.20975447;-3.164808046;17.16325224;11.98923996;7.735632309;8.211968247;12.8401513;-5.186206544;-7.395235718;-13.48678896;-1.565171669
-2.691881325;-10.27747964;1.001751819;-1.215195597;0.051021662;-0.01887639;-13.33650492;-0.311858832;45.79055061;-4.057911768;22.01708143;14.29946584;9.10902539;10.12900776;26.51289895;-4.850136289;-7.479232246;-11.59900739;-1.341686842
-3.26643918;-9.527020174;-0.610359057;0.669188121;0.230673232;-0.142959008;0.770479439;1.098404289;15.96973077;-3.455856035;23.22368588;14.76123368;9.472978048;11.91197506;32.85373449;-4.302006168;-7.486636352;-8.929618752;-1.025130496
-3.84895786;-7.555817068;-2.057942166;-1.211999865;0.806590883;-0.200146378;12.83485002;2.303748703;-30.81504338;-2.261784962;20.36584681;13.8741931;8.561533056;12.57248349;26.2967668;-4.386806313;-7.856146898;-6.503680799;-0.866540192
-4.012594927;-4.013551897;-2.035381115;-4.774456039;1.330078125;-0.162761504;18.3589414;2.607189444;-73.86407362;-1.719678375;16.55680017;12.84268163;6.917665118;11.84388715;9.488769369;-4.645196254;-8.165052502;-4.837212744;-1.089907988
-3.244356812;0.591187409;0.483861519;-6.135302487;1.409826368;-0.0736219;15.6504399;2.006670369;-91.73645591;-2.305773637;15.79922437;12.39018647;5.511555651;10.30585076;-8.30591296;-3.704678481;-7.51918407;-3.812934747;-1.632156175
-1.169384085;5.22443287;5.406527639;-3.321997149;1.025832149;-0.018062805;5.8714632;0.944172894;-76.75198744;-3.388278635;19.36845959;12.13185993;4.935938469;8.84649625;-17.43178031;-0.642604213;-5.437598985;-2.859648174;-2.057584034
2.194606402;9.085473774;11.38508397;1.776656871;0.54182382;-0.063302022;-7.583781714;-0.218625833;-40.53375582;-3.849067373;24.55056434;11.05401413;4.871899705;7.928408688;-14.16955078;3.872599227;-2.4704077;-1.369190089;-1.787297364
6.290556922;12.03678203;16.51999247;4.908728944;0.422884105;-0.208615308;-20.0111094;-1.430737729;-6.038232091;-3.065359404;27.05466798;8.647637397;4.349356045;7.28183557;-2.786216108;7.706130026;-0.025208207;0.829289812;-0.52160625
10.10736572;14.31028382;19.37962911;3.074727108;0.881788872;-0.38190702;-26.75411092;-2.705351438;8.17755617;-1.407987059;25.03991311;5.645642186;2.656992768;6.268304757;7.820606176;8.622808353;0.466975126;3.198130504;1.457636126
12.50879205;15.82503867;19.60148522;-2.923543544;1.715356274;-0.4843159;-25.05839031;-3.749014667;-0.271289941;0.110108952;21.02734679;3.642976214;0.150499793;4.572996211;10.23045484;5.8135974;-1.585692314;4.635833864;3.360587322
12.66497408;15.85106741;17.71870089;-9.251131823;2.433355814;-0.450508191;-15.72120669;-3.972151706;-18.27325001;0.65408022;19.69811693;3.853704925;-1.78098654;2.606243344;3.094899456;0.373163808;-5.63171327;4.032097861;4.318618119
10.36131205;13.43879471;14.48918998;-12.45271104;2.561117487;-0.283267889;-3.228523672;-2.999827015;-28.99769888;0.112820728;23.34789976;6.039318065;-1.661127232;1.261820658;-8.606325968;-5.588703024;-10.33411845;0.937167487;3.874331662
6.018071616;8.291980555;10.34869514;-12.47243074;1.886960077;-0.042025994;6.410888156;-1.242114849;-24.97268189;-1.058085648;29.19752822;8.550253961;0.928485313;1.247480631;-17.32741702;-10.40003906;-14.23081571;-4.099823666;2.191819513
0.429978561;1.2905745;5.400899588;-12.53499913;0.501763797;0.201326093;9.283140632;0.096469798;-12.32318877;-2.446072326;31.43915229;9.521625577;4.939598397;2.565541317;-17.88770547;-13.66138708;-16.262794;-9.808403874;-0.13192102
-5.590239668;-5.87142725;-0.173391582;-15.89557988;-1.338370626;0.405029361;6.265036308;-0.231919464;-3.756126371;-4.081045607;26.69064103;8.303512835;8.556065645;4.564927347;-10.37361289;-15.91940609;-16.01083687;-14.95504885;-2.470501118
-11.4348275;-11.69028514;-5.767773162;-22.31141099;-3.36461204;0.569859267;2.53949699;-2.494987041;-7.035978091;-6.191913761;18.06499116;5.986685747;10.4709796;6.467809058;0.480833404;-17.6808665;-13.75847633;-19.05586327;-4.46867492
-16.68205688;-15.66342994;-10.43180672;-27.50444602;-5.328366042;0.718268307;3.774861739;-5.516536596;-18.76171167;-8.548713445;13.64380354;4.590153745;10.73240438;7.871905767;8.581667429;-18.77012456;-10.49797054;-22.48650759;-6.055979468
-20.92579766;-18.22289662;-13.31488996;-26.40499134;-6.92879916;0.861851099;11.49256204;-7.257447391;-28.09152125;-10.09575352;19.71828259;5.531479543;10.50250543;8.803690095;10.13329006;-18.59117834;-7.785429212;-25.85488341;-7.25687266
-23.66679633;-19.89358636;-14.07313418;-17.64721951;-7.776815272;0.984538907;21.19732645;-6.128727976;-26.45647665;-9.405874341;34.04657538;8.555316247;10.97344444;9.361553912;5.508874798;-16.92843568;-7.253115442;-29.10257793;-8.03780233
-24.42430657;-20.49756318;-12.91484204;-5.491972314;-7.52079874;1.053653254;25.10646601;-2.118846647;-14.63528728;-5.767971302;45.22846828;11.92286717;12.36753386;9.391530076;-1.484965754;-14.39815767;-9.812907254;-31.10331706;-8.346344193
-23.03013918;-19.20530597;-10.33486101;2.70823569;-6.103495139;1.048047697;17.85569428;3.088671992;-1.464780541;-0.072714088;39.89775851;13.68576172;13.84126213;8.58944767;-6.191194006;-12.02526564;-14.97475433;-30.22778088;-8.266739934
-19.88134563;-15.45557062;-6.870148274;1.74426591;-3.957791223;0.979796147;1.028139508;7.098990779;4.037559444;5.321516539;13.01803995;13.06231131;14.31434009;6.961360719;-5.851481949;-10.31049947;-20.84718871;-25.6009685;-8.072682609
-15.90892308;-9.909987951;-3.115447046;-7.588951493;-1.933398622;0.891861976;-17.09557266;8.189838582;-0.059681794;7.829796813;-26.60674575;10.90523475;13.44964395;5.144335996;-0.953818906;-8.716323524;-25.02890806;-18.14448611;-8.050913122
-12.2029775;-4.471893439;0.121087036;-19.09348351;-0.915220333;0.833001191;-26.72859167;6.155355553;-8.017548893;6.195804877;-60.49670302;8.969668673;11.90389191;4.13421726;5.428445547;-6.181138494;-25.94249634;-10.51215722;-8.217579867
-9.495111965;-1.165810391;1.872388596;-25.79167984;-1.331863144;0.828045161;-23.10174129;2.135153573;-12.36034056;1.258198452;-72.05622986;8.571525753;10.6364234;4.497712645;9.699079958;-2.331214402;-23.74065316;-5.766965532;-8.21052569
-7.837638856;-0.711980588;1.44875634;-24.9506436;-2.874194235;0.864484237;-9.573053229;-2.287617685;-10.56652282;-4.636046668;-57.44663883;9.616456835;9.915479793;5.700736285;9.822413549;1.655133579;-20.13970293;-5.599948228;-7.534738172
-6.713956765;-2.01170992;-1.019382273;-19.64629922;-4.639765198;0.903824356;4.95030245;-5.988411607;-6.610582585;-9.153358116;-27.9108915;10.65042452;8.94868246;6.226248713;6.158056662;3.398134933;-17.28868668;-9.318912442;-6.027899741
-5.521212968;-3.080009766;-4.468577148;-15.85218761;-5.646759677;0.908367175;12.32459893;-8.633271837;-6.488430011;-11.34770776;-1.915547826;9.843043682;6.529518579;4.569004004;0.691619701;0.791007634;-16.48021767;-14.35252973;-4.167314787
-4.091393486;-2.739851741;-7.49974036;-17.58428312;-5.40840057;0.863882518;10.54409067;-10.41745559;-12.27971453;-11.96101576;7.072205572;6.214383828;2.193390457;0.435079713;-4.586752432;-6.430463741;-17.5833325;-17.93653223;-2.901025149
-2.869619695;-1.667301836;-9.345647919;-23.99151284;-4.206319252;0.782899633;4.361974184;-11.62321481;-20.2675637;-12.55196673;-1.593934203;0.325832498;-3.106281168;-4.801162315;-8.880482315;-16.18424455;-19.47342132;-18.7821201;-3.043460568
-2.60125271;-1.827480636;-10.43577979;-30.46755771;-2.890543112;0.688254594;1.025296133;-12.40525657;-24.57358751;-14.19489312;-17.39873607;-5.947537515;-7.433136402;-8.83059163;-12.52947138;-24.99303994;-20.96532378;-17.55492641;-4.650605072
-3.73716431;-4.663256566;-12.00245753;-32.52899392;-2.336744603;0.590960734;4.582605684;-12.8653045;-22.63543879;-16.71291747;-27.64324785;-10.38035647;-9.138527495;-9.866558547;-15.93500089;-29.74651698;-21.46305428;-15.91533511;-6.860286599
-5.990078125;-9.513220218;-14.94495373;-29.15802023;-2.904361996;0.480080566;13.00656031;-13.16797916;-17.36285516;-18.90705108;-26.48251044;-11.52655196;-7.996662029;-7.766805838;-18.54603323;-29.14770951;-20.92933528;-14.97490724;-8.364177545
-8.390349826;-13.67007813;-18.86248996;-23.10103685;-4.22570654;0.332778381;19.95475367;-13.46691422;-14.12657561;-19.46972631;-17.53837659;-9.407434806;-5.328658169;-3.994061755;-18.9067356;-24.07628594;-19.45089202;-14.43610966;-8.206839451
-9.842741344;-14.22195834;-22.13540927;-18.33865684;-5.43643352;0.137234861;19.4634871;-13.69119491;-15.6002432;-17.83767547;-9.170347926;-5.421186118;-3.040236198;-0.481509346;-15.81866646;-16.90221501;-17.00047845;-13.07435922;-6.357200943
-9.821211859;-10.3386309;-23.11428847;-17.15734544;-5.684688508;-0.088967715;9.986182907;-13.46599706;-19.35158542;-14.41924507;-7.123466728;-1.551095856;-2.33646587;1.693527892;-9.652946184;-10.35318105;-13.69207925;-10.08837265;-3.670214935
-8.720576849;-4.19214692;-21.51247573;-19.16650225;-4.604017728;-0.299772245;-4.847496391;-12.35591465;-20.34898479;-10.18907286;-10.6011059;0.688467905;-3.077247849;2.81744618;-2.637630462;-6.537381418;-10.21538251;-6.116944317;-1.311098601
-7.608819972;0.32439421;-18.82522633;-22.56221422;-2.484619098;-0.442062068;-18.69339792;-10.29326075;-15.89270993;-6.086450646;-14.25811317;0.990199649;-4.171202139;3.918529916;2.25435365;-6.363114379;-7.841506722;-3.001831539;-0.087452035
-7.534652256;0.22700302;-17.31842404;-25.95416672;-0.075858701;-0.484067763;-26.00124949;-7.810019531;-8.269835944;-2.664091758;-13.54223635;0.26912294;-4.574416332;5.624150695;3.050655909;-9.329968437;-7.741780171;-2.438817128;-0.140869436
-8.849950273;-4.503349466;-18.29774302;-28.91843049;1.835399874;-0.432096765;-24.30556088;-5.795907646;-2.656807649;-0.09839001;-8.470831878;-0.031240557;-4.048171442;7.491396443;-0.119538943;-13.69375453;-10.05925128;-4.617383506;-1.115007064
-10.9881102;-10.95238345;-21.01530956;-31.06326326;2.823836492;-0.325017193;-14.55258835;-4.89799386;-2.285728172;1.652595889;-2.904539679;1.112632778;-3.130503421;8.358665284;-5.309420062;-17.11078619;-13.55138113;-7.993021905;-2.54186265
-12.81657908;-15.32743153;-23.11835659;-31.0739001;3.000744506;-0.21134357;-0.210918147;-5.019216063;-5.42815927;2.79032616;-0.55194325;3.721824565;-2.480004883;7.38263275;-10.07019369;-17.71680608;-16.26230674;-10.41230102;-4.081886317
-13.2947058;-15.46624224;-22.32712048;-27.23558703;2.905266797;-0.125229965;13.84172234;-5.341437173;-7.008190849;3.734634318;-1.585258696;6.9608046;-2.243233134;4.851608025;-12.74651471;-15.18598479;-16.83225291;-10.68415789;-5.473397105
-11.99515511;-11.96738353;-18.04290254;-19.27914192;3.197224433;-0.076938082;22.45195247;-4.897109291;-3.321653764;5.10238049;-2.794239182;9.841822263;-1.994312862;2.070416355;-12.94030679;-11.04972853;-15.44468;-9.312677627;-6.363438791
-9.196742032;-7.257544718;-11.65767456;-9.712440751;4.314755585;-0.061354375;21.74307251;-3.269756334;4.525174532;7.440058594;-0.824973834;11.90340478;-1.241165147;0.402506401;-11.17803547;-7.854150525;-13.62388688;-7.810981313;-6.306760653
-5.591377927;-3.521523488;-5.410221741;-2.874151574;6.251723246;-0.074248265;11.04392137;-0.894825308;11.60141397;10.80119541;4.625354719;13.32251002;0.004847247;0.259471702;-8.41610479;-7.54085458;-13.00489095;-7.221624151;-5.032582571
-1.900638312;-1.213659051;-0.808440561;-1.921588379;8.54122845;-0.120848994;-5.894757675;1.249648695;13.57293687;14.48800006;10.5063698;14.41457089;1.123474847;0.864319825;-5.843270239;-10.13678966;-14.05154693;-7.15392767;-2.773806013
1.31513079;0.738600698;2.075472078;-6.103740047;10.44280224;-0.208783172;-21.83582044;2.297969991;10.4269473;17.23968562;13.10582421;15.02490496;1.340535315;0.969149861;-4.793307831;-13.76468529;-15.75624677;-6.212176403;-0.325370886
3.608707289;3.383164522;3.958451622;-10.88393384;11.25339135;-0.331494313;-29.43635135;1.99319785;6.115989502;17.84387297;11.20475016;14.43813592;0.350755982;-0.072063962;-6.271702095;-16.05274437;-16.54175047;-3.476815123;1.315960294
4.550349002;6.283229102;5.081864405;-11.29511063;10.61475096;-0.457748798;-25.39142887;0.695298408;4.614164364;15.81521065;6.93417614;11.98366366;-1.415879093;-1.749785792;-10.06925923;-15.91499085;-15.58430806;0.262453268;1.52750445
3.803920883;7.456843319;4.595728925;-6.069859439;8.685260579;-0.539832712;-12.55918869;-1.016462016;6.210699603;11.69922637;3.756994136;7.851408716;-3.100135538;-2.80228823;-14.23195154;-14.32120029;-13.44392506;2.692508144;0.438805074
1.391522739;4.820933894;1.245739306;0.895148005;6.091265535;-0.539134266;1.712844615;-2.772185189;7.537075828;6.796671306;3.518191193;3.342922562;-4.043342437;-2.241961366;-15.82204874;-13.44071897;-11.50685448;1.592157364;-1.178771019
-2.081066067;-2.019365695;-5.205503694;3.242507094;3.665714589;-0.453104581;10.22279436;-4.546473032;5.189716828;2.485581409;5.145479633;0.180800839;-4.254847426;-0.18888097;-12.97241549;-14.84930758;-10.77460457;-3.354114959;-2.435989405
-5.516662035;-11.09685228;-13.13906487;-2.875866231;2.087103029;-0.323444303;10.41003906;-6.47736253;-0.65405215;-0.434256991;5.938528316;-0.695013161;-4.38163356;2.131365911;-6.860293551;-18.25425882;-11.07490042;-10.04226625;-2.877314411
-7.798131862;-19.10873089;-19.72361948;-15.48838719;1.594844277;-0.215980057;5.567891138;-8.606961317;-6.215740396;-1.997071655;4.081113552;0.116623975;-5.224754389;3.211724273;-1.745346306;-21.75878142;-11.35860399;-15.25487125;-2.67
-8.378437204;-23.40569646;-22.68992454;-27.91584532;1.931209477;-0.181732958;1.968575303;-10.78365751;-7.782872884;-2.828938385;0.111618016;0.876871074;-7.149388466;2.287099885;-2.40441744;-23.40185839;-10.76100066;-16.85229599;-2.338159402
-7.575402811;-23.49091601;-21.85977315;-33.55878384;2.543221348;-0.223261599;4.063737122;-12.75336518;-5.501392876;-3.611465725;-3.753073612;0.063059777;-9.76397819;-0.172892554;-10.45426648;-22.66196354;-9.430478128;-15.1725162;-2.297601717
-6.32697054;-20.99790479;-19.16501066;-30.62663731;2.929211414;-0.289757578;11.24336294;-14.27677621;-3.456217662;-4.593283868;-5.550240163;-2.349465071;-12.03741671;-2.804598611;-22.38864491;-20.69470095;-8.364206837;-12.56427688;-2.567444176
-5.547861728;-18.29007813;-17.08650719;-23.1091417;2.925786263;-0.307532662;18.35572387;-15.12733426;-5.682656572;-5.417934775;-4.898217322;-4.745879807;-12.76615987;-4.230417239;-31.27797171;-19.20071552;-8.418873334;-11.45264526;-2.849627852
-5.532828236;-16.80732785;-16.73648332;-17.33981058;2.766199567;-0.229405209;19.39259345;-15.00978;-11.76443795;-5.334929073;-2.67694155;-5.073236941;-11.15019706;-3.860981595;-31.36633075;-18.99584554;-9.437806961;-12.4896093;-2.853726828
-5.826037562;-16.34503348;-17.11121632;-17.03667991;2.886503953;-0.07207916;11.60453973;-13.5769229;-16.36663087;-3.656045588;0.296332237;-2.490182849;-7.218958725;-2.13544499;-22.32311772;-19.54894988;-10.34132963;-14.23661543;-2.565895461
-5.627964333;-15.62603553;-16.08665552;-20.80459424;3.618374355;0.084620873;-2.683200227;-10.64815066;-13.58305445;-0.202579041;4.070883812;1.852078272;-1.916613144;-0.139197943;-9.809053969;-19.81169345;-10.1359001;-14.55420216;-2.246308105
-4.40876922;-13.52623478;-12.3046285;-23.89594106;4.975188794;0.140216007;-17.41817632;-6.504850586;-2.4301546;4.501947135;9.026170233;5.573009357;3.225640795;1.080706703;-1.64039506;-19.45416562;-8.914609439;-12.48570534;-2.188673713
-2.258236556;-9.924962744;-6.386356519;-22.46615102;6.661643335;0.034253755;-26.08903417;-1.986240868;11.55832962;9.410781766;14.68799299;6.823152955;6.736579369;1.073018973;-2.247145986;-19.25025873;-7.869155886;-9.054954885;-2.465693747
0.264730095;-5.601402961;-0.497896788;-16.6382194;8.272094754;-0.212244492;-24.82624994;1.787740909;20.42074889;13.42119632;19.35907672;5.677131389;7.893114515;0.141167492;-9.578079389;-20.17770143;-8.200827864;-6.338449645;-2.868469208
2.608122797;-1.443440669;3.323859459;-9.944397832;9.512365955;-0.502467364;-13.90301292;3.941490116;20.22364814;15.86909865;21.2497028;4.06046328;7.074601551;-0.909724844;-16.8236233;-22.06826384;-9.853624374;-5.626358346;-3.067158407
4.600981151;2.238720509;4.657760316;-5.940729951;10.28262851;-0.715896993;2.569941085;4.257394285;14.25156098;16.75223087;20.20403774;4.26063024;5.522781069;-1.256346618;-17.63457579;-23.18319534;-11.25337873;-6.245374956;-2.845452882
6.410979345;5.686560854;4.761366524;-5.154562264;10.58984971;-0.776055856;18.21435602;3.173133968;10.01137034;16.54259526;18.29360994;7.180936026;4.578695606;-0.519544601;-10.83750931;-21.3459205;-10.43309495;-6.060324839;-2.231869518
8.14971584;9.029744279;5.197859033;-5.03602619;10.40796178;-0.691853352;26.63750196;1.37612521;12.58415932;15.72894501;18.40346191;11.67336256;4.832300063;1.013716703;-1.124025917;-15.8450819;-6.710333449;-3.273748046;-1.46198736
9.512322547;11.6418649;6.235907926;-2.786082783;9.645213381;-0.546507644;23.8954168;-0.67433507;20.17833534;14.43670528;21.7917573;15.4097912;5.741182116;2.523940796;4.60227662;-8.487748797;-1.513121632;1.936526008;-0.837766705
9.825496717;12.17584403;6.429598421;1.64156685;8.272235683;-0.441773376;10.44973578;-2.925708975;25.8583216;12.42775845;26.75050506;16.55046809;6.007098977;3.103569592;2.22344429;-2.738945318;2.433004553;7.281997466;-0.59253624
8.532030229;9.379238904;3.800058594;5.159040903;6.499018985;-0.434240778;-8.456100816;-5.511845187;23.92360022;9.485753972;29.75449159;14.91144516;4.487185173;2.292395157;-7.039908472;-1.433216653;3.01261372;9.867614712;-0.817591474
5.7452164;3.129517748;-2.308345015;4.167003477;4.811184154;-0.504805675;-24.79202997;-8.379928484;15.19959103;5.859673647;28.35910717;11.82459091;1.023632321;0.38867084;-18.10508657;-4.790058594;0.239460086;8.180545677;-1.440395069
2.398058176;-5.106202921;-10.22635488;-2.158356521;3.767673293;-0.578962952;-31.63085863;-11.1291666;6.419894398;2.350606285;23.43258739;8.962561062;-3.388871965;-1.693491738;-25.89788072;-10.3159681;-3.832436974;3.063809776;-2.235561607
-0.203914809;-12.81338963;-16.70718968;-10.86414636;3.662339487;-0.580925119;-26.91516966;-13.21804038;4.191962697;-0.107782058;18.66256665;7.160762269;-7.216765976;-2.981916806;-28.41219538;-14.70201974;-6.747163015;-2.986588914;-2.884771588
-1.156656227;-17.70589197;-18.95994613;-17.43337549;4.296490036;-0.483210879;-14.62535186;-14.35573299;8.996697322;-1.093186597;17.52483195;6.128972781;-9.346866598;-3.083639606;-26.92091048;-16.22929084;-7.528711533;-7.562230821;-3.109006819
-0.516772088;-18.94978156;-16.50226629;-19.30447449;5.063516638;-0.319735533;-2.26135507;-14.72513417;14.74815063;-1.041643692;20.19323026;5.108653862;-9.722782593;-2.463640928;-23.91309483;-15.80124415;-7.312990065;-9.76903462;-2.837512127
0.759003;-17.56342452;-11.48651588;-17.66195973;5.325076931;-0.158373676;3.939722332;-14.83542946;14.45015561;-0.961676693;23.16602183;3.755865336;-9.246015113;-2.136614442;-21.01376459;-15.85951134;-8.261412881;-10.37484843;-2.302683631
1.455177286;-15.73807807;-7.27419771;-16.02093133;4.826990103;-0.056790371;2.859046973;-15.12999679;6.867174213;-1.677637287;22.24465127;2.450866207;-9.066628506;-2.949684172;-18.5802624;-18.15796598;-11.67422577;-10.79418116;-1.953097303
0.870610661;-15.48660826;-6.276745445;-16.96458787;3.852108311;-0.03293669;-1.277302121;-15.6840991;-1.989472618;-3.177243632;16.57888044;1.843520135;-9.796502173;-4.94601105;-16.68944613;-22.24923078;-16.83562244;-11.87967062;-2.193332536
-0.79642461;-17.41982976;-8.5332742;-19.97907207;2.992815279;-0.065771817;-2.438426252;-16.23486768;-4.193445258;-4.602988848;10.25365638;2.14487951;-11.17153235;-7.267398839;-15.87587407;-25.87937462;-21.4866432;-13.46439517;-3.109077573
-2.666836542;-20.35483754;-11.89351915;-22.26746033;2.712793202;-0.117575885;2.517465492;-16.48510022;2.589096298;-4.933578344;9.568722674;2.852444923;-12.31776311;-8.679236235;-16.52830689;-26.88;-23.49288713;-14.82675884;-4.382517739
-3.78840809;-21.96699475;-13.53794565;-21.68640872;3.030832236;-0.156563535;11.41936082;-16.38737002;12.36070249;-3.831980397;17.62345874;3.145552734;-12.35507711;-8.353877256;-17.62373763;-24.94368577;-22.35242883;-15.46327187;-5.480751217
-3.685203086;-20.11046485;-11.73816703;-19.00257675;3.563849094;-0.165442771;18.29677794;-16.15187928;15.78987968;-1.966295936;30.35644208;2.565306563;-10.90737073;-6.366682077;-16.55668478;-21.83582971;-19.39516934;-15.41689724;-5.991173247
-2.510786149;-14.07654789;-6.757449648;-17.27448778;3.882483406;-0.138530931;17.56934964;-15.98568864;8.944326879;-0.506699184;37.62630575;1.369264495;-8.244632352;-3.580488683;-10.95736876;-19.93277302;-16.6267238;-14.9549778;-5.855158634
-0.793536211;-5.110460484;-0.488961411;-18.80942627;3.885747661;-0.079753254;7.82845122;-15.81687471;-2.04530997;-0.166247004;29.40728609;0.289992787;-5.074574093;-1.045079292;-1.291301444;-20.33174176;-15.22514616;-14.05392925;-5.328308156
0.963793215;4.080854684;4.745436084;-22.46580819;3.890267805;-0.007664543;-7.297245603;-15.26670666;-5.20981703;-0.547179669;3.204748558;-0.026493349;-2.188722376;0.62967472;8.236980639;-22.05212033;-14.86706356;-12.30576518;-4.717134376
2.534498008;10.55506113;7.407272804;-23.95167489;4.363905261;0.040526869;-21.39284117;-13.90908795;6.879108681;-0.34293798;-32.60615279;0.614124212;-0.158137837;1.498668194;11.92553555;-22.88675604;-14.28351056;-9.397124234;-4.122836686
3.954288021;12.44071974;7.307153639;-19.22143562;5.522487239;0.019526127;-28.73137084;-11.60887727;29.05395003;1.715824914;-62.40013365;2.044765701;0.839895278;2.019657214;6.729259558;-21.12787358;-12.43847439;-5.691936557;-3.40586175
5.343947806;9.657194657;5.372611188;-8.269040275;7.116975717;-0.096871757;-26.72324639;-8.675778533;45.12607193;5.869254561;-72.06784821;4.072755906;1.058332494;2.586961038;-4.908710559;-16.78125196;-9.320523252;-2.276221545;-2.38356162
6.747626836;3.737212705;2.926830225;3.975880648;8.580472939;-0.28951514;-16.38817426;-5.737765548;38.90569269;11.03059104;-57.43;6.637738352;1.071351526;3.248249573;-16.14332746;-11.41454293;-5.797447976;-0.278661239;-1.064596423
8.087309532;-3.050230703;0.960684103;10.70933549;9.412995152;-0.493778547;-1.431158303;-3.45869501;6.673221012;15.39390901;-26.79191021;9.605335151;1.509909827;3.781925454;-20.31510278;-6.922796144;-2.825173437;0.038925398;0.305759673
9.207842894;-8.725800454;-0.237470127;8.083299147;9.497316819;-0.634990593;13.03621309;-2.302783809;-38.56480146;17.48802781;4.09220049;12.44368941;2.710552377;3.992345973;-15.67623528;-4.271187361;-0.780452278;-0.359119749;1.4373978
9.933390508;-12.23412984;-0.994943432;-1.932697198;9.108759475;-0.678930254;21.74842865;-2.443707554;-74.69992931;16.93184832;21.37767587;14.21421206;4.464472955;3.923939789;-6.566464874;-3.128326034;0.552413039;0.134476203;2.24625842
10.09744907;-13.48256987;-1.862388093;-12.92244171;8.639476514;-0.658331792;20.82323734;-3.765298399;-84.70495451;14.43863396;20.76276622;14.04203452;6.073861238;3.813908189;-0.057927919;-2.480906701;1.469353544;2.604676669;2.919242538
9.570755877;-12.98210655;-3.197294983;-18.57960795;8.284029858;-0.648759678;9.631729612;-5.866526893;-67.16770604;11.20810963;8.672643415;11.75772075;6.756480337;3.864019005;-0.660075684;-1.573590413;1.888767077;6.717065062;3.708209165
8.317280641;-11.46217145;-4.969892244;-16.95222717;7.942576676;-0.70549645;-7.95616802;-8.084183248;-35.90950637;8.244067768;-3.279245597;8.175497337;6.173407357;4.071321388;-7.165126236;-0.418789735;1.396496635;10.76120594;4.619198192
6.458382625;-9.679999801;-6.862014338;-11.23975243;7.394369351;-0.808074712;-24.41276647;-9.641423112;-9.675151459;6.056271432;-6.377586515;4.728672472;4.70777953;4.280269652;-13.9156159;0.378967854;-0.289476155;12.61525456;5.280614186
4.28690278;-8.345993839;-8.51370132;-6.805453814;6.560756287;-0.860142508;-31.95638294;-9.972701843;0.094147878;4.787557764;0.12606132;2.704421179;3.255576491;4.390913822;-15.24087354;0.165449463;-2.921098067;10.96822088;5.144035997
2.199344873;-7.940801728;-9.668745507;-6.972791668;5.614244267;-0.753861825;-26.95805636;-9.082697568;-5.186782696;4.45446502;10.02456436;2.639450541;2.638999098;4.499603695;-9.482004608;-1.3432808;-5.786234946;6.021515363;3.894421517
0.581327932;-8.364480181;-10.08126468;-10.88466091;4.843848991;-0.457041368;-12.41857642;-7.656680763;-15.19965645;4.997531704;15.84083172;4.271162989;3.05281006;4.810630916;0.293658799;-3.987025605;-8.17351068;-0.672776919;1.755601809
-0.285790972;-8.684925403;-9.310237363;-14.80810503;4.412481805;-0.057885814;3.621348418;-6.735421502;-19.8511248;6.14107647;14.60754303;6.950344841;3.950448872;5.383856726;8.908597792;-7.307856661;-9.796874642;-6.997960952;-0.562509119
-0.270183216;-7.395183498;-6.723470555;-15.46783865;4.236549815;0.272194114;13.1198016;-7.080058594;-16.21103282;7.326567719;9.496209047;10.06635639;4.4530919;5.963351074;12.53846626;-10.69681632;-10.80666334;-11.16108551;-2.260737273
0.573502467;-3.313188959;-1.933596989;-12.58498294;4.099738453;0.379203241;13.20194052;-8.64;-8.735935048;7.934340002;6.481321159;13.12943091;3.971323019;6.089423995;10.41605678;-13.49236194;-11.43579307;-12.29153468;-2.917763554
1.932239951;3.303281668;4.502734997;-8.762830701;3.892211895;0.224407366;7.747139676;-10.5318816;-4.009256831;7.693356565;9.062449915;15.5768318;2.580387924;5.452622126;4.168897433;-15.147841;-11.68433063;-10.65690308;-2.70730439
3.170979301;10.24392203;10.68053382;-7.175686273;3.744954459;-0.087674941;4.155239906;-11.59683217;-5.089340854;6.918936868;15.39254146;16.68627458;0.900742838;4.211280937;-3.775523745;-15.51965967;-11.38510731;-7.563890848;-2.237875239
3.410739133;14.05265865;13.79379184;-9.169103316;3.919267291;-0.370766136;7.613854119;-11.16890027;-9.862117261;6.297519664;20.03663168;15.86696701;-0.375287222;2.98116901;-11.04900926;-15.09904307;-10.57930178;-4.970543188;-2.156082356
1.84815056;11.78922783;11.46585583;-13.61937747;4.535628015;-0.466492163;17.08223613;-9.511705995;-13.83680754;6.321269766;18.75817465;13.16197773;-0.921699683;2.450518988;-15.27676122;-14.90267665;-9.775415145;-4.792448818;-2.791077891
-1.772127484;2.838234443;3.261395492;-18.19432671;5.383786184;-0.3305993;25.92126603;-7.616007742;-14.25316599;6.825005469;12.26749711;9.477347108;-0.871456912;2.886574784;-14.28381664;-15.93704227;-9.732494188;-8.035078288;-4.041207338
-6.827675822;-10.46682223;-8.673533562;-21.11868248;6.001718917;-0.044443636;26.62640456;-6.522304606;-11.93990786;7.053791987;5.747545348;6.203404025;-0.563771419;3.918354274;-7.457159528;-18.5247942;-10.86044347;-14.15492069;-5.507394951
-11.94286226;-23.95780041;-20.47619359;-21.94404421;5.985180276;0.246450848;16.15947652;-6.668559761;-9.860887979;6.270877624;4.497987567;4.415494156;-0.212286308;4.789398993;2.59396859;-21.98194364;-12.74746919;-21.13355918;-6.729049822
-15.61616204;-33.85796676;-28.56573531;-21.02704749;5.28583743;0.419061626;-1.858258577;-7.706826471;-10.17239008;4.442552304;9.347130907;4.258266771;0.228092905;4.910709054;10.15439796;-24.9357564;-14.29351647;-26.41272899;-7.371159026
-17.01194165;-38.66916406;-31.53011043;-18.66521428;4.253737044;0.429002638;-19.34150522;-8.850223907;-12.47896444;2.424399588;15.81400232;5.015464784;0.933101224;4.29545167;9.408909355;-26.10571626;-14.4363256;-28.23369548;-7.304373452
-16.37938949;-39.4660577;-30.62322987;-14.96698235;3.386494766;0.310171048;-28.45857176;-9.425775353;-14.48472406;1.445988734;17.96707013;5.800115635;1.983349953;3.531669047;-1.214024324;-25.02044915;-12.92480048;-26.52898879;-6.603104305
-14.76281058;-38.48046055;-28.52185632;-10.53393787;2.989509211;0.132883592;-25.62463705;-9.218424807;-14.05781;2.257174788;13.91057171;6.267830703;3.248715987;3.302455911;-16.84310737;-22.20627878;-10.5074781;-22.73434994;-5.49665551
-13.17155432;-37.11089416;-27.23813195;-6.9863156;3.022212581;-0.042530663;-12.61980746;-8.42871788;-10.78514024;4.589606059;8.161371875;6.751739683;4.450190439;3.823459017;-28.60037647;-18.79255045;-8.366653883;-18.64932998;-4.277942451
-11.80979814;-34.89604812;-26.70215186;-6.360294488;3.243401274;-0.187574956;5.020217797;-7.393307826;-5.920120013;7.351947159;8.421043129;7.759400268;5.304713323;4.647017619;-29.56680411;-15.87741364;-7.25504797;-15.2060066;-3.17508437
-9.961322388;-30.20619163;-25.01462001;-9.508182521;3.511361451;-0.298836758;20.66399249;-6.354149309;-1.161015923;9.402397746;18.80784563;9.364464231;5.628651589;5.006437687;-19.88409948;-14.06982666;-7.037014221;-12.08654433;-2.240447719
-6.642634737;-22.02468546;-20.0950412;-14.80350042;3.961346913;-0.378930227;28.78915285;-5.431129141;2.494536828;10.29589598;34.87357687;11.10939439;5.372978302;4.448694599;-6.714078987;-13.37447537;-6.980748749;-8.440928659;-1.346624678
-1.533964428;-11.3025736;-11.40490206;-18.52095149;4.888768103;-0.42406334;26.37530379;-4.720958349;4.997970646;10.44583326;44.89432511;12.51759034;4.649729882;3.261179496;1.326209905;-13.30362402;-6.499593965;-4.033193968;-0.327814036
4.543545494;-0.702727092;-0.431638567;-17.02192165;6.423544644;-0.425686864;13.82704771;-4.344489589;6.761959713;10.62517583;37.34573283;13.67852945;3.775386271;2.337070234;0.977816303;-13.04787448;-5.667833071;0.2321862;0.818282312
9.998475371;7.131815256;10.33840944;-9.326463754;8.273126736;-0.380850659;-4.614698288;-4.370401707;8.130529968;11.2538833;9.548901046;15.24200778;3.248054434;2.549361839;-3.250676673;-11.69605168;-5.065434829;2.926175713;1.839552741
13.41681118;11.39920899;19.00969109;1.859976343;9.775182109;-0.301176467;-21.74208121;-4.71817351;9.23591586;12.05671393;-28.92272622;17.70413441;3.546998691;4.091617417;-3.313606019;-8.603402057;-5.128742818;3.358291942;2.364646444
14.35778973;13.51679132;25.08773528;11.55812287;10.26104469;-0.213752558;-30.12457891;-5.19036512;10.09794915;12.33646884;-61.05506538;20.60447718;4.78342952;6.288716741;4.871221688;-3.870979341;-5.639790585;2.352214545;2.194106975
13.39838405;15.65201329;28.91797784;15.45685801;9.479854319;-0.153001687;-25.9229823;-5.649439555;10.61955723;11.59233227;-72.54814708;22.46581747;6.437773719;8.036544431;17.07382092;1.371400908;-5.862144834;1.731549938;1.512984229
11.44544797;18.53537889;30.40979034;12.35362361;7.772112295;-0.146502267;-11.48280802;-6.179754796;10.43902423;9.949069759;-60.49834273;21.72228284;7.469431656;8.552068267;23.62759591;5.256947626;-5.231816549;2.797783998;0.810223183
8.93247212;20.37286017;28.37161628;4.495682539;5.859084835;-0.200092773;5.521136702;-7.052638988;8.950514044;8.050562907;-34.73812802;17.96906959;6.859653475;7.872464199;17.53943868;6.093364418;-3.975675233;5.022872412;0.513251256
5.593514048;17.90305581;21.26914156;-4.176851177;4.393039586;-0.28962408;16.51406252;-8.484286006;5.715556306;6.532008852;-11.11361159;12.46038239;4.283323985;6.728519;1.111517219;3.398584237;-3.051092702;6.139659654;0.603799884
0.992328135;8.959062456;8.922150645;-10.42711434;3.581414211;-0.366705404;17.38934478;-10.38429456;1.019335953;5.52843898;-1.528805289;7.321046659;0.415010541;5.897777042;-14.8550759;-1.696791086;-3.384344439;3.746236873;0.54491402
-4.686191608;-5.386140063;-6.323800602;-13.08605636;3.135818414;-0.380326887;11.04864917;-12.32838677;-3.984464335;4.629275553;-7.513798592;4.021088605;-3.424242001;5.548167256;-19.23113789;-7.088311648;-5.02943857;-2.724745347;-0.366348206
-10.32643571;-20.83579018;-20.19007813;-12.77183966;2.560276792;-0.305565825;5.070068359;-13.80168512;-7.831459851;3.306902533;-21.16270903;2.35285096;-6.086016645;5.094739973;-9.739813136;-11.00969035;-6.996597196;-11.23167469;-2.448465294
-14.40241818;-32.22636142;-28.72206356;-10.68142552;1.560422414;-0.161975059;5.977634359;-14.51644242;-9.649616804;1.454644077;-31.91552986;0.792311881;-7.295356962;3.69385936;4.504617405;-13.06778688;-7.96833217;-18.26277877;-5.303891729
-15.95706749;-36.62332658;-30.69777226;-7.674392106;0.28781102;-0.006785558;14.22744295;-14.54107406;-9.659768455;-0.418397066;-33.85103381;-2.031674937;-7.701426872;0.995935449;9.654384778;-14.20171879;-7.363098781;-21.13249691;-7.983735741
-15.23988103;-34.93603807;-28.36017676;-4.262897321;-0.736517321;0.096330248;23.6387413;-14.1545888;-8.831033652;-1.511622815;-28.49895815;-6.00944896;-8.23870567;-2.436540825;-1.945112044;-15.60255192;-5.869468726;-19.739797;-9.551042576
-13.44418487;-30.88388598;-25.76835607;-1.104788704;-0.952331907;0.113588601;25.7596499;-13.59399547;-8.004291865;-1.338068773;-22.00148529;-9.525548779;-9.308969938;-5.390697733;-25.20421682;-17.4886913;-4.966481505;-16.45963466;-9.631514809
-11.71708138;-28.0886419;-25.82211872;0.852352007;-0.116464164;0.057086369;16.0154786;-12.94403034;-7.281303845;-0.142666723;-19.60739872;-10.77960102;-10.44267352;-6.767203254;-45.51386685;-18.77674661;-5.764550196;-14.2523611;-8.547850601
-10.23236434;-27.43398902;-28.0664963;0.943369227;1.544982513;-0.031157834;-2.773695806;-12.24549044;-6.201044179;1.208147452;-21.91134927;-9.300820516;-10.706022;-6.279064022;-49.43988496;-17.95338128;-8.074234131;-14.43561089;-6.962810693
-8.094888417;-26.59799647;-28.89253672;-0.44137036;3.475175385;-0.114153801;-21.90007813;-11.64508223;-4.439977939;1.822854857;-25.26472651;-6.29843077;-9.502654708;-4.567432735;-34.62415448;-14.43181827;-10.4567566;-15.80345744;-5.340967735
-4.184649399;-22.02799701;-24.05391996;-1.774500522;5.114308373;-0.185480281;-32.04629792;-11.34587137;-2.252790545;1.460601509;-25.31653825;-3.499758836;-7.092734;-2.667190457;-11.25622424;-9.236756225;-11.24367633;-15.71786887;-3.666269711
1.716445478;-11.84156293;-11.76799541;-1.352518991;6.199366812;-0.264692177;-28.60950611;-11.33565726;-0.15249834;0.793071402;-20.48611669;-1.495348825;-4.396141252;-1.251916216;5.838134361;-4.401642382;-9.749587275;-12.2792961;-1.622480835
8.415970735;2.472118623;5.725756528;1.344585789;6.842674968;-0.367559091;-13.74815894;-11.16932498;1.839998008;1.01486444;-12.75505127;0.881764424;-2.256645201;-0.240515688;8.130967139;-1.543267362;-6.75347251;-5.891037447;0.946930312
13.84385737;16.71355958;23.16291193;5.055478511;7.343440247;-0.478458807;5.537889773;-10.13775388;4.500289898;3.000508465;-5.642103148;5.469913967;-0.801617003;0.958389683;-1.112280439;-0.781224657;-3.902350833;0.945317145;3.708248957
16.24140833;26.41712952;35.05639183;7.556624299;7.868340907;-0.551504416;21.36040715;-7.846112638;8.725313708;6.54146464;-1.4106737;12.83365562;0.554087915;2.801857714;-10.61624702;-0.883944919;-2.52407468;5.379159262;5.925143548
15.13414166;29.29706326;38.42484442;7.385299854;8.238014068;-0.542623803;28.27511382;-4.785469631;14.32600804;10.20461223;0.192958808;21.16675933;2.467694625;5.113647513;-10.58953313;-0.484738604;-2.763722369;6.130814545;6.899814633
11.42606767;26.08486592;33.81284744;5.10782772;8.000140394;-0.447125323;24.60783743;-2.335033242;19.42675782;12.00180122;0.963299573;27.14329589;4.949267869;7.138983968;-0.168534668;0.691260229;-3.662083063;4.163007179;6.417098873
6.658456952;19.44240796;24.27770032;3.021587995;6.775330563;-0.310410811;12.14316033;-1.99681411;21.27358965;10.54151262;2.21689616;28.19696959;7.194753525;8.100039063;12.778019;1.640317524;-4.038843042;1.715925595;4.854066802
2.085428913;12.00029719;13.35411621;3.3903001;4.64849479;-0.200294028;-4.772603497;-4.307536665;18.07497245;5.970233821;3.584209606;24.4411006;8.13671143;7.794459375;18.65555142;1.076621285;-3.437887385;0.571128351;2.901181726
-1.747082997;5.00630337;3.440595482;6.529484599;2.301331979;-0.160848862;-20.27854501;-8.256253882;10.49174036;0.063626682;3.526404597;18.63955551;7.269851882;6.754550512;13.85577027;-1.266714515;-2.397943794;0.912787872;1.14388085
-4.749541618;-1.629550999;-4.575198841;10.27411012;0.723762866;-0.183273355;-28.57080125;-11.76958944;1.500357346;-4.685570706;0.92944742;14.18656349;5.07079296;5.847248314;3.046325701;-4.17019059;-1.887202536;1.576595068;-0.174129824
-6.783689707;-8.273600932;-10.68302951;11.35124784;0.63387593;-0.215705648;-26.20489598;-13.04194404;-5.424382642;-6.489890899;-3.713084634;12.67285358;2.659216057;5.637884405;-5.255296065;-5.71872414;-2.405409801;1.338931377;-1.079917892
-7.477429778;-14.57071067;-14.96533075;7.713946624;1.978530291;-0.202853351;-14.21672683;-11.78709948;-8.5175091;-5.325424088;-8.542195771;12.94472185;0.961350132;6.007843878;-5.690199784;-4.716112552;-3.492903001;0.1165074;-1.638025537
-6.550648696;-19.35477652;-17.33913072;0.119523525;3.885292182;-0.123866314;1.662707609;-9.465256146;-8.700711809;-2.928538736;-11.75416241;12.32258132;0.029832133;6.290058594;0.115825685;-1.587703497;-4.038136124;-0.90311253;-1.80760545
-4.298262096;-21.44698056;-17.82676236;-8.227770077;5.155817931;-0.001083092;13.70454021;-8.270279295;-8.666688902;-1.699179825;-12.99906313;8.885295056;-0.96069074;5.774917845;5.5632344;1.909030907;-3.143594009;-0.27487304;-1.510532491
-1.676000877;-20.57865386;-16.83780196;-13.71205742;5.00916781;0.122177216;16.69721566;-9.598624885;-10.85507807;-3.205195123;-13.6316164;2.925275892;-3.053096726;4.183243143;4.692919936;3.865709414;-0.887668319;2.388475774;-0.802418423
0.232057272;-17.62646046;-15.00577845;-14.53040981;3.579974451;0.212616178;11.34928018;-13.11996167;-15.85027345;-7.259031149;-15.63441856;-3.520459722;-6.683429678;1.788970613;-3.394905195;3.339714642;1.591731616;5.867069276;0.066022648
1.007878955;-13.96073974;-12.63895989;-11.52782352;1.821506222;0.261854226;3.865741061;-17.10146181;-22.24059642;-12.14766119;-20.04686059;-8.488255489;-11.27675297;-0.811598642;-14.56532274;0.633739326;2.763805648;8.017378437;0.796365713
1.293806537;-10.44068611;-9.30281957;-7.154935756;0.872974358;0.27849736;1.514441585;-19.67365518;-27.76943475;-15.80033496;-26.05691292;-11.59276507;-15.50715231;-3.030696674;-23.4377575;-3.253605692;1.66456731;7.217240592;1.2801658
2.38202568;-6.859677161;-4.023228449;-3.470217996;1.329372589;0.271236403;7.098915769;-20.03804332;-30.73102497;-17.04871914;-31.38515375;-13.95741851;-18.00475302;-4.471992149;-27.41409713;-7.353968012;-1.491224284;3.535642331;1.697684454
5.225738093;-2.274803242;3.901020164;-0.75774811;2.914583099;0.241303509;16.4370419;-18.74278929;-30.65330446;-16.1293119;-33.66963216;-16.78260288;-18.05065726;-4.930156673;-27.79715452;-11.01189334;-5.426956037;-1.207817671;2.355734843
9.590181153;4.032102465;14.03393309;2.240068359;4.753344745;0.189166087;21.02439264;-16.95461943;-28.1009855;-14.18767602;-31.91119071;-19.97134212;-15.89068382;-4.357245179;-27.67772101;-13.68733982;-8.539951282;-4.538763988;3.377219035
14.00277047;11.68900788;24.569924;6.781572672;5.997854315;0.124194355;14.26828995;-15.44773424;-24.11280338;-12.28823323;-27.05543681;-22.11;-12.5739099;-2.921490082;-28.87861352;-14.75485192;-9.766781905;-4.828915781;4.505177971
16.58479448;19.11956968;33.00207841;12.59552934;6.328449257;0.063586222;-3.154928595;-14.16796049;-19.80701663;-10.73860609;-21.3867932;-21.79970686;-9.458817799;-1.094727289;-30.55361841;-13.71615516;-9.052726605;-2.202072285;5.209035509
16.19873965;24.29782051;37.31651716;17.63348883;5.989626262;0.019612526;-22.88315109;-12.64459613;-16.22187697;-9.192373009;-17.16454733;-19.05982432;-7.623269788;0.426212685;-30.20455856;-10.70344445;-7.19455782;1.71560334;5.03661499
13.1220027;25.87864799;36.95342465;19.34266505;5.41371511;-0.011857117;-33.98686869;-10.75785945;-14.11888079;-7.313266429;-15.3732633;-15.45382365;-7.407644374;1.05715087;-25.81748413;-6.713057261;-5.233109343;4.965535664;3.948089092
8.81430064;23.94546121;32.93032484;16.50050373;4.80027797;-0.04856142;-30.17046357;-9.09438708;-13.63799597;-5.340306832;-15.34883092;-12.77733214;-8.282272366;0.745142814;-17.2806378;-3.159584344;-3.82833679;6.510710774;2.373322756
4.99157822;19.86374842;27.09307995;10.21443126;4.008690293;-0.106072721;-13.99218769;-8.548775436;-14.10629215;-4.039224603;-15.46766806;-11.51586203;-9.148249431;0.111387159;-6.328120958;-0.976984904;-3.009509606;6.726810487;0.947804846
2.666479843;15.32201504;21.02835484;3.32608782;2.813196641;-0.184164998;4.90472145;-9.545521978;-14.39779621;-4.103952704;-14.40607483;-10.54263933;-8.99827973;0.094210972;4.391360793;-0.003369136;-2.405540942;6.847651771;0.12711268
1.763582601;11.19649868;15.34797181;-1.344512447;1.241878414;-0.268974526;16.31301315;-11.61138005;-13.79039092;-5.564503765;-12.11274627;-8.409491708;-7.615159307;1.258121089;12.18142907;0.768444206;-1.72522677;7.821291612;-0.041195585
1.458402554;7.028581074;9.748523789;-2.645264097;-0.341558985;-0.348427574;16.14924195;-13.71188352;-12.67299027;-7.738433841;-9.833906229;-5.072849136;-5.848798503;3.267737931;14.8513524;2.234517462;-1.097312237;9.438023172;0.151090962
0.895496806;1.528574022;3.701854614;-1.501951967;-1.504824237;-0.423871324;8.669799706;-15.07371712;-12.38771098;-9.766343902;-9.180366213;-2.385893145;-5.181049779;4.984023197;11.35942307;4.344559706;-1.001513601;10.38424576;0.345641438
-0.242071407;-6.176472539;-2.773510783;0.066197308;-2.122136903;-0.503819813;2.8020085;-15.77380182;-14.16130658;-11.25158913;-10.90266878;-2.711580133;-6.747732084;5.199554683;2.696208399;6.15975398;-1.840442421;9.200860778;0.366645399
-1.640024414;-15.40621908;-8.817572153;0.46419468;-2.502469315;-0.584770532;5.326371883;-16.57991852;-17.94626035;-12.44561482;-14.26294955;-6.722775965;-10.44092963;3.515091188;-7.694493237;6.789860859;-3.492985185;5.456435338;0.273598139
-2.689646429;-23.78706687;-13.10369416;-0.5802272;-3.126712748;-0.640279586;15.77928902;-18.18916133;-22.21441329;-13.84437083;-17.47333266;-12.3334035;-14.77320022;0.696975378;-14.95638489;6.364020095;-5.232850372;0.266483984;0.223444345
-2.942101463;-28.38139825;-14.60343435;-2.276067807;-4.201029217;-0.634723975;26.63349138;-20.53674478;-25.00644264;-15.59520912;-18.89195434;-15.89317555;-17.71054662;-1.79017995;-15.36734134;6.089799644;-6.140165002;-4.254742434;0.29218602
-2.363715645;-27.45481962;-13.19713299;-3.750237617;-5.412241789;-0.554240465;28.57312173;-22.77422442;-25.42657416;-17.26992073;-18.10392561;-14.88666125;-17.96875794;-2.763209148;-8.892759665;7.235163455;-5.751413686;-6.250498729;0.408736035
-1.271164105;-21.68354774;-9.696842123;-4.78647608;-6.111584901;-0.426667656;17.16349514;-23.91860986;-24.29925046;-18.20090979;-16.10343925;-10.00416139;-15.86651917;-2.103868563;0.349718117;9.86808788;-4.471307789;-5.201231797;0.435655256
-0.049370479;-13.8545498;-5.256276374;-5.689242405;-5.788572214;-0.307378769;-3.683008515;-23.59204413;-23.37421381;-18.04319761;-14.47760159;-4.822477912;-13.0998557;-0.783023938;6.552522569;12.50140701;-3.399934827;-2.068581092;0.306586755
1.133090421;-7.111479804;-0.578123605;-6.512009701;-4.445243195;-0.237883657;-23.79969556;-22.22072237;-23.74205374;-17.01858125;-14.24301799;-3.217150913;-11.5860606;-0.137982712;6.123453658;13.08060551;-3.641973106;1.557222541;0.09886251
2.426793549;-2.89140299;4.502003878;-6.524048534;-2.565939205;-0.212478746;-32.99812089;-20.57167591;-24.86198419;-15.61833298;-15.21493641;-6.488044812;-12.22423414;-0.964015254;0.135275579;10.59290437;-5.563162617;4.619760992;-0.010711029
4.159144237;-0.051865431;10.70607124;-4.606630982;-0.727528678;-0.186046341;-27.29267967;-19.10299107;-25.09654926;-14.08644038;-16.32770133;-12.45712512;-14.47035227;-3.075875641;-6.66873011;5.976126113;-8.52994547;7.165075187;0.137200176
6.524173029;4.063838773;18.43283984;-0.394576058;0.797594161;-0.120703489;-11.06924508;-17.74310723;-23.30316115;-12.24655811;-16.56479654;-17.23229405;-16.97331659;-5.585899275;-9.611762547;1.52439015;-11.33391199;9.907103836;0.582153681
9.286091356;11.28285398;26.90983291;4.832324466;2.101286584;-0.030405739;6.076477252;-16.27756824;-20.05140639;-9.911930772;-15.71832204;-18.20139962;-18.68743433;-7.5873653;-7.595371211;-0.781291748;-13.00101964;13.20302487;1.215252395
11.70162023;20.68346333;34.05191182;8.490102785;3.335356811;0.021622881;15.57722087;-14.91732648;-17.32945969;-7.50507616;-14.41353584;-15.8738375;-19.54340327;-8.677764674;-3.568190546;-0.687695947;-13.3985268;16.34379469;1.824958739
12.77592505;28.63547243;37.29086766;8.310677968;4.359645513;-0.02164462;15.0306895;-14.4183402;-16.94059404;-6.199135556;-13.48010399;-13.18046418;-20.18823115;-8.978606361;-1.672217533;0.29566136;-13.2079515;17.8179353;2.181669111
11.77717742;30.97303967;34.98124863;4.143996816;4.714652035;-0.148161065;8.957782815;-15.5233067;-18.97630143;-7.232646381;-13.26171126;-12.92242913;-21.11860625;-8.772890513;-3.586222007;0.224421587;-13.31499675;16.4053087;2.124666602
8.738047433;25.86759467;27.51837091;-1.528150647;3.997566645;-0.267304487;4.942205447;-18.15287363;-21.70499144;-10.80777754;-13.42059063;-15.49968889;-22.03421452;-8.172991397;-7.221384132;-1.71168352;-14.10218159;12.24920535;1.628503253
4.610558099;15.33676933;17.38500125;-5.010941054;2.33184827;-0.273986198;7.984941326;-21.0868568;-22.96442611;-15.49234295;-13.30181215;-18.70398945;-22.00569442;-7.120439774;-8.820354458;-4.637436426;-15.17896608;7.026678435;0.830962685
0.902557197;4.210933175;7.98085695;-3.912346593;0.487897503;-0.140463576;16.95965149;-22.53502725;-21.82108597;-18.79067261;-12.44746934;-19.59437012;-20.30326156;-5.647468407;-6.497225429;-6.80328679;-15.71904348;3.027006793;0.005055202
-1.053672829;-2.814170597;1.890029297;1.059458951;-0.525983635;0.043480179;25.45807399;-21.26659781;-19.0622441;-18.65202511;-10.805461;-16.80365521;-17.13111136;-4.063871769;-1.990682554;-6.961825915;-15.09769474;1.802043191;-0.527929767
-0.776637316;-4.011378666;-0.345430307;6.458132219;-0.134583204;0.126732108;26.25990529;-17.46771759;-16.1860199;-14.86388374;-8.547755951;-11.41261919;-13.58994677;-2.819233851;0.978917053;-5.128217396;-13.3166979;3.37479348;-0.514840113
1.178229791;-1.383688128;-0.172603948;8.510824157;1.391132604;0.014416617;16.28633377;-12.66537371;-13.92878455;-9.252231344;-5.804425605;-5.852392561;-10.87599787;-2.13646391;0.278740066;-2.200451574;-10.91916244;6.52636073;0.138851744
3.653795084;1.106685488;0.240596327;5.887116177;3.124422183;-0.246582649;-1.231569031;-8.767544081;-11.74743728;-4.472807147;-2.651843326;-1.95115641;-9.410591285;-1.77732068;-2.403596605;1.031632564;-8.531138922;9.82325799;1.349983459
5.660928111;0.491900439;-0.388804635;0.767255159;4.150445743;-0.490317172;-18.58692606;-6.937861945;-8.715938701;-2.265062322;0.638537113;0.176670505;-8.666946087;-1.217072478;-2.799746966;4.476795497;-6.449787009;12.51274389;2.910119269
6.961406705;-3.191783912;-1.607538645;-2.64444993;4.202352944;-0.553710556;-27.98536992;-7.104971119;-4.909282736;-2.466141752;3.421302078;1.599357018;-7.846802547;-0.132987688;2.176706466;8.41321681;-4.60551852;14.63015413;4.564822906
8.077880062;-7.168968846;-1.673241037;-1.113133294;3.782940925;-0.404038146;-25.61421829;-8.358860389;-1.845796896;-3.477647153;4.880854344;3.095964049;-6.795042481;1.21076908;11.40970839;12.67969532;-2.864672261;16.40745106;6.070565201
9.760160472;-8.086435246;1.08035526;5.322773083;3.70409442;-0.167251226;-13.13346405;-9.787650993;-1.428526746;-3.72393419;4.557133052;4.206740737;-6.304643764;2.059002103;20.02470913;16.31985444;-1.341088461;17.67675306;7.2176089
12.32587214;-4.381347533;6.975433482;13.42854355;4.43654334;-0.029538039;3.740818625;-11.03698208;-4.267265631;-2.881259448;2.76640198;3.674348799;-7.480826116;1.723184526;23.04732641;18.1595681;-0.407615782;17.8986212;7.84705925
15.36476283;2.812041264;14.72201958;19.13626756;5.790345;-0.088876683;18.18121477;-12.21664389;-8.921883016;-1.911866;0.506191311;0.798976818;-10.66649708;0.164892882;19.220183;17.83055808;-0.402845134;16.79074796;7.889888373
18.0026458;10.66342106;22.28598018;20.4024148;7.147430324;-0.277543945;24.94783123;-13.39332394;-12.84258423;-1.977994985;-1.151395406;-3.623184087;-14.85806787;-1.894699667;11.75987413;16.21459742;-1.322681241;14.90129564;7.415023687
19.4957572;16.59730788;28.18726225;18.45519719;8.004356813;-0.420717486;21.87747556;-14.24560297;-14.27142547;-3.25334784;-1.72821437;-7.713425411;-18.17718098;-3.469191216;5.481864085;14.74096094;-2.797263339;13.45993168;6.63787757
19.69606048;19.70427579;32.23505963;16.60446307;8.347066469;-0.384324341;10.210617;-14.24590515;-13.49297581;-4.701555098;-1.555083222;-9.953246789;-19.10116995;-4.030749684;2.857719037;14.05478419;-4.375904505;13.48637245;5.854963567
19.05647311;20.74470902;35.17925208;17.62831667;8.556511126;-0.190092163;-5.862429676;-13.19895494;-12.38846678;-5.022968747;-1.396613132;-10.36885052;-17.51495695;-3.879042686;2.43754973;13.27985238;-5.842119598;14.86866616;5.329193332
18.21231486;21.02914015;37.61733619;21.73065362;8.965533159;-0.001420127;-20.37427236;-11.60650354;-12.74219586;-3.935286332;-1.829847915;-10.37714666;-14.76775095;-3.846108767;0.90968624;10.70123699;-7.247544897;16.25985648;5.197928828
17.48603422;21.20451188;39.07881875;26.48744336;9.483888002;0.009775699;-27.61861048;-10.4652626;-14.81014796;-2.639821414;-2.877690975;-11.41023224;-12.69961287;-4.569831549;-3.202728052;5.452401724;-8.628985617;16.00787324;5.459662782
16.68580148;20.83043763;38.06828534;28.61558064;9.630929047;-0.193931756;-24.69775964;-10.60695054;-17.34109498;-3.002540504;-4.118944012;-13.54880514;-12.39923605;-5.928734128;-7.684188006;-1.216359222;-9.702750559;13.44483374;6.024543268
15.31313089;18.87110302;33.09601123;26.10007813;8.944650928;-0.480458085;-13.32397606;-12.10333262;-18.8743115;-6.071408542;-5.071639497;-15.41848099;-13.6214619;-7.106812541;-8.436792002;-6.330516705;-9.893575872;9.493105139;6.758040744
12.98116314;14.55246231;23.9418662;19.17040798;7.401748143;-0.650122412;0.642002846;-14.22074468;-19.01196754;-11.13377927;-5.473016149;-15.493552;-15.22300424;-7.247402235;-3.453979765;-7.164998836;-8.764716871;6.052119797;7.468306823
9.716287562;7.927973343;12.18613201;9.715574992;5.474963715;-0.591296449;10.32540003;-15.95760893;-18.50390716;-16.10003906;-5.278822873;-13.67532027;-16.163583;-6.176052984;4.613911285;-3.331479791;-6.51590995;4.617291614;7.872392912
5.946134401;-0.111961895;0.56253903;-0.042697824;3.771626601;-0.364155978;12.07361217;-16.72959273;-18.20034089;-18.93465169;-4.524382221;-11.69800934;-16.23150855;-4.612286147;9.811113199;2.729826747;-4.077580955;5.224333794;7.636427683
2.23479103;-8.211007649;-8.451221111;-8.451143222;2.560428202;-0.147792903;7.926614563;-16.67488326;-18.02491575;-19.02655319;-3.28387399;-11.87220644;-15.96676004;-3.69209862;7.32417307;7.371933201;-2.614444706;6.556571357;6.540533128
-1.000049591;-14.99142507;-13.83868014;-14.42762159;1.589180837;-0.097529908;4.211808465;-16.39291055;-17.04338586;-17.46764869;-1.757357655;-15.11066766;-15.96040726;-4.159202241;-2.531980784;8.303653937;-2.747198662;7.10281591;4.688770407
-3.581639689;-19.41705356;-16.24086606;-17.07311386;0.347722645;-0.228777314;6.80553572;-16.39290088;-14.55262539;-16.09536323;-0.276182334;-19.87209896;-16.20207189;-5.830117889;-14.11747948;6.12688979;-4.085706207;6.402409707;2.586108139
-5.452601958;-21.06822677;-17.07997554;-15.71876096;-1.444888389;-0.416569454;16.29104632;-16.72341861;-11.04200041;-16.1085891;0.938551391;-22.99481398;-16.04485091;-7.718091342;-20.35232742;3.669612061;-5.472451085;5.370078125;0.954719006
-6.482032219;-20.28271367;-17.30637714;-10.61846118;-3.53312258;-0.503138816;26.7471941;-17.04677748;-7.964581738;-17.32344118;2.105659965;-21.89514172;-14.79474029;-8.705745672;-17.68129439;3.678161877;-5.792272147;5.476840087;0.354434152
-6.386021509;-18.00681237;-16.68896278;-3.588938636;-5.247360951;-0.421878913;29.50305185;-17.02731287;-6.445449025;-18.54571747;3.895194402;-16.4929274;-12.40660961;-8.27421175;-8.306355895;6.70803767;-4.750911186;7.498796327;0.857329153
-4.845242649;-15.27540167;-14.11958666;2.355383312;-5.954113944;-0.241269909;19.47638657;-16.66851923;-6.186224644;-18.63817855;6.893260319;-9.401687812;-9.702932769;-6.796736622;1.846556007;10.82874637;-3.040384785;10.85312069;2.029320373
-1.752064598;-12.55244674;-8.641420766;4.566636301;-5.480167844;-0.103790519;-0.490665017;-16.33359031;-5.742931892;-17.3902709;10.83033139;-4.23785736;-7.936377182;-5.246963385;7.565771273;13.2514554;-1.789611363;13.99587329;3.255503396
2.574930125;-9.433804451;-0.407822778;2.556500009;-4.200750942;-0.118015987;-20.70918784;-16.48554611;-4.055587803;-15.57650521;14.2822931;-3.307687404;-8.028774191;-4.573005678;7.639084311;12.46382826;-1.752454354;15.47;4.169764422
7.360291526;-5.081924212;9.120755454;-1.447145547;-2.763141191;-0.289587683;-30.67624064;-17.4008293;-1.805606838;-14.3018756;15.33462028;-6.331947601;-10.03152162;-5.164547061;4.687998609;9.155184485;-2.860451214;14.72889011;4.849344606
11.58;0.803114465;17.84592318;-3.889373315;-1.689707867;-0.534031021;-25.89846495;-19.07238271;-1.173661644;-14.25347145;12.91838628;-11.00849663;-13.14472421;-6.712982116;2.213996682;5.322602963;-4.432504126;12.17425074;5.618564527
14.33820323;7.234567461;24.05753191;-2.420437937;-1.153833881;-0.745873315;-10.65187241;-21.30505173;-3.986061025;-15.42196767;7.8236766;-14.82287592;-16.21909124;-8.477417909;1.618511933;2.478003196;-5.785073285;8.592240424;6.637459172
15.24200657;12.16833461;27.11366576;2.274771013;-1.039264497;-0.863066917;5.254792041;-23.8441889;-9.815962684;-17.36789851;2.464798955;-16.68560062;-18.37392809;-9.737875082;1.56630627;0.538223565;-6.690039063;4.642695227;7.649345952
14.57934869;13.75693115;27.39647889;6.827269759;-1.158976175;-0.885278908;13.29;-26.41101055;-15.83871595;-19.66445399;-0.611844405;-17.27465706;-19.36708139;-10.16323126;-0.21748234;-1.725011477;-7.319424955;0.855643137;8.138906326
13.17512277;11.76585642;25.72210318;7.589071326;-1.420934009;-0.851057461;11.65243512;-28.67779504;-18.79578993;-22.11125167;-0.428274865;-18.05095231;-19.57126868;-9.921601454;-4.660583171;-5.196888561;-7.805621076;-2.039378802;7.793448719
11.96250685;7.980273031;22.7384754;3.355025688;-1.830691462;-0.806701159;5.614515722;-30.31071478;-17.5278832;-24.63031429;1.838611049;-19.88679943;-19.64647652;-9.514720858;-10.60167141;-9.283355155;-7.89241943;-3.03118372;6.86842776
11.48101282;5.101940218;18.75766578;-3.6534987;-2.390534839;-0.789676516;2.871825187;-31.12745999;-13.9163434;-27.0706649;3.880198384;-22.38864035;-20.11395416;-9.444046297;-15.94249489;-12.1454491;-7.050579822;-1.333718693;6.102254771
11.5918172;4.841014764;14.05032173;-9.312310069;-3.03016729;-0.822264248;7.577312346;-31.24724038;-11.35821269;-29.17;4.094246205;-24.31011439;-21.03301309;-9.884937179;-19.29664575;-12.09168476;-4.984181096;2.842999176;6.193662195
11.60138604;6.658665905;9.231615773;-10.48514203;-3.635234447;-0.900690683;17.39754503;-31.04749073;-12.01184154;-30.6869249;2.775036525;-24.57311529;-21.92137272;-10.54794052;-20.52241675;-8.922332997;-2.06673641;8.014652618;7.244975786
10.73697075;8.212727138;5.300926763;-7.109231821;-4.120087891;-0.981526968;25.40823301;-30.88456062;-15.12232572;-31.51160471;1.735315986;-23.0352951;-21.97348783;-10.82897685;-19.87772693;-4.102549368;0.725849296;12.10809366;8.641744184
8.675742783;7.235801303;3.198915334;-1.964683433;-4.449626431;-0.987401458;25.07110519;-30.77250916;-17.80109321;-31.61049397;2.743145176;-20.47371535;-20.50670503;-10.19700065;-17.0093934;0.322547129;2.391492535;13.75817365;9.500206973
5.774737275;3.386459095;3.168874828;1.564741657;-4.587456229;-0.848094589;14.60464972;-30.31281748;-17.51259221;-30.89190534;6.105575981;-17.93182216;-17.42088853;-8.602965821;-11.11399193;3.103985378;2.541036275;13.22749446;9.339014112
2.846411887;-1.423872065;4.422412495;1.911768844;-4.446610361;-0.559051787;-2.038109084;-28.99894606;-14.09426356;-29.21762662;10.52473476;-16.0277381;-13.38777629;-6.633403003;-2.288902447;4.321999105;1.579102941;12.13848372;8.426670512
0.648439106;-4.517573755;5.444816953;0.074998713;-3.929761999;-0.209797202;-17.697504;-26.69834837;-9.64700738;-26.64501479;14.21282577;-14.73897613;-9.595237127;-5.257119616;7.326911806;4.755474165;0.283949527;12.13298234;7.513523502
-0.534564606;-4.549283509;4.844781835;-1.709241024;-3.047784305;0.054515179;-25.90825782;-23.918566;-6.570842983;-23.68547606;16.21322262;-13.71594198;-7.144692298;-5.277265713;14.07802099;4.803182271;-0.846959316;13.49403108;7.174366232
-0.915858057;-2.487705718;2.258357137;-2.079051687;-1.997933434;0.123775491;-23.7212068;-21.58985339;-5.607455989;-21.23297238;16.83309688;-12.75505591;-6.461374378;-6.826413849;14.97450126;4.01438656;-1.920883518;14.86757091;7.326205376
-0.850120079;-0.663268267;-1.266899275;-1.588761629;-1.087460774;0.001058111;-12.35520445;-20.47114627;-5.584586244;-20.04948312;17.00574445;-12.00145456;-7.108031902;-9.246466287;9.875614453;1.664800431;-3.369135216;14.36220007;7.344246156
-0.414843336;-0.678530101;-3.692242925;-1.836474537;-0.522258411;-0.196856359;3.829421858;-20.60961963;-4.878877485;-20.13287431;17.36126704;-11.74064495;-8.129210916;-11.44718478;1.782974394;-2.185680742;-5.321759457;11.1670229;6.683749233
0.701975632;-1.94637799;-3.018043023;-3.539653091;-0.22643144;-0.323993582;18.98558231;-21.27900268;-3.043203713;-20.52538948;17.90294238;-12.00163543;-8.676155303;-12.50761458;-5.148437754;-6.19465584;-7.215146404;6.366647689;5.46314275
