Channel 1 - P4;Channel 2 - O2;Channel 3 - P8;Channel 4 - T8;Channel 5 - C4;Channel 6 - Cz;Channel 7 - Fz;Channel 8 - F4;Channel 9 - Fp2;Channel 10 - F8;Channel 11 - Fp1;Channel 12 - F7;Channel 13 - F3;Channel 14 - C3;Channel 15 - T7;Channel 16 - P7;Channel 17 - P3;Channel 18 - O1;Channel 19 - Pz
-30.47651234;-39.53371564;-24.26992813;-36.14965335;-20.56859733;-14.89;49.49052695;-22.90756174;21.16844627;-31.09125614;9.846345226;-20.24672465;-10.37007813;-9.009934605;-24.00298806;-20.85413347;-18.13133727;-35.68576918;-23.49124534
-24.62663775;-29.52837976;-13.6415519;-29.65422566;-13.17080567;-9.522775603;70.05382324;-13.19095678;51.62931277;-17.32025166;51.02333334;-17.20336179;-3.248024211;-3.694279155;-22.54783508;-12.8995689;-13.01452925;-26.47055314;-17.55
-11.62271326;-9.878476156;-1.398313431;-15.12127648;-3.58998906;-1.714210321;54.47651123;-2.121948754;46.58255456;-0.032542353;59.02055814;-10.03106878;1.703651539;-1.133157831;-17.75003906;-4.543339885;-6.702475491;-7.31301514;-6.930985961
0.735227118;9.360146298;7.223871554;-0.200933626;2.883282908;4.044098651;16.86568194;3.911796463;12.6310558;12.70007813;31.9057783;-5.629727892;0.321089757;-2.796682627;-12.32095623;-0.75151169;-2.392200535;11.38852569;2.189804924
6.305025413;19.74489463;10.33332078;8.396300624;3.701488273;5.072962603;-15.74674753;2.54390617;-24.38044432;16.81172457;-8.555258835;-8.686090047;-6.765825825;-7.19420479;-9.32659008;-2.612839686;-1.396221654;20.8017707;5.398853692
4.394389254;19.52966143;9.82965966;8.925824544;0.476182372;2.079560548;-23.25215791;-3.487915783;-39.15711526;14.33924377;-34.34007813;-18.28170488;-15.11934802;-11.34554566;-9.875095044;-7.12562107;-2.756989124;19.1459966;2.70566265
-0.640582196;13.55930925;9.114845099;4.8526811;-2.715171465;-1.776088694;-5.951626209;-9.021706801;-25.12507146;10.87736709;-31.46027218;-28.73634306;-20.09408191;-13.0658164;-12.45479138;-9.950552716;-4.432289148;11.75906837;-2.082151485
-3.262161651;8.692040618;10.22204824;1.55102957;-2.632113547;-3.434814529;18.23479104;-10.54916704;2.661197255;10.74199706;-7.945538427;-33.92075022;-20.11189286;-12.29617976;-14.32760216;-8.774210552;-4.940068359;6.219780141;-4.51511077
-0.863630741;8.710019531;12.68731167;2.230250336;0.834619691;-2.085382724;29.60264405;-8.452933992;21.03389135;13.79790011;15.10686773;-31.64414023;-17.18884803;-10.64180271;-13.66494594;-4.655857977;-4.187132901;6.645110059;-2.651379785
4.923268938;12.54467164;14.76231072;6.102626883;5.011349898;0.635032983;22.19835092;-5.91359429;17.04301439;16.27489496;20.87205297;-24.81632568;-14.66766979;-9.748225795;-10.64834267;-0.551108568;-3.030029297;11.4906908;2.070362944
10.2946155;16.54952672;15.53360843;9.779732535;6.879466366;2.299056491;6.737867965;-5.783711581;-3.408189379;14.52060407;8.564775081;-18.7399922;-14.31458757;-9.958010051;-6.833789652;1.460475992;-2.177427075;16.02660204;6.545652938
12.62550361;18.26398921;15.90690084;10.35355894;5.476053914;1.704478606;-0.47294118;-8.214395848;-22.41276379;8.352266006;-8.496620731;-16.91063696;-15.20573712;-10.26954373;-3.625093321;1.799591633;-1.477417699;16.88417744;8.625467236
12.28988718;18.3018649;17.63576836;7.578406619;2.376504899;-0.361247914;7.523540505;-10.89520881;-25.50935216;1.262662824;-15.22223309;-18.68634691;-15.08833131;-9.435291998;-1.320443498;2.594162386;-0.163345993;14.72989121;8.493289668
11.72151852;19.06831314;21.43055559;3.648472121;0.103234886;-2.045011131;22.30425857;-11.39147437;-12.64297652;-2.469609653;-6.63132638;-20.46397093;-12.75075011;-7.126731802;0.564486299;5.371928234;2.263276139;13.09381054;7.920332889
12.88352211;21.92379497;26.00083187;1.156278759;-0.009393688;-2.082006946;27.65291098;-9.338386275;3.647708607;-1.164186381;9.762774571;-19.09147429;-9.206269008;-4.172881706;2.299281372;9.419827409;5.368986597;14.77942417;8.344131953
15.48816099;25.61167887;28.98558047;1.136660071;1.31382893;-0.744865033;13.8885574;-6.583015149;10.00966331;3.201273445;21.51188449;-14.55639333;-6.705303542;-1.779050773;3.445300316;12.31304547;7.956905782;19.19189358;9.55825992
17.41680265;27.36651109;28.9729134;2.703626689;2.254431704;0.604530515;-13.31015691;-5.313434463;3.366313731;6.940751103;21.43098217;-9.802175172;-6.578890112;-0.514610451;3.391183784;12.12898257;8.923523817;22.86841249;10.07077623
16.77;25.5551836;26.79643845;4.241342814;1.682256668;0.818744134;-36.80907725;-5.985763827;-7.753333256;7.763360413;12.21742426;-8.024587295;-7.918756997;0.023989598;2.279966605;9.329705517;8.06641127;22.57746757;8.64456712
13.62500706;21.3240215;24.91431566;4.855757003;0.143865193;-0.074357764;-41.12594702;-6.929834509;-11.77045887;6.37826002;2.921238904;-9.852182272;-8.292761669;0.648378997;1.221682523;6.563756545;6.171738735;18.16522549;5.546943597
9.978597989;17.69773484;25.36229567;4.835341656;-0.729490694;-1.036138926;-23.91430604;-5.924309787;-4.337223299;5.43296754;1.391526316;-12.77275127;-5.858211554;1.706756755;1.408760868;6.468016244;4.344253563;12.68119239;2.399863158
8.027000959;16.92908749;28.02694648;4.974459316;0.242240686;-1.049939935;3.055437744;-2.266188712;8.548139786;6.95779621;9.05631762;-13.19409861;-1.009671932;2.73495344;2.954050372;9.34165968;3.176342736;9.763978758;0.821072728
8.357424338;18.48014969;30.71514569;5.653255299;2.710369106;-0.040150875;23.3147262;2.524614448;16.63280729;10.63840864;21.20142393;-9.352878913;3.870235257;2.936900115;4.707665546;12.74351188;2.449559661;10.61115341;1.096726149
9.602325775;19.44131321;30.95430095;6.614668793;5.086925711;1.119984349;27.27608814;5.956945949;14.70179901;14.31165777;30.98417184;-2.696118183;6.326184631;2.02640628;5.435107471;13.44961565;1.566338414;13.10610265;2.036766504
9.759048429;17.0288355;27.99518247;7.518439901;5.875752344;1.448234379;17.01632492;6.635036761;6.770974619;16.03414449;33.20163431;3.268446784;5.76363266;0.634225735;5.31615471;10.17246132;0.271095233;13.7290202;2.081818445
7.948648386;10.99144578;23.35677676;8.514653217;4.857184326;0.737561456;1.862774229;5.337341343;1.893270749;15.7601685;25.55552068;5.575959529;3.789789092;-0.121790153;6.165039766;4.738234719;-1.011188546;10.50759688;0.648249797
5.102491116;3.872385663;19.52544671;10.10229818;3.154511505;-0.301695806;-9.990058594;4.239462162;5.797157123;15.17197969;8.263041325;3.733756628;2.754919706;0.440947644;9.789776828;0.670012207;-1.532809371;4.497173899;-1.448760625
3.083500775;-1.045434219;17.9699257;12.36506924;2.231730457;-0.721389483;-16.38573135;5.04914576;15.93143397;15.95642279;-16.00534735;-0.406948576;3.801013196;1.936653543;15.72501199;0.293486143;-0.968823558;-1.327216324;-2.793206122
3.105505054;-2.321182411;18.13609816;14.43858707;2.756000733;-0.185641652;-19.56182789;7.699367615;24.0562859;18.19062946;-41.52351788;-4.44371056;6.058010765;3.108752658;20.50778086;2.742520756;0.109070785;-4.643983509;-2.620190742
4.826957529;-1.316005226;18.16470364;14.94381405;4.261433893;0.77108643;-21.21494978;10.6473117;23.69668812;20.29753225;-60.02641678;-7.221773534;7.562008344;2.709738769;19.65478999;4.530681931;0.476624969;-5.560676035;-1.417232339
6.796428371;-0.855122068;16.58466263;13.17307824;5.757979925;1.271739201;-19.9392155;12.36524168;15.69235321;20.53369955;-63.94809692;-9.212098487;6.992533037;0.373532412;11.18941356;2.263039976;-0.922910415;-6.179803708;-0.408969251
7.718421441;-2.865926761;13.47276489;9.945287528;6.60949073;0.897183448;-13.4396374;12.61645388;7.123167527;18.58901585;-51.25483067;-11.42173186;4.716500602;-3.164458909;-2.08710739;-4.672001312;-4.196783301;-8.520576228;-0.458952303
7.373699373;-7.006110509;10.14544244;7.167144251;6.878642123;0.034031985;-2.624327997;12.42506596;4.919990223;15.84384513;-28.1686068;-14.04546349;2.340360824;-6.594686475;-13.77488288;-13.54971007;-8.349304273;-12.70495706;-1.389420359
6.465614973;-11.28114074;7.789002685;6.261123262;6.940366094;-0.513370559;7.347676671;12.90474325;10.00504801;14.10843137;-6.640039063;-16.1455982;1.300360856;-8.840569389;-18.06888612;-20.26952382;-11.86500333;-16.92688201;-2.279116412
5.693997989;-13.87991308;6.339291577;6.771763856;6.876853053;-0.260781998;10.84306558;14.12753273;16.98693676;14.0480601;2.69334994;-16.58792711;1.778107588;-9.55360868;-13.94710586;-22.22381397;-13.59429684;-19.06854421;-2.393607072
5.018572977;-14.5131303;4.626633344;6.522351371;6.318343713;0.544135201;7.011151888;15.09236043;19.29926709;14.72719094;-2.70377262;-15.28122562;2.811520391;-9.054808095;-6.027508442;-19.85989816;-13.32585936;-18.42879557;-1.860942964
3.803433109;-14.17258221;1.622193802;3.457719338;4.887033468;1.184708014;1.200782933;14.76886501;14.95980909;14.62736299;-15.93537048;-13.51145944;3.343564419;-7.941690828;-1.199269727;-15.89728031;-11.71520304;-16.07449826;-1.490131137
1.644594392;-13.75785903;-2.371063411;-2.237355314;2.76362575;1.140630344;0.515502147;13.18362166;7.922245473;13.13762349;-26.03821571;-13.00586129;3.16191219;-6.751375962;-3.467236227;-13.0656508;-9.728076782;-13.66248994;-1.944139054
-0.974150668;-13.01340586;-5.682069786;-7.628639595;0.754073416;0.538035525;7.096585398;11.504525;4.185815164;11.12583437;-25.99692163;-14.51363705;2.900039063;-5.868672572;-10.97646425;-12.27366842;-8.059979953;-11.93691777;-3.065620662
-2.880485128;-10.82134034;-6.465738952;-8.863449657;-0.281017441;-0.008226629;15.32087519;11.03926516;6.461538809;10.0961022;-17.24241595;-17.1284733;3.214440287;-5.56089034;-17.56839346;-12.53285466;-6.911262321;-10.2846712;-3.989914199
-3.137449643;-6.543941905;-4.133479856;-4.137417027;-0.134895269;0.014405509;15.99234183;12.08031988;12.16974341;10.75944294;-7.382484788;-18.94549303;4.010078125;-5.932137004;-17.67264233;-12.37412019;-6.156078939;-7.655786774;-3.938340294
-1.870509096;-1.086086846;0.165920263;4.520333309;0.568013089;0.549896707;4.367626408;13.66208599;16.24419397;12.36609455;-3.448771374;-18.51944629;4.475053243;-6.780475336;-10.69223289;-11.31356719;-5.648983865;-3.874007069;-2.95472094
-0.239917368;3.414394547;4.383936907;12.22549672;0.923239886;1.052306609;-14.89560879;14.44153107;15.84503807;13.40874548;-6.424955371;-15.94341737;3.862519326;-7.567752686;-1.445005774;-10.09607087;-5.383402046;-0.047835856;-1.900774812
0.448512304;5.103879729;7.007197113;14.45791847;0.545446576;1.016499434;-30.47923552;13.87748611;12.59523709;13.0153665;-11.37443561;-12.718997;2.23262731;-7.689903421;3.633002355;-9.688381173;-5.420669072;2.315394136;-1.703837347
-0.253921107;3.857140392;7.935104561;10.18482298;-0.111509223;0.457726203;-32.91584258;12.62281911;10.50374387;11.71293898;-12.51462597;-10.596367;0.421011095;-6.943964613;1.469446939;-10.12984458;-5.731528816;2.655617392;-2.531826037
-1.660271814;1.398796842;8.189277083;2.523477469;-0.21486922;-0.101808034;-21.88302595;11.78807113;11.79325241;10.84435398;-8.467666322;-10.35894837;-0.738801788;-5.809823465;-5.398713505;-10.38566341;-6.142092528;1.896896129;-3.63961622
-2.593565492;-0.013481606;8.839641535;-3.577275801;0.620611536;-0.118965996;-6.198965351;11.78855367;14.66229825;11.19416944;-3.132939574;-11.47878565;-1.18391356;-5.216276151;-10.98137636;-9.332399983;-6.442463507;1.65368435;-4.029912642
-2.371289118;0.756748757;10.11370235;-4.878065234;1.901848281;0.46448471;3.400438775;11.87670425;15.0445422;12.13744506;-1.758647475;-12.78530878;-1.627511811;-5.865761026;-10.5572176;-6.920315168;-6.54923847;2.809183896;-3.343290595
-1.295189304;3.070271322;11.3768041;-1.945592118;2.636469842;1.159937428;2.558670619;10.83003906;10.63829072;12.15726649;-6.032129357;-13.47585008;-2.77749108;-7.617935391;-4.202235522;-4.394813207;-6.568860609;4.746846045;-2.18696636
-0.287127122;5.287559574;11.85334928;1.689406215;2.201287825;1.367319556;-4.18314124;8.190569351;3.39464161;10.30079639;-12.63735442;-13.61774654;-4.512429197;-9.473291222;3.520125078;-3.33472592;-6.709500284;5.931513129;-1.608025244
-0.057678323;6.192510223;11.35234727;2.508486543;0.923392943;0.910109581;-8.334646649;4.914036318;-1.880832214;7.232554917;-16.37828154;-13.82787329;-5.833317291;-10.25638304;7.230321986;-4.349319078;-7.122469144;5.327651975;-2.169258303
-0.552489384;5.82746799;10.36237121;-0.279579766;-0.162040302;0.188233545;-5.145896719;2.783340522;-1.579394846;4.851319679;-14.81690172;-14.54411337;-5.70430074;-9.510624175;4.734895788;-6.577559413;-7.794909179;3.397392731;-3.430058594
-1.112148676;5.140770245;9.525612667;-4.342967099;-0.184565003;-0.182568311;2.735985524;3.027458728;3.628400038;4.714562786;-10.17250115;-15.59281399;-4.055691055;-7.888266547;-1.685285593;-8.399327913;-8.544072686;1.796486011;-4.276310649
-1.124555838;4.940543293;9.062269256;-6.289483567;0.816227148;0.0843391;8.47602627;5.303640614;9.380039063;6.621679438;-6.918484785;-16.40662075;-2.028606783;-6.682683877;-7.399838628;-8.690691697;-9.070919851;2.032244791;-3.80768726
-0.544478875;5.199195589;8.699362654;-4.414182359;1.926388505;0.702986397;7.7368439;7.908665606;11.2772565;8.634400288;-7.497627284;-16.62187699;-1.188125587;-6.837842395;-9.000669168;-7.517621312;-9.015101063;4.243236404;-2.02496977
0.163401947;5.314601862;8.127810823;0.046862786;2.144489354;1.079310844;2.559198758;9.04757194;8.354806157;8.592234571;-10.18954585;-16.45498249;-2.345389653;-8.216503898;-6.490657866;-5.739007675;-8.016843976;7.131039124;0.241797231
0.54307025;4.974710427;7.494331714;4.008951996;1.233787792;0.836297139;-0.948517358;8.111898594;3.429312402;5.87188794;-11.02429961;-16.4948691;-4.984421683;-9.725277721;-2.683889608;-4.018332465;-5.841153421;9.062551997;2.055154932
0.604909141;4.704076128;7.410538147;4.93625786;-0.097099252;0.131699211;1.35504919;5.951089099;0.273387298;1.896266698;-7.825164706;-17.11164585;-7.763646241;-10.21013489;-0.735507227;-2.25870887;-2.571887471;9.371297528;3.089296495
0.797887587;5.501311667;8.431110582;2.580974527;-0.829291693;-0.499814668;7.727904792;4.000922565;0.317544087;-1.050807914;-2.525894208;-18.05101459;-9.627074305;-9.405352339;-1.985511151;-0.005953031;1.237027895;8.767235456;3.738682052
1.549571805;7.866350797;10.46336869;-1.196614621;-0.520662103;-0.620399824;12.43658913;3.076562526;1.783051167;-1.705875102;0.424361421;-18.62851177;-10.55267589;-8.165057318;-5.644382113;2.635121044;4.631857866;8.576833231;4.576901323
2.825690839;11.12323029;12.65077207;-4.154927581;0.323451663;-0.250463271;11.55329781;2.84341496;1.769470952;-0.815415302;-1.904019527;-18.39445568;-11.3294172;-7.781451109;-10.08584335;4.593762827;6.632120149;9.534941651;5.700158065
4.12166532;13.70894876;13.86249581;-5.395484443;0.699487135;0.189327955;6.982226718;2.320611498;-0.85613671;-0.413010223;-8.166815576;-17.68807186;-12.64425521;-8.930629191;-14.26861315;4.523298654;6.759387049;11.17478476;6.567377604
4.883800762;14.24652928;13.40536867;-5.718659304;-0.0330374;0.277138478;4.650621236;0.870857678;-4.476118228;-2.019889803;-13.7927207;-17.54220145;-14.36358349;-11.08615323;-18.05194;2.104114947;5.390527313;12.2813323;6.482334766
4.968039439;12.53015248;11.41296817;-6.512886052;-1.621437437;-0.043583518;8.357108505;-1.226282452;-6.417744742;-5.302490433;-14.8667499;-18.92382665;-15.67256461;-12.86432186;-21.45527634;-1.239321339;3.644687948;11.94658405;5.28156473
4.732428536;9.633403059;8.675255488;-8.297545443;-3.149529321;-0.4516072;15.1127764;-3.07128673;-5.581740726;-8.309392225;-11.34456033;-21.87557128;-15.91142277;-13.0268243;-23.931766;-3.045346297;2.797984792;10.30673612;3.608607113
4.711982656;7.107292322;6.139344605;-10.21089539;-3.791075339;-0.574989711;16.78538947;-3.964816909;-3.489212414;-9.066125157;-6.78842048;-25.27212941;-15.28839568;-11.36349794;-24.56030699;-1.58360486;3.560769802;8.397306491;2.517492378
5.195339856;5.969862398;4.51090206;-10.81021414;-3.425689793;-0.339254515;7.188981792;-3.976684809;-2.822826665;-7.183034132;-5.03119806;-27.47310841;-14.76274447;-8.799426791;-22.98330747;2.68870841;5.68604177;7.349837956;2.724428264
6.071968337;6.268194851;4.174143586;-9.396273777;-2.621217137;-0.017462235;-11.48420352;-3.776919925;-4.904506006;-4.158965566;-6.906787781;-27.45696675;-15.17052817;-6.692423964;-20.04856325;7.250260303;8.176993747;7.655049873;4.114023437
7.027890924;7.40553558;5.282461572;-6.675992862;-2.062784375;0.048363843;-28.93442011;-3.934381886;-8.475299891;-2.1750072;-9.955989151;-25.60258608;-16.38964638;-5.895685202;-17.32698852;9.268418177;9.95361752;9.037655016;5.874202709
7.8378152;8.757475107;7.736851471;-4.213804413;-1.970568994;-0.21831186;-34.18242863;-4.344685995;-10.84023988;-2.402931627;-11.13809208;-23.49215495;-17.33656334;-6.285405869;-15.77946869;7.684548954;10.51990161;10.87376778;7.107343725
8.451010447;9.9639484;10.99568565;-3.183425762;-2.004215257;-0.552327509;-24.26519663;-4.289034301;-10.2217031;-4.18829374;-9.797628413;-22.81468318;-16.84796449;-7.037582965;-14.77516319;3.998703661;10.18483754;12.63902467;7.405280136
8.827695929;10.74834437;13.99222181;-3.494556596;-1.678869213;-0.594632449;-6.84634962;-3.041713097;-7.126960376;-5.689152104;-8.036179452;-24.13575465;-14.69317169;-7.352209047;-12.49574645;1.115198768;9.724651729;13.98640918;6.968878656
8.77426271;10.67168111;15.487256;-3.994220937;-0.864394361;-0.228876767;5.712722601;-0.483374209;-3.583067046;-5.364214957;-8.240431746;-26.44073588;-11.82275282;-7.033828959;-7.577082055;1.143879222;9.776607281;14.54104749;6.276790615
8.04249097;9.301288781;14.82689444;-3.507546312;0.094993041;0.305209708;6.096981873;2.774526048;-1.142320771;-3.09372504;-10.30095736;-27.82289797;-9.620882826;-6.530747147;-0.674026403;3.872578206;10.42334787;13.83734457;5.669133868
6.670172779;6.780858564;12.6031221;-1.807314952;0.71979361;0.622571989;-2.425310539;5.792382656;0.361513764;-0.118322779;-11.3616334;-26.85013234;-8.804715089;-6.498860559;5.452979242;7.069197218;11.24488691;11.66051231;5.208950916
5.232047456;4.23286163;10.59668347;0.270777811;0.845716789;0.530570818;-9.229306121;7.85210577;2.196054254;2.023628633;-8.476675625;-23.62303383;-8.920665016;-7.294840552;7.600457637;8.307120948;11.73982335;8.554403921;4.864279411
4.667176308;3.40345689;10.82264276;1.586379185;0.758180104;0.18572201;-5.566270409;8.746232168;5.04068219;2.640281718;-1.671751696;-19.73698929;-8.853113175;-8.776151135;4.376670386;6.835476538;11.74714389;5.937268303;4.741011589
5.697898894;5.578321774;14.20767327;1.62975428;0.900602684;-0.066313151;7.913238635;8.713783609;8.058711319;2.254407606;5.618538178;-17.15610825;-7.866411862;-10.47674092;-2.644424663;4.06175687;11.5364942;5.491977567;5.07988129
8.256900675;10.52811036;19.82423385;0.859710703;1.447276473;-0.012398824;21.51246962;8.233747356;9.744534107;2.04261273;9.365851945;-16.81671246;-6.24453905;-11.93179535;-9.761016364;2.381402925;11.52787267;8.117371391;6.002330705
11.41212857;16.38824983;25.30872219;0.238472057;2.143805522;0.241600976;24.25156831;7.895274396;9.697494077;2.899440023;8.536086384;-17.99111397;-4.97368174;-12.87549848;-13.37922349;3.380996427;11.90170148;13.19528291;7.271115152
13.91840146;20.72350372;28.26644316;0.439853247;2.553104267;0.384571185;12.53239878;8.33327659;9.431436359;4.849647445;6.098307585;-18.88263288;-4.779748539;-13.22122198;-12.06730796;6.823452926;12.42759006;18.79306361;8.345254333
15.01507702;22.07454423;27.73171329;1.4199876;2.464884314;0.201299037;-7.252025823;10.05587269;11.18613793;7.140320904;6.377331272;-18.00082501;-5.406152365;-12.94761235;-7.087828951;11.06751546;12.63711366;22.74767346;8.739395375
14.86873272;20.84061056;24.6842927;2.648185242;2.086484809;-0.219182417;-23.85685716;13.10960127;15.69193621;8.805399413;11.05725032;-15.28095487;-5.791618931;-12.06276624;-1.251169857;14.39021672;12.17618202;23.90301344;8.399173431
14.3314223;18.82913423;21.292152;3.690864673;1.850223946;-0.556541697;-29.45515592;16.81137326;21.02881113;9.240184493;17.49460828;-12.11651147;-4.997244833;-10.68783846;2.914886597;16.06377695;11.03929148;22.6496758;7.760058594
14.22978532;17.83501027;19.45224375;4.567405757;2.030204401;-0.54186522;-24.34118765;19.88708086;23.87843187;8.453867928;20.98533411;-10.31293684;-3.066381258;-9.143323737;4.403387435;16.42276371;9.510995923;20.44190912;7.416667655
14.76193534;18.35549612;19.65922125;5.568992189;2.523923785;-0.191052261;-14.92545445;21.09903728;22.27231188;6.961844549;19.01966285;-10.79039961;-1.066232933;-7.895280744;3.750902253;16.10773122;7.900257127;18.71003906;7.663086317
15.45927115;19.39597124;20.92804267;6.770722066;2.981953799;0.217809443;-7.639268706;19.99880658;17.42039958;5.470325435;13.65948613;-13.02088901;-0.281277533;-7.344576929;2.164376703;15.32586043;6.322567414;17.96707286;8.27764485
15.68454798;19.42157133;21.70043252;7.769545957;3.139215567;0.392804106;-4.311021737;17.23003906;12.8601304;4.522934629;9.791803202;-15.56523215;-1.253295626;-7.595202514;0.568585684;13.80704052;4.7220044;17.67375773;8.718307705
15.20708404;17.61950031;20.99632862;7.970676856;3.027901762;0.271296964;-2.501799916;14.08799389;11.51427896;4.232658519;10.74985723;-17.19094474;-3.456991182;-8.375238153;-0.803278565;11.39032978;3.093927353;16.82523264;8.555559616
14.37691463;14.47489267;19.0006281;7.214019848;2.887147749;0.042745199;0.504072955;11.63125044;13.19;4.209108947;15.25829218;-17.62775196;-5.810610976;-9.17553381;-2.209338418;8.570871715;1.676788559;14.74801483;7.789614685
13.79957017;11.30683563;16.78192106;6.162331099;2.883834889;-0.05401915;4.405669251;10.03565987;14.77280371;3.767951758;18.54901109;-17.39386194;-7.501366369;-9.514863313;-3.9355058;6.406032336;0.899830314;11.56521998;6.820997573
13.83976911;9.267388048;15.47937435;6.012609682;2.930553038;0.040979958;6.407025835;8.699734992;13.0271781;2.37938339;16.741844;-16.96787126;-8.398570618;-9.164895307;-5.948289123;5.812989509;1.089419165;8.122504643;6.141229283
14.38766722;8.654013355;15.58743468;7.649137443;2.773815207;0.168424651;4.660135111;6.981171209;7.570641468;0.103655798;10.56626473;-16.15587067;-8.784444017;-8.219793801;-7.83156872;6.876472771;2.164309945;5.537489415;6.017625235
15.04333425;8.995398404;16.76924966;10.86844672;2.250447906;0.126319386;0.873383607;4.898354916;1.365661349;-2.332822347;4.994461729;-14.30428966;-8.795892953;-7.011417659;-8.977461678;8.788000875;3.588784492;4.680877922;6.400376195
15.49266393;9.660306821;18.18327622;14.32762191;1.447287078;-0.112403747;-0.750855717;3.161875674;-1.768360503;-3.973172215;4.986208073;-11.20184488;-8.213306021;-5.953125271;-8.923439688;10.47284168;4.659498809;5.816663832;7.055550966
15.71064941;10.35720545;18.99161277;16.34545405;0.605637224;-0.353157893;2.601490402;2.499034995;-0.475558765;-4.323212685;11.0698476;-7.811382893;-6.840504685;-5.397356707;-7.692190594;11.356275;4.931219953;8.493098624;7.746763881
15.83758438;11.12830895;18.7242597;16.01783077;-0.124265801;-0.35225397;9.376940677;2.879295776;2.901729255;-3.76284605;18.70159785;-6.024599851;-5.081901054;-5.545759953;-5.931735426;11.62090104;4.463154343;11.70617565;8.30495558
15.90676812;11.99925844;17.39334233;13.82805932;-0.81925449;-0.049404393;14.6086882;3.362152992;4.278512037;-3.283388735;22.01433486;-7.44630561;-4.059465206;-6.413203482;-4.659415421;11.78424865;3.699118434;14.31417834;8.589895762
15.73446392;12.761874;15.43726023;11.28180808;-1.662549648;0.357822315;14.20370614;2.755522442;1.277812406;-3.694111304;18.66106307;-12.11317317;-4.994192313;-7.840455007;-4.6226061;12.03544821;3.080378727;15.57231265;8.471199142
15.09744375;13.15699211;13.5866778;9.824116181;-2.687950515;0.572034897;8.77013278;0.555679357;-4.817921906;-4.932848686;11.5016031;-18.23583945;-8.268868377;-9.551772231;-5.649923093;11.9644802;2.700029297;15.50934966;7.911262732
14.01433085;13.23637802;12.65436877;9.845370885;-3.663054043;0.448570194;3.423889459;-2.62404124;-10.26139017;-6.094310414;5.74854487;-23.30061232;-12.95309968;-11.23878823;-6.568747043;10.93830397;2.271227016;14.85512236;7.075247737
12.82519246;13.43841813;13.2272393;10.5222861;-4.257567191;0.118074896;3.517144849;-5.498325547;-12.05072928;-6.201876347;4.284547013;-25.76142623;-17.25206071;-12.63271823;-5.993657939;8.779112993;1.426053328;14.4766478;6.306758982
11.95503134;14.1840942;15.34577222;10.60231043;-4.348667956;-0.128640057;9.872972735;-7.043678775;-10.30054846;-5.071560109;5.457535865;-26.01946361;-19.59424456;-13.53640095;-3.601459744;6.116731073;0.092781838;14.67419192;5.908716916
11.56746584;15.33223118;18.37763291;9.50848735;-4.148809669;-0.089436566;17.63304909;-7.132632472;-7.760732517;-3.475715512;5.28951213;-25.91077714;-19.54578866;-13.83116462;-0.919618949;4.061115763;-1.366441198;14.89295148;5.877233951
11.44638588;16.07910783;21.25374753;7.883495056;-3.989286015;0.185720243;19.77498151;-6.375369421;-7.077305255;-2.40399538;1.871118313;-27.10792333;-17.8875846;-13.50624908;-0.767528262;3.422411259;-2.383331485;14.16114112;5.841066992
11.24087526;15.54382018;23.00082257;7.11901612;-3.937704908;0.453958901;12.4379557;-5.396819318;-8.389210713;-2.064907312;-2.381008639;-29.72229102;-15.8813303;-12.72856674;-5.412360568;4.092515035;-2.605715043;11.98122154;5.32423043
10.85124413;13.61431917;23.24718423;8.213493669;-3.638003045;0.498804441;-2.199435171;-4.269171293;-9.455975881;-1.597749299;-2.943384686;-32.23171943;-14.38054145;-11.88755667;-14.612762;5.079124234;-2.17904264;8.945425346;4.163637275
10.56681471;11.26725829;22.3414409;10.85316698;-2.603281528;0.311104302;-17.5455688;-2.637669306;-8.115861334;0.104137691;2.088637061;-32.77417727;-13.48289472;-11.49982024;-25.08705847;5.175090157;-1.652808639;6.468539746;2.732188971
10.77382826;9.926690547;20.98651756;13.47459842;-0.769794323;0.078484901;-27.07053452;-0.392105499;-4.693177175;3.094794264;9.369730943;-30.73357645;-12.87580791;-11.92875536;-32.09611177;3.778196087;-1.566904744;5.72529529;1.732539298
11.46749414;10.26218878;19.66939159;14.32231171;1.186079133;0.007579291;-27.98894813;1.817177733;-2.007700374;5.818547844;12.71386831;-27.31699067;-12.4119304;-13.05003906;-32.28353672;1.301275546;-2.02583492;6.61;1.674460771
12.04064764;11.42497572;18.34333542;12.72507888;2.141027204;0.147731337;-21.73799842;2.817541271;-2.86077633;6.021441822;8.831434492;-24.66113616;-12.31199925;-14.13198671;-25.84795502;-1.062890834;-2.588275698;7.645992763;2.441466187
11.63;11.49141097;16.62144995;9.601687953;1.300646822;0.369799885;-11.83113866;1.816524015;-7.252989634;2.602761743;1.206542293;-24.20332266;-12.8198713;-14.13601152;-16.4542553;-2.024713332;-2.569009682;7.071505323;3.321071562
9.810843655;8.926335311;14.30831345;6.766846134;-1.130866361;0.502812495;-1.583542344;-0.782488983;-11.94034134;-3.091200537;-1.983010555;-25.61984913;-13.70115329;-12.35999217;-8.8770317;-0.901815471;-1.543734355;4.33125521;3.514322731
7.066192976;3.961376411;11.78901841;5.533298062;-3.971987324;0.489547245;6.500465939;-3.421681163;-12.90114169;-7.789386139;5.06804907;-27.13234236;-14.14595108;-9.027833815;-6.029135261;2.018781772;0.305994814;0.749797374;2.740193679
4.572620397;-1.284669663;9.889607213;5.681648215;-5.842806027;0.417742048;10.14310084;-4.377757033;-8.66902956;-8.499410769;19.47890511;-26.86657644;-13.25666101;-5.356148586;-7.460714584;5.596497724;2.258840084;-1.285733457;1.451056215
3.384160099;-4.192547002;9.266994235;5.623704542;-6.140551857;0.411460989;7.314218208;-2.977527447;-1.639670018;-4.798926935;29.97831955;-24.15780186;-10.73687235;-2.926978642;-10.26443354;8.354342738;3.490909223;-0.123096112;0.477089359
3.627453709;-3.569657218;9.81787931;3.678150366;-5.446063997;0.500284704;-2.286272283;-0.080924081;3.833863408;0.643046884;24.59944755;-19.84766905;-7.179348395;-2.7004729;-11.50029658;9.186540101;3.586405464;3.749802846;0.38041679
4.372438689;-0.63930199;10.636879;-0.499150342;-5.01711999;0.597099094;-15.58376831;2.568165609;4.966894022;3.899874016;0.299382;-15.50783655;-3.685805925;-4.334774314;-10.20440563;7.961742763;2.77976137;7.849602248;1.038308216
4.334465828;1.729421144;10.63641374;-5.439796503;-5.750859767;0.601545971;-26.57262376;3.622706972;2.696854954;2.694840314;-33.14589828;-12.35643986;-1.13234606;-6.342991739;-7.566350874;5.697127337;1.778220152;9.366453451;1.784895625
2.889075799;1.02967344;9.386820448;-8.738405597;-7.435479096;0.519499637;-29.56042991;3.052710859;0.668262079;-1.84307975;-58.60533644;-10.72984853;0.30932844;-7.052290794;-5.449166536;4.092958722;1.297122957;7.112556591;1.978530092
0.598622071;-3.126005608;7.506380247;-8.64071859;-8.890797069;0.472452577;-23.14981764;2.028931283;1.988837383;-5.988321459;-62.84780277;-10.34606796;1.037985207;-5.732943947;-4.727942789;4.539496537;1.619700571;2.258053973;1.514850933
-1.186462354;-8.801011786;6.244858988;-5.163809504;-8.888547022;0.579677818;-11.5994024;1.936029832;6.579567465;-6.221746172;-45.38207156;-10.87996427;1.479530676;-3.097914852;-4.882153391;7.114469982;2.457621831;-2.683157311;0.864523701
-1.357140787;-13.18672876;6.535670593;0.050531253;-7.121948459;0.824682803;-1.958098091;3.3403441;11.35762558;-1.876772237;-18.38254168;-12.20838714;1.684430658;-0.797659415;-5.016468095;10.26910015;3.178335813;-5.764740271;0.625363917
0.098156767;-14.56394068;8.237688043;4.950960722;-4.46398185;1.040634893;1.090808375;5.691286789;13.00074846;4.409857722;2.059290911;-14.15416769;1.434939143;-0.258957721;-5.165003413;11.59358186;3.230313392;-6.879791937;0.989278097
2.083799564;-13.30556297;10.17217208;8.3561463;-2.330148803;1.041927318;-1.459963625;7.87599698;10.84124781;8.749155528;6.683755208;-16.1455724;0.703750389;-1.701189735;-6.519543068;9.340947241;2.487761107;-7.441126505;1.586769344
3.236203673;-11.28026844;10.95208668;10.32801349;-1.665977142;0.790105528;-4.294527621;9.067026013;7.409188109;8.9002039;-1.988676528;-17.31854129;-0.061113018;-4.034896771;-10.27038695;3.744349038;1.30742407;-8.869855937;1.837647628
2.945982564;-10.28439208;9.974950374;11.49061865;-2.344320368;0.442891852;-2.685963703;9.162481099;6.235070763;5.75605221;-13.47406153;-17.11912518;-0.198090298;-5.695316765;-16.09303947;-2.865594267;0.28031743;-11.26654524;1.49626003
1.765855398;-10.80797877;7.811441859;12.04782218;-3.392511814;0.234924862;3.283362222;8.571823893;8.860754797;2.353221125;-18.13303872;-15.88651766;0.528481749;-5.778690593;-21.73546269;-7.396922984;-0.154221154;-13.41702743;0.910306372
0.908888743;-12.02897201;5.693351123;11.46003906;-3.801221731;0.288943852;8.933294034;7.69212722;13.58938894;1.341825607;-13.88803731;-14.80103145;1.505380847;-4.645567629;-24.26688498;-7.988994237;0.00770187;-14.07314614;0.756214458
1.260951717;-12.84082291;4.517176109;9.082412487;-3.246215206;0.520058594;9.483091572;6.619836059;16.92508022;3.011920427;-6.173898921;-15.09911119;1.54634304;-3.574502487;-22.11520344;-5.290165795;0.322288377;-13.30429186;1.460540246
2.690774681;-12.8966291;4.162993189;5.131834805;-2.194593675;0.714978127;4.786550358;5.320577854;16.37085745;5.388603352;-2.184005723;-17.1288109;-0.237716864;-3.759097607;-16.29727454;-2.057341658;0.163611699;-12.63783206;2.786757025
4.171507545;-12.76074509;3.670619779;0.987366019;-1.405913246;0.715214018;-0.128444624;3.986089693;12.2379474;6.138624911;-4.730106622;-20.01614551;-3.635053434;-5.403193129;-9.861153228;-1.28209298;-0.88742309;-13.77274132;3.935621297
4.57251639;-13.13780477;2.120758544;-1.607406574;-1.306212111;0.545194417;0.491250794;3.124230574;7.129838102;4.579660296;-10.61103122;-22.23;-7.277543771;-7.556231679;-5.97516685;-4.131873152;-2.756664796;-16.9416737;4.090495051
3.476505287;-13.99134255;-0.503133003;-1.84908941;-1.742545161;0.379255666;7.455052732;3.215826824;3.783868717;2.124878482;-14.13281422;-22.59016605;-9.448838086;-8.763194765;-6.10693326;-9.161506942;-4.864152164;-20.38245046;2.986072411
1.409950156;-14.43161784;-3.183746417;-0.537475932;-2.244678646;0.384760883;14.91090312;4.236415998;3.192658874;0.912997928;-12.18373573;-20.91914723;-9.181231084;-8.028035021;-9.5227796;-13.34181719;-6.404917702;-21.49592107;1.074726825
-0.622144884;-13.51200627;-4.593694299;0.588790492;-2.490253776;0.582535924;14.56675654;5.524099817;4.426462857;1.911224469;-6.473873917;-17.89762173;-6.830507534;-5.420639967;-14.17644852;-14.13828714;-6.77487271;-18.84095758;-0.804059898
-1.867662375;-11.2069656;-4.110686272;0.379504628;-2.550891418;0.841279614;2.674945656;6.189952057;5.957598306;4.141044026;-1.453487498;-14.39014734;-3.73360878;-1.971702298;-18.0126208;-11.14240818;-5.903408021;-13.35920759;-1.964802816
-2.248407349;-8.636744058;-2.325923179;-0.645950952;-2.748095231;0.9984869;-16.06459404;5.772087702;7.068897281;5.622248489;-0.209340885;-10.92033302;-1.268381067;0.984407505;-19.66213799;-6.149159144;-4.298158332;-7.795253161;-2.217925624
-2.214301813;-7.250345534;-0.648859115;-0.709059976;-3.308810558;0.992376943;-31.24066171;4.588122132;8.113716017;5.126001236;-2.055001118;-7.721253938;-0.055824927;2.530343677;-18.36110598;-1.755235941;-2.767633054;-4.726452676;-1.811172071
-2.253983375;-7.614418804;-0.318358912;1.525958085;-4.157633833;0.891506913;-34.21462697;3.478446218;9.641384321;3.177545468;-3.655234296;-5.14896691;0.150301358;2.51586507;-13.76179253;0.398491831;-1.975553258;-4.743341394;-1.106601961
-2.518087128;-8.851881765;-1.574156884;5.364383019;-5.014415897;0.810460205;-24.43236812;3.148593467;11.45779664;1.471183936;-2.299003928;-3.861316566;-0.052921993;1.428603125;-6.270462407;0.476611053;-2.084348924;-6.192630702;-0.30674763
-2.836183065;-9.262579294;-3.581739412;8.094255232;-5.667446624;0.801797949;-9.507379808;3.654861358;12.61277482;1.276398516;1.753166283;-4.420505795;-0.319188826;-0.008342121;2.300456101;-0.071670802;-2.696875357;-6.62383309;0.564687693
-3.020504324;-7.66136219;-5.093653658;6.856009945;-6.143932812;0.824364885;0.896118618;4.439232184;12.28784005;2.277343189;5.787871959;-6.631189193;-0.728861667;-1.21272715;8.721802178;0.184259541;-3.129271078;-4.725474709;1.487074407
-3.106755096;-4.340966269;-5.280058594;1.027345508;-6.620193103;0.805312054;2.311876813;4.839397608;10.65075798;2.871540256;7.26799214;-9.319639692;-1.488830623;-1.921065749;9.677291257;1.636331213;-2.849963684;-1.207424487;2.302737639
-3.285320454;-0.858071991;-4.105302995;-6.828860035;-7.171252354;0.723001695;-1.9770306;4.60815951;8.805558465;1.654936171;6.044562771;-10.95634565;-2.549051774;-2.180282296;3.923526024;3.575879386;-1.822295414;1.980882796;2.777371661
-3.606393967;1.182886065;-2.070716752;-12.41754115;-7.609570902;0.626181901;-4.817151009;4.010668805;7.874874057;-1.217624894;4.230144505;-10.75091978;-3.558393295;-2.252218738;-6.326070095;4.925786584;-0.550224756;3.32417182;2.805042846
-3.78387772;1.337450581;0.318591439;-12.645883;-7.577311086;0.576726384;-1.818854264;3.473492338;8.084167004;-3.998859899;4.053509625;-9.318363553;-4.204439771;-2.495329305;-16.22944953;5.039675674;0.194221163;2.862816517;2.544486865
-3.349702022;0.527017464;2.835856634;-7.851214397;-6.82709403;0.582716953;5.048540943;3.154400894;8.681069584;-4.707088136;5.784673671;-8.272534969;-4.575555507;-3.223178275;-21.22359071;3.962548933;-0.199516967;1.883759502;2.32879421
-2.084834477;0.109113396;5.351146168;-1.568129078;-5.463174897;0.595704833;9.813384521;2.833622321;8.699788618;-2.760893558;7.599112406;-8.984502185;-5.140238877;-4.537820047;-20.08370469;2.140078125;-1.832595913;1.578269728;2.404668369
-0.366967785;0.648817816;7.464156768;2.053315251;-3.952046626;0.575483239;8.435487103;2.191068763;7.800477518;0.454702211;7.389588957;-11.48870593;-6.301403779;-6.198664274;-15.75665558;0.041612995;-4.206673861;1.94041837;2.727854845
0.909215107;1.478460908;8.436356304;1.229781865;-2.897359485;0.551001058;2.856426153;1.162403423;6.41829354;2.553375847;4.795196509;-14.44261258;-7.911875707;-7.632434156;-13.08708435;-1.888336247;-6.419376908;1.919042587;3.005669358
0.859721368;1.442826417;7.634363682;-2.344947545;-2.739437612;0.605104685;-0.550103496;0.010825947;5.189630487;1.876427116;1.621710802;-16.17491605;-9.225003955;-8.143751627;-14.97273244;-3.001313533;-7.533717911;0.68657222;2.962259435
-0.764603803;0.180767428;5.181679902;-5.061974934;-3.559751985;0.787658944;3.152125124;-0.947145301;4.323086744;-1.348849222;0.342846624;-15.9417924;-9.400248444;-7.260731351;-19.89561854;-2.372994211;-6.95;-1.143493126;2.599079525
-3.321846255;-1.211794038;2.227647886;-4.338389491;-5.064850566;1.040614085;12.43431305;-1.665371088;3.561821528;-5.246100402;2.059466034;-14.3588644;-8.189065097;-5.036879069;-22.90848466;0.779955656;-4.636433751;-1.535430266;2.216698989
-5.607507745;-0.809634128;0.467827621;-0.607861656;-6.71030484;1.217971923;19.68149865;-2.384006841;2.703504539;-7.642344526;5.673191993;-12.72237478;-6.229195587;-2.121880509;-19.53120503;6.375029291;-1.148500444;1.555092426;2.166263067
-6.562778117;2.636342001;1.135584242;3.135437493;-7.891036104;1.19741344;16.97672221;-3.286631699;2.03090182;-7.470527635;8.875301777;-11.90250667;-4.663356273;0.472489875;-9.637147075;13.04812209;2.557062577;8.426252156;2.536505237
-5.883711667;8.512432636;4.154688986;3.747606004;-8.151560373;0.988270108;2.659441267;-4.13324658;2.104665447;-5.260058594;9.982926183;-11.80967931;-4.342183952;1.816458422;1.78206783;18.57093993;5.451885374;16.96600472;3.04802908
-4.128881964;14.48506225;8.094858684;0.301451397;-7.379604606;0.733513643;-16.73895548;-4.288382057;3.08295521;-2.549539604;9.053074376;-11.82763541;-5.220039063;1.498099862;7.817132242;21.01059415;6.803865129;23.72266667;3.259908415
-2.282540213;17.95926117;11.01717198;-5.421379283;-5.907726205;0.594918058;-30.85525599;-3.233107548;4.312293389;-0.833175271;7.487568258;-11.6613011;-6.415258733;-0.17699654;4.601954015;19.89291816;6.450930515;26.02268806;2.932815162
-1.100345955;17.79704178;11.65479232;-10.51636389;-4.421744885;0.619038888;-32.74914355;-1.179322365;4.73975079;-0.825507588;6.689297151;-11.6679368;-6.893557981;-2.341061344;-5.639808586;16.51478931;4.857926606;23.63160895;2.256571777
-0.683705437;15.02013977;10.13676872;-13.14840916;-3.646496341;0.704578635;-23.42374418;0.775379979;3.867174968;-2.390449986;7.022378187;-12.29915267;-6.256405994;-4.015542799;-15.83858922;13.11505201;2.906046052;18.78712965;1.751956102
-0.535442837;11.99458952;7.798845902;-13.53705183;-3.941687896;0.702803748;-10.33239112;1.204638139;2.325566731;-4.914470861;7.854054902;-13.24727848;-5.046188441;-4.634464969;-18.85734131;11.44645883;1.489282261;14.63439473;1.912290216
-0.007029985;10.73723492;6.264194548;-13.11305875;-5.065432978;0.560563365;-1.437695606;-0.698848496;1.394953869;-7.690183091;8.386846095;-13.30508562;-4.355653555;-4.349241038;-12.43478252;11.74301648;1.108819842;13.22204397;2.851835685
1.197698537;11.59992985;6.440603019;-12.84401447;-6.306777967;0.373474469;0.292112533;-4.469919823;1.783532548;-10.08807913;8.356525734;-11.33840461;-5.04481214;-3.913979952;-0.783933676;12.78745524;1.681175011;14.43690153;4.21783619
2.797061358;13.22998254;8.062223297;-12.35442719;-6.943328523;0.29729546;-2.155150267;-8.532542217;2.786107014;-11.60960973;7.987578839;-7.640310857;-7.134403673;-4.180275701;8.251911952;12.97187887;2.668966662;16.47129315;5.418969978
4.107464695;13.71054473;9.978659193;-10.60650954;-6.718707087;0.397242834;-3.549931001;-11.1117627;2.729182612;-11.99254415;7.442175229;-4.353467459;-9.787434695;-5.488062602;8.438421627;11.53326619;3.453151786;17.29481227;5.993384924
4.483945207;11.95532346;10.9119778;-7.390277563;-5.983255681;0.576333116;-1.225105982;-11.27985945;0.470385634;-11.35238382;6.496548571;-4.267718991;-11.85838993;-7.353911591;-0.848394108;9.065157041;3.712355249;15.99388262;5.859085883
3.742458223;8.372688887;10.18668606;-4.088040886;-5.377549036;0.654967694;3.090747031;-9.430219241;-3.334281691;-10.16369499;4.864553033;-8.697065019;-12.61054983;-8.71234119;-14.46399279;6.990039063;3.569526682;13.12248494;5.301635872
2.313008124;4.474265556;8.057964924;-2.839189188;-5.296684679;0.534872093;5.579174912;-6.901153926;-6.425078046;-8.9650394;2.825683237;-16.10784057;-12.126198;-8.607888818;-25.02893095;6.455327961;3.423922778;10.04406082;4.751212196
1.03702414;1.885550692;5.548464772;-4.736914357;-5.562968644;0.298474111;4.338463066;-5.074911663;-6.6053088;-7.960537583;1.404457232;-22.77151377;-11.17581948;-6.892467943;-27.56419775;7.502512068;3.604176552;7.939659373;4.526748776
0.717936991;1.515756485;3.938746161;-8.667798321;-5.582136673;0.147967773;1.380102868;-4.598795522;-3.551944697;-6.879206118;1.731022913;-25.16209412;-10.67595997;-4.420141464;-22.16423767;9.098069657;4.101535952;7.22760404;4.702708988
1.665869797;3.331508436;4.154222955;-11.94126648;-4.86932264;0.231749223;0.86416727;-5.208771052;0.787532351;-5.29262501;4.039320102;-22.36401898;-11.10895431;-2.545495408;-13.25224507;9.945196507;4.578743511;7.654931774;5.133755114
3.489471556;6.633959192;6.296608314;-12.3161033;-3.518915972;0.510205688;5.170135892;-6.158323271;3.613783612;-3.176585075;7.221917466;-16.65129479;-12.26811096;-2.233454749;-6.327989195;9.437046592;4.642643924;8.761665935;5.567512738
5.271109546;10.45244614;9.532478886;-9.761655864;-2.221475745;0.78156989;12.25535122;-6.850329107;3.352162296;-1.213532701;9.46856267;-11.79188418;-13.46255787;-3.408871908;-4.572937317;8.056805294;4.169660697;10.23298436;5.758263994
6.058967431;13.80308893;12.45058113;-6.436691606;-1.788923811;0.847618717;16.64525627;-7.211958495;0.655690405;-0.48174534;9.575107861;-10.40136879;-14.02055066;-5.04018904;-7.403074806;6.973327666;3.432095749;11.90469728;5.545138504
5.415957211;15.86273972;13.78743098;-4.851558158;-2.548775792;0.674799462;13.3781134;-7.619512562;-2.449715518;-1.687903128;7.863476375;-12.35988603;-13.74656391;-5.923018648;-11.51267698;7.16547816;2.922279542;13.5685555;4.903933442
3.69772096;16.21039306;13.15921224;-5.74103817;-4.081593355;0.411338741;1.839131637;-8.520878374;-4.426396391;-4.539463395;5.914281457;-15.36732935;-13.02528655;-5.590944719;-13.33989912;8.714030962;2.99950843;14.87888508;3.97594002
1.86117429;15.09271842;11.3235142;-7.458052518;-5.508881694;0.2505656;-13.45435623;-10.06906888;-5.388405605;-7.81;5.294329605;-16.96859421;-12.50690034;-4.659287814;-11.22991479;10.74310001;3.61944575;15.4955331;3.043636836
0.886117643;13.43755492;9.706456278;-7.429179526;-6.109178511;0.267146604;-25.65571506;-12.00492117;-6.567160785;-10.11859288;6.3215111;-16.30745675;-12.60575843;-4.326220699;-6.086012094;12.02210514;4.345829149;15.31960767;2.422114897
1.159911091;12.40015191;9.4188906;-4.457967997;-5.79518401;0.372374519;-29.85094574;-13.8262225;-8.694082799;-10.85569588;7.892557074;-14.30982543;-13.19511129;-5.40881471;-0.428770718;11.79523915;4.636573196;14.57267144;2.292669006
2.236161233;12.61489837;10.42133194;0.08021053;-5.112684516;0.420831952;-25.75840225;-15.11363491;-10.94766591;-10.55007813;8.501556886;-12.46473102;-13.75441164;-7.666593396;3.271896758;10.27587333;4.198482393;13.62682986;2.577025799
3.155919695;13.69608192;11.49683215;3.194412358;-4.803064003;0.359925007;-17.22768082;-15.82652455;-11.5882639;-10.41177137;7.561968164;-11.5197796;-13.8819036;-9.950887336;3.875539189;8.486626016;3.163422479;12.74192445;2.959968573
3.137408969;14.47372361;11.15602605;2.62675704;-5.28930796;0.276734905;-9.295151472;-16.41313947;-9.781095901;-11.43982944;5.885442089;-11.25872837;-13.76681618;-11.07017797;1.787641444;7.561806686;1.977880811;11.95540154;3.081083986
2.160815114;13.90673136;8.873241496;-1.331822419;-6.457097215;0.297570843;-5.10083834;-17.65489543;-6.884959664;-13.79944145;4.897848387;-11.32876968;-14.19016646;-10.69234428;-1.798630826;7.973358905;1.104862329;11.21221756;2.786259444
1.017090898;12.00175561;5.707166375;-6.039284489;-7.830669911;0.439783191;-4.677996126;-20.27060365;-5.834593999;-16.89619528;5.273000422;-12.03236525;-15.96175429;-9.574342594;-5.946495296;9.183811167;0.755360759;10.57208951;2.261233817
0.752491827;9.943598939;3.733052511;-8.531261681;-8.936325933;0.566315926;-5.984315422;-24.43830093;-8.919259517;-19.97148251;6.19827863;-14.10426206;-19.17619036;-8.946821853;-10.50649592;9.952287724;0.817844942;10.2382848;1.931643688
1.878522865;9.206658418;4.589749145;-7.725383049;-9.553393458;0.50006958;-6.941624299;-29.49691252;-15.77325541;-22.64333809;5.982029141;-17.632369;-22.89700077;-9.552282979;-15.76247886;9.100248358;0.992863521;10.3201483;2.174540846
3.908402285;10.26467924;8.16789986;-5.074148511;-9.714456064;0.201383813;-6.819295331;-34.06887438;-23.35160152;-24.9536978;3.568751699;-21.30876717;-25.61855128;-11.09801387;-21.51786429;6.247763555;1.000135559;10.52578661;3.029515632
5.57037297;11.94187658;12.44294537;-3.269908414;-9.555076204;-0.158493342;-6.1328704;-36.64283585;-28.0385447;-26.99406564;-0.307022561;-23.04345702;-26.256397;-12.53339611;-26.44835415;2.050292769;0.708418508;10.11303275;4.112367896
5.575513709;12.03798761;14.65482508;-4.170242751;-9.208163766;-0.311233609;-5.509836314;-36.35442468;-28.22436297;-28.57573133;-3.400629201;-21.68757743;-24.94;-12.89372631;-28.45038129;-2.20696827;0.135030559;8.257476749;4.803038234
3.425319424;8.879870386;13.04502157;-7.610019531;-8.827124148;-0.108162984;-4.702593086;-33.50720777;-25.27640914;-29.32369947;-3.616450152;-18.37821531;-22.95161476;-12.01927948;-25.99066216;-5.377166188;-0.627025964;4.642759477;4.594048145
-0.279304041;2.673595855;7.943807027;-11.86986916;-8.641727208;0.345277795;-2.662882399;-29.46665013;-22.18731452;-29.10293991;-0.804536119;-16.07837499;-21.77918526;-10.60064566;-19.57378994;-7.069331344;-1.466335855;-0.163661444;3.378137497
-4.207294248;-4.394707734;1.482352042;-15.14765825;-8.894083333;0.760885704;1.348817322;-25.92815031;-21.11907988;-28.29690788;2.823722568;-17.35276793;-21.97233176;-9.575188162;-12.09687727;-7.723326249;-2.266615953;-4.890301514;1.497789867
-7.055718316;-9.453361632;-3.792211324;-16.67885311;-9.630747495;0.893404409;6.521999947;-23.97439379;-21.89822428;-27.54792925;4.236082588;-22.06800787;-22.70082406;-9.41096489;-7.469614767;-8.141361045;-2.920926473;-8.24827709;-0.461322019
-8.175137149;-10.735729;-6.373198605;-16.69406064;-10.51382947;0.733375295;10.22214051;-23.49855634;-22.5749971;-27.08470622;2.119100425;-27.01701576;-22.40422199;-9.847358993;-8.148536159;-8.853844438;-3.392594954;-9.684837107;-1.990108372
-7.696888689;-8.604852405;-6.354986631;-15.57906483;-10.86573667;0.504499863;9.175028771;-23.3448392;-21.33564256;-26.2328483;-1.515709469;-28.01787235;-20.04864406;-10.22494518;-13.24704408;-9.784879631;-3.794328062;-9.682126067;-2.889609371
-6.193572308;-5.140332105;-4.887650872;-13.28219522;-10.00438172;0.468601828;1.583588494;-22.05487104;-17.98310244;-23.66242709;-2.181461658;-22.96795711;-15.98495746;-10.03696356;-18.74915156;-10.41929888;-4.387746187;-9.384746885;-3.29254589
-4.219031431;-2.675095509;-3.127759572;-9.603630868;-7.679351727;0.704422084;-11.11948605;-18.73314268;-13.77003906;-18.34614205;3.919705641;-13.42505197;-11.69041476;-9.205139351;-19.97748118;-10.27111886;-5.432124885;-9.809151109;-3.489434401
-2.078160954;-2.368586012;-1.527487152;-4.967328986;-4.298562996;1.045630432;-24.17307723;-13.51179478;-9.962890166;-10.55274052;16.38722058;-3.401245446;-8.578253345;-7.905218911;-14.76118968;-9.234878803;-6.938027946;-11.17180017;-3.690187239
0.091453964;-3.74392722;0.133521323;-0.675193758;-0.757038453;1.224019524;-31.46120728;-7.399914561;-6.632047942;-2.056370164;29.3882576;3.674898015;-6.848060971;-6.215707106;-5.040923917;-7.539337448;-8.506522768;-12.76753431;-3.873801544
2.128834826;-5.310206819;2.23112022;1.895542232;2.040371122;1.08951522;-28.69739991;-1.701061329;-2.812650461;4.722603629;34.13800228;7.356593091;-5.351408742;-4.011640338;4.377005311;-5.394950488;-9.430247397;-13.42993111;-3.80879362
3.808848433;-5.629561448;4.861722922;2.578714469;3.650750449;0.720446736;-16.05455058;2.603947587;2.225260557;8.11433138;24.10461807;10.01819787;-2.624206426;-1.242325447;9.143919191;-2.710483944;-9.065040671;-12.2207729;-3.218498643
5.011769225;-4.042300877;7.818031376;2.940599073;4.258188134;0.340969371;1.409083245;5.187259896;7.940734697;8.159934158;-0.160970027;14.39071325;1.748764227;1.701252623;8.382027143;0.802627599;-7.260258865;-8.900514649;-1.982792841
5.913748379;-0.729310457;10.82961899;5.287655486;4.455784288;0.130865129;15.99506558;6.339863971;12.79967718;6.45852475;-29.91545698;20.98996515;6.590206692;3.976588129;5.137032334;5.17990093;-4.541966917;-3.957590835;-0.251715823
6.951754225;3.631470321;13.69714896;10.74327349;4.828141223;0.097070185;21.16667699;6.701457376;15.62355318;5.034451451;-52.13047656;27.67029353;9.913863656;4.782691929;3.902684463;9.80557577;-1.877779184;1.693039938;1.600438379
8.514694278;8.174504713;16.16154955;17.95883477;5.622487602;0.108059475;14.81123693;6.933547458;16.68535995;5.051697519;-56.51202269;31.63768417;10.44053877;4.002828998;7.080493257;13.49362591;-0.140396374;7.060518046;3.159644371
10.58826707;11.95836188;17.73305132;23.69316961;6.692150454;0.041178376;0.148918578;7.452538536;17.44633559;6.255650353;-41.46261304;32.07752291;8.612289752;2.417959566;13.07653191;15.11778125;0.38173655;11.28628715;4.190800529
12.67460055;14.07312884;17.82349457;25.0128155;7.688824558;-0.101755959;-16.13614326;8.276637325;19.14013496;7.432760898;-15.15345743;31.00192304;6.248341941;1.209393164;17.49279699;14.39030369;0.090359238;13.7357203;4.758182885
14.11162718;13.96426065;16.22151989;21.45749292;8.33123489;-0.212727109;-27.36449683;9.029338817;21.55214372;7.435805962;9.184269319;31.49295619;5.09415676;1.071799681;16.49090742;12.19804171;-0.272197861;14.11453965;5.166019393
14.58196197;11.86454309;13.51794038;15.42787115;8.573372715;-0.199273151;-29.95;9.133277495;23.19230041;5.990928776;20.91903523;34.84511281;5.441559103;1.64523304;9.751901557;10.17647093;-0.173167625;12.65510334;5.746210755
14.41330167;8.918797045;10.99386079;10.44152285;8.599876531;-0.08371067;-24.55817991;8.152061118;22.73636045;3.776415068;17.81409007;39.14924618;5.962035854;1.777147111;0.816233297;9.751112243;0.357727592;10.21978292;6.624399711
14.40724895;6.692914203;9.895380904;8.639350875;8.690502787;0.017812801;-15.03773632;6.113774423;20.37189515;1.855793338;6.345849839;40.67442038;4.908220222;0.465865198;-5.357038972;11.28153248;0.817057121;8.096128622;7.622752993
15.29627786;6.265252553;10.60153661;9.53449618;9.049776021;0.013369653;-6.042135066;3.594506782;17.73789579;0.973971775;-3.403133524;36.99364222;1.707630156;-2.246028112;-5.680324562;13.88781572;0.668561831;7.436680937;8.376415324
17.22609243;7.552729762;12.38950001;10.93658563;9.689857198;-0.068393639;-0.730160484;1.453370662;16.47528523;1.204346643;-4.607161095;29.24517175;-2.364607147;-5.162137236;-0.649678985;16.06103774;-0.212513703;8.61183716;8.593612439
19.64612338;9.449662358;14.0609725;11.14411203;10.41890427;-0.101901653;0.400090332;0.350795558;16.75612047;2.076169453;2.381674603;21.58165058;-5.006448857;-6.731027024;6.552937031;16.62032976;-1.427653967;10.92104337;8.2769417
21.67407531;10.73150786;14.95016262;10.45270656;10.94438314;0.010000725;-0.771773258;0.36766657;17.21939793;2.958012917;11.46909747;18.18981902;-4.564905185;-6.144945787;12.54597015;15.37651337;-2.344093907;12.94410256;7.735297197
22.64122504;11.00878372;15.44927566;10.68035142;11.0485571;0.228485887;-1.381021441;0.999969899;16.41070425;3.384491216;16.10932772;20.28288986;-1.243912045;-3.880399437;15.76978817;13.11985886;-2.544194207;13.38123238;7.358999824
22.41462134;10.9228356;16.55765626;13.19488991;10.73963159;0.396850717;0.627037445;1.534297765;14.35043705;3.175479458;14.28011331;25.4655535;3.085489599;-1.269976996;16.69923216;11.04007813;-2.085433616;11.84708105;7.310535599
21.3077366;11.40086121;18.81659494;17.28271598;10.26740907;0.376377126;5.124409464;1.518043469;12.67406223;2.398767772;9.48604263;29.87330697;6.270731777;0.525353047;16.57663197;10.03383671;-1.387892244;9.071771489;7.364495288
19.73552863;12.62679647;21.58933452;20.41954395;9.959282122;0.179295989;9.57597522;0.969200414;13.12828615;1.289615342;7.358891833;31.21228645;7.327153055;1.304580975;16.11888116;10.33435851;-0.8660416;6.369590281;7.038736778
17.94694938;13.68855375;23.41268696;20.31572675;9.96431158;-0.025228034;10.27866573;0.193374914;15.82249861;0.168932907;10.8315044;30.19103627;6.839379887;1.760384313;15.33048099;11.58980605;-0.613375049;4.770506435;5.947566525
16.03928003;13.30760079;23.22264132;16.982063;10.09534258;-0.044370186;4.627483845;-0.592075509;18.95186286;-0.667698102;17.82061566;29.31919936;6.11686733;2.66540986;14.25304733;13.20017324;-0.386414751;4.453380492;4.129022419
14.15949567;11.07805607;21.4231069;12.94758614;9.925043131;0.179617034;-6.818277806;-1.471055773;20.34854466;-1.088809555;23.17600918;30.31622276;5.924980777;4.034608815;13.52551577;14.62761666;0.119100102;4.867499428;2.093370146
12.6110954;8.096461572;19.78868919;11.30821608;9.109446773;0.523912038;-19.91820984;-2.683841636;19.43042212;-1.210591497;23.13095047;32.47141495;5.893838535;4.990584832;13.93537108;15.52949224;0.941576265;5.371570987;0.527414417
11.68543109;6.287348297;20.12544843;13.18205512;7.708066833;0.791699747;-28.85066634;-4.268385306;17.64581898;-1.331114647;18.47197729;33.34069067;5.054340304;4.459092063;15.36018601;15.75210308;1.748499142;5.805387026;-0.158951401
11.3324488;6.832283179;22.7050248;16.73667985;6.22345143;0.875164488;-29.47444548;-5.846320221;16.91109807;-1.729278749;13.76306702;31.06274716;2.954854073;2.125284953;16.35762935;15.29336238;2.037637364;6.484797644;-0.127483881
10.99768752;8.968882265;25.78889722;18.67753105;5.271935497;0.831795101;-22.04389325;-6.800312924;17.541438;-2.475144484;13.29403472;26.18583104;0.325563602;-1.138918538;15.19940733;14.27601629;1.483972537;7.624504193;-0.027408475
9.864896399;10.2594275;26.74993482;16.99821416;5.099872408;0.812315434;-11.26474298;-6.738053187;17.81798607;-3.410139362;17.23146691;21.38986742;-1.32808189;-3.742607562;11.68787226;12.89081275;0.164630167;8.722840092;-0.573802912
7.406147337;8.291816553;24.00049233;12.67920123;5.329019992;0.913222598;-3.339148478;-5.85605057;15.84020094;-4.310449015;21.37391455;19.3693975;-0.885782675;-4.397885885;8.034570254;11.28412991;-1.500024414;8.532693231;-2.070392242
3.838386864;2.567894505;18.22502789;8.866157214;5.180715577;1.091717347;-1.840409565;-4.864815328;11.97228939;-5.073423553;20.92611234;20.73061225;1.443291002;-2.936623816;7.591227463;9.458854259;-3.028900068;5.787621174;-4.201885899
0.095109204;-4.92583105;11.91448993;8.179959159;4.061790203;1.218118355;-5.328033579;-4.492310102;9.29027018;-5.741096096;15.20775616;23.68584357;4.192079414;-0.345552838;12.07583504;7.304785466;-4.167418554;0.203377129;-6.234028091
-2.731269687;-11.00699867;7.535431201;10.41562585;2.079193564;1.210639081;-8.569083714;-4.945524993;11.08710039;-6.338729773;9.129883768;25.72251125;5.691943362;1.951832848;19.54643605;4.784993753;-4.980539284;-7.031296992;-7.477431356
-4.102162637;-13.53439537;5.756892442;12.59815873;0.05954709;1.121015623;-6.652093332;-5.762164048;17.40316574;-6.707603396;9.671811731;25.7286596;5.291924218;3.005437015;25.15418295;2.136303945;-5.717082287;-13.74280456;-7.696899456
-4.378779364;-12.90367031;5.108747311;11.4;-0.989351702;1.087338794;0.965978494;-6.169950506;23.98605271;-6.541190652;19.71164391;24.74285013;3.807673758;2.811410284;24.56218598;-0.134396188;-6.579318051;-17.98446759;-7.201730608
-4.536233318;-11.65367639;3.298266426;5.93489873;-0.594933467;1.197315787;9.573725589;-5.653590946;25.36135691;-5.638477744;34.11298392;24.7766984;2.892534085;2.109050401;17.52342149;-1.544958557;-7.57665749;-19.14812438;-6.586237041
-5.44969368;-12.48243233;-0.891560539;-1.391566312;0.830859194;1.392332849;12.34524202;-4.26716871;19.95698243;-4.143539411;41.72766115;26.85628751;3.851249166;1.761108181;8.590438085;-2.045685545;-8.54775733;-18.19488178;-6.328018898
-7.271775517;-16.18195833;-6.605674841;-6.685271121;2.288362692;1.507904995;5.361592752;-2.462271454;12.73752153;-2.499777062;32.6384855;30.0530172;6.789362917;2.203241115;3.983365675;-2.191640243;-9.294610054;-16.86;-6.52581021
-9.339024268;-21.02937011;-11.52464844;-7.531475847;2.912034628;1.420078125;-9.147296431;-0.625144375;12.17110644;-1.089376108;5.755025522;32.32913082;10.66220402;3.29325584;6.778872458;-2.84454476;-9.700372414;-16.42852662;-6.929945187
-10.64110387;-24.02556752;-13.49298205;-4.694201003;2.561998599;1.166059949;-23.81275414;1.2419209;22.96764016;0.147529787;-28.89634093;32.39717229;14.07884363;4.549561897;14.21512992;-4.526170293;-9.743901131;-16.9571696;-7.19722823
-10.48229315;-22.9834494;-11.85621625;-1.20534781;1.837216431;0.925440321;-30.79518674;3.410686437;40.20815921;1.731599024;-55.36389135;30.92831504;16.20624237;5.528360852;19.50787397;-6.875475648;-9.427354937;-17.43846963;-7.156164439
-8.866970698;-17.91512245;-7.567931552;0.309794204;1.52876988;0.87211544;-26.84328505;6.010978173;50.39732766;4.19894569;-61.30281891;30.05974875;17.15719859;6.085511703;17.06818317;-8.672716044;-8.707099707;-16.6816046;-6.894934534
-6.396063285;-10.81844762;-2.206342838;-0.21357598;1.977142964;1.024847562;-15.19298406;8.726096729;40.04223628;7.52611403;-45.46707153;31.64856609;17.71322161;6.419259192;7.170784923;-8.523813769;-7.507515062;-14.19337198;-6.643196655
-3.838544849;-4.221283105;3.124131932;-0.428069464;2.856067695;1.22935715;-3.053145174;10.92835545;6.162748906;10.95268467;-18.07455091;35.76684745;18.70652055;6.928189203;-3.67473637;-5.798229701;-5.820210576;-10.43429393;-6.575413305
-1.737569545;0.314061164;8.108122274;2.175751775;3.532878344;1.290311026;3.41874951;12.18;-39.26074543;13.45171054;6.088664503;40.65547888;20.51990408;7.966401095;-7.165682567;-1.169306886;-3.813279476;-6.374136505;-6.699694442
-0.299276658;2.695600417;12.68520479;7.883252042;3.667160299;1.13931782;3.050274161;12.66379073;-75.10675766;14.53783705;16.94450198;44.06912797;22.95007813;9.582367942;0.778920762;3.66592406;-1.854207956;-2.802457555;-6.89911395
0.469274843;3.712696216;16.39160401;14.26992393;3.51690518;0.892867756;-0.171257307;13.12109813;-83.93680779;14.7388086;14.45155857;44.81598082;25.37866733;11.35603507;16.94617406;6.949424765;-0.397709866;0.050887373;-7.05510031
0.598669065;4.100518176;18.35033659;18.00787069;3.683782406;0.750612288;-0.576525121;14.27742267;-63.09066885;15.25101527;6.742454413;43.27230535;27.05900375;12.47502993;32.96500794;7.879847946;0.226198373;2.384289235;-7.12184263
0.149367181;4.104984235;17.98737045;17.42227446;4.519608788;0.82356255;4.711202819;16.18771005;-26.22331955;16.95273264;3.059985375;40.65581647;27.38843771;12.11793305;40.92939806;7.005943215;0.017107788;4.43428908;-7.082265457
-0.676879985;3.768767217;15.78532944;13.66629542;5.715035618;1.040888496;13.50334519;18.04770219;5.763856325;19.53470145;6.979914414;37.90811303;26.13840947;10.00693932;38.24560858;5.747759813;-0.624095248;6.235321776;-6.840834591
-1.496858149;3.438326941;13.2674267;9.598435849;6.44394857;1.21276948;19.96792552;18.67224254;17.88419338;21.5047521;14.71283715;35.22619622;23.61527191;6.781871526;28.30490085;5.400153362;-1.033754839;7.702511796;-6.18438445
-1.912990585;3.82564448;12.05352459;7.392197983;5.969111525;1.190539309;18.62385632;17.31243687;9.179492371;21.17487246;19.14433121;32.51576355;20.64988809;3.847152263;17.02653575;6.311519578;-0.605667621;8.849541752;-4.897832527
-1.808111327;5.453099371;12.67357036;6.922363147;4.223952769;0.984690526;8.111340043;14.2049543;-9.209141972;17.9419017;15.97606658;30.1054239;18.31259041;2.64753263;8.455647033;7.771773277;0.852404378;9.826139546;-2.985700634
-1.516622837;7.976042099;14.10995273;6.228437387;1.901475841;0.744055476;-7.746545106;10.45007813;-23.5;12.8852847;7.088703363;28.84922704;17.40777046;3.767131593;2.929230353;8.621500425;2.931117867;10.68156097;-0.8314326
-1.667378598;10.09044718;14.50256311;3.539692756;-0.014026748;0.623048728;-22.15854588;7.332666515;-26.69546512;8.192459022;-1.213091885;29.41836153;18.0173418;6.472413132;-1.232386046;8.098302732;4.750768928;11.10092891;0.870837778
-2.74259343;10.28528021;12.53105211;-0.965832098;-0.889101029;0.656974464;-29.29205202;5.607675094;-21.41201517;5.813570923;-3.287376633;31.46057168;19.42128624;9.09158244;-4.661029213;6.316258763;5.392604335;10.46658269;1.436414594
-4.649081088;7.968872065;8.448852582;-5.200560474;-0.757373751;0.749126532;-27.38609441;5.248368214;-15.30045001;6.327347925;1.644614834;33.52651731;20.51276848;10.04685614;-5.637838496;4.089251255;4.415116417;8.330198966;0.5979198
-6.636754101;4.111266398;4.013577077;-6.931170986;-0.109578646;0.769048456;-19.23069526;5.743901652;-13.86270936;8.803376211;9.37182616;33.99664557;20.47022429;8.852294877;-1.804644339;2.301965713;2.148819101;4.966776532;-1.261552
-7.673907678;0.840340796;1.395751676;-5.687914629;0.59798773;0.666199184;-9.972867766;6.59870557;-16.65584915;11.6478187;14.37959131;32.30177324;19.23318669;6.372364124;6.821222116;1.335963925;-0.435527358;1.509579769;-3.235408264
-7.060577546;0.188077081;1.872226948;-3.130756976;1.265674943;0.50006958;-3.863154916;7.588911038;-19.2214875;13.68606685;14.10880228;29.39454007;17.45152586;4.159129298;16.589103;0.965732408;-2.234829825;-0.564733368;-4.347751073
-4.877179974;2.817122416;5.183368343;-1.544431645;2.049658937;0.371841009;-2.062722455;8.625985221;-18.08425092;14.65781243;10.38055728;27.02873919;15.96511054;3.365159683;22.2791575;0.744896411;-2.600208808;-0.311782597;-4.081152723
-1.96571081;7.588242604;9.872301763;-1.777026951;2.993430888;0.331663415;-2.749304489;9.475591031;-14.0244354;14.8958404;7.169095946;26.41756612;15.21969925;4.033496146;21.02285297;0.516184226;-1.644920794;2.066388458;-2.654424814
0.546819523;12.24838007;14.22763529;-2.442888668;3.795324136;0.348875951;-3.133745124;9.71278769;-10.96470099;14.67642592;6.964266355;27.37060416;15.05309499;5.25029648;14.75124269;0.59223366;-0.100331216;5.334633749;-0.868338664
1.872127349;14.76502477;17.14204349;-1.144672832;3.981297491;0.364173453;-1.731885693;9.043669528;-11.94960134;13.93746799;8.939016954;28.58891618;14.97261975;5.963513959;8.871810533;1.429846978;1.150390279;7.990110553;0.39097654
1.938244037;14.43629221;18.41762579;3.262603834;3.358240611;0.36262379;0.81088382;7.722616158;-16.12178032;12.60825063;10.33127105;28.80905427;14.65138517;5.774157971;8.009020396;3.048287148;1.530974063;9.115650752;0.676339977
1.307493112;12.10729632;18.51497238;9.273246427;2.328519183;0.390847448;2.84075078;6.622989851;-19.39891515;11.1306373;9.534930712;27.80099423;14.21821725;5.090106343;12.22403561;4.694626595;0.943381945;8.722377378;0.19507822
0.727702011;9.43854902;18.06533664;13.44707781;1.727093586;0.501747321;3.674597823;6.762327726;-18.08712145;10.51178188;7.927553096;26.41891845;14.11707534;4.604891936;16.89778379;5.12734131;-0.376833753;7.423156972;-0.414945218
0.633292895;7.768481514;17.47539923;12.78246615;2.243896038;0.684428464;4.595882615;8.556818477;-12.11926472;11.67511591;8.683715639;25.76209668;14.68256147;4.628798951;16.5185226;3.44163606;-2.108445172;5.81493355;-0.579830117
0.917359107;7.318891523;16.77375078;6.937662251;3.873011804;0.852520259;7.77481746;11.3774253;-5.119641237;14.58840641;13.61501683;26.24221487;15.80360937;4.880135365;9.373846557;-0.092444268;-3.950623171;4.129028121;-0.198674303
1.096644583;7.220252121;15.69057393;-1.409931278;5.850199964;0.906837776;13.80102447;13.81865966;-1.400251663;17.97590223;20.95152308;27.34203934;16.95084228;4.890435882;-0.681899932;-3.821422768;-5.534893134;2.398838389;0.326159736
0.730287013;6.288940193;13.90759488;-8.33146393;7.166074493;0.814969028;19.94401883;14.56438651;-2.603679791;20.0159331;26.24709628;28.16137814;17.52631679;4.602893334;-6.904100535;-5.418429117;-6.324103657;0.887128823;0.455006844
-0.202275399;4.014623963;11.38806587;-11.19184352;7.276952873;0.632770143;21.04414192;13.2531273;-6.79668965;19.59264219;25.85;28.15104373;17.2362976;4.562676052;-4.723336499;-3.184133446;-5.726910791;0.269221824;-0.004520507
-1.21881924;1.091756952;8.624878121;-10.10796883;6.466929891;0.448195174;12.99512536;10.70501403;-10.50973815;17.13048115;20.02281567;27.36144162;16.19868892;5.473408618;4.777435371;2.85105345;-3.454831655;1.302578209;-0.668694613
-1.601101862;-0.877959525;6.595264913;-7.382456064;5.587597632;0.302646813;-3.513766176;8.329054661;-11.6948335;14.29913248;12.93670624;26.09205922;14.74585494;7.491961584;15.67556046;10.76930756;0.129911207;4.213405234;-0.797109847
-0.834746283;-0.350376508;6.322553887;-5.539803016;5.393917683;0.166331901;-22.06661146;7.140706839;-11.02569794;12.76565375;9.380717117;24.43931411;13.14101971;9.914420643;21.61054068;17.72892411;4.016948948;8.340885376;0.18200717
1.066109304;3.140206836;8.23329358;-5.549061057;6.003724564;-0.009423321;-33.75890082;7.113068677;-10.67902141;12.96198633;10.89181584;22.29968641;11.47201622;11.60091404;20.30889197;21.49;7.018952298;12.40725968;2.223395388
3.559633242;8.582609231;11.7525485;-6.490605925;6.887722859;-0.216996856;-32.832063;7.330685902;-12.00800711;13.85324484;14.62;19.84666052;9.795921043;11.84313793;14.80866631;21.54999313;8.446401851;15.2626845;4.634683405
5.894250536;14.00451816;15.5225817;-6.690257128;7.357325468;-0.373851235;-20.7582478;6.807982234;-14.3106022;13.89499132;15.96553526;17.91440566;8.362370673;10.95503794;10.66395535;19.18400644;8.498981554;16.53735402;6.503480205
7.52259013;17.58536112;18.20351508;-5.241845481;7.127049169;-0.386841322;-5.525880433;5.339625071;-15.65671131;12.40212611;12.76102679;17.70317991;7.660833078;10.05198488;11.52437736;16.42463366;8.047438927;16.6914408;7.279334116
8.33251851;18.63335134;19.31668853;-2.69680212;6.50012557;-0.243448227;3.762545746;3.739378584;-14.77362395;10.215107;7.351576769;19.84764727;8.186975787;10.14775497;16.55696049;14.73249214;7.935647888;16.45;7.089429553
8.55932094;17.78564781;19.46777132;-0.507459903;6.063451859;-0.041672464;3.251316598;3.292554482;-12.13281446;9.119528214;4.666147337;23.5957253;10.07433801;11.29060616;21.50934759;14.28462452;8.329811857;16.12557382;6.567082549
8.485748603;16.35072731;19.72484098;0.174788082;6.183866099;0.077727728;-3.086215865;4.829672786;-9.309510897;10.47983496;7.861950327;26.93466127;12.87712123;12.46883806;22.29576241;14.30887755;8.639721362;15.42003906;6.341636035
8.194882691;15.33572362;20.62435965;-0.665890337;6.734678829;0.042438116;-6.756372248;8.090351363;-7.392263906;14.16311344;15.34676778;27.79955534;15.70200237;12.41003906;18.16758339;14.08875969;8.101366554;13.87772874;6.59111354
7.585028084;14.90494966;21.64399375;-2.030063477;7.254242044;-0.095441921;-1.614051231;11.81267451;-6.058120302;18.56870721;21.92112132;25.56;17.63998011;10.66250835;12.10394553;13.76374782;6.56781861;11.5811536;6.995737059
6.621676374;14.62514186;21.64316215;-2.754947255;7.361035647;-0.211248414;10.90208451;14.45605408;-4.174441994;21.68879639;23.22451228;21.62423066;18.23229046;8.088368834;8.357721367;14.2417487;4.846942011;9.439862198;7.10061044
5.576816848;14.17600967;19.95114094;-2.359823878;7.049601669;-0.222699199;22.30061216;15.04636572;-1.250176902;22.35110179;19.65581404;18.59216306;17.67541686;6.339618397;9.205935335;16.2805472;4.245229341;8.731241732;6.764006719
4.987855395;13.80897409;17.16445906;-1.273391345;6.626970398;-0.163689462;23.14;13.60849017;1.75884589;20.74731408;16.18026435;18.49895933;16.6429901;6.683887265;13.33160763;19.50596207;5.599786533;10.17035469;6.303710306
5.295641639;14.08027139;14.87891288;-0.389354532;6.383139663;-0.147790797;10.19547937;10.99432179;3.129684184;18.00518969;17.91091931;21.41946067;15.84998646;9.061770582;16.85118843;22.24504287;8.51968529;13.20889637;6.21252517
6.421554934;15.08365434;14.46157707;-0.382306565;6.320536688;-0.252641767;-10.73698019;8.331979996;1.917982531;15.31968316;25.17106472;25.4577094;15.64032121;12.08557994;16.06511323;22.4504156;11.45249872;16.14548494;6.68458714
7.659241551;15.95423585;15.8488269;-1.28267309;6.197079554;-0.431181532;-28.56586334;6.506666157;-1.096122983;13.38740579;32.52907081;28.10756868;15.84944154;13.97474325;9.982796397;19.1267534;12.60065779;17.05626554;7.367844081
8.057683887;15.28110137;17.45074436;-2.510778533;5.837270305;-0.535140654;-34.38395738;5.944984133;-3.966345952;12.4627575;33.12359058;27.96638195;16.00881877;13.73231891;1.079752267;13.21660174;11.07834534;14.96459776;7.582694081
7.085469548;12.29038095;17.38772954;-3.227755797;5.408258716;-0.436533714;-27.1430667;6.680183649;-5.134593427;12.72384023;24.95850862;25.58229105;15.74079141;11.72652904;-5.985039767;7.234087869;7.50659607;10.49599664;6.858395612
5.095565566;7.873509815;15.14156178;-2.738734776;5.374466167;-0.143104227;-13.48149403;8.486297309;-4.559792882;14.39430052;13.70463706;22.92255784;15.07432619;9.32616839;-6.813534017;3.823926964;3.638493137;5.610536989;5.357203846
3.197483515;4.459875938;12.24038434;-0.782035378;6.124363321;0.194580858;-2.223703237;10.91764647;-3.437654787;17.40999017;8.988324279;21.96299696;14.46583377;7.940528974;0.431246912;4.206776307;1.286894219;2.591750123;3.82263813
2.558533876;4.547021681;11.27371126;2.330724288;7.564665221;0.393618388;1.953836751;13.28806879;-2.874921265;20.98586144;16.46734846;23.43890709;14.50304922;8.190478685;13.92145791;7.559964753;1.287062731;2.887937251;3.06116784
3.595089176;8.818964893;13.86574411;5.736542296;9.037515747;0.374305827;0.891805507;14.75918403;-2.843619295;23.65873992;31.89429808;26.53490529;15.48531616;9.741170858;28.73026847;11.71065715;3.146623102;6.415882705;3.347217459
5.632057949;15.28284014;19.15178761;8.26020651;9.675826526;0.208281719;0.002675629;14.63859703;-2.411570492;24.00994359;42.43607003;29.54172984;17.16858909;11.7719261;38.89284171;14.59381097;5.514628646;11.61942343;4.215967682
7.293766122;20.24007813;24.01902788;8.884786471;8.964409131;0.045370962;2.956189534;12.77213054;-0.962892046;21.62215866;35.14494714;30.89552069;18.86267264;13.60753655;40.15750777;15.433884;7.053386176;16.18029326;4.808965869
7.368143183;20.57099063;25.06075512;7.292300024;7.102466481;-0.009598998;8.601970152;9.749667657;0.865208738;17.49601993;6.738452466;29.93373454;19.82539571;15.01425419;32.15773315;14.88683939;7.110547732;18.02184009;4.503183655
5.550986778;15.76968303;20.86953838;4.14590967;4.903622257;0.038677513;12.54230199;6.701715062;1.534874767;13.48656368;-32.66149261;27.05860957;19.67906436;16.02616739;18.7706101;14.18085493;5.841389206;16.1839506;3.337206205
2.578562809;8.268144309;13.00825171;0.836170224;3.307151665;0.117500674;11.68411821;4.729985669;-0.019300464;11.08287297;-65.04662736;23.40379356;18.54843617;16.5750901;6.219756786;14.00071818;3.866894639;11.22457499;1.923124744
-0.293394252;1.803347812;4.977170393;-1.26407605;2.842491049;0.180634947;7.576221725;4.294514319;-3.315563645;10.41638558;-75.75298647;20.26376831;16.82670441;16.32086338;-0.211043303;13.96490143;1.824933738;4.968190689;0.950713207
-2.058804332;-0.999779675;-0.031757516;-1.607501357;3.391706614;0.257040358;5.443374156;4.948687252;-6.655205926;10.25619145;-62.60569074;18.49715227;14.77293949;14.85704651;1.028476038;13.02168731;0.120032959;-0.334732638;0.704249106
-2.456739635;-0.122469872;-0.976941886;-0.791710183;4.354075657;0.405584214;9.575837351;5.602753001;-8.645344078;9.009114808;-36.67940759;18.0636976;12.29440816;12.11846573;7.209968842;10.38115797;-1.077851052;-3.087508224;0.967373598
-1.937371441;2.239654669;0.795345778;-0.132781536;5.038701943;0.624338537;18.95287893;5.151118927;-9.51202542;5.974073359;-14.45968189;17.89844083;9.126987757;8.634546537;13.39279759;6.23988493;-1.740248906;-3.123177361;1.338830352
-1.244447436;3.498471203;2.860661;-0.763234211;5.003555451;0.812850299;26.96956868;3.068512906;-10.90398152;1.915141868;-7.230178761;16.32893693;5.283772803;5.385234859;15.68971949;1.77091139;-1.948038621;-1.710602532;1.631680992
-0.977877166;2.483020725;3.435598133;-2.885704505;4.169705203;0.838797676;25.8785522;-0.373765564;-14.25814835;-1.448263765;-15.05622017;12.01431223;1.371153634;3.314108329;13.48469404;-1.575785361;-1.927308363;-0.725765854;1.981784761
-1.402723982;-0.040212928;2.261603446;-5.708864118;2.738460486;0.658617211;12.70093451;-4.345383317;-19.19871799;-2.620106848;-28.90078108;4.970491822;-1.577673907;2.802272675;9.16116576;-2.939439811;-2.041918373;-1.453705632;2.580787507
-2.502258927;-2.313503853;0.236276232;-8.082623056;1.052111665;0.380923434;-7.965684664;-7.930344901;-23.53867986;-1.302079718;-38.37536774;-3.022427625;-2.7286243;3.437880032;5.777597352;-2.500276232;-2.66162681;-3.781525838;3.311558005
-4.093534943;-3.070589804;-1.624359398;-9.325034587;-0.50128989;0.202857914;-26.52947289;-10.51565156;-25.06841578;1.491453255;-38.98698562;-9.109837517;-2.094871255;4.230973125;4.623830486;-1.27762979;-3.959199617;-6.336138785;3.671116626
-5.870039063;-2.365669656;-2.938437862;-9.605149154;-1.55121764;0.260529868;-34.57607517;-11.90615907;-23.64693177;4.162572824;-33.92396559;-10.92491198;-0.669981223;4.158860495;4.532195744;-0.480257746;-5.78348968;-7.493369333;3.113213963
-7.410864929;-1.249336;-3.922830822;-9.614919721;-1.83930802;0.516495103;-30.14106917;-12.2066036;-21.68417613;5.512382876;-30.03600004;-8.089793594;0.148932201;2.742223241;3.288960417;-0.849860786;-7.712351987;-6.563238693;1.54725352
-8.286331097;-0.770004883;-4.837795827;-9.834467522;-1.346457995;0.78329079;-18.35401524;-11.64985561;-22.38695997;5.314802451;-31.9;-2.603239971;-0.506131645;0.335021587;-0.216508765;-2.35715312;-9.252786867;-4.309888856;-0.453095454
-8.287994535;-1.223397421;-5.574144125;-10.01438577;-0.354647474;0.869107971;-7.257380868;-10.50949041;-27.07899744;4.220495782;-38.63582129;2.262324449;-2.359541031;-2.042348477;-4.950890228;-4.338414802;-10.05557922;-2.43301623;-1.968559025
-7.621582768;-2.194649393;-5.782698959;-9.31613748;0.66510731;0.727019649;-2.129802503;-9.090293033;-33.8099013;3.221213829;-45.34419135;3.893305723;-4.175282873;-3.259212346;-8.575390611;-5.91301253;-10.03113309;-2.390255729;-2.375059548
-6.843095165;-3.168338267;-5.35227242;-7.01749904;1.327038674;0.484893385;-2.503394078;-7.696943225;-38.50421532;3.109685479;-47.29982844;1.813734301;-4.62927948;-2.731514972;-9.297197337;-6.429444393;-9.351839128;-4.412582234;-1.802389987
-6.495026837;-4.031705501;-4.699222697;-3.230180027;1.596829873;0.333921809;-3.750590972;-6.526139046;-37.84301659;4.21546431;-43.30425204;-2.270073242;-3.233059714;-0.802401594;-7.097569395;-5.739561137;-8.393096297;-7.399495099;-1.020836978
-6.681366376;-5.018161679;-4.535101352;0.948298519;1.834419783;0.372236831;-1.552717336;-5.553447723;-31.64650501;6.410103804;-35.88498024;-5.809476622;-0.629103278;1.410835788;-3.404271874;-4.21381651;-7.641552168;-9.713478433;-0.819324038
-6.941474098;-6.250576661;-5.300272057;4.001889627;2.537096325;0.534089119;4.480626046;-4.550614916;-22.9318945;9.227077706;-28.8277996;-7.109101407;1.932004561;2.660564407;0.266820502;-2.519289696;-7.54198823;-10.24704842;-1.362391283
-6.591106075;-7.438343631;-6.784240748;4.894867333;3.939712104;0.657417415;10.8287985;-3.284654074;-15.69737989;12.00164701;-24.42839054;-6.166967665;3.490078125;2.337500714;3.324922666;-1.26907212;-8.268778613;-9.000462827;-2.049157745
-5.316744955;-8.097836154;-8.291709135;3.670436582;5.767885758;0.623760532;13.45233875;-1.776731854;-12.24637307;14.05287532;-22.53817171;-4.17983918;3.94263855;0.871740268;5.897757891;-0.709128304;-9.518166787;-6.851657808;-2.002569936
-3.555516465;-8.106597281;-9.218270529;1.34502725;7.354600157;0.448370762;11.58919278;-0.398746269;-12.08128599;14.93098194;-21.62695399;-2.278335946;3.886298762;-0.527947131;7.846765351;-0.606153267;-10.51440331;-4.831028809;-0.808026723
-2.310180654;-8.021879528;-9.530808176;-0.792115384;8.067006741;0.250350402;8.703827831;0.324620845;-12.97943196;14.63484714;-20.47138554;-0.584961978;3.955134609;-0.657134713;8.272915546;-0.406599754;-10.35906311;-3.521539352;1.086689525
-2.47736309;-8.770660335;-9.735477352;-1.955216928;7.746899073;0.141419725;9.655225063;0.107765192;-13.08865842;13.62766472;-18.95405143;1.681185591;4.277930912;0.89804254;6.285493756;0.420688696;-8.608366373;-2.982327039;2.632714654
-4.171517441;-10.89927433;-10.37178917;-2.183637672;6.840764973;0.138761576;16.2421582;-0.798500688;-12.22913144;12.58044638;-17.60613615;5.245736113;4.524114495;3.52255433;2.429373765;2.069702946;-5.711617206;-3.088052002;2.903869118
-6.567165997;-14.01874784;-11.48365634;-2.048064899;6.115712971;0.175647933;24.75114481;-1.66199012;-11.48975683;11.9973872;-16.70428184;9.853078923;4.448514776;6.056085862;-0.750598825;4.308677179;-2.929554455;-3.846843581;1.729948058
-8.404695895;-16.9694781;-12.53014875;-2.036437967;6.162143363;0.18768154;27.79798315;-1.684180119;-11.75549395;12.00835331;-15.91476547;14.18552318;4.374775354;7.641671314;0.002695594;6.656249512;-1.663719056;-5.371513304;-0.222302079
-8.80118743;-18.63260053;-12.81497946;-2.118339997;7.039088888;0.183349482;19.54215398;-0.501714275;-12.62778617;12.49054356;-14.71177755;16.70521633;5.09661306;8.300350572;6.173003724;8.669862128;-2.575770343;-7.583263645;-1.937034077
-7.778412394;-18.75168803;-12.07660834;-1.806686272;8.304685691;0.227900213;0.62574507;1.580797646;-12.68196348;13.38084576;-12.97510885;16.73692663;7.200664247;8.797125718;15.75188118;10.12731218;-5.104187876;-10.02;-2.696079368
-6.145996251;-18.09456009;-10.7570373;-0.632081778;9.382404789;0.357378081;-20.96771541;3.787245322;-10.73161762;14.83702633;-11.08748908;14.94024667;10.3691792;9.916817453;23.9495831;10.99914519;-7.765791088;-12.02271433;-2.404451402
-4.87146475;-17.8189588;-9.738211897;1.367341642;9.970699058;0.510689325;-34.2495519;5.33612272;-6.919137226;17.02126955;-9.472621244;12.83613099;13.30982433;11.74203317;26.16551201;11.30724276;-9.07904454;-13.18355091;-1.426022907
-4.43425935;-18.55494876;-9.753504137;3.532012633;10.19369303;0.554267668;-32.14637867;5.829969375;-2.711881423;19.65132746;-8.128586501;11.79170352;14.48026499;13.53221026;21.15167649;11.06076295;-8.474556863;-13.64276181;-0.165986562
-4.621148458;-19.93472851;-10.90742329;4.933167604;10.41105893;0.38786505;-16.30380505;5.318732694;0.098780416;21.76569689;-6.690313133;12.22649306;13.11597513;14.31929568;11.97331003;10.35785454;-6.549655506;-13.91938921;1.206512894
-4.837665469;-20.91628398;-12.62;4.927632103;10.87438342;0.040837057;3.743887342;4.078365736;0.498001596;22.06824852;-4.96333124;13.5419708;9.786830659;13.74158657;3.976751272;9.531172397;-4.511470138;-14.38680068;2.697409631
-4.614983228;-20.59900859;-13.98689151;3.514654218;11.52242967;-0.329969252;16.74817272;2.37475129;-1.36919513;19.75918077;-3.346492433;14.67672832;6.050502584;12.41963827;1.255050832;9.10737804;-3.265914534;-14.86511104;4.231133497
-3.896042178;-18.85941901;-14.27836035;1.266418732;12.07403449;-0.546643205;17.14988115;0.449403667;-4.593669141;15.28305919;-2.645096245;14.77158124;3.464552336;11.53145009;4.207727166;9.482781628;-2.860402386;-14.74163346;5.511332859
-2.928937158;-16.32747039;-13.26431482;-1.063698714;12.32254886;-0.536339776;8.537851682;-1.298118391;-8.098294961;10.36074075;-3.379395969;13.49350513;2.696736427;11.89645038;9.846930113;10.50645715;-2.672118391;-13.56477258;6.170294437
-1.939211175;-13.78463142;-11.2152337;-2.924612705;12.36957112;-0.375092512;0.625318804;-2.199326338;-10.89995189;7.139715136;-5.210272428;10.97033803;3.351605504;13.29931752;14.33356411;11.35039551;-2.110329381;-11.5901065;6.075907914
-0.901629528;-11.51477882;-8.639613095;-4.06423977;12.59;-0.217938625;1.807961413;-1.527879113;-12.06560632;6.967033581;-7.024451245;7.616625563;4.531753267;14.61903211;15.62963206;10.91843655;-1.187221436;-9.731340137;5.494433551
0.409757479;-9.128749799;-5.941771284;-4.335353577;13.34606659;-0.179279415;12.65032519;1.00993586;-10.80262992;9.625869269;-7.629282146;4.098024497;5.586108738;14.69370896;14.35516187;8.641091578;-0.45203434;-8.855465609;4.930634249
2.18476428;-5.965374875;-3.191877484;-3.466803628;14.67802489;-0.263686942;25.12555895;4.868980791;-6.926215999;13.58124969;-6.47706532;1.376505111;6.427427858;13.25502517;12.60073781;5.123897467;-0.357111853;-8.966550241;4.767556943
4.391671396;-1.716692306;-0.129917888;-1.080270184;16.22518087;-0.395761075;28.32791101;8.749896425;-1.363588128;17.05369139;-3.863043736;0.556480304;7.25024408;11.19428607;12.05198567;2.099481594;-0.641229458;-9.006123391;5.021970547
6.793066206;3.211155013;3.586095038;3.001792994;17.4496418;-0.508056884;16.60324599;11.25439281;3.94519626;19.13896435;-0.556839057;2.38003418;8.030466718;9.941157746;13.01559725;1.560577666;-0.327311966;-7.549850433;5.431038095
9.102172075;7.845663236;8.008243132;8.40309743;17.9965246;-0.599909695;-5.854318061;11.72526707;6.991608072;20.18612892;2.693563216;6.609174528;8.353381242;10.43190296;14.80540919;4.546601162;1.583224329;-3.933576601;5.777854027
11.09865293;11.16204808;12.62784134;14.13096173;17.91556004;-0.715851587;-27.39965512;10.66573533;6.934324175;21.23245994;5.354816016;11.80742932;7.768754786;12.45847851;16.65811513;10.37323496;5.248453058;1.078886695;6.133193556
12.59887214;12.59588167;16.42508585;18.93254168;17.57762485;-0.872973553;-36.66951589;9.380157922;4.647136742;23.00385256;6.996560743;15.87224012;6.339854993;14.8756922;18.11;16.86192384;9.670465474;5.678463068;6.760716955
13.35557756;12.24820225;18.29210653;21.85602038;17.35806478;-1.015459825;-30.056919;9.042862128;2.038162477;25.2703036;7.229723009;17.12653463;4.826662724;16.46316671;18.66159525;21.47785425;13.22975004;8.22141369;7.75248174
13.05570996;10.71959509;17.62221334;22.61832653;17.33865038;-1.046973724;-13.56802012;9.855367627;0.599583444;27.00636247;5.941242934;15.27474623;4.23659815;16.7445128;17.53068619;22.67626557;14.6969562;8.361018652;8.742867733
11.4929768;8.731905417;14.68995114;21.52642786;17.26087458;-0.915043694;2.052610693;10.92184149;0.337167158;27.15322639;3.624901645;11.51642872;5.039254692;16.1461577;14.24694364;20.62546153;13.9668439;7.215317237;9.022262396
8.801075575;6.773023995;10.53695912;19.06581303;16.76160823;-0.668717542;9.034567483;10.95045225;-0.045303308;25.34637041;1.340382557;7.672973831;6.680515316;15.44502299;9.756831586;16.90892811;11.98524687;6.426916845;8.035819457
5.532584972;4.9398807;6.408183718;15.54390767;15.6973757;-0.4315529;7.310817978;9.26036941;-1.878993992;22.07810198;0.105157933;4.924366194;7.838063449;15.02859493;6.73419308;13.48486128;9.983314252;6.849681091;5.890486365
2.466062105;3.033025996;3.116792171;11.1068143;14.29265311;-0.308009651;3.026571493;6.328503269;-5.272828281;18.26879185;0.124532054;3.087967665;7.281496075;14.60550873;8.116407351;11.61658623;8.659491553;7.90198879;3.431805763
0.243006777;0.832700114;0.776481528;6.079418491;12.98698356;-0.303032501;2.569089418;3.450673874;-8.938180453;14.6761429;0.576284015;0.99538177;4.712989556;13.58620327;14.49314176;11.40443826;7.932682927;8.099761948;1.769598662
-0.915826914;-1.608604913;-0.947710806;1.236362857;12.09720872;-0.325465981;7.247984965;1.767585212;-11.21907804;11.61589933;0.281799652;-2.315378116;0.970616545;11.76908826;22.47040958;12.06574289;7.367446896;6.340723241;1.577336321
-1.220948601;-3.851396071;-2.332341973;-2.374178221;11.56550145;-0.27353598;12.89657473;1.39813914;-11.41225927;9.115625261;-1.21484204;-6.538524205;-2.533123356;9.709175227;25.93851917;12.61412336;6.803048626;2.910895788;2.68888348
-1.068994268;-5.244057556;-3.285014101;-4.031281053;11.00699469;-0.129269478;14.36505756;1.348387033;-10.24416881;7.223760645;-3.116225191;-10.06404748;-4.693741207;8.419229034;20.05842296;12.42713146;6.58509543;-0.592920541;4.291454616
-0.745210994;-5.310645613;-3.480669102;-3.892318071;10.04059685;0.018900824;10.73530732;0.277260421;-9.147597537;6.104387054;-3.957476994;-11.08985442;-5.275559948;8.618809417;5.311313502;11.41112538;7.196747435;-2.36886445;5.544224547
-0.287043192;-4.090440332;-2.774537222;-2.9487062;8.656858819;0.044438364;6.540860683;-2.45054487;-9.035290257;5.817424166;-2.883208036;-9.084836244;-4.812703608;10.13107309;-11.69356927;9.832749687;8.652441946;-1.682237858;6.126345905
0.433089559;-2.150626103;-1.462334146;-2.285380266;7.326722924;-0.115154307;7.762824239;-6.212627637;-9.659976347;6.038590006;-0.484588882;-5.454025453;-4.040048828;11.91983802;-21.89753208;8.085438425;10.24988718;0.668285121;6.304358554
1.520706197;-0.211220601;-0.104255516;-2.173848647;6.732394096;-0.405051579;15.96216837;-9.491588578;-10.06144005;6.071709982;1.634133866;-2.789851554;-3.360369693;12.75840706;-19.78585821;6.582390455;10.97189223;3.010341895;6.526692892
2.930315674;1.360058594;0.945352266;-1.788540859;7.282563842;-0.688013409;25.72094115;-10.89024268;-9.60363766;5.250438177;2.263790985;-3.148269479;-2.733722702;12.03775538;-7.432158503;5.74948817;10.25372919;4.029109041;6.943043998
4.466062215;2.773697987;1.851994359;0.080476893;8.751507312;-0.835453427;27.99937329;-10.07018596;-8.614214096;3.447302862;1.720292328;-6.574421279;-1.969802026;10.13302265;6.58761716;5.964835333;8.485337649;3.617204307;7.279864993
5.863805133;4.544349978;3.121414077;3.775852195;10.31735198;-0.804066434;17.11742484;-7.962904787;-8.070803861;1.253525093;1.589643285;-10.9947686;-1.07834749;8.099888351;12.93270711;7.369313956;6.804834303;2.754586896;7.162563592
6.870972071;6.913473591;5.043567021;8.007421087;11.00561844;-0.648543098;-4.125431376;-6.143869945;-8.689258671;-0.380942214;3.198319337;-13.62655039;-0.346523429;6.966360264;7.892511477;9.660348835;6.308414694;2.621614764;6.565280616
7.296282602;9.462887548;7.25888599;10.35772776;10.25885229;-0.475540807;-25.46647489;-5.845739392;-10.29658297;-0.826799728;6.150906019;-12.92995042;-0.107913759;7.137678143;-4.176349745;12.079953;7.276905127;3.712247559;5.95090359
7.059104151;11.29890945;8.881060775;8.882797996;8.257838549;-0.382331116;-35.87176643;-7.292999887;-12.04897673;-0.275320186;8.353661301;-9.694835586;-0.456357051;8.282822517;-14.1415091;13.70443942;9.008045601;5.62127153;5.940039063
6.250915696;11.70911482;9.127228297;3.676748797;5.786837157;-0.418656032;-30.96757344;-9.751071453;-13.22955234;0.330501962;7.68219144;-6.464961584;-1.186064921;9.684305797;-14.68879279;13.91211595;10.36259222;7.561032281;6.77535997
5.154153698;10.7510956;7.93232324;-2.867545255;3.747612686;-0.578634462;-15.65965195;-12.15100943;-13.83488221;-0.093346663;3.917362116;-5.721987899;-2.007146211;10.72868582;-5.416597964;12.74201234;10.58289816;9.068227954;8.050139998
4.145908624;9.241468959;6.007255392;-7.472467223;2.661361125;-0.807804057;-0.125283653;-13.78065677;-14.41918818;-2.042786342;-0.818430279;-8.165933479;-2.82319164;11.19969757;7.163733074;10.90404483;9.766087433;10.27699108;8.965620241
3.501288747;8.116776767;4.283789715;-8.137106003;2.486480307;-1.016359458;7.554056693;-14.56960474;-15.42279954;-5.077086505;-3.673022329;-12.33950668;-3.804889172;11.25845962;14.51126432;9.427995411;8.687460854;11.58639348;8.938103202
3.235017696;7.717095421;3.244534135;-5.449203199;2.835388301;-1.106455144;6.460384207;-14.86180542;-16.70641072;-8.064382859;-3.436032221;-15.81393243;-5.187626947;11.23370773;12.11949306;9.171054602;8.188594934;13.11059331;8.073150895
3.139911298;7.658746589;2.742892246;-2.009629436;3.378814656;-1.019837371;2.051806062;-14.95848198;-17.76078172;-9.823231605;-1.579054907;-16.97374174;-6.976414649;11.41682334;2.426786453;10.47171488;8.640960739;14.47487668;7.11902644
3.03357529;7.452328277;2.451631889;-0.356653302;4.100960145;-0.786140334;0.730080566;-14.83784381;-18.3306312;-9.730530433;-0.931046122;-16.02;-8.827850633;11.96003906;-7.243591964;13.10949528;9.859234905;15.17609059;6.92890321
3.016188872;7.30101324;2.458184077;-0.973116015;5.205516638;-0.529753433;4.504169082;-14.25834256;-18.735163;-7.952405982;-3.046172193;-14.47570109;-10.22567522;12.85248192;-9.912887456;16.52136274;11.42911923;15.1843339;7.853207413
3.475682086;8.249058357;3.346052856;-1.950551379;6.764474595;-0.407991934;10.02806702;-13.11546873;-19.47303075;-5.247049353;-6.600058594;-13.69007813;-10.81501806;13.92067539;-3.513482367;20.092705;13.0966962;15.20951414;9.527659004
4.759274384;11.35977382;5.577821051;-0.620090332;8.422806282;-0.505902548;12.40056682;-11.71623592;-20.48300602;-2.54716572;-8.377202815;-13.63117248;-10.62918919;14.86308998;8.196121111;23.35494274;14.88587629;16.31626247;11.19160813
6.741012729;16.51032783;8.718927686;4.097468002;9.447169612;-0.76138911;10.11350799;-10.70574745;-20.89189145;-0.588699587;-6.139278963;-12.98747799;-10.03573703;15.366247;18.55167926;26.03366546;16.90225264;19.12201652;12.24807932
8.677895738;21.89482708;11.32254583;10.4851505;9.146558693;-0.988632662;6.707416661;-10.65710926;-19.68873014;0.270525342;-0.864226331;-10.49167304;-9.45565047;15.29211711;22.35415018;27.9954225;19.06020415;23.18739034;12.61012883
9.573764148;24.89275951;11.79848118;14.98360676;7.390681615;-0.999646134;7.620799865;-11.60574552;-16.82658471;0.057630667;3.787873862;-6.330576541;-9.078234309;14.81547598;18.70857893;29.17270169;20.99953182;27.09181093;12.59013524
8.85693899;23.84799048;9.68848812;14.65268977;4.840588984;-0.742533227;14.89153395;-12.8765151;-13.6778261;-0.900029297;4.551436133;-2.389292185;-8.776789216;14.36082951;10.81867279;29.51796286;22.25049761;29.17913069;12.48362558
6.862257998;19.42486168;6.27085768;9.302945893;2.681322622;-0.350356275;24.31155058;-13.37176351;-12.20446935;-2.100681713;1.570691106;-1.008068212;-8.260612185;14.31492048;3.418290948;29.00053743;22.48123634;28.47026469;12.24035503
4.691141461;14.37174686;3.839938524;1.69616895;1.989980689;-0.055275021;27.75434906;-12.18414813;-13.36224612;-3.0316691;-1.445164668;-3.167188712;-7.324763099;14.69352666;-0.149691195;27.64301118;21.62383692;25.14776189;11.51178926
3.486777055;11.70301427;4.077568633;-4.311404822;3.136490533;-0.02607225;19.21797831;-9.170922676;-16.09329203;-3.354384888;-0.365376114;-7.545465551;-6.009539808;15.03786057;0.586951877;25.58256203;19.82905451;20.35854659;10.02232699
3.646410144;12.59334277;6.760684285;-6.261235184;5.603707;-0.250174063;0.014120958;-5.124670736;-17.92149802;-3.035697232;5.483023907;-11.26593306;-4.570825172;14.68561045;3.716125944;23.11826152;17.366335;15.55552546;7.930565558
4.58313673;15.58823748;9.877657314;-4.385029706;8.332244131;-0.549592323;-21.03107275;-1.405945925;-16.82491118;-2.32884333;12.23172668;-11.83254126;-3.301993588;13.27411788;6.645606665;20.68380043;14.59520054;11.84197739;5.85843211
5.235788096;17.75492512;11.12628566;-0.87613901;10.34458765;-0.71668364;-32.84204836;0.770511299;-12.86721997;-1.579152447;14.56218824;-8.817912819;-2.335747877;11.11379269;7.766987996;18.70945801;11.99352576;9.663271185;4.545714501
4.925325731;16.88568029;9.629282106;2.087260129;11.23188763;-0.663412822;-29.2309878;0.981450297;-8.147530091;-0.961060392;10.68410063;-4.044082347;-1.549973766;9.117279228;7.151113569;17.42146589;10.1079814;8.879129912;4.390904748
3.867366634;13.05228678;6.500623182;3.8995039;11.21024193;-0.471427635;-12.89289977;-0.216938654;-5.019360597;-0.334059402;4.858350466;-0.162045919;-0.632549683;8.278109113;6.089675607;16.7156685;9.343511422;9.027096809;5.218494355
2.928891476;8.368930732;3.833223817;5.481427987;10.77098821;-0.312933598;6.518656385;-1.677249268;-4.072660354;0.650616959;4.690930275;1.248180801;0.725456344;9.036727746;5.95897637;16.24173958;9.699863196;9.588862538;6.421255766
2.843835571;5.283068706;2.983297642;7.856644842;10.22607523;-0.314083752;18.83032566;-2.384459425;-3.674449287;2.235371932;14.66065652;0.626465934;2.607541553;10.98060835;7.17883552;15.70206558;10.69675055;10.19881882;7.340019531
3.553952173;4.855481306;3.592277356;10.72506743;9.491123673;-0.470307454;19.81467971;-2.054905252;-1.563377275;4.248012268;30.87810875;-0.188892112;4.751469112;13.10163;8.915050017;15.1810636;11.6361195;10.80229674;7.597774913
4.232740998;6.373080556;4.12625223;12.36204312;8.242077815;-0.670535972;13.32966814;-1.22583709;2.839599004;6.046794303;41.80479487;0.470660298;6.63274714;14.4394284;9.711133571;15.23309714;12.07214401;11.71380976;7.193136416
3.969532776;8.410288947;3.394246274;10.99902337;6.293338619;-0.79474135;7.885635736;-0.787745346;7.487823546;6.816005958;35.40604753;2.881583;7.749355463;14.66928937;8.638928931;16.58109072;12.13780293;13.46114465;6.374668041
2.531883869;10.21474493;1.673273529;6.538040319;3.890184505;-0.796491902;10.20398457;-1.293116386;9.134172623;6.067321446;8.081206097;5.943875299;7.960100575;14.24461422;6.155493152;19.56194497;12.43794122;16.38563321;5.462779324
0.564936645;12.12013953;0.443627448;1.104692721;1.68819213;-0.709236084;20.24780887;-2.534870724;6.072347372;4.033187625;-31.21752064;8.254274259;7.63992618;14.02676702;3.964756242;23.69374982;13.55160851;20.19658102;4.757709093
-0.925827431;14.69534093;0.988489631;-2.156030974;0.431149378;-0.590036621;31.06191155;-3.698812941;-0.11306465;1.669413456;-65.22494595;9.232400709;7.483789972;14.68148792;3.850391723;27.72436831;15.52330788;23.84138403;4.529645313
-1.35195791;17.5786926;3.132710868;-1.219294809;0.552182991;-0.466729239;33.46875431;-3.976965869;-5.396208317;0.212244259;-78.5610589;9.374875427;8.021113604;16.24596564;6.271176832;30.21794621;17.76128285;25.92979621;4.988450469
-0.918804087;19.26942255;5.280424775;3.356491526;1.96124668;-0.339350929;22.46069472;-3.181181904;-6.228295854;0.522613989;-67.05881808;9.554067528;9.154069032;18.11373835;9.840744363;30.34379031;19.44011407;25.54978418;6.171089785
-0.312566192;18.24321102;5.756004279;8.781364522;4.136151914;-0.224190175;1.052761299;-1.884264713;-2.210400274;2.608569463;-39.87;10.10702263;10.09536508;19.39268038;12.25976746;28.34751474;20.08160459;22.93058969;7.815013994
-0.020552875;14.44908271;4.278504924;11.97219097;6.425981176;-0.18187964;-20.9779299;-0.965229147;3.668836543;5.629759049;-13.08003906;10.56415788;9.847985833;19.38095913;12.12708292;25.37090571;19.82894877;19.4063341;9.363981785
0.083049443;9.755270928;2.25319557;11.65560671;8.355619257;-0.28555499;-32.75288823;-0.895676787;7.440570967;8.394520771;0.523001923;10.20804355;7.963082673;17.89397232;10.20712094;22.7307256;19.18859965;16.60003906;10.18445011
0.516596805;6.75311258;1.588525177;9.10483553;9.756520635;-0.547432948;-28.81163856;-1.324020973;7.23461245;10.04213546;-1.523264187;8.866140051;5.034015913;15.31632075;8.969681134;21.1464645;18.48212989;15.36416081;9.900313355
1.559699847;6.798809254;3.047150757;7.017896274;10.69138869;-0.872137993;-12.35560062;-1.309190062;4.519116518;10.47421177;-11.85840185;7.147838887;2.490955193;12.41344386;10.52672994;20.43610999;17.51943797;15.27202831;8.628521456
2.822111545;8.95223907;5.566386259;7.421526642;11.27504415;-1.092526888;6.877795111;-0.063219829;2.558304011;10.26150231;-20.06858401;5.893016959;1.734186237;10.02081805;14.50943362;19.85116686;15.82318346;15.08593959;6.936655182
3.451918085;10.80007813;7.151014023;10.1678595;11.53375886;-1.075537534;18.77907637;2.347149847;3.481716101;10.11130969;-20.24899309;5.372742837;3.161024702;8.733314797;17.74571518;18.75861946;13.23937382;13.86907243;5.529294234
2.841232018;10.54636712;6.574189723;13.10336719;11.38602749;-0.820778497;19.09593248;4.89222854;6.477581433;10.29228294;-14.01130529;5.043325286;5.793786895;8.69529423;16.37007813;17.14694576;10.385737;11.86030835;4.861881722
1.217338233;8.605272723;4.41940866;13.73584945;10.73102273;-0.471847729;11.65584425;6.19132134;8.595306616;10.44739793;-7.561646496;4.146670732;7.839912296;9.569478584;9.037978623;15.6010979;8.469930417;10.37230742;4.930124665
-0.425045056;7.285675556;2.574505486;11.14572016;9.566396062;-0.225381524;5.12273957;5.429726504;7.383077578;9.939145487;-5.975657324;2.630048828;7.850719301;10.71556144;-1.23074974;14.81398436;8.51790603;10.74141064;5.354501151
-1.037637324;8.770194106;2.6367319;6.748570941;8.053548716;-0.202559748;6.506126941;2.920616697;3.048113514;8.460534411;-9.414445856;1.489179613;5.683793867;11.51497719;-8.331317893;15.04575848;10.57571005;13.15395333;5.675178166
-0.304723064;13.09189814;4.620775287;3.372835326;6.489563171;-0.376383149;15.91195035;-0.100134445;-1.694371037;6.421136308;-13.86061688;2.094715437;2.584261162;11.67573314;-6.992094565;15.94929741;13.53508933;16.33053977;5.644581471
1.143777337;17.87701614;7.067027396;3.321471269;5.197442803;-0.603154226;26.24858185;-2.295855014;-3.884354218;4.769143391;-15.0915125;4.975114514;0.325955577;11.33189003;3.281338233;16.86666412;15.7826805;18.39419658;5.335067876
2.254566373;20.14600267;8.400447252;6.785118053;4.387149441;-0.726970544;28.19344742;-3.064558536;-2.693007108;4.345346441;-12.23059288;9.092441214;0.03534007;10.87111044;17.18218317;17.33109945;16.23177576;18.27958875;5.025799791
2.354747409;18.69058231;8.301504897;11.7049878;4.059578062;-0.676510797;16.99877615;-2.785372284;0.113558741;5.25440405;-8.026240097;12.32888184;1.541845867;10.6193783;26.56691243;17.37312905;14.98272231;16.55127353;4.977697006
1.568649893;15.00869342;7.876647425;15.16734979;4.016409142;-0.489771806;-3.675763428;-2.325849655;1.929532676;6.763038765;-6.014839434;12.92497777;3.687704939;10.62990226;25.64972093;17.41462211;13.13289677;14.92502913;5.252079089
0.542487059;11.9782915;8.514278795;15.36241429;3.992989703;-0.264415308;-23.69407833;-2.218817379;1.665303771;7.845320352;-7.287468202;10.78803082;5.304147192;10.74376795;14.94603708;17.86930692;11.90395136;14.82195883;5.668716975
-0.219135879;11.38241947;10.49090783;12.76752872;3.857182734;-0.084684448;-32.86778606;-2.158355332;0.62700565;7.978437661;-9.655406199;7.629468678;6.077730676;10.85344931;1.18438073;18.77779463;11.75790792;16.10193409;5.898481774
-0.785219311;12.40405016;12.600649;9.754529673;3.753039543;0.019472098;-27.41062812;-1.210482683;1.203274319;7.561911297;-9.755591762;5.78570721;6.655055199;11.10136057;-6.895577823;19.73987941;12.14397051;17.03559123;5.619062802
-1.624194851;12.40461179;13.14697182;8.898588842;4.068956611;0.063850725;-11.96996401;1.414567076;4.583960601;7.598366454;-6.104228679;6.601585198;7.953195288;11.77659204;-4.125562927;20.15075522;12.0015466;15.6141626;4.656267958
-3.018222114;9.350297883;11.40769413;11.15204503;5.20247853;0.076563655;4.003727508;5.607581318;9.549000735;8.85137187;-0.421574057;9.574810837;10.26237913;12.94155227;7.815231582;19.52749499;10.57266046;11.21302096;3.064054363
-4.635649056;3.816283753;8.264875625;15.14139538;7.23769963;0.074483567;12.74113384;10.19220428;13.37558281;11.13339102;3.836381888;12.83213318;12.86633566;14.11105921;21.55363143;17.69631236;7.897435936;5.292784924;1.126649971
-5.679722874;-1.183307449;5.447698447;18.07742144;9.748077427;0.062319658;12.7907129;13.48814055;14.03573166;13.3098084;4.380419179;14.4722297;14.47436033;14.34589388;28.75496924;14.77653434;4.683222163;0.531035097;-0.717690827
-5.500947727;-2.47601499;4.07905916;17.65355428;11.89783579;0.041121839;8.718315988;14.23672134;11.75881422;14.06153638;1.90795821;13.7140553;14.11635159;12.82419854;25.25465006;11.07055811;1.750436219;-1.014177224;-2.017560306
-4.1365409;0.723359024;3.826417329;13.61522557;12.83671663;0.009163383;6.594984303;12.28744642;8.648649345;12.8470341;-0.659820741;11.07317609;11.80766082;9.527610606;13.27417737;6.995453284;-0.461227419;0.65084538;-2.47565897
-2.304108286;6.091160776;3.393361625;7.909888203;12.17350814;-0.04451482;9.071459042;8.635207547;6.780573901;10.32680229;-0.784043736;7.643494589;8.498692901;5.487318322;-0.525707649;3.07322373;-1.98599161;3.474942922;-2.078209597
-0.862475944;9.892071976;1.868682821;3.332835682;10.22627814;-0.138593141;13.86028698;4.841891945;6.504460774;7.913601654;1.514629293;4.235589009;5.394510949;2.290742053;-9.606306921;-0.122431087;-3.072197629;4.815478452;-1.11954928
-0.215663496;9.721349584;-0.321078987;1.658742522;7.864789973;-0.281152311;16.51125094;2.244100105;6.419522233;6.781238335;3.747047785;1.083716758;3.19834758;1.104816406;-11.55044177;-2.145293593;-3.887995042;3.240837173;-0.091393272
-0.160880723;6.115499703;-1.738446296;2.606781735;6.021215664;-0.447616467;14.86106037;1.407962944;4.946403511;7.075268887;3.18954253;-1.796673773;1.841706007;1.899774547;-8.897915707;-2.912036128;-4.451364289;-0.604878581;0.529528096
-0.25828016;1.847449058;-1.251221605;4.348621635;5.172578803;-0.580417569;11.25068828;2.058276798;2.001557868;7.898828126;-0.666334853;-4.122542579;0.836803913;3.483973048;-6.510544681;-2.792853767;-4.759790369;-4.599356905;0.503847622
-0.326512391;-0.371634301;0.862847172;5.098941816;5.125993494;-0.621423188;10.52853052;3.395127653;-0.767410681;8.041252092;-5.51555917;-5.291899698;-0.110113885;4.388189741;-7.561277436;-2.40248608;-4.887696369;-6.636340358;-0.047134008
-0.579123347;0.15097553;3.047463384;4.515851395;5.236785949;-0.557132819;15.42742259;4.537611374;-1.393585895;6.864989721;-7.974625942;-4.829700212;-0.756692573;3.981662071;-11.10801909;-2.162336268;-4.888589006;-5.881893121;-0.689718909
-1.285415642;1.970332157;3.752094643;3.820710652;4.897887131;-0.438708149;23.23461745;4.868779118;0.637078396;4.696329395;-6.192314353;-2.863384902;-0.518378686;2.981392979;-12.98156477;-1.932465655;-4.598120443;-2.988776719;-0.892231918
-2.312610001;3.092777841;2.744041419;4.592664911;3.963563585;-0.354538261;26.84467731;4.200112422;3.861477828;2.501287573;-1.202802861;-0.115672589;0.997253986;2.936924704;-9.273893871;-1.029769179;-3.60432854;0.656711591;-0.313321271
-3.034951702;2.76082997;1.286271357;7.275750121;2.834123101;-0.371804058;19.86484503;2.782925597;6.049916276;1.186816844;4.012741527;2.624911516;3.581554793;5.039575596;0.211950344;1.302166971;-1.53508471;3.899699444;0.982738076
-2.753326403;1.917734556;1.023865409;10.67426243;2.176937299;-0.491500063;2.075440712;1.207567061;6.088846616;1.095200688;6.890884639;5.07041719;6.481452554;9.133114529;11.21018983;5.256085499;1.504679156;6.257405903;2.516785636
-1.272818824;2.109239731;2.568514553;12.8902901;2.50564299;-0.652150391;-19.08391407;0.201439519;4.874048522;2.009537746;7.110133166;7.490893064;8.866875466;13.67393416;17.65944996;10.1156815;4.732171133;7.698481895;3.630615914
0.895247387;3.950428973;5.030834402;12.93380595;3.907173467;-0.777527558;-32.59887067;0.347504072;4.425273924;3.522059308;6.47135549;10.19604231;10.32598669;16.68963201;15.97146917;14.49919598;6.991263008;8.217338632;3.865520067
2.921353428;6.566199836;6.891546942;11.62900861;6.062363454;-0.827891908;-30.99313859;1.811930218;5.997794143;5.352619312;7.107633163;12.9484383;11.00666838;17.04792735;7.801002993;17.08821851;7.436517343;7.735837041;3.269722182
4.312068671;8.437746186;7.39684929;10.9884816;8.478516658;-0.814344122;-15.48513223;4.222087512;8.846368664;7.345304588;9.636838928;14.93007813;11.33352769;15.1350409;-0.806675527;17.38596055;6.123515098;6.418569967;2.424788891
5.245387577;8.793549161;7.195362735;12.5096066;10.7223729;-0.771077551;4.623630253;6.79304507;10.73341147;9.243188259;12.78095172;15.39605981;11.57872632;12.50407945;-3.415321224;16.00896037;4.045569924;4.986712354;2.129655616
6.274507419;8.237839548;7.628100979;15.80147393;12.49768116;-0.717818775;18.09831939;8.663099467;9.77094319;10.57492469;14.62317496;14.47954226;11.66317169;10.81608185;2.462927906;14.32136977;2.55055041;4.551742136;2.903481628
7.664072167;8.067829974;9.31932732;18.74420604;13.58437783;-0.650019531;19.2219687;9.263824465;6.050375235;10.86412586;14.28157424;13.38138412;11.34233528;10.86819078;13.7923973;13.65225988;2.538572719;5.93370821;4.618817388
8.982113329;8.960039063;11.38219158;19.13842988;13.78606751;-0.563422425;11.28966268;8.52895306;1.705510724;10.02280753;12.53513384;13.6374794;10.58604693;12.34797178;24.2878366;14.5904883;4.00173066;8.96911684;6.528940354
9.369252159;10.27830322;12.03635808;16.53460809;13.00581398;-0.482795059;3.664852926;6.860891792;-0.62559035;8.559909287;10.97783438;15.94851632;9.787821614;14.34093457;28.78045843;16.76669394;6.190814329;12.43665409;7.708424315
8.30077828;10.66792867;10.17531547;12.71795777;11.41582829;-0.458313166;4.535318592;4.930614836;0.327292183;7.357715157;10.60703815;19.49715127;9.581866379;16.06517289;26.42495463;19.19360248;8.212519207;14.78298127;7.636870206
6.180213073;9.404916956;6.528984659;10.38849451;9.548748224;-0.524474611;14.62794374;3.458434364;3.726675506;7.141221228;11.17482522;22.35924044;10.38479737;17.2394651;20.50838678;20.89322136;9.568361768;15.17129248;6.532752222
4.195752232;7.254096246;3.345572786;11.0631641;8.151984274;-0.656679803;26.47302748;3.063045165;7.478660184;8.045485402;11.81159326;22.7699327;12.03063413;17.90790239;15.33278008;21.41240879;10.26548407;14.06356519;5.197556155
3.481638402;6.00124225;2.75065975;13.89637155;7.819653162;-0.770159137;29.79491822;4.151376481;9.834276106;9.610700411;12.17883137;20.32126936;13.8181068;18.04574262;12.88288997;20.96103365;10.52851563;12.86735422;4.46928947
4.239586607;6.994711639;5.080068359;16.38288428;8.616150996;-0.772737696;19.1418575;6.779338743;10.40637388;11.1688966;12.91368063;16.21113154;14.96985258;17.4194093;11.96391117;20.16957734;10.46305121;12.88911432;4.667515438
5.553957407;9.926347013;8.548845739;16.36260527;9.963331788;-0.634669001;-1.788805038;10.49551797;9.921923403;12.26476499;14.86090705;12.39825027;15.16655302;15.86577907;10.26377764;19.67295547;9.998622395;14.37146818;5.423294318
6.090528832;12.91423545;10.54888431;13.67839486;10.91423804;-0.419042475;-22.2923788;14.3038171;9.174769634;12.76888799;17.8512667;10.34186119;14.73883427;13.69804545;7.257966392;19.77837304;9.123281687;16.32686868;6.007763615
5.148431773;13.86854171;9.560993497;10.14903858;10.67660349;-0.244871934;-31.73561503;16.8997697;8.255787083;12.66934811;20.34993312;10.2589949;14.35090271;11.77;5.193225219;20.38;8.121008848;17.27425742;5.906419605
3.239898604;12.05785148;6.202800487;7.95034197;9.067368754;-0.208966064;-26.4827987;17.17993824;6.733536801;11.84593929;20.55565818;11.34825069;14.40567342;11.01089327;7.150920293;21.1262389;7.516261162;16.31956021;5.208681434
1.747519315;8.6420876;2.665776805;7.832298552;6.612446994;-0.325937203;-11.77313155;14.79007813;4.48227971;10.12768767;18.10702557;12.64428281;14.6348199;11.73812779;13.87968013;21.71011513;7.716614544;13.79914763;4.528461487
1.93728675;5.795653788;1.075952086;8.69866332;4.234868151;-0.529709704;2.565078364;10.36492149;2.228761667;7.609091189;14.78768295;13.73427556;14.2193074;13.32090254;22.33638164;22.09235324;8.651890499;11.06175103;4.52706532
4.087307091;5.161186814;2.084423101;8.854766965;2.738236723;-0.729026647;9.158324018;5.254186886;1.174179582;4.876076067;13.3430745;14.80154217;12.39383898;14.54251654;27.51859032;22.50186523;9.745652502;9.589928994;5.401318938
7.352406691;6.827720011;4.679889348;7.749194635;2.408938933;-0.867933292;7.6240358;0.859904977;1.955924082;2.810487293;15.20473081;16.10265397;9.112170369;14.45554584;26.30662939;23.18997378;10.28079414;10.08313304;6.71
10.37724601;9.504147147;7.167152657;6.590505484;2.958699427;-0.944613831;3.489795905;-2.010078125;3.896486088;2.023372366;19.06865109;17.45788355;5.274962515;13.09560698;20.13498421;24.09142088;9.880221089;12.07538134;7.646931397
12.11866541;11.57273324;8.387242781;7.217829809;3.793740078;-0.98310753;2.828510123;-3.366236871;5.307856229;2.367352563;21.74182474;18.25576972;2.313249771;11.48666952;14.10745633;24.66117173;8.723817406;14.2495709;7.544715466
12.27532061;12.10096317;8.238495727;10.19;4.397435872;-0.993534131;7.178900579;-3.733880483;4.719939186;2.994856497;20.76243153;17.95797572;1.372915944;10.90159972;13.08756239;24.09632822;7.353012597;15.17563689;6.255280274
11.13786367;11.10151579;7.289095707;13.83857825;4.577710865;-0.961122657;12.83088713;-3.6001707;2.06782814;2.992824895;16.63228907;16.62155836;2.632970993;11.92026419;17.88252963;21.89776464;6.264199237;14.01980982;4.181878171
9.159207902;9.067565139;6.040019531;15.28032042;4.459737034;-0.871218559;14.79161701;-3.056997632;-1.157414923;2.099862962;12.63044909;14.94079558;5.206667367;13.99147969;24.64644532;18.42;5.645951131;10.88475442;2.003857593
6.684321424;6.380346481;4.55592553;12.70072137;4.288165118;-0.739954282;11.79829524;-1.900639133;-2.970388094;0.887382529;12.16126691;13.74069387;7.681859068;15.82161332;27.98375875;14.94590998;5.441064692;6.687660752;0.32168833
4.006843698;3.13402778;2.691841661;7.037502023;4.210648999;-0.614459188;7.865151078;-0.058649444;-2.353744326;0.220095215;15.79810003;13.33738684;8.935920098;16.28496418;25.16412377;13.06617573;5.586947547;2.691844249;-0.563718812
1.544720581;-0.5989667;0.539955953;1.565713939;4.188684807;-0.53735163;8.809647867;2.06404036;0.021818355;0.450611804;20.63414578;13.30031273;8.701884116;15.17050074;17.99215818;13.64374931;6.12396639;-0.086089305;-0.678215526
-0.180992012;-4.48051673;-1.434793238;-0.437170161;4.065982954;-0.507613074;16.58569031;3.662164801;2.366389646;1.071816171;22.68479759;12.81948975;7.560058594;13.23153401;10.95140378;16.05051466;7.022478173;-1.34144836;-0.2862086
-0.836806796;-7.971341549;-2.718848333;1.837949661;3.714033801;-0.477237626;26.38391863;4.012034581;3.146808075;1.170938175;20.39284509;11.39016234;6.424616534;11.55080869;7.440631821;18.31453931;7.912145932;-1.598039245;0.219979992
-0.57833264;-10.69204502;-3.188234527;6.090722562;3.140821772;-0.391961918;29.42755355;2.982174221;2.168559684;0.304370586;16.13623042;9.279370443;5.905430141;10.73691976;7.441176041;18.24695422;8.068456105;-1.879810365;0.433484316
-0.028551839;-12.67772504;-3.200175311;8.638509302;2.496080793;-0.242969449;19.71253021;1.145702705;0.539261545;-1.00904693;14.20405928;7.413626919;5.955460603;10.55032163;8.48625853;14.88392563;6.821240708;-3.068527696;0.074631743
0.130485862;-14.21672324;-3.23388342;7.169590582;1.985219789;-0.083347224;-0.571695479;-0.621072967;-0.386732371;-1.679797605;16.80963611;6.760413435;5.978515484;10.18801794;8.7075839;9.240695943;4.137977196;-5.306918703;-0.861038566
-0.351032044;-15.40216005;-3.432103455;2.382632245;1.757423023;0.008379162;-21.53154606;-1.744542675;-0.172595913;-1.030490658;21.67224424;7.630039063;5.265516831;8.951802084;8.842394264;3.762674396;0.877518398;-7.852537415;-2.052681633
-1.130080566;-15.86031631;-3.495490656;-2.702148179;1.836659951;-0.010339182;-32.03996348;-2.271592613;0.39082382;0.515820759;23.6279813;9.363150125;3.457693627;6.776835533;11.14890209;0.765459808;-1.613546747;-9.54220094;-3.002430164
-1.587882865;-14.99768616;-3.032185497;-5.107057995;2.129370029;-0.109993885;-27.44580436;-2.631930257;0.068597311;1.739431513;19.2869295;10.61097597;0.780914272;4.262999328;16.2476782;0.929424465;-2.372562631;-9.603862242;-3.347306515
-1.359312328;-12.61792928;-2.012628663;-4.00800855;2.49714036;-0.207767678;-12.6137803;-3.042091732;-1.602965182;1.751106729;10.80120722;10.06319386;-2.026026635;2.256804104;21.12559566;2.935927881;-1.533352728;-8.256491013;-3.133307958
-0.624237065;-9.360153327;-0.870468045;-0.989047461;2.84901157;-0.225172721;2.056560141;-3.073868373;-3.689531312;0.969155622;5.059687383;7.238869716;-4.00245674;1.341646952;20.72606681;4.52240644;-0.293538622;-6.635200853;-2.820048828
0.076673741;-6.498979723;-0.134911913;1.57362966;3.197256563;-0.13820896;8.479030073;-1.814134684;-4.379959219;0.984535459;8.224402123;2.91943658;-4.329097111;1.591032497;12.26020052;4.169893349;-0.090767004;-6.050019531;-2.962517855
0.318268102;-5.178936188;0.053466288;2.513668555;3.637095697;0.01658142;6.425931747;1.422590654;-2.305785949;3.257333784;19.67686519;-1.048450068;-2.641435052;2.676658147;-1.463899483;2.14071006;-1.571191609;-7.095900469;-3.783375114
0.12627962;-5.667063658;0.05823594;2.589102759;4.252886386;0.177808482;2.547980318;6.344625401;2.335712429;7.656468639;30.58703973;-2.576483433;0.789867104;4.147373397;-13.05250143;0.075329288;-4.132750811;-9.270143568;-4.975203072
-0.117825777;-7.231838315;0.350331515;3.435803742;5.004912503;0.301736793;3.991296771;11.5129885;7.730930082;12.13655479;29.13601425;-0.456597243;5.077481383;5.623275644;-15.71543923;-0.513378184;-6.403552528;-11.38322356;-5.917657149
-0.091598056;-8.75135889;0.957663118;5.800748646;5.680039063;0.37775482;12.09619368;14.98405651;11.55500523;14.00724177;9.161019275;4.78974594;8.973874141;6.800298642;-8.693608112;0.377868978;-7.288229075;-12.44080706;-6.158506571
0.134379914;-9.548966933;1.303356192;8.646319039;5.965321925;0.4129038;21.44811622;15.40174761;12.44960617;11.92178068;-24.166386;10.89327349;11.32079074;7.36800649;1.662267277;1.135307772;-6.764100733;-12.31323324;-5.766296737
0.159251255;-9.774728858;0.646831197;9.895228634;5.625182532;0.409986956;24.9458404;12.81302194;10.80530621;7.0088399;-56.31327465;14.83794305;11.52120378;7.017765029;6.439164843;-0.164935568;-5.806828923;-11.6905643;-5.24186307
-0.348716389;-10.05217731;-1.214309067;8.152953082;4.676791784;0.364547882;20.40674675;8.635221652;8.293864678;2.153357211;-72.16597176;14.46291748;9.789618043;5.608728481;0.968990584;-4.053444342;-5.521503473;-11.40343024;-5.039362809
-1.295358066;-10.74137912;-3.600308002;3.933853016;3.430897768;0.281309748;12.87619571;4.777467121;6.527358351;-0.104562484;-65.6038595;9.766077626;7.011584318;3.378550308;-11.51045148;-8.954946087;-6.190771031;-11.69472867;-5.100723454
-2.192592861;-11.48550217;-5.311139928;-0.62320577;2.338177537;0.187323511;10.43233033;2.500649962;5.874020328;0.577222077;-43.09516315;3.046127665;4.262072616;1.000134904;-22.32114889;-12.11003906;-7.013186543;-12.04037791;-4.835768928
-2.568687926;-11.44348936;-5.446431868;-3.282483088;1.717652973;0.121367152;16.87927834;1.774190065;5.338570059;2.232803873;-18.8746534;-2.329740539;2.259890892;-0.629246249;-23.95103749;-11.48739869;-6.744562458;-11.63695555;-3.6265828
-2.392384587;-10.00649172;-4.034401641;-3.221094914;1.548707062;0.104810374;27.58091853;1.53354178;3.596771307;2.338647117;-5.382271828;-3.846185424;1.095785261;-0.792076683;-15.46294322;-7.236063966;-4.728547274;-10.11284351;-1.473268604
-2.120646385;-7.377156452;-1.968226952;-1.357939208;1.490068359;0.121714433;32.30855586;0.618879971;0.367886793;0.021315327;-5.873464994;-1.241880799;0.39430672;0.673484164;-2.476237786;-1.561287975;-1.495131232;-7.851881145;0.777137267
-2.310202309;-4.51179017;-0.318879094;0.624350176;1.140046387;0.130974929;23.22112193;-1.277919066;-2.992394936;-3.087125049;-14.09929069;3.520573896;-0.234943538;3.249167534;7.891453301;2.873535078;1.544153764;-5.67528092;1.886852723
-3.124456639;-2.468583329;0.403946313;1.637279995;0.36953365;0.103371077;1.696877988;-3.310122324;-4.237445458;-4.084094213;-20.45795766;7.669955446;-0.808738075;5.948378333;12.57145861;4.775985269;3.061608762;-4.188054941;1.088201034
-4.167971697;-1.698971178;0.459737234;1.795868427;-0.517327465;0.049862056;-21.61469491;-4.01;-1.849711083;-1.165655066;-19.40311612;9.422045379;-0.942856583;7.763457904;13.88029938;4.892192023;2.694323968;-3.371473056;-1.295801802
-4.798947288;-1.850743863;0.441949908;1.896421461;-0.936599087;0.011839826;-33.87936232;-2.286235779;3.645870037;4.760492009;-12.59209959;8.91221868;-0.202187564;8.123174289;15.86953829;5.070170145;1.191640686;-2.762146923;-3.978788191
-4.655137224;-2.211065381;0.62413052;2.370428671;-0.410419037;0.018411726;-29;1.782104586;9.700516722;10.51475563;-6.130487174;7.696457254;1.45276841;7.130800362;19.40847745;6.552048958;-0.229750375;-2.025150549;-5.537417403
-3.945675714;-2.388093368;0.66261426;2.710078125;1.078609511;0.04946475;-11.5996426;6.867309017;13.17208239;12.79965256;-4.943052814;7.330872568;3.485359099;5.462879753;20.78921753;8.902434332;-0.785116599;-1.378960438;-5.344511601
-3.266622481;-2.649594518;-0.104123407;1.871225781;3.025261435;0.043181466;6.817508715;11.07007813;12.20734468;10.38977389;-9.067322824;8.189882529;5.030907062;3.979313379;15.33256573;10.40853692;-0.595964711;-1.469996736;-3.923683368
-3.105552296;-3.636780813;-2.028900396;-0.724840322;4.693044221;-0.051002057;16.32325345;12.92095429;7.272866798;4.71190038;-14.46082599;9.408094569;5.410078125;3.249878268;2.737689556;9.562720648;-0.445233962;-2.793130559;-2.48
-3.453892961;-5.688591875;-4.724985482;-4.475790427;5.56502669;-0.216755508;15.04678361;12.09928918;0.655776199;-1.492454693;-16.9450191;9.873460863;4.543535814;3.261973337;-10.95817214;6.371246315;-1.085321541;-5.164931011;-1.98787354
-3.835226296;-8.32688601;-7.171076769;-7.788671544;5.640039063;-0.36483403;8.995718665;9.468272921;-5.125420307;-6.217685869;-15.57824442;9.347837269;2.978454285;3.489908754;-17.15670708;2.41829472;-2.663494946;-7.715590224;-2.534844965
-3.696657404;-10.33313044;-8.265070453;-9.038743434;5.37028773;-0.391803357;6.02079133;6.454595938;-8.805850675;-9.301617883;-12.76205066;8.735380181;1.523044733;3.298120507;-11.45085787;-0.332742618;-4.657544859;-9.415084587;-3.385569348
-2.820452575;-10.40743742;-7.42936982;-7.566135032;5.297274903;-0.263410805;9.250770177;4.186343967;-10.74020649;-11.85380095;-11.50442796;9.283287808;0.75549029;2.427793279;2.336396132;-0.988503895;-6.274933631;-9.693824619;-3.647238818
-1.433525607;-7.982594899;-4.890058594;-4.007509211;5.660078125;-0.056178496;15.3018539;2.914503882;-12.07181039;-14.72341605;-12.62558704;11.42621327;0.734304319;1.229937683;14.54917259;-0.250256209;-6.942749316;-8.660553319;-2.96317196
0.022687571;-3.660721235;-1.520917366;0.184569522;6.258015627;0.081693763;18.25441537;2.036446067;-13.54809917;-17.47103612;-14.37243279;14.29061179;1.061209086;0.449309464;16.92151034;0.354183011;-6.538167762;-6.801361226;-1.690159051
1.219249492;1.008828179;1.588076116;3.596822919;6.648428591;0.02739696;15.52727838;0.655146665;-14.99396619;-18.75386487;-14.47436483;16.30633788;1.192560275;0.672021151;8.850672511;-0.17551952;-5.29490671;-4.509076532;-0.477061403
2.084455194;4.281069922;3.586087346;5.479174143;6.506334603;-0.230781154;10.39261269;-1.71519064;-15.77617014;-17.7169686;-12.47120152;16.42115999;0.756411666;1.820590335;-2.414002652;-1.520957384;-3.581629947;-1.915134517;0.342871675
2.694999143;5.064316415;4.157617223;5.82723955;5.861690221;-0.582055216;8.964979398;-4.755367091;-15.68481083;-15.07174666;-10.10322075;14.89496434;-0.309979462;3.097203707;-7.802277542;-2.432260319;-1.767293871;0.834755562;1.012220809
3.078815677;3.401503012;3.580635397;5.05338551;5.042189797;-0.864223373;14.33208565;-7.498594341;-15.31598851;-12.81822069;-9.525211561;13.00913215;-1.815802547;3.485029079;-3.657587686;-1.886233264;-0.203248298;3.195383019;2.059288387
3.143315167;0.345379757;2.535575078;3.601476924;4.387839522;-0.965420436;22.9856295;-8.916283988;-15.54854124;-12.7657213;-11.15402398;11.95651809;-3.449590365;2.50047279;5.772377011;0.026547923;0.812957678;4.229133105;3.738025402
2.783834936;-2.668574655;1.72095883;1.765664543;3.977836294;-0.885579211;26.82694736;-8.538262847;-16.59627883;-15.07322583;-13.21183111;11.88055696;-4.876969124;0.655571422;12.46688326;2.249810144;1.19293115;3.182706642;5.701919182
2.037747903;-4.574887739;1.441498847;-0.270263938;3.58749077;-0.720518728;19.39054322;-6.708082081;-17.57129617;-18.0455785;-13.35817996;11.90013505;-5.787532687;-0.75538884;11.68136776;3.784028465;1.240934211;0.257452662;7.203591508
1.117255443;-5.121466608;1.425672133;-2.316246602;2.900564599;-0.589138439;1.389613051;-4.333264218;-17.07909873;-19.38310799;-10.84249356;11.09571671;-5.949400296;-0.463892447;5.867353056;4.657553287;1.640790572;-3.091827962;7.659747175
0.294077399;-4.764989074;1.062114135;-4.116195884;1.799543854;-0.560485206;-18.89493963;-2.333070612;-14.4273699;-17.88532175;-7.169915012;9.578346412;-5.306468158;1.901560555;2.243855338;5.967656089;3.119181023;-4.727707545;7.116211946
-0.237276557;-4.131840079;-0.03149144;-5.385036297;0.502195237;-0.628248884;-30.87660499;-1.173460877;-10.40548507;-14.26218702;-4.698253896;8.659075213;-4.064566888;5.500550841;6.292971098;8.918901891;5.93710822;-3.021157573;6.236963657
-0.387336291;-3.453599276;-1.509121339;-5.915596363;-0.558812683;-0.738603743;-28.73274949;-0.782183993;-6.874682819;-10.47215326;-4.49554202;9.892234872;-2.661694416;8.775804281;16.86996317;13.65509888;9.576055374;2.103415124;5.832916918
-0.10377009;-2.412152871;-2.330073242;-5.70966818;-1.015933451;-0.839029581;-15.12158809;-0.835084732;-5.40201968;-8.206835727;-5.420168171;13.7526084;-1.574664261;10.44175357;27.09192358;18.87538374;12.91471986;8.995869424;6.305573768
0.653370257;-0.530923647;-1.445909867;-5.067374538;-0.795397547;-0.908608263;1.013579842;-1.128636964;-6.028576973;-7.767651607;-5.209859801;19.07827264;-1.046545854;10.29198913;30.12417516;22.58935701;14.85048339;15.12480576;7.420100968
1.798951283;2.188421564;1.287058676;-4.536931276;-0.136128341;-0.953773832;10.73755156;-1.713982438;-7.215583644;-8.150784043;-2.522884793;23.82293468;-0.914123705;9.273703066;24.82660121;23.4425912;14.96642987;18.39634299;8.53554239
2.963833268;4.928184388;4.699823268;-4.653832087;0.595186913;-0.983712289;10.88983924;-2.691475605;-7.057412316;-8.101734532;1.932684834;26.57650122;-0.679399564;8.794115192;16.48692175;21.59823668;13.77384118;18.12186001;9.06489418
