Channel 1 - P4;Channel 2 - O2;Channel 3 - P8;Channel 4 - T8;Channel 5 - C4;Channel 6 - Cz;Channel 7 - Fz;Channel 8 - F4;Channel 9 - Fp2;Channel 10 - F8;Channel 11 - Fp1;Channel 12 - F7;Channel 13 - F3;Channel 14 - C3;Channel 15 - T7;Channel 16 - P7;Channel 17 - P3;Channel 18 - O1;Channel 19 - Pz
2.655639614;4.331946852;19.41684047;17.21291179;14.61226654;8.323627453;-32.84052767;25.34230173;13.94833809;24.43893767;55.64967586;14.77297235;15.45043296;10.08137106;5.713699185;12.25290978;17.3978467;11.33486185;15.6079596
5.803743353;21.47959025;20.10104929;17.04370423;15.60301464;9.973098993;-61.09051083;18.02492084;-56.3491686;28.544501;7.104241816;20.71618415;14.79249077;13.79498462;13.90378859;11.93389611;18.44363887;23.79171239;20.54936487
3.810950561;28.01782806;15.46457818;9.741742595;14.37408413;8.378809887;-69.0320858;1.882590286;-117.4845813;32.08744499;-55.79915332;11.56920832;9.618039709;12.67609118;10.33351317;10.35760585;14.83979928;28.94365287;21.01219854
-1.220674184;23.27823976;9.002443496;0.223911445;12.50895285;4.661232637;-52.89755527;-13.8422638;-141.1133797;34.66348054;-104.5283724;-9.460802462;3.009846854;8.226948138;-1.06948168;8.329259259;8.868540582;26.34973427;17.6793102
-5.658527093;12.20710333;4.402449329;-5.248403386;11.85466091;1.151610995;-23.03975846;-19.92485221;-124.5935477;36.82956235;-120.186746;-29.19965864;-1.532684512;3.507478855;-12.22138164;7.160677876;4.114181755;19.85035887;13.47495569
-6.815329574;2.050589996;3.290712962;-3.436735553;13.13479591;-0.236747271;3.409795094;-13.57990703;-91.00128684;38.84686003;-104.6519141;-33.19497724;-2.36201577;0.970487159;-16.15;7.814120317;2.911218252;14.41212881;11.3475191
-4.555818321;-2.007171108;4.718865992;3.647275192;15.5118292;0.756846584;14.17440295;-0.417788617;-70.12992001;40.00765907;-76.76686823;-16.64373512;-0.448356062;1.038532757;-11.31214977;10.08448029;4.861146317;12.68912197;12.26128416
-1.01687899;0.442544651;6.453066799;10.42077563;17.37438253;2.777547924;9.061520699;9.6011189;-75.54980498;39.45224697;-57.43686278;11.16181746;1.772796319;2.353304164;-1.975845756;12.53721397;7.464808344;13.72767693;14.81832613
1.151844896;5.43936876;6.800746638;12.07465867;17.63203202;4.041911746;-2.101764634;9.267247637;-95.72098945;37.72188161;-55.48570069;32.93115624;2.431850151;3.259841241;5.443809507;13.38812367;8.240682292;14.41421545;16.60929153
0.614908631;7.617524529;5.522130354;8.215481367;16.44304646;3.695947991;-8.285881544;-0.932595586;-105.6652395;37.24179329;-64.55272059;35.73960648;1.549500871;3.196117921;7.240369805;11.73076966;6.590309395;12.18483387;16.09968529
-2.039316661;3.673040431;3.345671282;2.935623183;14.84775367;2.311751526;-5.345472847;-13.54586881;-89.10111698;40.67615373;-71.87012295;20.18390972;0.753648637;2.902908647;4.788815286;8.153779046;3.99152342;6.805741332;13.59147642
-5.134025857;-5.792682371;0.826640665;1.247640021;13.72984956;1.236400889;2.703554764;-19.79855925;-52.6973818;48.16438345;-70.3823422;-0.766020629;1.76333549;3.450468196;2.736230496;4.209851266;2.527047075;0.098628352;10.68047485
-7.319700581;-16.94692346;-2.276202566;4.72543337;13.05700906;1.418085107;9.097106642;-15.84502024;-20.84898872;55.95290192;-63.87951145;-12.13684981;4.875855449;5.052842957;4.579140698;1.116127386;3.085908147;-5.730566165;8.861713639
-8.415625365;-25.19209756;-6.566061884;9.870970252;12.03239588;2.682482699;10.7908599;-5.145541711;-15.49759961;58.25214954;-61.61028701;-8.151275878;8.572979498;6.729990931;9.238466521;-1.260215278;4.736764772;-9.532177197;8.504887247
-9.16265091;-27.74300658;-12.03552206;10.59794498;9.942864488;3.984357579;10.13666621;4.38258111;-37.75909268;51.51584472;-68.11259814;4.554683402;10.47945571;7.086510826;11.46438155;-4.241435337;5.699673197;-11.33968797;8.938292538
-10.32159448;-24.83325075;-17.59235516;2.965643454;6.885483847;4.334466059;10.85046687;5.962894807;-66.52517664;37.90236023;-77.8651426;13.73667431;8.97644388;5.520893893;5.891017765;-9.044516611;4.985687688;-11.49433282;9.349823224
-12.00640124;-19.1222183;-21.65458415;-11.5053279;3.715825391;3.5909701;12.78088428;-1.803612975;-75.23361384;24.73928374;-79.76714033;12.15200608;4.407132641;2.848894824;-8.350267234;-15.36581668;3.267740596;-9.976869126;9.557182597
-13.78663493;-13.98641202;-23.38180297;-26.52244953;1.312309334;2.491936179;10.99236128;-14.65816237;-53.20090339;19.72476277;-67.5808023;2.927247061;-0.867709527;0.834358683;-26.08863965;-21.06350324;2.265607966;-6.765347442;9.945786959
-15.3213858;-11.85275196;-23.47433713;-35.20975209;-0.112920765;1.978925016;0.438416917;-25.84262394;-14.33151608;25.19246171;-47.01908818;-4.495976496;-3.615553469;0.994210413;-39.0033278;-23.36618058;3.211631255;-2.807957536;10.73304309
-16.80935774;-13.40710134;-23.7735231;-34.63584786;-0.991007626;2.430662578;-18.02610637;-30.01820891;13.63834482;35.98769538;-32.78752403;-3.734177929;-1.492368823;3.565408731;-40.97276142;-20.82801086;5.71624302;-0.3695566;11.37970768
-18.76245549;-17.78207065;-25.8832479;-27.36588942;-1.697441275;3.435261992;-36.21843464;-25.46430798;10.58525066;43.01874905;-37.35426979;2.482752643;5.487090332;7.331710536;-32.06802124;-14.57552823;7.974687445;-1.943139462;10.83172177
-21.2974127;-23.27170052;-29.86688479;-19.10438021;-1.894853687;4.223738761;-43.85664908;-13.94922499;-20.85506574;40.09;-60.38711184;5.102766088;14.58975399;10.3433752;-18.39796256;-7.821829726;8.118787134;-8.285774924;8.473812466
-23.64989818;-28.05443992;-34.0546164;-14.46817971;-0.645220955;4.332609417;-36.48360066;0.666175424;-57.90538454;28.77061742;-87.64902693;-2.102745713;21.47361544;10.98324216;-8.059358787;-3.879129142;5.598510593;-17.19251348;4.946104455
-24.47478464;-30.70378891;-36.14352384;-14.16266543;2.685378868;3.923998732;-19.35355389;13.83926105;-75.17946601;17.31354722;-100.763125;-15.4375874;22.39558418;8.730499797;-6.165707059;-4.039887898;1.517059885;-24.31064882;1.995686168
-22.81366213;-30.54586415;-34.78542018;-15.47557455;7.500721304;3.543081908;-3.683940249;21.46131202;-62.92727209;14.24516733;-90.63525803;-23.14549495;16.43515598;4.301100321;-12.32972007;-6.840545033;-2.256640244;-25.74546848;1.323685523
-18.97892394;-27.918853;-30.51439659;-15.27911422;11.93963682;3.590731052;1.866802003;21.07917956;-32.20478464;21.57686918;-64.36498774;-15.39053573;6.393457709;-0.749675998;-21.93061561;-9.238577699;-4.409313289;-20.67156978;3.278423991
-14.58475971;-24.18187805;-25.39701551;-12.86765064;13.94761905;3.997751187;-2.525333417;13.22517019;-4.293842363;33.07186988;-40.42741256;5.943722853;-2.433239246;-4.685287025;-29.73109791;-8.849422206;-4.905709128;-11.97216007;6.460255712
-11.59542886;-21.23303712;-21.7293113;-10.35796256;12.70234885;4.356961015;-8.98709002;1.882577555;5.99420133;39.0781899;-35.73465194;26.50346681;-5.18318002;-6.262071444;-33.03302975;-5.635399431;-4.68024409;-4.335090055;8.628381471
-11.04700603;-20.55119763;-20.72135382;-10.55351481;9.250218855;4.341663477;-9.321845137;-7.065845024;-0.230081787;34.17806051;-54.02110717;29.49021668;-0.422361904;-5.245647488;-32.41341084;-1.864932764;-4.729595088;-1.157322453;8.271453996
-12.3857508;-22.23359119;-21.99300068;-14.25361123;5.781620093;4.004252006;-2.118676806;-9.242740938;-10.0427415;21.56413184;-83.62702095;9.092090843;8.750751396;-2.585972028;-30.19909208;-0.429631323;-5.425498718;-2.511088256;5.663799054
-13.91333693;-24.73477332;-24.0446711;-19.30919014;4.065062942;3.695364301;6.546008201;-4.964015727;-11.43084396;10.60126233;-105.6681493;-23.48644606;16.42485502;-0.068178806;-28.4054598;-2.76779065;-6.521602027;-5.581640192;2.62070351
-13.99469898;-25.6889848;-25.22476145;-22.15631065;4.263156332;3.709855042;9.21370489;0.48788401;-3.528367158;9.470876258;-106.3772412;-46.86058435;17.5259853;0.560897738;-27.76438765;-7.859148707;-7.644513843;-7.082546336;1.170316209
-12.12785565;-23.43700416;-24.53405237;-20.49785837;5.058281141;4.007154857;4.283260261;0.476254044;3.469378824;18.73896436;-85.21689966;-44.59037189;11.09291584;-1.371747084;-28.1037171;-12.92115156;-8.678060416;-5.707720101;2.167908044
-9.121920414;-18.24365237;-21.89897612;-14.95299327;4.947463791;4.262471857;-2.303397191;-7.618458817;-2.506046584;30.94236382;-54.1153597;-17.3023542;0.966543394;-4.904321311;-29.11043742;-15.21630227;-9.67300507;-2.796834276;4.861801147
-6.338909573;-12.26137767;-17.97323654;-8.452922585;3.608095989;4.185808967;-2.626582309;-19.35288156;-25.29464673;36.46433144;-29.45715252;17.43859806;-6.648378002;-7.853149354;-30.48017502;-13.67294993;-10.46649807;-0.896548502;7.631616985
-4.653319578;-8.141490971;-13.74942962;-4.023548375;2.189849224;3.801264896;5.313277408;-25.43088585;-57.32243435;30.9867828;-22.64422678;37.50078474;-7.156400066;-8.107730429;-31.45446279;-9.28546964;-10.51834325;-1.535830684;9.220705364
-3.935520206;-7.233359989;-10.20383983;-2.791755183;2.294053684;3.428188837;14.62965281;-18.27370381;-84.78;18.66648723;-34.79911275;31.594499;-0.417338968;-5.044532966;-30.63573234;-4.209224592;-9.256189062;-4.019843214;9.485323169
-3.391089392;-8.710237231;-8.034122118;-3.677621805;4.503550826;3.389875381;14.65184249;1.623022793;-96.17290443;8.715808217;-57.6552482;6.469691189;9.400205647;-0.085329099;-26.78677969;-0.349284473;-6.685767944;-6.096925339;9.169480934
-2.39875612;-10.32;-7.477975035;-4.735013566;7.706041756;3.725363271;0.127266271;24.5736752;-87.83810739;8.316659935;-78.88781031;-18.88099403;16.72549138;4.069642071;-20.21562246;1.559687159;-3.689432823;-5.826240121;9.034430878
-1.132742344;-10.2091739;-8.247093331;-4.802947459;9.801546905;4.168803987;-23.31353195;37.34234828;-63.78074656;17.50916319;-88.38797067;-27.08421447;18.15062023;5.086684295;-13.43820633;1.91498638;-1.642453837;-3.103852162;9.143678688
-0.48049969;-8.388501942;-9.648703875;-4.075764007;9.248173572;4.408126419;-42.40628401;31.99259971;-31.95541467;29.82227874;-82.51851975;-13.90559648;14.24719569;2.421848155;-10.11557291;1.541594014;-1.556556427;0.299639962;8.882390084
-1.353902705;-6.655545639;-10.89348002;-3.315529399;6.21946534;4.378568155;-45.92679388;11.6723219;-0.736579965;37.68343383;-64.99331626;10.42045521;8.627748007;-2.443663942;-12.67797125;1.006237932;-3.39761567;2.106527251;7.617387286
-3.959110203;-7.025360125;-11.4504718;-2.665991245;2.468076967;4.320306208;-33.02019916;-11.05356185;22.75218227;38.00312461;-44.51165811;29.8555909;5.226839525;-7.071338284;-20.3656221;0.42731372;-6.12059287;1.178698868;5.369106689
-7.588305889;-9.972891837;-11.2520612;-1.310231987;0.029271948;4.550163046;-13.44720391;-22.41727787;33.55536254;33.62020434;-30.32147519;33.95795714;5.862988997;-9.622738489;-29.37285146;-0.275548296;-8.397903963;-1.777434933;2.898120057
-11.065855;-13.9967404;-10.65251324;1.646838825;-0.203846035;5.158205019;0.298932044;-16.5101741;30.52053587;29.99295253;-27.6327342;23.76779009;9.639204751;-9.794900547;-35.24182215;-1.115675634;-9.471548619;-4.864582283;1.138087691
-13.48543539;-16.9382424;-10.21768608;5.890304255;1.046226355;5.904231025;2.391338759;1.176221443;17.98978953;30.37027762;-35.10392423;8.998270451;14.20261238;-8.568874329;-35.81921488;-2.092446002;-9.494539627;-6.422282722;0.464047198
-14.69176011;-17.97450197;-10.50610198;9.489008283;2.20126421;6.404711256;-3.026738243;18.10656343;5.068044708;33.53109059;-45.93105443;-0.047695976;17.58165093;-7.142924934;-32.52666656;-3.489969204;-9.179474023;-6.180358653;0.410434789
-15.19623107;-18.52884742;-11.92348518;9.974807263;2.138668859;6.4410409;-6.850674671;23.65604517;1.097762381;35.60013589;-52.19514658;0.664923326;19.18715301;-5.99748691;-28.96464661;-6.027776436;-9.135777302;-5.393193541;0.069976334
-15.65338736;-21.15433096;-14.6002887;6.239616185;1.009297767;6.119795658;-3.504149209;16.20877381;9.502246092;33.88275808;-49.95744006;7.663306948;19.51232713;-4.818275339;-27.9873891;-10.54781169;-9.473164757;-5.946919188;-1.149845361
-16.32339313;-27.15721069;-18.22652752;-0.215688729;-0.010156027;5.757873399;4.575146733;3.547454905;24.72672739;29.18706567;-41.74899758;13.92172424;19.17615665;-3.211204917;-29.61041884;-17.34030189;-9.942074673;-9.06187189;-3.011494684
-16.90639766;-34.9292624;-21.92259357;-5.794022205;0.265223585;5.612285452;10.06372616;-3.316582701;35.5832478;24.78307291;-34.59532826;14.12255955;18.31360745;-1.459656172;-31.40450767;-25.59948451;-10.37901142;-14.39241205;-4.570409699
-16.82722129;-40.56918107;-24.36797444;-6.928547295;2.088129551;5.700425853;8.249596791;1.886410916;33.40649319;23.26932903;-34.80861453;7.457335571;16.76210906;-0.566986988;-30.95699122;-33.49945244;-10.98084685;-20.05164583;-4.840757624
-15.72411618;-40.58905836;-24.33562556;-2.455542929;4.608472777;5.855509916;1.866054058;16.59760573;19.06;24.34930828;-43.24649152;-3.046286958;14.65292373;-1.481030316;-28.2618145;-38.95585584;-12.14162404;-23.57392487;-3.514659417
-13.78003906;-34.71823984;-21.45755895;5.398140092;6.508086898;5.937443068;-1.241939491;31.74709704;3.052367006;25.44679746;-54.55588571;-13.05095001;12.67437406;-4.145243236;-25.96951994;-40.61937898;-14.02555724;-23.32432165;-1.229821413
-11.67755657;-26.53259057;-16.72285269;12.15878504;6.883293426;5.982788215;4.395996692;38.33166716;-1.846068401;24.36179448;-61.02720848;-19.10198041;11.67889623;-7.225809313;-27.23423495;-38.45475526;-16.30356475;-19.5793615;0.782666643
-10.22624267;-21.2;-12.22036045;13.71908589;5.728708855;6.150198326;15.97347455;33.37829965;9.931757039;21.34203976;-58.20934448;-19.54878606;12.00350357;-8.848075041;-32.93459005;-33.55975935;-18.32221954;-14.59108557;1.419670745
-9.913929889;-21.88114509;-10.0923503;8.795502602;3.774110107;6.523290658;23.59667989;21.3465167;32.49119741;18.63513929;-48.08888218;-14.62873457;13.17798973;-7.860687764;-40.62104933;-27.43709536;-19.56527219;-11.44769848;0.333447026
-10.65325126;-27.46634847;-11.27751051;-0.295883352;1.924295739;6.973971496;17.96801711;10.54970623;52.71862094;18.05569358;-37.50671121;-6.356210574;14.33068177;-4.695935534;-46.16752028;-21.30135206;-19.995066;-12.27261362;-1.896910454
-11.85339805;-33.40179735;-14.89862567;-9.012220616;0.757780506;7.233181241;-1.705567631;7.540648189;59.67024698;19.00897127;-33.11310793;1.850984982;14.93092668;-1.172358993;-46.9;-15.89091687;-19.97383564;-16.83535588;-4.108874056
-12.75141812;-35.02168909;-18.79774915;-13.25662579;0.368262309;7.117217937;-26.1982847;13.32781645;51.89115024;18.98086309;-36.70576753;6.301247595;15.17182207;0.633114477;-43.73359356;-11.7670107;-19.85162222;-22.54661221;-5.180353913
-12.80595776;-30.89174453;-20.93412983;-11.73921063;0.510328216;6.704096053;-42.52264287;23.51290974;37.42779955;16.13615613;-44.32472082;4.832904306;15.61595174;-0.354890387;-40.57509429;-9.639478859;-19.60775705;-25.99570628;-4.578335186
-11.9472532;-23.68484065;-20.71463389;-6.635047486;0.826608908;6.291249262;-43.001682;31.60709718;27.24842657;11.56333671;-49.49609445;-1.793606207;16.41266458;-3.672743627;-41.36521802;-10.24831493;-18.8735184;-25.12758731;-2.560593136
-10.5752268;-18.04189743;-19.3373128;-2.185006901;0.98645502;6.161467097;-30.08642659;32.96249113;27.66020044;8.850303637;-47.95694755;-10.20280241;16.82210737;-7.790327562;-46.97385136;-13.77407775;-17.30740789;-20.61451213;0.029569988
-9.337473342;-17.17687119;-18.9204331;-2.112531616;0.728898393;6.35912812;-13.55043905;26.92773296;37.28625247;11.02715;-40.38375861;-16.57176511;15.55428376;-11.15556794;-54.30980612;-19.27395368;-14.97494187;-15.44400287;2.219496164
-8.824770452;-20.84571761;-21.05247946;-7.425928481;-0.108999026;6.672494709;-2.880493032;16.44003906;49.79190172;17.40258108;-31.47891848;-19.2180476;11.73758157;-13.03680618;-58.37521921;-24.77026576;-12.39371257;-12.97256897;3.344836813
-9.342951194;-26.08568467;-25.78388612;-15.92882985;-1.541306747;6.834837177;-1.133114229;5.925513067;58.96236318;23.18671294;-26.55925104;-19.59443971;5.767262349;-13.64754078;-55.83778965;-28.18432744;-10.22377049;-14.80071339;3.24051945
-10.85407707;-29.88725764;-31.71236247;-23.70509472;-3.406371361;6.763106054;-4.62863739;-0.955851017;61.78629328;22.59776445;-28.32190741;-20.82986773;-0.667611375;-13.63071225;-47.59670344;-28.61277603;-8.90733803;-19.9475477;2.126748101
-13.07293781;-31.51861781;-36.99892481;-27.60802501;-5.418936567;6.622644954;-7.647954079;-2.606201065;58.10956788;13.20688261;-35.80115157;-24.96187713;-5.461650161;-13.4245145;-38.52353594;-27.04556997;-8.585298277;-25.81606934;0.329494411
-15.62498677;-32.69271636;-40.5225396;-27.14431958;-7.282116308;6.665473527;-7.428309258;0.410701159;48.91829292;-1.902226953;-45.58655346;-31.13195249;-7.278693512;-13.01661772;-34.50094657;-25.8969406;-9.322280061;-30.10165281;-1.929229894
-18.16542434;-35.66126191;-42.38377226;-24.54216386;-8.778433654;6.992611369;-5.321279237;6.076449301;35.95598869;-15.94942303;-53.89054629;-36.22958872;-6.243243968;-12.19450027;-38.68565546;-27.52474912;-11.34410914;-32.16277122;-4.516176569
-20.41908196;-41.01191975;-43.53083568;-23.00914986;-9.788446725;7.455126974;-3.985113485;11.90383863;22.87931184;-22.92392066;-58.04167114;-37.41708543;-3.725856339;-10.97584071;-49.40682303;-32.67236755;-14.95544203;-32.92977749;-7.197283683
-22.17222101;-47.05699754;-44.91975091;-24.42113565;-10.27284064;7.779395353;-4.040846063;15.83683514;15.49238984;-21.3368239;-57.01022336;-34.41669584;-1.448895525;-9.788194333;-61.0377527;-39.89315394;-20.11643041;-33.67704996;-9.496173277
-23.27220753;-51.23446829;-46.85728341;-28.07236346;-10.29085451;7.79961238;-3.593160294;16.86906924;18.93978571;-14.57083035;-51.42731435;-29.71818771;-0.534741948;-9.216441405;-67.30116126;-46.3762987;-26.03757189;-34.86274209;-10.8075795
-23.65611011;-52.21277997;-48.9116125;-31.35012952;-10.05838942;7.588248642;-0.778293503;15.25820609;33.11150574;-7.881448452;-43.48862999;-26.66929182;-1.039061826;-9.517150173;-64.97112666;-49.62949901;-31.23646574;-36.02811376;-10.75670357
-23.37636296;-50.87021937;-50.30808746;-31.79446002;-9.946129056;7.372822671;3.635097843;12.27856785;50.54202945;-4.617600434;-36.50761749;-27.12406156;-2.11512952;-10.30153937;-55.70381979;-48.89070226;-34.17244899;-36.68382379;-9.544043544
-22.57763689;-49.38354145;-50.4438523;-28.98437549;-10.31616093;7.322142931;6.568017638;9.599424528;60.18875046;-4.525427138;-33.66475772;-30.48701941;-2.585006956;-10.66887302;-44.87681662;-45.3645941;-34.08889963;-37.17304339;-7.953022841
-21.42099773;-49.31835007;-49.20578489;-24.83077268;-11.23980766;7.399060738;5.793692524;8.551945565;55.59993946;-5.025272068;-36.16092759;-34.60061478;-1.568645197;-9.73911692;-38.15874197;-41.23231315;-31.46416261;-38.53956909;-6.917104765
-20.00812143;-50.41198511;-47.00596318;-22.06926476;-12.30979043;7.409584972;2.775390203;9.616359089;41.2034943;-3.909903987;-41.94114465;-37.35592717;1.092182403;-7.241889407;-37.96819709;-38.22115521;-27.71752174;-41.40406876;-6.899218047
-18.36904397;-51.03120282;-44.6097704;-22.12157449;-12.76887168;7.195998122;1.991408278;12.34720882;30.54657574;-1.032487247;-46.31027283;-37.58190925;4.7441771;-3.77074087;-42.10387067;-36.732964;-24.35790143;-44.86849954;-7.539779232
-16.5228356;-49.7604723;-42.83635249;-23.97255259;-11.96044879;6.792638077;6.786279621;15.7244526;36.22416481;2.213305755;-44.62064157;-34.83027279;8.199874963;-0.526042248;-45.47216841;-36.00381672;-22.16880965;-46.57845178;-7.88146346
-14.54910356;-46.61034046;-42.17664116;-24.91718296;-9.819257707;6.402626658;15.31880644;18.71508377;58.56473091;4.740261949;-35.50849493;-28.92102995;10.30959292;1.308372333;-43.78178512;-34.96;-20.9703754;-44.13110628;-7.056938241
-12.59169086;-42.76613998;-42.43773609;-22.58775169;-7.02275744;6.221182656;20.62288239;20.75574498;82.51159623;7.000940354;-22.3367928;-20.23011334;10.59131;1.187732126;-36.65889908;-32.98969158;-20.04178481;-36.82839049;-4.950255566
-10.77965917;-39.19614372;-42.64551171;-16.70776653;-4.642302548;6.270301318;15.48182822;21.92863211;86.71154019;10.44226644;-11.46733;-10.5772831;9.546752365;-0.532736189;-27.92368562;-30.07760495;-18.80299725;-26.39062976;-2.327371803
-9.140019531;-35.51654111;-41.42393503;-9.278679863;-3.517673406;6.3943262;-1.484425804;22.75309698;59.24672622;15.78053687;-8.211106473;-3.442403008;8.371007655;-2.839883309;-22.72167288;-26.39827427;-17.22352444;-16.02669368;-0.31699151
-7.601938763;-30.28333283;-37.79541676;-3.149253197;-3.808094624;6.414277491;-23.58478206;23.70364779;8.34580589;21.80196921;-13.14605391;-2.453316742;8.126709588;-4.652026579;-23.5384481;-21.94459721;-15.71870654;-8.549177251;0.378125284
-6.115140993;-22.54859597;-31.95872378;-0.132919984;-5.036032316;6.293192641;-39.90334832;24.73462912;-40.80565376;25.8922376;-21.4612695;-8.704190399;8.897402446;-5.39871459;-28.10889691;-16.67109761;-14.73221246;-4.934003579;-0.056396992
-4.787334349;-13.28629723;-25.45069068;-0.075163688;-6.538632204;6.158978606;-42.57549809;25.14893276;-61.92056093;25.92110714;-25.97728036;-19.02480471;9.579734991;-5.246539082;-30.9704324;-11.06040863;-14.41551104;-4.278750506;-0.756933115
-3.899671276;-5.294192841;-20.42253227;-1.409989105;-7.919314313;6.167866871;-32.00136219;23.99518577;-45.1186307;21.90459903;-21.9086094;-27.15612907;8.597511721;-4.850087891;-27.6760379;-6.507545747;-14.65260179;-4.945378177;-0.888755862
-3.747212614;-1.455616372;-18.40403313;-2.553298279;-9.133518742;6.341641373;-16.09656947;20.82736546;-3.405368472;16.0738599;-10.15132339;-27.65792327;5.121056509;-4.81125679;-18.50350449;-4.949927393;-15.32395243;-5.807483402;-0.292386324
-4.410481511;-2.695566822;-19.3929339;-2.944505149;-10.20968591;6.535765022;-4.371545149;16.31520228;36.57266037;11.34173553;3.166814069;-19.9186763;-0.108664889;-5.223603539;-8.658936922;-7.770978344;-16.48852243;-6.655306959;0.424187888
-5.651951401;-7.306102876;-21.95571245;-3.032446417;-10.96007813;6.57189678;-1.537549437;12.15406899;52.6157927;9.438587055;10.61266546;-9.06449526;-5.065315316;-5.624782608;-4.544716152;-14.68457199;-18.26900245;-7.713582382;0.392408803
-7.050189395;-12.21719143;-24.29655379;-3.489689994;-11.04013694;6.412511463;-5.347481953;10.13591506;40.77190169;10.11682243;8.255594618;-2.664784448;-7.742575555;-5.397008169;-8.770690719;-23.47505785;-20.53665485;-9.006765895;-0.830967417
-8.283980429;-15.17901609;-25.49234097;-4.531706121;-10.35245265;6.212377924;-9.714338207;10.89420304;15.45923673;11.80710575;-1.805053236;-5.40982447;-7.562867994;-4.326613563;-17.77262455;-30.93081992;-22.71356042;-10.26593191;-2.930277857
-9.329902794;-16.08499891;-25.9395874;-5.941983138;-9.400553472;6.192228778;-10.01365972;13.22883185;-2.950255781;12.93155119;-12.82203851;-15.71563456;-5.807924321;-2.89553095;-24.08233955;-34.4549393;-23.93772089;-11.34658942;-5.069219988
-10.38662235;-16.43484629;-26.68657225;-7.60656827;-9.163148605;6.443250036;-6.216557101;14.64886392;-2.961902286;12.74820055;-17.75348743;-26.89521982;-4.687271662;-2.050781628;-21.74926563;-33.3280233;-23.53336076;-12.51267176;-6.46313243
-11.56899258;-17.54036014;-28.24507209;-9.843575131;-10.46003906;6.837386717;-1.829286238;12.924028;11.65178086;11.26464539;-13.73835083;-32.04444825;-5.715181183;-2.579300011;-10.88726947;-28.83734557;-21.45939376;-14.09108823;-6.822163598
-12.63587375;-19.11973748;-29.92079115;-13.06809923;-13.27480519;7.126438439;-0.241392065;7.612700987;27.31923758;8.671020322;-3.801291671;-28.90434777;-8.637862653;-4.530187787;2.136367209;-23.28591032;-18.40238915;-15.76427272;-6.368660129
-13.02198564;-19.51194382;-30.26781152;-17.08664211;-16.62573803;7.145167944;-1.896610733;0.42439647;32.21409533;5.03897135;5.286940795;-21.03173337;-11.74920749;-7.124950131;9.082137932;-18.63484763;-15.4365577;-16.32913031;-5.512740999
-12.20225155;-17.25476504;-28.29951128;-20.79748234;-19.17398506;6.941413669;-4.453843528;-5.932138951;24.36950813;0.538597334;7.561435177;-14.58168481;-13.34322067;-9.253110525;5.536953363;-15.66639266;-13.47705525;-14.44181225;-4.524264437
-10.11657784;-12.53281083;-24.40170834;-22.76528148;-20.1375606;6.722002057;-5.263372485;-9.616603447;10.88471262;-4.252609305;1.809178045;-13.44315364;-13.13870951;-10.20749275;-6.259940823;-14.0424185;-12.86815318;-9.881928748;-3.467414751
-7.289627543;-7.11583195;-20.10739845;-22.2913075;-19.78607479;6.666913163;-3.662867314;-10.84670524;0.463390496;-8.503950187;-7.727241064;-16.59;-12.52257474;-10.11116998;-19.35535872;-12.94257154;-13.31228106;-4.152618566;-2.369826453
-4.502891015;-2.779353146;-16.86068564;-20.02769037;-19.10786558;6.778456785;-1.1874812;-11.50153479;-3.628265614;-11.76330895;-14.36943183;-19.49799126;-13.40031349;-9.702915003;-27.02232835;-11.65549864;-14.10046113;0.401069229;-1.374672399
-2.251929218;0.38408796;-14.8054916;-17.49274986;-18.92873792;6.896340431;0.096672617;-13.46467564;-4.629320474;-14.46040352;-13.68120071;-18.11504481;-16.56453828;-9.63756831;-26.84988987;-9.748980273;-14.44934073;2.486799527;-0.676130441
-0.432663642;4.165756652;-12.68027895;-15.82483381;-19.23275662;6.858660579;-0.628691624;-17.0377315;-7.650463784;-17.66327739;-6.540097656;-11.97478822;-20.88918603;-9.850975617;-21.16995004;-6.945941682;-13.77083549;3.209516366;-0.29781003
1.456599114;10.6047467;-8.996624676;-14.87528288;-19.26754816;6.660058594;-2.531802428;-20.69580442;-14.34903227;-22.14447707;1.592147671;-4.071913402;-24.00835217;-9.517059579;-14.14549676;-3.088924568;-11.82044815;5.498819738;0.027209124
3.734395341;19.79972074;-3.564652709;-13.52320363;-18.33506399;6.465632819;-4.067837534;-22.35625716;-21.7278373;-27.53849269;4.694348376;1.982815249;-23.96934911;-7.679017822;-8.393187122;1.630962279;-8.752336316;11.76262524;0.684785877
6.058696222;29.05395787;1.940976885;-11.00435519;-16.55962651;6.471397095;-4.080732425;-21.08837333;-25.53171274;-32.40688291;0.564714983;4.805462735;-20.59747095;-4.096505513;-3.9344777;6.425549925;-5.095429678;21.52939987;1.810364867
7.494609772;34.24957128;4.948568279;-8.03971097;-14.93007813;6.738705479;-2.150492723;-17.84381658;-24.50215485;-35.26489427;-7.702649131;5.663168446;-15.56154375;0.35996665;0.146220755;10.05864668;-1.618465256;31.11201374;3.045602759
7.144502638;32.55672123;3.806407596;-6.597010317;-14.54530379;7.146898993;1.619729042;-14.63468026;-21.38295011;-35.73484822;-14.22798716;6.434426746;-11.1555525;4.129900743;3.444784794;11.50740608;0.930083008;35.85058525;3.686401464
4.880903676;24.46911752;-0.972177125;-8.288954018;-15.70712188;7.498099451;6.573641694;-12.91127916;-19.99508041;-34.81781974;-14.83107449;7.287574019;-8.776543701;5.948859375;3.850207729;10.7226872;2.124311125;33.38779417;3.166669792
1.5926277;13.63502013;-7.037179428;-12.72194294;-17.6658623;7.672415035;11.00681393;-12.55967246;-21.45695794;-34.02450923;-9.889849646;6.377430041;-8.232304619;5.693542876;-0.482224604;8.834225502;2.039834138;25.45991452;1.513545006
-1.297253674;4.622356136;-11.85249929;-17.34693688;-19.26885562;7.695197534;12.02730827;-12.36779764;-23.22224275;-34.12437638;-3.276341442;1.859298757;-8.284793371;4.443663979;-8.719723342;7.491801915;1.181118557;16.7485015;-0.603879715
-2.719149849;0.259773862;-14.36288513;-19.1913324;-19.96246104;7.668164539;6.745175442;-11.48870596;-21.69721283;-34.62360222;1.636113901;-5.717387986;-7.857371292;3.678193925;-17.01224434;7.736670942;0.18764627;11.63353197;-2.297728189
-2.60117155;0.366807673;-15.39016697;-17.19494505;-20.2598535;7.644971289;-5.443190796;-10.51543923;-15.72251751;-34.42052346;5.288896336;-13.00348776;-6.890019531;4.171108223;-20.92212909;9.259892068;-0.492423504;11.34075245;-3.040634871
-1.80192287;2.495424925;-16.54400294;-13.18911977;-21.22987053;7.57855717;-21.21;-11.09836356;-7.497045777;-33;11.35398296;-16.04260069;-6.219056271;5.396879136;-18.74298002;10.67489291;-0.753929365;13.60654157;-2.960444035
-1.412852472;3.809246261;-18.65547379;-10.55161488;-23.42304273;7.3913417;-34.16523931;-14.34030299;-0.173799965;-31.01969031;22.34035161;-13.31386694;-6.69959369;5.900515375;-12.84807518;10.63548759;-0.749092765;14.9063125;-2.647428497
-1.985865229;2.620984858;-21.09126652;-11.50200905;-26.18139842;7.094912107;-38.35045621;-19.37003906;5.280495625;-29.70190844;35.10056769;-7.032575121;-8.371549195;4.383393202;-7.785256969;8.910698086;-0.686845637;13.26013415;-2.665670716
-3.263320637;-1.270058594;-22.50101355;-15.24176829;-27.99445309;6.832365337;-32.13107248;-23.47038958;10.6208289;-29.58640488;40.69510682;-1.541608219;-10.35237284;0.724310497;-6.629439948;6.516684953;-0.703617475;9.333867665;-3.175106865
-4.552656333;-7.164023521;-22.28804624;-18.55513603;-27.67962441;6.785892435;-19.48060676;-23.8750173;17.57505891;-29.85506418;29.92694432;-0.074740376;-11.48844705;-3.807100709;-8.649766703;4.766171088;-0.885543517;5.175082052;-3.934971287
-5.367734197;-14.0867845;-21.45457444;-18.46917753;-25.4287023;7.020990885;-7.410985268;-19.88771889;24.65828636;-28.97445775;1.065772019;-2.515117954;-11.18530874;-7.305122714;-10.24699448;4.022713777;-1.353750627;1.993214636;-4.612140709
-5.78290463;-20.91874204;-22.00090171;-14.79427985;-22.81744992;7.406702672;-1.317156889;-13.57648427;27.25602757;-26.18236159;-36.24703991;-5.875201024;-9.75178998;-8.414526609;-8.299663756;3.252207384;-2.261037675;-0.897508931;-5.074761713
-6.240538408;-26.27912193;-25.304377;-10.37893345;-21.70330163;7.692808289;-1.735323038;-8.361501819;21.74190965;-22.47583505;-64.78321242;-6.912900218;-8.046122278;-7.114068368;-2.984578108;0.845781912;-3.654235205;-5.068433432;-5.417099245
-7.044184178;-28.7775928;-30.80832428;-8.783518361;-22.85508444;7.68971836;-4.885828581;-6.515690841;10.19173447;-20.07527826;-69.54265346;-4.589560418;-6.781775362;-4.574066594;2.372544663;-3.879396819;-5.327343386;-10.9763709;-5.750145938
-8.027210872;-27.79645806;-36.14553128;-11.27051588;-25.3973307;7.405363572;-6.27203983;-7.53015654;0.827838725;-20.63550416;-47.19309753;-0.395799165;-6.07022021;-2.245501959;4.239381751;-9.72855246;-6.848356886;-16.97755646;-6.018486013
-8.698091422;-24.19708577;-38.67277743;-15.65075915;-27.5034363;7.027772924;-4.187721972;-8.660562748;2.485746957;-23.64221997;-8.577929827;3.456378454;-5.516011263;-0.877611468;1.990267883;-14.09407889;-7.809127936;-20.4007384;-6.053768323
-8.711974015;-20.11216678;-37.25655902;-18.01806752;-27.77191421;6.772095133;-0.327832701;-7.244286509;16.78949644;-26.41843204;27.50911065;6.139784441;-4.706206873;-0.168630581;-1.556570183;-14.60238151;-8.130819227;-19.77279687;-5.807935072
-8.214640131;-17.65594577;-32.95823156;-15.97950419;-26.19354571;6.722072873;2.573429907;-2.950642105;34.62141968;-25.91359936;44.98936278;8.669646764;-3.652738213;0.75481575;-2.6373337;-10.74683976;-8.163211518;-16.15507726;-5.497683906
-7.721617442;-17.41680747;-28.1555499;-10.69541553;-23.98586049;6.792763562;3.544878232;1.84003418;40.87478849;-20.97796701;38.51406433;12.39362531;-2.846028689;2.461640646;0.13350037;-4.280380212;-8.45625659;-12.30121767;-5.458008838
-7.62564805;-18.00210724;-24.85524326;-6.004735533;-22.50792575;6.831097376;3.953489133;3.854299523;24.991549;-13.36892073;14.21661309;17.04682786;-2.922160351;4.64883809;4.526754214;1.917413287;-9.356754494;-10.3304641;-5.798578653
-7.780764029;-17.17972703;-23.50772486;-5.33941398;-22.18719642;6.75446729;5.552796728;1.524675369;-10.38361751;-6.688534474;-15.87804342;20.31672869;-4.227821776;6.317137757;6.604283301;5.623856767;-10.75328101;-10.01494873;-6.197007005
-7.565817046;-13.82487138;-23.12620906;-8.978121688;-22.31414456;6.60627861;8.251079779;-3.664991101;-49.61750445;-4.033503915;-40.77818563;19.49282662;-6.586919371;6.535177754;4.067794047;6.384719136;-12.19165349;-9.283431257;-6.092203088
-6.414457863;-9.088983836;-22.42303013;-13.8875328;-21.79330975;6.493087535;10.08114952;-8.142310797;-73.70632142;-6.071557656;-54.1250997;13.86577093;-9.374872231;5.187676749;-1.867218101;5.235792015;-13.27699901;-6.539675464;-5.187112337
-4.374813363;-5.732785193;-20.92860526;-16.21292757;-20.15114764;6.476672367;9.516145995;-8.784992281;-72.55355913;-10.83890709;-53.6960315;5.789245734;-11.79243528;3.128111486;-7.632284873;3.450535855;-14.02388077;-2.674308451;-3.84335334
-2.207773368;-6.05626505;-19.22321358;-14.279782;-17.9432194;6.526621998;7.6561708;-5.114875518;-50.93079564;-15.20370259;-39.66826384;-0.615204854;-13.15839147;1.620805079;-10.37161345;1.452914562;-14.84247274;-0.809984234;-2.970736407
-0.906176614;-10.07436496;-18.25752262;-9.62334291;-16.26620941;6.570868076;7.612904987;0.467832506;-23.91093757;-16.7884791;-14.65579268;-2.173788117;-13.10659343;1.49431835;-10.15769945;-1.223280042;-16.15064934;-3.796520751;-3.409701558
-1.002426958;-15.45157496;-18.48789188;-5.331305276;-15.84768193;6.583134077;11.1006552;4.515514433;-5.621888013;-15.0436248;14.57996002;1.310279381;-11.66443771;2.629670894;-9.452130664;-5.021695893;-17.92965617;-11.54604746;-5.256071866
-2.212746227;-19.27565612;-19.58648454;-3.300605265;-16.50311521;6.612822264;15.37315191;5.013399723;-0.090384671;-11.02530144;36.87011283;7.238127268;-9.221682329;4.134875659;-10.424762;-9.42801129;-19.61031151;-20.59595325;-7.684475737
-3.688123277;-20.21158442;-20.86014935;-2.858685781;-17.3811468;6.724688018;14.04935165;2.695474505;-0.835432665;-6.413500159;40.58951997;12.33493872;-6.389340553;5.036741439;-12.65906263;-12.93615561;-20.4166495;-26.46534429;-9.463337986
-4.646341184;-19.25846775;-21.85590539;-1.877821842;-17.7229928;6.910714607;2.188193217;0.330519026;1.423812209;-2.62119608;20.74559395;14.9513905;-3.769584954;4.954095043;-13.38629005;-14.02259929;-19.91662117;-26.96575431;-9.800830783
-4.870315009;-18.53577971;-22.5461505;0.771364508;-17.45199739;7.070631811;-18.22739994;0.617711127;10.0080104;-0.419530536;-15.76049655;15.80425073;-1.727134162;4.269515815;-10.08001953;-12.33062883;-18.35283518;-23.73848232;-8.87978583
-4.711497584;-19.22955287;-23.00205809;3.779097148;-17.11239036;7.094422105;-37.52488473;4.262115126;19.86431647;0.081046717;-51.71174429;16.80510725;-0.298798436;3.724291781;-3.085090949;-9.056898993;-16.50075019;-20.73482311;-7.677852797
-4.679914769;-20.55071381;-23.03556513;4.36930679;-17.27542409;6.977661095;-44.09926221;9.545428874;23.07525794;-0.594484471;-68.45821604;19.15707086;0.683455742;3.794863548;4.13174401;-6.187526309;-15.1789299;-20.9212686;-7.237376883
-5.03532753;-20.6445087;-22.33328707;0.84993206;-17.98383169;6.857277143;-32.9568626;13.56353114;16.95787088;-1.35173939;-56.8242518;22.32454647;1.337636592;4.341298247;7.472702897;-5.178369124;-14.79695296;-23.97696425;-7.974180274
-5.731031875;-18.61901188;-21.05610595;-5.594821519;-18.73050408;6.917998475;-10.28731745;14.15942827;7.319070068;-0.905259114;-22.62278804;24.57766913;1.554072316;4.772317596;5.429419187;-6.107267661;-15.25832779;-26.87546779;-9.543218339
-6.6827638;-15.79123823;-20.26997261;-11.5899246;-18.96250595;7.236740164;10.19210195;11.21934577;3.845893892;1.451669413;17.09084717;24.46610679;1.069040147;4.561863419;0.37828945;-7.89832412;-16.21379785;-26.76655729;-11.28512712
-8.006923822;-14.86577054;-21.54656307;-14.23903605;-18.63154384;7.697658308;16.94440799;6.565666539;11.64177941;5.133402763;44.27124719;21.93266216;-0.236878404;3.700690944;-3.102014781;-9.324089217;-17.3763349;-23.6318294;-12.79547215
-9.9096784;-17.58194173;-25.75607731;-13.45050662;-18.28511496;8.060457478;9.025282196;2.675339494;26.43288015;8.314013711;49.43372722;18.26175627;-2.054221657;2.747862373;-1.522377625;-9.90271895;-18.608379;-20.43283732;-14.10321795
-12.28142007;-22.81963922;-31.91408808;-11.8190837;-18.61127749;8.136892457;-3.554865069;1.169269897;37.86637342;9.011509486;34.48918326;15.10880132;-3.645159711;2.468712817;5.173226277;-9.997821494;-19.75621988;-20.65058408;-15.34862746
-14.40567813;-26.92662876;-37.15602763;-12.11067011;-19.83123653;7.934784978;-8.048734742;2.03851557;38.25098238;6.572992829;8.463142343;13.52025448;-4.19939532;3.34366124;13.83629696;-10.18098017;-20.47582573;-25.32486497;-16.33723105
-15.17159016;-26.23207884;-38.1872061;-14.58296226;-21.46016027;7.650328592;0.633753485;3.984817774;29.19733575;2.383577895;-19.09523147;13.64674997;-3.327189231;5.289476259;20.43107305;-10.54203091;-20.30889799;-32.0627174;-16.46881842
-13.76127977;-19.83244525;-33.39020194;-16.61534189;-22.63560971;7.512717699;15.66290429;5.507131725;20.25433806;-0.944706802;-41.6418885;15.10877076;-1.33170218;7.741937325;22.50858633;-10.59399162;-19.00981464;-36.76234587;-15.18331053
-10.32043853;-10.39738095;-24.10820775;-15.1185913;-22.73734626;7.606571203;23.62695254;5.941104824;20.53301578;-1.44909719;-54.79838967;17.44330858;0.959206124;9.984845795;20.18370073;-9.800516536;-16.83889889;-36.54585271;-12.55268548
-6.039501905;-2.293324588;-14.07360101;-9.661568401;-21.79761779;7.814650364;15.22353293;5.77602151;30.54403812;0.680860707;-54.4347187;20.17883941;2.701126753;11.47792141;15.43904354;-8.154928889;-14.50929374;-31.5396855;-9.455570968
-2.490632908;1.50029352;-7.250215666;-3.450371227;-20.39698471;7.922717192;-7.225455538;6.108052356;41.53721348;3.256968302;-37.68940476;22.62702694;3.525344769;12.0023423;10.79583739;-6.218340091;-12.75770172;-24.3060491;-7.096247449
-0.661603558;1.22920294;-5.530039063;-1.036449514;-19.16723435;7.796214426;-31.32227439;7.677734012;43.24580527;3.895530088;-7.152276659;23.84253098;3.669870363;11.61110859;8.380623842;-4.583074851;-11.86180146;-17.75674403;-6.203415591
-0.401244688;-0.437128911;-7.851248971;-4.492957679;-18.31745774;7.484997429;-43.75658202;10.20716319;33.48140654;2.059658137;26.10462322;23.02406926;3.672560395;10.49116927;9.526688799;-3.320058594;-11.51960602;-13.45847437;-6.557969189
-0.691369193;-1.027608472;-11.26691724;-11.3018208;-17.5406638;7.178076438;-39.67749732;12.52766084;21.02551233;-0.368462801;45.51624495;20.1168066;3.869899945;8.844474639;14.42458649;-2.012122167;-11.22305062;-11.53386384;-7.255842622
-0.514116385;-0.398647427;-13.08601009;-15.94168754;-16.33140361;7.054838009;-25.08782123;13.41654651;18.74104887;-0.549856748;38.24946787;16.06793622;4.078674385;6.824951687;21.65910418;-0.401900493;-10.8228625;-11.70422753;-7.499978626
0.381185316;-0.549288929;-12.50472452;-14.11374977;-14.43597797;7.157008528;-11.03653764;12.53026903;32.33788929;2.939886627;4.76765635;12.41335874;3.69666859;4.521334554;28.24652411;0.975625156;-10.77778874;-14.03851531;-7.257964908
1.405513762;-3.356212992;-10.65541523;-6.244247585;-12.097481;7.377029282;-4.941644087;10.71893581;54.45591853;8.771221573;-39.09306695;10.43521824;2.158020784;1.985795058;30.90346129;0.90122721;-11.81585168;-18.54297565;-7.224796048
1.762197024;-8.310754033;-9.270254374;2.645244872;-9.950428073;7.556356846;-6.126324281;9.442127999;69.728291;13.70521217;-70.6396532;10.50229609;-0.565277368;-0.675814555;28.26784742;-1.582285066;-14.23895329;-24.17533077;-8.120645656
1.216488087;-12.37754245;-9.167082045;6.702763077;-8.675856049;7.602144151;-8.483954806;9.688136754;67.26613276;14.99796029;-74.40784626;12.04355399;-3.757268541;-3.177218555;22.49172401;-6.115516662;-17.45159249;-28.66823887;-9.931057923
0.344434917;-12.26425431;-9.753277092;3.675970403;-8.654049145;7.530371349;-7.007652886;11.21536838;50.26874842;12.45140795;-51.86704203;14.06855105;-6.209250161;-4.995012168;18.4824249;-10.85055048;-20.16865204;-29.82383905;-11.76094495
0.063664472;-7.25178407;-9.799601664;-3.52145998;-9.799828869;7.417644833;-2.085791322;12.73019609;34.19159917;8.479800287;-19.49333995;15.73666732;-6.82185808;-5.511808306;20.66618216;-13.52531244;-21.22523578;-27.35318314;-12.45914229
0.862231543;-0.136006103;-8.683906549;-9.301077274;-11.62728223;7.321099437;1.872519206;12.90068462;34.12489521;6.182546665;3.419052191;16.55080738;-5.245782612;-4.373849403;29.38589651;-13.09228706;-20.39729248;-23.4780158;-11.51109655
2.38722406;4.666134406;-6.998266117;-9.851805548;-13.48161711;7.240648;1.499018237;11.42095231;51.31131907;7.015287694;8.031840616;16.19875493;-2.203402864;-1.871733461;39.90772724;-10.61994643;-18.58088778;-21.38132996;-9.45768573
3.734157764;4.427053119;-6.04248005;-5.933136039;-14.83254486;7.146333818;-1.955722721;9.2543952;70.18852824;9.904903908;0.471726004;14.42589945;0.732712119;0.97057327;45.37993986;-8.631018267;-17.14887736;-22.54413604;-7.486956039
4.178292977;0.182188989;-6.702372037;-1.85647939;-15.51359772;7.030019531;-3.928308229;7.816475807;69.32472445;12.39058284;-5.203441365;11.23946907;1.865489374;2.795609861;41.96549731;-9.241963041;-16.9462191;-25.25182456;-6.53419505
3.727438938;-4.12217166;-8.69629652;-1.678120566;-15.79217699;6.923654044;-1.275281031;7.7361429;38.34524803;12.7;0.748539958;7.307753851;0.278910511;2.66142409;32.27969395;-12.47350657;-17.68432908;-25.79647759;-6.629165349
3.052965622;-4.715304914;-10.79458493;-5.844691852;-16.19610616;6.865633816;4.347613895;8.237419135;-12.38754809;11.00037585;16.39112043;4.077778263;-3.562581239;0.677555257;24.16184795;-16.06357143;-18.20080856;-21.62068513;-7.007654005
2.901853739;-0.817509961;-11.7527845;-10.99668874;-17.13996554;6.851474748;7.932288533;7.730993759;-57.38194086;8.904250604;31.20302686;3.264392033;-7.917032877;-1.959199235;25.27702214;-17.00375334;-17.38723433;-13.80418104;-6.853140396
3.524980999;5.052144749;-11.12105478;-12.902351;-18.54934395;6.820846414;6.172412071;5.216612669;-73.15037219;7.859991577;36.29269618;5.892159464;-10.61109139;-3.655723227;37.4163958;-13.69118986;-15.07509071;-6.623698723;-6.012813154
4.605092278;9.396829067;-9.282940698;-9.926696548;-19.75118783;6.699571681;1.249637884;1.368231878;-54.09341853;7.947871112;32.56429605;11.5337124;-10.21391409;-3.442078954;54.84650809;-7.097143379;-12.20808322;-4.312098766;-5.08130311
5.694259469;10.63744217;-6.825943066;-4.163366455;-19.77878077;6.463829149;-0.624955716;-1.659151838;-15.36292091;8.107102799;29.69900392;18.34658617;-6.855702502;-1.628357071;68.0916678;-0.102969774;-10.18015038;-7.616594732;-4.811277027
6.70749445;10.12281375;-3.954519634;0.520212438;-17.96523823;6.172842012;4.906541168;-1.676708881;18.89935503;7.452187136;36.86534243;23.95892761;-2.156464107;0.391022824;70.38863737;4.447381042;-9.845954979;-13.10920664;-5.396203365
7.982512385;10.48244459;-0.566643326;1.663291123;-14.45782944;5.942108564;15.23793478;1.894765412;32.44022925;6.357844957;53.28146444;26.63464686;1.734671685;1.084032596;62.03023073;5.489098821;-10.93399476;-15.9869078;-6.271114376
9.835845046;12.87514336;3.08650346;-0.116304625;-10.28247528;5.876533989;21.48887881;7.470664654;26.14261315;6.26075743;67.03861418;25.9654044;3.396044588;-0.17857059;49.53413362;4.028693474;-12.26322991;-14.11475438;-6.611940661
12.0403938;15.65275619;5.894717368;-2.196505984;-6.864960703;6.010706581;15.18007813;12.31944583;13.74256431;8.354885747;63.72591912;22.72303683;2.865552442;-2.734804077;40.61840789;1.939262231;-12.56282377;-9.883520878;-6.092787112
13.76347444;15.72422708;6.242557093;-2.567476378;-5.288519907;6.292690233;-4.328965707;14.41433041;9.050172683;12.40082489;38.12275173;18.1235434;1.370363207;-5.169607636;39.05687102;0.371027537;-11.28692677;-8.188107993;-5.224620698
14.11596313;11.51286536;3.171794232;-1.557936097;-5.756981557;6.61357374;-28.01336324;13.72696606;15.70232681;16.77788051;-0.562351489;13.10419581;0.278746778;-6.36632729;43.20632673;-0.911943125;-8.882829313;-12.10532593;-4.953423234
12.90167636;4.901662088;-2.54;-1.217018348;-7.5886239;6.85842335;-42.98906188;12.01115507;27.04662561;19.7759578;-34.41102368;8.066608163;0.056791414;-6.278483084;48.75395375;-2.833009793;-6.410473164;-19.89593521;-5.836206565
10.92099277;0.284567787;-8.419016859;-3.098050356;-9.69607776;6.951670937;-41.66346591;11.31143955;34.4835375;20.99074265;-49.26091232;3.088813438;-0.000982688;-5.854636211;52.83752109;-5.69023327;-4.859485647;-25.97694774;-7.489866512
9.505654377;1.244384832;-11.69775786;-6.601087474;-11.19383;6.882830501;-27.02713348;12.40689411;35.72233556;21.58041203;-44.353922;-1.732442975;-1.091639952;-6.208616081;55.93067669;-8.479025493;-4.645532758;-25.24892703;-8.797444534
9.592958048;7.472109831;-11.18498905;-9.424007749;-11.74429102;6.708754936;-9.920696342;14.38891856;35.60402914;23.15857917;-31.85011081;-6.135639335;-3.828439884;-7.70611532;60.20090115;-9.520392387;-5.549143881;-17.32509853;-8.734437639
11.05709365;14.53902774;-8.17149859;-9.667714786;-11.49928424;6.530538857;-0.609408687;15.61173261;39.73890226;26.31741842;-26.81156551;-9.803290905;-7.625163951;-9.684355956;66.27165213;-7.911891631;-7.012205192;-7.190158875;-7.164456756
12.84225287;16.94594816;-5.543127771;-7.599146099;-10.79640743;6.446666765;-1.51783027;15.1523722;47.96328552;30.10102194;-35.5051804;-12.55549354;-11.02905013;-11.00379897;71.63398211;-4.564922664;-8.504803247;-1.667229161;-4.972273652
13.80922902;12.22954066;-5.630455139;-5.397992098;-9.891761236;6.498183301;-6.768122894;13.56741269;54.37510929;32.89440475;-50.86489323;-14.4555105;-12.74341756;-10.96625336;72.31766307;-1.869444377;-9.724259475;-4.442460558;-3.43
13.6291611;2.951682932;-8.38242067;-5.088288073;-8.892242856;6.637975448;-8.346345393;12.38136716;53.9061087;33.92908448;-58.22261578;-15.80450159;-12.54283741;-9.852380381;66.40179181;-2.114401956;-10.58208307;-13.51625028;-3.290784192
13.0148646;-5.047522183;-11.31406771;-6.560547439;-7.837226817;6.753344213;-3.278165952;12.80600371;48.5969278;34.0612907;-46.67222474;-17.09492441;-11.37955202;-8.652746478;56.22471894;-5.80933069;-11.08738205;-22.9424953;-4.294475615
13.11438117;-6.880473159;-11.36651589;-7.554535389;-6.770892977;6.738841148;4.310346087;14.77914207;46.5738259;35.12977399;-17.59012025;-18.93092317;-10.62490665;-8.225144949;47.22187144;-11.18255215;-11.25056051;-27.29928328;-5.421889542
14.56828035;-2.141312764;-7.310832543;-5.703863244;-5.715768495;6.574073505;7.67183537;17.07528445;53.65521255;38.45435137;15.57910407;-21.82865006;-11.05996261;-8.574090388;44.19789255;-15.27046855;-11.05468253;-25.32282675;-5.653794842
16.99814141;4.924437825;-0.825799526;-0.82742105;-4.603365737;6.346425206;4.142426132;18.31819735;65.22382819;43.7758735;35.62224363;-25.86438183;-12.39116258;-8.845813973;48.01551484;-15.83487632;-10.47739397;-20.07726341;-4.644618215
19.33311104;8.699140149;4.661351593;4.662503384;-3.279400801;6.192948491;-2.070345535;18.01729638;67.00874062;49.52234454;31.89258479;-30.35430778;-13.60997932;-8.051180053;55.32185053;-12.75291001;-9.540141442;-15.97461282;-2.851601409
20.6933802;6.406559268;6.556028362;7.743562305;-1.621175179;6.198629122;-3.587886202;16.81872179;46.06154779;54.11010367;6.011908094;-33.90513005;-13.83445241;-5.93943632;61.4123818;-7.942748162;-8.374290605;-15.36805368;-1.114290651
21.09799809;0.103991794;5.129292021;7.509622804;0.324309098;6.328532239;3.169706453;15.87991854;3.581440499;57.11119282;-29.85334608;-35.02526768;-12.92708082;-3.318854435;63.83176695;-3.964810448;-7.273148409;-17.40321883;-0.069825913
21.41461179;-4.945470658;3.387296848;6.220280065;2.310990354;6.450247371;13.93366105;15.98392546;-41.88069408;59.30237895;-59.96172068;-33.0515703;-11.43751843;-1.553026313;63.88214167;-2.351317441;-6.659478216;-19.59568001;0.168999061
22.59117578;-4.180310207;4.798306159;7.607221778;4.007185274;6.432295794;19.24156365;17.11834788;-65.34412752;61.65553447;-72.47559479;-28.76664249;-10.02197118;-1.606025094;65.07021826;-2.819586138;-6.913011345;-20.2856635;-0.075947786
24.79392192;3.024244365;10.56823627;13.72796454;5.153903512;6.241152872;11.87977366;18.7349844;-53.16027927;64.27088129;-63.65659901;-24.14758896;-8.914501456;-3.357703683;69.99471088;-3.807402272;-8.110078125;-19.68837935;-0.374947833
27.15112863;13.07697618;18.54928521;22.98607185;5.637077627;5.959522624;-6.937915098;20.29604634;-13.72940794;66.25311938;-37.84984252;-21.25819508;-7.916505173;-5.697673568;78.21836354;-3.813173647;-9.857127881;-18.89236479;-0.469019714
28.31660195;20.8197695;24.64895627;31.05369304;5.441875621;5.714338516;-27.78;21.55305382;27.95118796;66.6182179;-4.674195766;-20.97600223;-6.851871633;-7.312095945;86.60573752;-2.523710652;-11.41208159;-18.19694961;-0.349013747
27.41863639;22.960865;25.70241142;34.04296931;4.583079411;5.579079659;-39.54179069;22.38376802;48.26409761;65.35083415;24.62337298;-22.4670343;-5.986017068;-7.568790766;91.54427359;-0.967814155;-12.11160978;-16.70650008;-0.185445708
24.6666286;19.79039684;21.65320695;31.38698218;3.121173151;5.534432456;-37.18129664;22.51125266;41.52746067;63.59515542;40.4774596;-23.83487148;-5.936773068;-6.864884919;91.17694554;-0.682903692;-11.85836198;-13.68941907;-0.236311277
21.16867983;14.1965783;15.4261778;26.10927525;1.256153619;5.515944789;-24.68158553;21.54282992;22.16;62.76833404;37.63091591;-23.50377654;-7.091171047;-6.23277672;86.14835046;-2.5553196;-11.29409799;-10.273053;-0.783315117
18.1292518;9.090428569;10.65046258;22.30901308;-0.635812728;5.49635592;-11.25501642;19.39090844;11.22216766;63.38549031;16.84007813;-21.32361865;-9.046340059;-6.550730187;78.78623007;-6.149096472;-11.44971184;-9.486362544;-2.047915851
16.05431161;5.3795181;9.016374806;21.96537883;-2.143333501;5.51796453;-4.191535816;16.66105083;18.8824078;64.66023681;-14.90556416;-18.583661;-10.64604357;-7.954400497;71.73893349;-9.937427651;-13.04722541;-14.10192945;-4.050960762
14.54681049;1.931217513;9.269459307;23.67138299;-3.08720614;5.638502498;-4.122777978;14.51664908;37.40108022;65.24674009;-46.21528826;-16.95764289;-10.70601691;-9.835135574;67.05;-12.22883918;-15.94284621;-23.90246758;-6.492432533
12.79111472;-2.75589908;8.515055627;24.24666913;-3.690892125;5.840427221;-6.084399153;13.97584068;49.91986468;64.45958954;-65.06281602;-17.21702182;-8.905476526;-11.34162216;65.83796077;-12.16111315;-19.16154933;-34.87423051;-8.798209751
10.300444;-8.768047084;4.698871576;21.76891167;-4.447670901;5.997801019;-4.828479778;15.16843504;46.65844902;62.88429632;-63.35731625;-18.69652138;-6.109632864;-11.95163783;68.15982478;-10.15219408;-21.558192;-41.46118432;-10.39103131
7.340244414;-14.39976113;-1.731145423;17.42057086;-5.714786158;5.950977016;0.463099264;17.22016183;33.85065636;61.85239361;-40.53649972;-19.87252258;-3.797440354;-11.69917958;72.83935458;-7.580205541;-22.64245788;-40.44752626;-11.04042342
4.737507956;-17.4271007;-8.242594123;14.59311293;-7.333317563;5.640762537;5.986279893;18.94772298;27.36628024;62.27992848;-4.529866309;-19.5398833;-2.990869082;-10.96922444;77.61823435;-5.941119934;-22.92755194;-33.46658654;-11.0197205
3.276244846;-16.90259935;-12.27939156;16.00844075;-8.617798524;5.188037591;7.434049586;19.82925189;36.7485333;63.91958977;30.68466948;-17.65155084;-3.521044531;-10.11639377;80.10134608;-6.017051197;-23.48695185;-26.00557743;-10.900612
3.170694183;-13.97373273;-13.24564676;21.26168551;-8.797748122;4.836440347;4.496462001;20.40816288;54.27907457;65.66129515;50.41019821;-15.22605898;-4.236101396;-9.25300528;79.27470951;-7.54;-25.01412069;-23.4892575;-11.10035271
3.995558206;-11.07880945;-12.8328784;26.82404736;-7.615186325;4.785687076;1.596675016;21.71842051;59.6908085;66.53270811;45.59546004;-13.50646702;-4.013317092;-8.346894118;76.51704616;-9.511037037;-27.10650717;-27.38802414;-11.5308583
5.062060625;-10.19543157;-13.51347669;28.52314277;-5.610343112;5.040420373;4.064323837;24.16484556;37.47868682;66.41949611;17.49273744;-13.11206068;-2.774410567;-7.472087701;75.00152505;-10.93406815;-28.3785651;-34.34423137;-11.65914676
5.89;-11.53732136;-16.51497709;24.53549192;-3.835725839;5.397971672;12.95025814;26.8302948;-7.788564472;65.83389851;-21.9864657;-13.83013814;-1.665260999;-6.925085999;77.50926966;-11.48094122;-27.40238589;-38.96390565;-10.97194278
6.398873036;-13.68374378;-20.95671606;16.57875871;-3.181156589;5.592863712;22.98617451;27.90711646;-51.91578528;65.01734519;-55.19937688;-15.08751833;-2.202805555;-7.056516254;84.11634536;-11.66226019;-23.82687782;-38.06050654;-9.489571951
6.71678069;-14.96348208;-24.80564051;8.486862827;-3.809756217;5.4902767;25.73322706;26.03665162;-68.11865392;63.35734187;-67.2195509;-16.57263185;-5.016435706;-7.942053146;91.64318563;-12.40547955;-18.84160082;-33.05345995;-7.894946053
6.83802291;-14.94214704;-26.76910734;3.407327562;-5.125822566;5.179123395;15.77324203;21.52906907;-47.30338902;59.84313396;-53.56250022;-18.42321392;-9.164722446;-9.186695354;95.58110964;-14.33653029;-14.59270274;-28.74486932;-7.12541945
6.473457399;-14.81905253;-27.47199621;1.821367438;-6.276678187;4.893750817;-4.741534275;16.42666931;-5.016801946;54.27094888;-22.58031388;-20.8528278;-12.60094342;-10.07430226;93.24887463;-17.2653289;-12.90972094;-29.55046855;-7.707816946
5.254515112;-16.41925694;-28.89100042;1.773112192;-6.776721302;4.828197762;-26.7439592;13.22728338;30.75805273;48.06786259;9.447463874;-23.62319863;-13.49966563;-10.00296756;85.80850651;-20.24022757;-14.20420081;-36.15934387;-9.346821934
3.133401443;-20.56192846;-32.50581835;0.8767819;-6.773806395;4.988667225;-39.80354686;13.14447461;40.99650568;43.76751443;28.02200282;-25.90608635;-11.50325228;-8.905380903;77.5257585;-22.14;-17.28063653;-45.10750639;-11.10161923
0.634561876;-26.06620976;-37.73215028;-1.648254136;-6.799853727;5.194183948;-38.64895706;15.19756837;28.77457344;43.29463926;28.9879296;-26.71930808;-7.998579578;-7.33806718;72.78283473;-22.38646695;-20.15314259;-51.38943941;-12.0313913
-1.292670957;-30.18620042;-42.00511137;-4.501076971;-7.272598304;5.215593204;-26.09937733;16.84502632;13.89366622;46.35585971;20.28631865;-25.60255192;-5.240838309;-6.152413257;73.12730565;-21.26810827;-21.27204411;-51.94618861;-11.81875365
-1.768371884;-30.22492484;-42.54252212;-5.588674786;-8.181277625;4.938968902;-10.56163884;15.73616237;14.40773584;50.35074005;15.53577629;-22.97606862;-4.958979248;-5.961916415;76.59066516;-19.64722077;-20.33072603;-47.40898252;-10.89533514
-0.498338407;-25.23429043;-38.43469;-3.884891634;-9.175165238;4.432263322;-0.180236598;11.33529901;31.26679522;52.10062289;23.69624393;-19.87934415;-7.399863994;-6.767792177;79.66035979;-18.27880967;-18.18350025;-41.03898323;-9.98943827
2.04625414;-16.65312857;-31.412616;-0.326592099;-9.897928739;3.880630351;2.070492869;5.287849741;49.04747899;50.20328783;42.00295663;-17.2864419;-11.38931916;-7.991095815;80.17599155;-17.26083674;-16.05741675;-36.00156031;-9.476421135
4.913230829;-7.472977803;-24.67952235;2.902701246;-10.22103446;3.457856812;-0.901287215;0.333235938;51.42478406;46.19901321;57.28145468;-15.51871544;-15.2353228;-8.872209914;78.78910655;-16.03322485;-14.69484672;-33.20550616;-9.067403105
7.221583787;-0.508495481;-20.71228769;4.05407171;-10.18393734;3.236074596;-3.729471035;-1.407916808;37.1332907;43.55272578;54.941152;-14.17500422;-17.75083968;-8.95044669;77.95164186;-13.92045851;-14.01790136;-31.21629139;-8.095625835
8.606544909;3.093160878;-19.72618716;3.127836316;-9.776250151;3.185498696;-3.094571669;0.409977595;21.86474251;45.1163982;29.5054531;-12.58542058;-18.70787076;-8.302720368;79.50286634;-10.79230302;-13.45150638;-27.98491141;-6.172934327
9.274661628;4.188879528;-19.93384868;1.861652457;-8.865658675;3.235173793;0.222280666;4.427495487;24.07128419;50.92853131;-10.58931568;-10.41385917;-18.55673826;-7.411748849;83.01369222;-7.325426467;-12.55511959;-22.79911069;-3.679614335
9.674589554;4.710699661;-19.29397856;2.462324711;-7.412150703;3.327052727;3.015201292;8.62879265;47.0588144;57.98362476;-47.2088386;-7.967427182;-17.80569845;-6.798483467;86.25158025;-4.656287291;-11.44582618;-16.92038571;-1.664895204
10.06090755;6.184552029;-17.296163;6.020837238;-5.770840664;3.424297983;3.241141801;11.51133235;73.46176643;62.14112145;-62.87826266;-6.024523166;-16.62698841;-6.695745727;87.21733175;-3.679570691;-10.72145726;-12.58165995;-1.184351412
10.28790078;8.715664482;-15.36166685;11.67937051;-4.715985589;3.491801451;2.220845413;12.61388392;77.84106928;60.78680825;-50.50738998;-5.337638082;-14.95698068;-6.969743002;85.86876473;-4.503506155;-10.99112257;-11.30100004;-2.537054788
9.981413202;11.08016112;-15.5867366;17.03549967;-5.019266976;3.492819792;3.433700485;12.25591577;47.55791942;54.38966684;-16.62678723;-6.15153546;-12.88732523;-7.287248111;84.01419087;-6.431103559;-12.38278972;-12.84031554;-4.957902058
8.943406003;11.78461294;-18.87060654;19.46524973;-6.836350945;3.417980896;8.867985488;10.93158274;-5.370179816;45.99950831;23.04380069;-8.017972908;-10.90384855;-7.350563102;83.5418727;-8.424267771;-14.36435229;-15.47124106;-7.004564857
7.462460505;10.30779091;-23.9208957;17.55012835;-9.411946524;3.315526887;16.13544839;8.925881918;-51.59497275;39.22943975;52.05928489;-9.982964571;-9.698463326;-7.011387675;84.63194332;-9.665008853;-15.96509419;-17.17623026;-7.394024284
6.26647094;7.640058594;-27.90736283;11.82483344;-11.43316801;3.27792608;19.17189027;6.374136054;-65.40723518;36.20777012;60.43091577;-11.02785856;-9.684396928;-6.218941816;85.58093934;-9.820959545;-16.23064082;-16.83620124;-5.742430202
6.115152164;5.732097773;-28.26087219;4.497492568;-11.8526406;3.378286178;12.50393712;3.538049744;-42.76787291;36.75931089;47.2252085;-10.54972531;-10.62991814;-4.92142462;84.40520761;-8.928150756;-14.64936864;-14.6595663;-2.745112739
7.300143296;6.213966824;-24.29302868;-1.656614172;-10.58748706;3.604290763;-4.0215657;0.913779707;-2.550826272;39.03134847;18.81303817;-8.668497819;-11.7513768;-3.0770901;80.79066929;-7.139304478;-11.36226336;-11.77101948;0.280964996
9.403300189;9.250141583;-17.52740853;-4.627837075;-8.551617253;3.851817899;-23.92054384;-0.990031738;28.96581943;40.81877101;-14.76156378;-6.217128548;-12.23986994;-0.808750133;76.62709361;-4.655882367;-7.107857388;-9.42296666;2.16459546
11.49719717;13.32039259;-10.63340124;-4.038848757;-6.984468005;3.994689423;-37.67297577;-2.010039063;37.14758056;40.63994406;-43.06380984;-4.392975302;-11.84146639;1.437132194;74.58198748;-1.915828047;-2.957326622;-8.376996285;2.472047081
12.67188328;16.1111276;-5.821180946;-1.10471762;-6.592143621;3.978978984;-38.93568392;-2.472815852;26.70749818;38.12105505;-57.62842776;-4.206639725;-11.05464364;2.926643619;75.86786661;0.216664124;0.061299581;-8.715932455;1.600746334
12.5492415;15.96190326;-3.792399515;2.255293714;-7.154944947;3.862884944;-28.81145643;-2.953584783;13.68612447;33.864505;-53.93745187;-5.994292664;-10.79087689;2.944274601;79.07502988;0.600656091;1.331209218;-10.01339725;0.392513329
11.45610225;12.92900868;-3.782392438;4.596124429;-7.861391103;3.765482311;-14.8729947;-3.815034295;10.43376664;29.16937463;-33.16762522;-9.263137835;-11.7394671;1.215553546;81.07740061;-1.615453301;0.872015419;-11.64472585;-0.43491062
10.16009766;8.762834894;-4.409881464;5.66828492;-8.036576488;3.765546112;-5.593067524;-4.89295748;16.87769052;25.72226979;-2.743168331;-12.97073124;-13.88321668;-1.849326329;79.31704131;-6.344217145;-0.695542735;-13.06935693;-0.678886268
9.363161219;5.802572391;-4.604100289;6.232409455;-7.640946572;3.83634154;-4.421532351;-5.5884345;24.24875287;25.10942323;25.57216111;-16.07821172;-16.48537457;-5.308024566;73.6619535;-12.35081392;-2.468016702;-14.00947882;-0.666646061
9.295265073;5.50603462;-4.041536293;7.155577479;-7.158512174;3.872435157;-8.045348571;-5.305172747;25.8151479;28.09370025;40.09394236;-18.04282826;-18.52547301;-8.184809469;66.40942437;-17.77191628;-3.727042174;-14.49687413;-0.944769834
9.660397055;7.574986948;-3.024492025;8.518264245;-7.042400735;3.784887955;-10.01189604;-3.900484323;23.60838388;33.98371018;34.32385481;-18.96490735;-19.26679147;-10.00309182;60.51755942;-21.11701395;-4.302271714;-14.78027082;-1.874644678
9.931371192;10.23746723;-2.110811466;9.468758551;-7.255470993;3.581613591;-6.541989289;-1.811353587;25.11823205;40.65013864;10.02227424;-19.35035758;-18.59349449;-10.98964209;57.52654794;-22.09299144;-4.601529044;-15.13591028;-3.386353942
9.755114071;11.47146949;-1.816494004;8.976054592;-7.32086842;3.363119753;0.400488651;0.231866701;34.17312595;45.45616802;-23.50679041;-19.70480797;-16.95814701;-11.80763833;56.77964864;-21.65067728;-5.273915606;-15.69250085;-5.019810916
9.17651445;10.3258493;-2.482683268;6.877694232;-6.810058594;3.238427761;5.335135436;1.685511793;45.84164497;46.69148177;-53.4929108;-20.24566215;-15.05084939;-13.01173917;56.41913849;-21.18689698;-6.718477277;-16.38947906;-6.202744875
8.543034314;7.44722067;-4.215960265;4.312743801;-5.791039151;3.235435958;4.734614067;2.517867802;50.97;44.5898164;-68.93444959;-20.86936078;-13.44182587;-14.62007813;55.19163997;-21.46671984;-8.771969381;-17.09077119;-6.584414219
8.193101236;4.490867147;-6.830323586;3.073974804;-4.799682198;3.283074185;0.754473606;3.160778055;46.09350809;41.16951097;-64.57294039;-21.29408853;-12.393048;-16.10899535;53.51490823;-22.06976535;-10.79832158;-17.74161882;-6.226638082
8.1832225;2.882054206;-9.843157768;4.298011587;-4.34096676;3.277719341;-0.387713922;4.145348905;38.52263554;38.93246383;-42.3498517;-21.20648982;-11.87074505;-16.81966391;52.94977926;-21.79756819;-12.12232531;-18.41178183;-5.549287302
8.267192804;2.84312825;-12.60967528;7.521194915;-4.368060322;3.17241558;5.683304595;5.694761281;40.41326731;39.29758477;-10.45351107;-20.33030921;-11.66490342;-16.46205658;54.57194265;-19.75334794;-12.49921997;-19.17335914;-5.075570064
8.142271319;3.387031952;-14.56072824;10.91849929;-4.227480013;3.010286555;16.41523793;7.555811133;56.21162718;41.85335833;19.33959893;-18.4782149;-11.51010875;-15.3378504;57.64877318;-16.2633942;-12.27917637;-19.92990765;-5.136961541
7.768552092;3.249624807;-15.37881324;12.62531979;-3.157111319;2.876747146;22.93413316;9.166314627;75.18682135;44.90169236;35.42791542;-15.67174434;-11.16722948;-14.12556747;59.79358195;-12.88173649;-12.14359627;-20.38471381;-5.712982042
7.500550263;2.021056495;-14.98287817;12.14083709;-0.936194031;2.81886168;16.60999608;10.02319242;77.47365586;46.80523363;30.64007813;-12.28321403;-10.47844357;-13.40020558;58.60269272;-11.38631753;-12.60278869;-20.22833097;-6.490562956
7.895793781;0.572534891;-13.39111629;10.68654045;1.858046461;2.807339643;-3.403459782;9.99764276;50.32781675;47.09606388;5.755619552;-9.018190968;-9.402874347;-13.2452293;53.59346317;-12.45595211;-13.62075513;-19.42386343;-7.089257462
9.300634727;0.399465098;-10.68479423;10.19515845;4.208603109;2.773918029;-28.00503655;9.405035199;1.330683233;46.57104813;-29.6086978;-6.605194762;-8.009523854;-13.2252622;46.95629881;-15.01975153;-14.63982382;-18.3539836;-7.299786863
11.496018;2.342537601;-7.202828244;11.71278057;5.345647933;2.68515058;-43.72359218;8.814633447;-43.63165317;46.43598707;-60.22798053;-5.307879676;-6.409982272;-12.70888923;42.44162105;-16.83571264;-14.98327361;-17.67727637;-7.185926682
13.68166593;5.675849902;-3.797896572;14.50284147;5.221101336;2.579660652;-42.13325052;8.744721622;-57.74533805;47.27480866;-72.08491585;-4.615877273;-4.668226254;-11.28610019;43.04120209;-15.97122307;-14.33664679;-17.96029273;-6.998137079
14.87205872;8.342192894;-1.775420779;16.60155768;4.431252603;2.530884887;-25.84017027;9.429129457;-33.01670609;48.66;-59.63498459;-3.444316096;-2.770704159;-8.992389168;49.03170747;-12.1672181;-12.95462262;-19.32549618;-6.973262177
14.49446787;8.28464805;-2.296870275;16.40095235;3.710694116;2.568544077;-6.282992679;10.75625544;13.41980494;49.61536923;-29.19388758;-0.825298921;-0.708354912;-6.229674798;57.76533138;-7.09627068;-11.44947345;-21.34766767;-7.163920501
12.80643853;4.96688891;-5.514190414;13.97843001;3.438680543;2.633348806;4.923161495;12.35477782;51.87676697;49.43722588;4.228562902;3.345903549;1.383374808;-3.500295042;65.41304132;-3.284176349;-10.33188012;-23.26203847;-7.411175033
10.8210901;-0.054289346;-10.10865361;11.0667721;3.519423305;2.611976176;4.210537816;13.73055744;61.81235572;48.1601295;25.40200634;8.077738698;3.168361849;-1.166987968;69.487211;-2.422213959;-9.658723152;-24.3574226;-7.470274315
9.725346369;-4.02377755;-13.79678809;9.647673567;3.631744362;2.427298912;-2.558242424;14.38422654;45.54670925;46.34265871;27.71785352;11.80984096;4.247798742;0.6293266;70.36469116;-4.254997615;-9.056730816;-24.34426314;-7.194717394
10.12203314;-4.816686541;-14.69286196;10.28402322;3.541080227;2.107359969;-6.213906641;13.91146838;23.60908975;44.46770538;16.73405221;13.39048134;4.44634289;1.918376101;70.67940186;-6.836426961;-8.099335868;-23.52739664;-6.647905549
11.58716047;-2.441410538;-12.65923069;11.55793516;3.187056441;1.772585828;-2.392895227;12.12450011;16.47302378;42.54855506;5.87270543;12.83443998;4.039794129;2.825616198;72.97139757;-7.971223851;-6.736938271;-22.70770256;-6.064924121
12.87262049;0.878783096;-9.59201537;11.13047603;2.543057515;1.550444584;5.292926075;9.19196008;28.28236943;40.28525203;6.84503457;11.33203156;3.707291275;3.54056793;77.31852556;-6.804587461;-5.430826093;-22.82921699;-5.691626479
12.67530656;2.164737322;-8.253276248;7.649659891;1.489924765;1.488335988;9.454011357;5.715819599;45.74098512;37.58360543;21.08135237;10.52057504;4.176087681;4.296532092;80.82215938;-4.414727537;-4.862729396;-24.48321231;-5.61468707
10.49626628;-0.304620006;-10.35200558;2.027252976;-0.089078577;1.534852778;6.413401557;2.636413663;51.99071269;34.9194877;38.07141241;11.54532537;5.778943542;5.292531335;79.54597188;-2.988534598;-5.423323289;-27.48889514;-5.707471208
7.011926004;-5.832151038;-15.24714952;-2.953186614;-2.054729104;1.598538961;0.06474719;0.933349849;42.58712614;33.1819442;42.10764244;14.53037897;8.249870189;6.556652515;71.64565559;-4.192666393;-6.871845687;-30.82888596;-5.741857167
3.676909358;-11.81539652;-20.29455193;-4.480312232;-3.883570234;1.627074661;-1.544763108;1.230629789;29.37915567;33.10100471;23.28114599;18.71118747;10.92781697;7.850885062;59.35283933;-7.934276325;-8.451806447;-33.10878565;-5.599017145
1.797971851;-15.55882469;-22.66787757;-1.69068435;-4.880923494;1.636680876;6.005844594;3.508841794;29.04723877;34.72886445;-14.53243278;22.98425764;13.22132025;8.734624279;48.10838802;-12.40998022;-9.411193672;-33.39783622;-5.427640695
1.703048535;-16.08129768;-21.34067403;3.661422622;-4.637431719;1.670886003;18.36018313;7.088421849;46.61642288;37.38552854;-54.34101585;26.412593;14.96650051;8.796172886;43.16808899;-15.38908824;-9.556390964;-31.95689428;-5.609857095
2.587130986;-14.63161187;-17.74104126;8.333895907;-3.366018917;1.73326131;24.80965571;10.89276255;68.73544701;40.07680513;-75.52090216;28.41397698;16.38735915;7.912545415;45.98656019;-15.77398707;-9.414744237;-30.27372355;-6.512273631
3.149487527;-13.58;-14.57469997;9.732001916;-1.807579739;1.761204056;16.74511162;13.84336835;73.16214044;42.01645932;-66.40462948;28.71574551;17.70165075;6.345443993;53.06838341;-14.29320185;-9.850078125;-30.19281993;-8.158906332
2.565126142;-14.54190037;-13.72268704;7.564552395;-0.742262664;1.668619821;-4.776829685;15.19761794;46.98483869;42.860459;-31.87095176;27.32956804;18.73649193;4.588827476;58.31532463;-12.84145458;-11.38251875;-32.58595776;-10.05641163
1.078854861;-17.13398258;-14.8480557;3.912052927;-0.485159583;1.421477898;-28.80689084;14.72734371;-1.480525012;42.57997781;9.288116515;24.65017996;18.93909316;3.073173315;57.32338545;-12.98687382;-13.70627352;-36.48122466;-11.34508341
-0.220261372;-19.26720636;-15.79431781;1.723497709;-0.76680608;1.079490988;-42.08997035;12.75389709;-47.1137813;41.24161927;35.92540306;21.51392348;17.84090925;1.945094094;50.53182088;-14.76832465;-15.78282903;-39.40520042;-11.24949122
-0.274794848;-18.72763686;-14.44194265;2.81464208;-1.06950467;0.765906814;-38.49057481;10.08738819;-65.43465961;39.00258168;37.70761895;18.98512798;15.61407673;1.078143345;42.86474541;-16.66724284;-16.48050444;-38.89007813;-9.578298933
1.08330529;-14.85079416;-10.52699002;6.714255176;-1.100087891;0.588323693;-22.82197265;7.85276241;-49.40845016;36.33614302;21.17195567;17.87669091;13.21174816;0.281134598;40.07490321;-16.75309382;-15.32700258;-34.19248058;-6.936778198
2.960351278;-9.054112267;-5.951285707;11.06844697;-0.979151392;0.57236975;-6.348081596;7.135515502;-12.90186013;34.17337136;4.413127812;18.32816141;11.87116701;-0.48585146;44.48013931;-14.13899551;-12.84215475;-26.9799066;-4.459404033
4.063731623;-3.86304348;-3.317239867;13.25486007;-1.005660608;0.655244212;1.978909554;8.466907226;20.92503597;33.62531188;3.79932408;19.81493547;12.27816989;-1.068991086;53.2566108;-9.678134075;-10.20749439;-20.3821976;-3.177571487
3.702658921;-1.177710072;-3.846126913;12.09875991;-1.256605362;0.734751496;1.34433687;11.37423813;36.34853758;35.30409508;21.82555048;21.63478338;14.01999599;-1.272121964;60.52303595;-5.411478514;-8.50113688;-16.97394743;-3.406656058
2.354096896;-1.049610768;-6.345007145;8.585234704;-1.432772513;0.728944733;-2.261495098;14.35773494;34.02423378;38.6980526;44.79855178;23.47983388;15.7905196;-1.053524417;61.59650042;-3.189883997;-8.033662209;-17.08360193;-4.562956433
1.341870945;-1.810653555;-8.065403079;5.166026027;-1.121960026;0.604667157;-2.497569517;15.51486202;26.60893991;42.16414367;52.38597198;25.57435976;16.25128788;-0.589687237;56.22806301;-3.462777766;-8.236816265;-18.64568407;-5.556080998
1.85594958;-1.379289304;-6.799940015;4.173363364;-0.242079907;0.370205032;1.819600967;13.6104785;26.41300832;43.71987509;32.56457299;28.21457118;14.92867169;-0.156191214;48.51898672;-5.060139283;-8.148967739;-18.71395704;-5.511773494
4.051155657;1.2597304;-2.583090469;6.392336669;0.766637222;0.05850177;6.722722715;8.964630787;35.80578544;42.20510315;-8.72567854;31.110161;12.47466164;0.05932491;43.80615089;-6.058259864;-7.118570436;-15.54770896;-4.340634165
6.90781988;5.449469431;2.326062309;10.69130092;1.218531183;-0.276077588;7.846384753;3.480679463;47.31778626;38.03165795;-50.4868041;33.1861134;10.10193796;0.045898765;45.01568899;-5.075159452;-5.222174172;-9.785756625;-2.765171685
8.952436938;9.460726678;5.153676726;14.89076093;0.715326907;-0.553775753;4.960122322;-0.377580805;51.64573707;32.96520586;-70.430413;33.16999632;8.648299596;-0.103453451;51.13409756;-2.110996789;-3.143537825;-3.927640872;-1.79564934
9.281310781;11.74114571;4.677197996;17.23772709;-0.529649612;-0.684197007;1.963860016;-1.099862721;45.7898762;29.05628308;-59.86084949;30.59807638;8.011300587;-0.334428544;58.57363373;1.558639567;-1.673477581;-0.590576691;-2.034743639
8.116521871;11.86396935;2.062804309;17.47174111;-1.869078807;-0.610778841;2.658925653;0.883684064;34.78426519;27.45272405;-28.91513671;26.41565279;7.383674902;-0.694191361;63.95445087;4.254221559;-1.241105002;-0.844474634;-3.304575638
6.510901132;10.56981295;-0.125136849;16.77250211;-2.745909195;-0.359227176;6.729503758;3.501869962;26.79957192;27.90296394;1.537497271;22.56762022;6.06373382;-1.254529088;66.00672027;4.885995333;-1.797404935;-3.74836059;-4.841753873
5.488825417;9.038524982;0.078522251;16.67131481;-3.093330952;-0.044598782;10.0815758;4.507142108;26.76159916;29.23013635;15.06764382;20.75609903;4.150438423;-1.983255274;65.40537286;3.459031001;-3.044463531;-7.234329267;-5.883879121
5.325933771;8.067441334;2.597363711;17.75192804;-3.255230638;0.184369855;9.304670135;3.098970626;33.74429795;30.32988561;10.42689237;21.26007813;2.541676556;-2.70897572;63.24634269;0.895825607;-4.72565546;-9.518204027;-6.193601089
5.512173404;7.780825115;5.500233316;19.12927397;-3.523175442;0.233028753;5.768894582;0.507458302;43.15190626;30.88829765;0.020690507;22.74898651;2.241584056;-3.231250773;59.86653251;-1.56749718;-6.691572406;-9.983181261;-6.138777025
5.358185788;7.964766653;6.599289868;19.13105137;-3.757396884;0.116153172;4.918339584;-0.942641363;50.61092344;31.30339969;-1.94487198;23.29741293;3.555592362;-3.474017649;55.05117543;-2.976623315;-8.713849164;-9.062060685;-6.302846477
4.68379301;8.588778754;5.173117629;16.69668021;-3.493296162;-0.064343644;10.83217586;0.369782263;54.09763678;31.98099439;8.437906309;21.87661364;5.833479867;-3.521195917;49.13637554;-2.95169744;-10.29183698;-7.473091809;-6.956315416
3.991839696;9.971559085;2.492533361;12.41931408;-2.47147343;-0.203374632;20.9650243;4.04872149;53.6242191;32.69727407;22.41061779;19.20232427;7.951909884;-3.480405944;43.607169;-1.656390284;-10.73313231;-5.563697043;-7.805973017
3.992744025;12.42029604;0.79779401;8.363058842;-1.088556822;-0.270624074;26.46964285;7.874278356;50.33372306;32.64619143;27.55329931;17.28631338;9.113982162;-3.300985546;40.34269468;0.397789929;-9.546388493;-3.248620889;-8.202203768
4.905794619;15.67496338;1.561276093;6.684751695;-0.275371111;-0.319013133;18.81567671;9.392030928;46.52143453;31.17785388;20.06044212;18.00612864;9.304957744;-2.747975113;40.08803672;2.555821345;-6.871320048;-0.431903744;-7.626842132
6.151908588;18.69195326;4.361336508;8.026735675;-0.801210245;-0.419389184;-2.453329585;7.70817809;45.77741181;28.59342589;9.224630964;21.72446838;9.071096644;-1.610455986;41.62556664;4.181287164;-3.568053953;2.576274323;-6.08608508
6.719221565;20.04518684;7.167669518;10.89460273;-2.558640668;-0.58103666;-27.66464166;4.124104297;51.29305197;26.23996763;9.594976732;26.92387746;8.88384178;0.006317496;42.57838605;4.79880309;-0.808926321;5.029208302;-4.132456553
5.916126374;18.72913932;7.760593257;12.55493785;-4.487286878;-0.730085449;-43.12992311;1.130281194;62.24163008;25.67953875;27.04479656;31.06746399;8.691279286;1.579027798;41.2737524;4.222302274;0.59959401;6.081826095;-2.53297018
3.903654668;14.81895844;5.21571908;10.86038897;-5.30452242;-0.76702568;-40.99258846;0.545462636;71.31044227;27.48399675;50.89152215;32.05592703;8.053298562;2.408398997;38.03794171;2.617960682;0.697485582;5.194571347;-1.844892015
1.584176974;9.529450812;0.43265883;5.689904268;-4.513239513;-0.65425547;-24.925376;2.237747178;67.18364695;30.59506728;59.90363811;29.33153398;6.701573692;2.071327596;34.72544327;0.4395554;0.29716017;2.345878565;-2.179517444
-0.049068865;4.631253836;-4.54905034;-1.044121693;-2.857560766;-0.456943085;-6.980058594;4.385309135;42.23122954;32.83719065;38.62115243;24.03047706;4.965044593;0.738265555;32.87524483;-1.763272326;0.388365136;-1.965875822;-3.250353557
-0.572914948;1.599881558;-7.853238078;-6.799888838;-1.79383494;-0.29989285;1.837829421;5.011636676;0.375118876;32.31270786;-8.756094852;18.25298326;3.620261638;-0.919632453;32.19530095;-3.578799534;1.433021769;-6.813160851;-4.592433624
-0.301882509;0.99511803;-8.773879608;-10.13963581;-2.343170499;-0.275571162;-0.474761457;3.54172316;-41.8769023;28.70321895;-58.67785881;13.9995414;3.260506539;-2.189809458;30.85625912;-4.890911973;3.039316781;-10.98832746;-5.770120882
0.108316654;2.352646692;-7.920919516;-11.48594775;-4.232429133;-0.380046387;-6.789208003;1.155356644;-64.06474471;23.51735707;-83.65344548;12.35775078;3.744666817;-2.790165711;27.44442075;-5.885414913;4.227978381;-13.31083347;-6.479645057
0.232046539;4.526977009;-6.602157338;-12.38165291;-6.039578467;-0.528371701;-8.150175225;-0.282062104;-55.16643547;19.08415798;-71.49355651;13.23758495;4.252871808;-2.973193286;22.81703755;-6.909985843;4.085411083;-13.13316856;-6.578467838
0.130379992;6.216412212;-5.987813589;-13.91274265;-6.265119342;-0.63178311;-1.859803073;0.219439437;-21.93663532;17.0259162;-33.6330323;15.63285726;3.951124027;-3.18350853;20.013533;-8.255411376;2.347517666;-10.81829947;-6.107871297
0.127526983;6.427441635;-6.578187358;-15.59493091;-4.49592383;-0.667522254;6.687986447;2.015313897;14.86832525;17.33185769;3.896930858;18.21079531;2.709846169;-3.575055446;21.99188597;-9.948826783;-0.457383227;-7.765795088;-5.305994464
0.385139239;4.78765097;-8.137233656;-15.63060032;-1.737630459;-0.682676934;9.70732559;3.462729428;34.46139671;18.68363006;19.70513932;19.97667084;1.238415037;-3.827485382;28.93089437;-11.64681313;-3.34696975;-5.741979581;-4.54037704
0.718018664;1.709670084;-9.923979312;-12.34089832;0.348980311;-0.735088199;4.8016774;3.377314581;30.07961862;19.71339769;11.48641563;20.74104526;0.48867072;-3.448051483;37.4237177;-12.69851879;-5.425896265;-5.793586354;-4.124780142
0.840667351;-1.628929459;-10.98994753;-5.64792754;0.698072929;-0.830401784;-2.405244672;2.06738587;12.52902483;20.16155624;-5.098512524;21.1472267;0.830316636;-2.306449102;42.48405389;-12.40098961;-6.264990386;-7.477876034;-4.109826688
0.798086738;-3.593993238;-10.46185006;2.552064143;-0.411208499;-0.914700693;-3.312270084;1.075136759;0.669739417;21.00582941;-11.13061531;22.19028746;1.732080488;-0.906263708;41.00247263;-10.37449406;-5.929218061;-9.062628603;-4.222083155
1.121100512;-2.736870161;-7.856023207;9.423394962;-1.670998842;-0.927994956;5.397380324;1.843955367;6.524740676;23.47562533;-0.005490563;24.47534799;2.26433298;-0.0837871;34.03076054;-6.876940522;-4.737492187;-8.683717653;-4.054952034
2.467405674;1.411076766;-3.409301966;12.87707945;-1.831063186;-0.865978649;17.76345648;4.429007531;26.7553619;27.77691632;18.81933361;27.71707776;2.011124613;-0.314270248;26.11465773;-2.840329021;-2.999332073;-5.680574258;-3.411995374
4.986990886;7.812687146;1.766913664;12.71611437;-0.662117957;-0.78954427;22.6908566;7.335546261;46.78616244;32.60408334;30.09051937;30.90164089;1.576142786;-1.190566835;22.16917467;0.47635844;-0.928433174;-1.113641597;-2.537293548
7.962508432;14.10110157;5.96307659;10.51730083;0.955920952;-0.770945384;12.98510677;8.641120458;53.46012042;35.89715455;27.28827187;33.06560329;2.16793096;-1.570178881;24.24611385;2.090579184;1.2512242;2.951163018;-2.007610358
10.11985996;17.56207569;7.620903848;8.4725982;1.835980153;-0.826466189;-8.315524783;7.502770793;45.43700649;36.30039841;18.38958334;34.11075545;4.533171858;-0.37895324;30.51225502;1.821510524;3.158659427;4.853659694;-2.313450316
10.47327722;16.51021173;6.219731315;8.083832054;1.478664541;-0.900843724;-29.70721229;4.831496893;33.0352712;34.19011858;17.83744261;34.94740645;8.114958595;2.495017632;36.95391632;0.393743799;4.250748828;4.363092304;-3.430786
9.090210688;11.29164386;2.726171026;9.544354652;0.447257326;-0.922510185;-39.66507898;2.586668741;28.4719884;31.44357041;31.96392186;36.74683435;11.20451949;5.924736978;40.2819221;-0.984306461;4.026080045;2.562160405;-4.742576299
7.149138022;4.251028436;-0.80503769;12.01047316;-0.145005676;-0.881756775;-34.82587546;2.251155871;35.43554365;30.08925491;51.05892156;39.85458595;12.07873868;8.172226668;39.84149005;-1.325110827;2.336781869;0.783917522;-5.428524416
6.167160252;-1.428357305;-2.365759891;14.335103;0.426582506;-0.857709894;-21.43337377;3.698975315;46.91810457;30.85312661;55.74383491;43.30914757;10.29334438;8.030277469;37.40084369;-0.405092351;-0.398358199;-0.44330827;-5.070941539
6.918199422;-3.401058034;-1.209523438;15.67482546;1.912809309;-0.961162137;-9.424407989;5.348971353;52.5788388;32.70566632;32.99353927;45.50065272;7.11888745;5.675038668;35.43411335;1.193918207;-3.260039063;-1.556229633;-4.020865577
8.837104483;-1.377867818;1.651107739;15.69410764;3.311108336;-1.235105102;-4.577187074;5.479331153;48.52591663;33.74638865;-11.43796751;45.54245997;4.738379152;2.608760801;35.45667323;2.536485547;-5.206527233;-3.167551729;-3.215563849
10.37559148;2.841058575;4.047062884;14.49414302;3.6775439;-1.597571325;-5.235388745;3.672295497;40.62739431;32.73412678;-54.92222718;44.21245648;4.778090541;0.718186186;37.50973873;2.934679443;-5.604291501;-5.133851916;-3.543996579
10.07869525;6.518335185;4.012035068;12.51590591;2.861370071;-1.882097106;-5.639346478;1.26632478;38.62295335;30.08248143;-73.33630613;43.53813712;7.254388101;1.0968508;40.68740988;2.282732471;-4.624499327;-6.413027408;-5.211492719
7.613233025;7.57856447;1.022545719;10.47800491;1.59631352;-1.951699661;-2.077814745;0.459715903;46.71381363;27.56201671;-58.06104102;45.18151504;10.68413915;3.419240266;43.83660364;0.945809404;-3.242996814;-5.918656794;-7.574916343
4.011899907;5.661194898;-3.702337964;9.198666007;0.918208432;-1.799113202;3.926611746;2.721818022;59.39799685;26.94512553;-21.44064586;48.86875307;13.20434897;6.232288288;45.81792355;-0.630012207;-2.774519583;-3.642038615;-9.577464832
0.971943514;2.032922508;-8.033211823;9.198419389;1.392104853;-1.553433538;7.891756186;7.658466453;66.40671972;28.62392901;13.11447535;52.23804265;13.8055197;7.888576803;45.51388371;-2.238896809;-4.146525199;-1.003527906;-10.46572859
-0.270608048;-1.458877376;-10.31240911;10.26168307;2.729910827;-1.386670545;7.344570018;13.11658999;62.20444052;31.22958547;28.09374324;52.42547113;12.77655792;7.463047068;42.15378409;-3.932885339;-7.31337993;-0.008671344;-10.26353161
0.311970483;-3.597635138;-10.33426629;11.34311573;4.032794449;-1.392911652;4.408962601;16.42015128;51.26530994;32.51487227;22.67032739;48.26816524;11.14867689;5.11;36.06062696;-5.789049889;-11.18146416;-1.805570575;-9.665787093
1.663855792;-4.349392456;-9.27411068;11.05952394;4.417301061;-1.532880637;3.54665341;15.88400098;44.11474736;30.83974114;9.894177738;41.38366803;9.718942417;1.774761254;29.14264668;-7.687281558;-14.13979795;-5.786037844;-9.452903073
2.487317751;-4.479795729;-8.675717972;8.561079933;3.552199367;-1.682134291;6.848756646;11.6568267;47.57045565;26.21290323;4.160156057;35.18038873;8.492126384;-1.408197473;24.29023325;-9.320174193;-14.91909588;-9.965903235;-9.877218356
2.150301173;-4.669440994;-9.274555967;4.197308823;1.775714489;-1.738046999;11.69996107;5.482266351;58.10915202;20.23422643;10.00101105;32.48759371;6.939123211;-3.607359351;23.66349038;-10.42372605;-13.27751954;-12.35964711;-10.47786976
1.015307951;-4.89815785;-10.5256041;-0.551064299;-0.192839626;-1.69721777;13.31892644;-0.317358485;64.74235316;15.09613994;20.81887143;33.63496035;4.747104405;-4.472224672;27.00477449;-11.00917622;-10.10246515;-12.28998373;-10.4494162
0.01402781;-4.59247263;-11.15707911;-3.900416748;-1.677416309;-1.6444405;9.839928963;-3.940579121;59.27341934;12.40252603;26.96388355;36.48189281;2.346644917;-4.071512987;31.45397645;-11.3740858;-6.882154375;-10.67547689;-9.28150193
-0.149734185;-3.368926276;-10.29387394;-4.810181261;-2.329801996;-1.669518021;4.887178515;-4.71658492;44.83292467;12.54652852;24.89330075;38.32353703;0.739735051;-2.768261681;33.36261529;-11.86559284;-4.895772082;-9.191539226;-7.202113531
0.450705445;-1.687267819;-8.267225336;-3.532870338;-2.175781967;-1.785756632;4.706915187;-3.080870132;34.51617548;14.86317695;19.34253852;38.07266493;0.77413274;-1.111245955;30.97491291;-12.58096778;-4.622446155;-9.057323836;-5.113179535
1.053768712;-0.77290894;-6.469744544;-1.326644987;-1.498127312;-1.918225986;12.04314702;-0.145441922;40.31664387;18.21421093;17.59611099;36.91812328;2.470529305;0.3070047;25.9457569;-13.23869165;-5.678961954;-10.36812856;-4.069169955
0.834031815;-1.757731018;-6.344998232;0.397087802;-0.677050511;-1.968947474;22.33782627;2.811846998;61.29865287;21.49437241;22.16154019;36.97255695;4.941822787;1.070635431;22.37515082;-13.31167368;-7.218680413;-12.31428759;-4.65023106
-0.422561329;-4.663964877;-8.267649123;0.853907348;-0.049799525;-1.902520805;26.20624136;4.748831912;81.42212096;23.81364747;28.97045899;39.14287154;6.9466662;1.152737515;23.90639504;-12.31999441;-8.446379225;-13.88303018;-6.62526052
-2.086790504;-8.068988777;-11.16841097;0.106658331;0.204639992;-1.780977578;16.72024862;5.122037886;80.00105032;24.490766;32.36162188;42.12070537;7.633888987;0.938618854;30.98625895;-10.09497772;-8.915869734;-14.38258963;-9.088017669
-3.052830013;-9.834987205;-13.21054274;-1.271127753;0.139459142;-1.720063477;-4.411510578;4.020068359;47.39493895;23.12809906;31.36559564;43.41904241;6.946430451;0.966158371;40.33687157;-6.890058594;-8.526110635;-13.49738238;-10.94911131
-2.437119867;-8.484902906;-13.0425767;-2.68890473;0.019666089;-1.802772689;-27.10742091;2.118378537;-6.205460215;19.84081784;30.61507882;41.59496862;5.480058594;1.518497759;47.04030099;-3.331278303;-7.37950151;-11.12741664;-11.47585348
-0.134740539;-4.267917749;-10.72395717;-3.794647423;0.172723135;-2.018072467;-39.72317813;0.389596196;-56.08511054;15.42201975;34.6226437;37.72954737;4.011769399;2.371478789;47.68889462;-0.255039185;-5.70466187;-7.417771124;-10.58587377
3.116177871;0.880203832;-7.664970187;-4.426540974;0.766911022;-2.27034473;-37.08401445;-0.38336658;-78.83991079;11.15925284;41.01803503;34.81868349;3.078505325;2.922390446;42.33649466;1.53822953;-3.877056271;-3.023472163;-8.7753485
6.169384125;4.505365354;-5.648280076;-4.494260333;1.661639145;-2.448784811;-23.46739067;-0.067165736;-67.20731934;8.27189144;40.0116433;35.4892978;2.826388362;2.634698732;34.0051842;1.594541625;-2.39320669;0.790465951;-6.773676316
8.09967022;5.140920859;-5.655882367;-4.009485547;2.458173328;-2.502012817;-8.545359443;0.689886882;-33.39085282;7.294507859;21.96188987;39.90120597;3.079051462;1.460952274;26.37243414;0.086070721;-1.668010376;2.611927259;-5.14621511
8.635413418;3.115962548;-7.32686356;-3.213727361;2.745227951;-2.46349685;-0.027949159;0.812177354;0.695685197;7.854115135;-12.83068092;45.58689077;3.460489192;-0.101330557;21.48801056;-2.13194963;-1.731863528;1.777123069;-4.063296442
8.170790568;0.145396859;-9.36542844;-2.545669092;2.380452012;-2.414214006;0.968758071;-0.509289209;18.27792216;9.034097568;-50.96520141;49.39326883;3.506724214;-1.377774399;19.08003906;-3.852455429;-2.095387043;-0.991784403;-3.337447902
7.416327008;-1.934417605;-10.51266395;-2.307956418;1.607130697;-2.416096323;-1.309764262;-3.195069166;16.8242871;10.07079149;-73.38462907;49.9523569;2.835253241;-2.012578778;17.60436127;-4.173578138;-1.99896856;-3.879463324;-2.670268108
6.953112145;-2.332812247;-10.32888026;-2.251087;0.919511201;-2.467929436;-2.280083008;-6.155798171;6.017729407;10.85747985;-68.49504744;48.67844042;1.412176937;-2.178783622;15.89400588;-3.116662125;-0.960545198;-5.169583867;-1.930587434
6.970123702;-1.562957125;-9.258058734;-1.521082473;0.77246304;-2.514192307;-0.903491191;-7.819618939;-2.001536159;11.87204928;-40.78044683;48.51708501;-0.227933946;-2.325052225;14.05689402;-1.731927742;0.774778552;-4.482656178;-1.27307412
7.304525222;-0.713995402;-8.046033093;0.782951097;1.335950503;-2.496152644;0.723333562;-7.043518996;-1.668497404;13.59869001;-7.858333299;51.51302248;-1.074721684;-2.677244502;13.12641475;-1.482480721;2.292850372;-3.032129193;-1.014624729
7.695063105;-0.406856231;-7.068151203;4.734079781;2.443706974;-2.404761874;0.820494335;-3.867194773;4.086084224;15.91945723;11.96213759;57.18270668;-0.164912124;-2.935416137;14.03117826;-3.215489954;2.628013316;-2.599713716;-1.355178375
8.036730178;-0.291358526;-6.1231181;9.096279063;3.731820126;-2.29627679;0.414670511;0.375227943;8.825994707;17.98096803;12.00723198;62.94335572;2.709798293;-2.45620608;16.83610828;-6.418618251;1.521801366;-4.004520608;-2.149845255
8.456540281;0.545633913;-4.806325525;11.80507588;4.838547063;-2.259992801;2.224054218;3.697923476;9.021795493;18.66992037;0.132982361;66.13166033;6.62401294;-0.802503855;20.75208682;-9.363641159;-0.277125956;-6.331432202;-2.91788171
9.17731373;2.64337645;-3.077749992;11.27955004;5.533807359;-2.361038424;7.233460138;4.512101092;6.391745489;17.35503964;-9.33593686;65.9030702;9.861291392;1.783463786;24.67632378;-10.15033315;-1.467554847;-7.610317084;-3.110647299
10.29103103;5.501262362;-1.494173434;7.694077206;5.743111041;-2.596989088;12.79027854;2.475528916;5.111851897;14.34828138;-7.448828384;63.53521688;10.87220769;4.39215783;27.69247809;-7.987674582;-1.114998053;-6.432110327;-2.464610808
11.62205993;7.75302186;-0.880151244;3.193105434;5.522076577;-2.896327356;14.63168436;-1.348551287;7.356726494;10.75759569;3.358380167;61.08328033;9.235534055;5.975898088;29.21516494;-3.81492429;0.653376595;-3.168046118;-1.185929809
12.78971495;8.077665151;-1.693390251;0.700991383;5.042002501;-3.158614298;11.21377361;-5.1;11.45386973;7.861677019;13.18781557;59.68479218;5.930457155;6.014711692;28.9235601;0.205797549;2.73148385;0.24636735;0.176746317
13.43328264;6.166555109;-3.597111707;2.022038846;4.578622961;-3.309880687;6.030783204;-7.122005995;13.92713073;6.468627023;14.20926178;58.95862153;2.692526593;4.826078825;26.79420196;1.995417093;3.855354038;1.807220325;1.087086536
13.44389716;3.022485676;-5.5878149;6.546807274;4.444055651;-3.33869636;5.097185541;-6.769455062;13.02854522;6.677546688;7.272222348;57.85058359;0.900599989;3.301745959;23.29624286;0.766713963;3.538442123;0.976967354;1.347556887
13.03873246;0.364843506;-6.594264393;11.54913264;4.835710454;-3.292548405;11.27976266;-4.59876775;10.32171407;8.106216105;0.330559172;55.97367548;0.791518116;2.290299225;19.48189857;-2.659299965;2.399166259;-1.021818567;1.164781625
12.62016253;-0.443818871;-6.117425796;13.95785229;5.672997042;-3.240330441;20.53815333;-1.912674526;9.056299926;10.28612373;0.819625988;54.12503872;1.533030427;2.089685313;16.68472335;-6.548116563;1.637904064;-2.378084619;0.926127437
12.51198904;0.77632825;-4.479851949;12.41167743;6.556054688;-3.22759058;23.9966732;-0.007180283;11.12594438;12.85158473;9.100655659;53.50350793;2.013127934;2.388567714;15.87623586;-9.363520023;2.093220535;-2.304231243;0.883866339
12.75276957;2.960029297;-2.563142329;8.164575838;6.931202815;-3.253509197;14.81214414;0.418359278;15.4902027;15.40395296;18.56493432;54.39426731;1.671369829;2.625883535;17.0933451;-10.49984072;3.626160623;-1.696431976;1.0031951
13.09015201;4.482912289;-1.266141416;4.203437302;6.404056788;-3.281828305;-5.668071337;-0.587858762;19.30719051;17.27871945;21.77227554;55.60057695;0.732421236;2.436053491;19.36898195;-10.25352181;5.292053016;-2.284024483;1.077550981
13.18243161;4.12314581;-1.052056791;3.198861485;5.012593891;-3.274392779;-27.82818962;-2.475747491;20.44812738;17.57144601;16.81878862;55.23981613;-0.247201909;1.842268459;21.24289631;-9.287745113;6.111056549;-5.018135947;0.98031286
12.86778256;1.723974017;-1.816050289;5.718314505;3.268787514;-3.222004844;-40.27469402;-4.57536009;18.99310283;15.56420478;8.417049887;52.2903693;-1.023892734;1.117914842;21.51695046;-8.155673106;5.783552529;-9.101782442;0.808836651
12.30909163;-1.769455276;-3.056379113;9.914241;1.915255388;-3.151826415;-37.8692028;-6.364139183;16.55572327;11.30836933;3.261486698;47.57536694;-1.887734025;0.511635669;19.796206;-7.221399424;4.790381345;-12.50019317;0.784239462
11.90254873;-4.847840852;-4.175676113;12.8411083;1.5290369;-3.108799988;-24.92364711;-7.542879524;14.44750792;5.892441186;4.293965201;43.31184122;-3.272806795;0.095174509;16.57518389;-6.831669168;3.867571356;-13.49172646;1.004113617
12.00022737;-6.227067906;-4.74752671;12.43639268;2.20716541;-3.126243386;-11.20191833;-8.00872366;12.64752242;1.074168221;9.007453082;41.54629953;-5.153544464;-0.175756386;12.93840349;-7.338768878;3.366892217;-11.94126447;1.29496545
12.63190798;-5.497089843;-4.674093493;8.808104924;3.519120393;-3.205533349;-4.300972465;-7.836526495;10.49388303;-1.596331913;12.80192213;42.71125307;-6.835919023;-0.314559464;10.08364198;-8.795941331;3.065399907;-9.250291892;1.334094153
13.42490044;-3.334559255;-4.215894929;4.032047078;4.748131798;-3.315415245;-4.71720821;-7.278744529;8.145093129;-1.624665311;13.70978454;45.41282953;-7.401972583;-0.257613963;8.829211652;-10.60338574;2.547440592;-7.098377567;0.963936351
13.79721785;-1.169995325;-3.872614137;0.717681352;5.275928858;-3.407531115;-7.21193426;-6.702604466;7.072416693;0.188844886;13.88171451;47.54315226;-6.463903577;0.030618378;9.219030675;-11.58640242;1.757378041;-6.109775596;0.421806615
13.31634442;-0.428866569;-4.11047009;0.387199458;4.893247871;-3.437316922;-6.524917146;-6.414702505;8.887934243;2.308062035;16.69171318;47.78422182;-4.569408314;0.432013731;10.40326795;-10.67292139;1.179285651;-5.575548867;0.244467954
11.9947836;-1.68823797;-5.02682487;2.720526241;3.871538613;-3.381513809;-2.01226078;-6.455775552;13.60115025;3.449930856;22.67944615;46.3641196;-2.865573607;0.698094285;11.01100551;-7.747296573;1.458400983;-4.374559416;0.870987548
10.32079119;-4.207036691;-6.15767375;6.028528311;2.767886144;-3.249059596;2.687166287;-6.542499345;19.11861574;3.325361837;28.59186097;44.63087325;-2.256795702;0.645547763;10.01579304;-3.949015463;2.8058612;-2.170183269;2.244291207
8.988395712;-6.17591358;-6.627143821;8.474951179;2.078762544;-3.08370181;3.994037277;-6.265875285;22.69864023;2.633222918;30.58640534;43.95906218;-2.739823678;0.359294681;7.643447601;-1.021298097;4.742149392;0.235588655;3.756628694
8.489857606;-5.66608164;-5.638437949;9.15751615;1.939327539;-2.954187443;2.17322563;-5.450538094;23.17949864;2.355852655;28.38693156;44.90687568;-3.469630633;0.198181422;5.572188294;-0.088541412;6.438188103;1.683538227;4.634095713
8.8314497;-1.803550727;-3.026227844;8.393698149;2.044873536;-2.928537019;0.883374696;-4.405211829;21.94516255;2.914715913;26.05273895;47.15463831;-3.502549059;0.558934867;5.970545791;-0.803960824;7.370138206;1.793510311;4.497596142
9.556951728;4.539120692;0.529832379;7.184472768;1.852636756;-3.038234741;3.156858899;-3.824088379;21.65012719;3.831273542;28.23829778;50.02678645;-2.59274443;1.57559904;9.795412771;-1.619538015;7.705695914;1.341119912;3.665562211
10.05723672;11.03164434;3.837512788;6.369432407;0.956283994;-3.25130255;8.02808451;-4.345395555;23.76103024;4.132163754;35.37022555;52.99529002;-1.373427985;3.007454959;15.59019123;-1.063278344;8.064112146;1.473220502;2.935114922
9.94837145;15.06718175;5.874043413;6.091889551;-0.598134106;-3.476732251;11.37167184;-6.056976796;27.10568209;3.150760333;42.60179851;55.76468007;-0.776554321;4.417670774;19.96795261;0.953185544;8.850678765;2.468361514;2.975875531
9.255881794;15.15480932;6.325745631;5.865106237;-2.278106462;-3.607304443;10.2803474;-8.323768696;28.7734246;1.067148519;44.08346881;58.04814336;-1.191093022;5.494159198;19.82185189;2.887098855;9.764418952;3.229140391;3.785882369
8.288408544;11.66923149;5.579073819;5.06653626;-3.372676105;-3.580274268;6.60102427;-10.10684764;26.62328471;-1.256314028;38.89733765;59.43145434;-2.08189059;6.23774019;14.83132112;2.673329604;9.951224153;2.081083356;4.636448707
7.319501147;6.504626763;4.195646961;3.427268223;-3.467861609;-3.416963466;5.745451021;-10.58960268;21.21222122;-3.010748829;32.85347149;59.54756468;-2.402379011;6.85948132;8.27023043;-0.612695494;8.718047373;-1.728925684;4.577001326
6.346294943;1.892310045;2.34774438;1.173860025;-2.767446119;-3.211508327;11.33509928;-9.693493686;15.4601702;-4.135890041;33.62290615;58.39166383;-1.466095237;7.489789742;5.15135663;-5.843678696;6.216125597;-7.134524239;3.148547394
5.136528614;-0.832834097;-0.252874714;-1.202166835;-2.005272408;-3.073447478;20.53110384;-8.135534483;12.36186076;-5.373970528;42.81886796;56.42975089;0.443173938;7.97366755;8.755076247;-10.44866717;3.491584902;-11.80676499;0.787363114
3.542668546;-1.757135462;-3.819877348;-3.290449534;-1.964005203;-3.063303993;24.86029954;-6.998215611;12.7440052;-7.591491501;52.15057997;54.36811595;2.227829834;7.951830314;18.03126168;-12.12807006;1.81426079;-13.7898925;-1.383515251
1.828104489;-1.972620956;-7.805702196;-4.923574603;-2.908989659;-3.166151666;16.67660767;-7.106687655;14.95827945;-10.88869468;48.11430231;52.80778258;2.778566007;7.168753004;27.95418061;-10.38096942;1.801162551;-12.88639818;-2.24053568
0.70607094;-2.615206762;-10.73766729;-6.051965724;-4.341220422;-3.318466631;-3.861270398;-8.603849467;16.63964088;-14.23221061;22.61991674;52.11105394;1.787648111;5.737092965;32.79234936;-6.685668351;3.033734947;-10.63243251;-1.354384447
0.991896019;-4.033777971;-10.88511447;-6.490241263;-5.273680924;-3.461645745;-27.43092078;-10.93904881;16.85859391;-15.97250815;-18.65554827;52.53859502;-0.049372843;4.116528386;30.01143036;-3.2275541;4.468651344;-8.879833408;0.771040803
3.074731381;-5.567136662;-7.371740326;-5.807516273;-4.865159691;-3.57667014;-41.52160797;-13.20361324;16.75129444;-14.92149546;-57.50999032;54.36932623;-1.563282002;2.813192109;21.96144483;-1.196841116;5.294949798;-8.183614842;3.053584296
6.588123091;-5.948071896;-0.898237442;-3.516200033;-2.976081239;-3.674986086;-39.27921077;-14.57161879;18.174716;-11.20739812;-74.24041775;57.6977629;-1.928010018;2.053504425;14.13447119;0.016132608;5.537712904;-7.366023189;4.518225375
10.5468473;-4.002815043;6.548081057;0.538693304;-0.255165821;-3.762497209;-24.1944938;-14.62660267;21.72718016;-6.267275958;-60.82161298;61.99127804;-1.146068874;1.709464211;11.36302898;2.144868699;5.938073223;-4.632835254;4.852928189
13.88494793;0.7338721;12.86493619;5.874814333;2.296061116;-3.818389469;-6.973243317;-13.49075476;25.98108881;-1.980840965;-26.50564195;65.90450856;0.09918334;1.526763871;14.81486391;6.483671171;7.246476738;0.702656874;4.498535144
16.02497195;7.700784917;17.04874489;11.4103939;3.95319335;-3.814452352;2.645193436;-11.77611856;28.59982308;0.411876897;8.406708085;67.80316975;1.019331475;1.433556367;21.8654977;12.69805759;9.537348339;7.356114235;4.266359885
17.07536984;15.3415729;19.54447388;15.87660871;4.635039249;-3.757372547;2.393985642;-10.38727615;28.28571749;0.836452881;26.04454524;66.85928669;1.24260221;1.635136066;28.58511229;18.92364254;12.10594112;12.82242106;4.775353153
17.53327306;21.49180696;21.49198093;18.37652027;4.768236106;-3.707183192;-2.594213103;-10.18892332;25.8055459;0.053931192;21.88085676;63.92466457;0.93485029;2.399177956;32.61360128;23.03195601;14.00554944;15.14872202;6.07938408
17.75406105;24.10593582;23.5118048;18.75942593;4.808623467;-3.74087755;-5.523550256;-11.60413645;23.2438554;-1.143776316;5.607240164;61.32618977;0.544641691;3.731045454;34.18168106;24.06085025;14.76227738;14.2974966;7.692863098
17.63228072;22.16422562;25.05250066;17.60315807;4.833869373;-3.881511149;-3.811231497;-14.3217129;22.2488798;-2.500183368;-7.68028543;61.46255616;0.463129537;5.258673618;34.84226469;22.75222361;14.69242709;12.02106197;8.952429812
16.76388048;16.35930034;24.86738165;15.84984296;4.537781919;-4.054277211;-0.113243635;-17.3361764;22.86968108;-4.187205165;-8.618086418;65.09571124;0.855934198;6.471242478;35.45432643;20.8871121;14.60672304;10.39967442;9.452883266
14.95594101;9.063267125;22.25104372;14.33836185;3.608176245;-4.119946748;1.62536836;-19.40330079;23.92883494;-6.220851554;1.229998555;70.65038459;1.690950907;7.130823654;35.40487558;20.01420179;15.18563166;10.26352736;9.276872887
12.6405796;3.353870939;18.00574089;13.49221525;2.14609659;-3.974607953;0.674791635;-19.70906392;24.41433799;-8.0278087;12.98121087;75.19630953;2.81234018;7.492179205;33.6819244;20.53013535;16.53198913;10.75263172;8.8893138
10.79634502;1.474519064;14.27591399;13.27509638;0.749220449;-3.642292056;0.074653218;-18.33457603;24.48975506;-8.647503478;18.74435715;76.50323744;3.951738342;8.102121092;30.56180588;21.68292397;18.20046997;10.28201194;8.783716278
10.36422385;3.612009138;13.26874295;13.35203511;0.160881167;-3.280682042;2.954871479;-16.17050734;25.19404353;-7.459996244;17.54235609;74.64945575;4.735260465;9.306855122;28.06747678;22.32718992;19.58804666;8.026289579;9.1187936
11.56819933;7.8311546;15.76977628;13.31691355;0.746341363;-3.082758369;8.665036228;-14.29947412;27.21832419;-4.8099044;14.6299304;71.92424274;4.820087891;10.87038715;28.53481726;21.77;20.31435475;4.668104262;9.585245328
13.66704068;11.30611101;20.55034576;12.88488019;2.205262427;-3.141935121;12.96046353;-13.26940378;30.02884077;-1.923647496;15.79915819;71.05883426;4.166292805;12.05117925;32.48256428;20.12643875;20.31434832;1.828708947;9.595728063
15.36379638;12.07517779;25.09885006;12.01798714;3.747937538;-3.384094678;12.35914597;-12.79305827;32.23342762;-0.095508701;22.0733871;73.14065283;3.240029297;12.12466559;37.7769624;18.07726785;19.67352853;0.708967627;8.682108831
15.60562652;10.11891661;27.12517256;10.97097359;4.604840038;-3.622576679;8.334405001;-12.10273013;32.85417588;0.237670038;29.19;76.83545123;2.89426634;10.96554155;41.0336257;16.35473235;18.45463275;1.088084851;6.841490638
14.20607704;7.017474438;25.76148014;10.21681703;4.492756045;-3.696282112;6.710201047;-10.68043193;32.27221949;-0.230754347;31.81471007;79.51532859;3.889515541;9.228678439;40.21182789;15.35769656;16.709743;1.486040527;4.593702696
11.85579054;4.498793167;21.69939542;10.21993448;3.713738606;-3.584394336;12.06736706;-8.778090898;31.90948962;-0.310529736;28.49176026;79.37892341;6.345140611;7.962764304;36.22017301;15.07517801;14.63314135;0.331350614;2.697190455
9.553350416;3.043817518;16.36305279;11.12288387;2.856963844;-3.409939081;22.10750279;-7.302025266;32.91570985;0.647497314;23.05253943;76.87110317;9.546782465;7.923789486;32.12803427;15.23534787;12.64226304;-2.800729574;1.703890545
7.917706106;1.669272286;10.9057376;12.54;2.364744553;-3.334272172;27.73781781;-7.147203961;35.08629657;2.168840218;21.43831741;74.28864093;12.31428391;9.08170385;30.62276547;15.51247579;11.24160595;-6.809713824;1.654304315
6.899955039;-0.943781817;5.806189983;13.66682107;2.289604291;-3.431363672;19.90470963;-8.51526539;37.03503498;3.026751931;26.72223109;73.9169054;13.70393119;10.66;31.87509319;15.69548552;10.75003906;-9.772519119;2.123769962
6.060727175;-4.928655901;1.207553866;13.73222155;2.382158677;-3.642505746;-2.098104553;-10.76133518;37.47146198;2.268653617;36.43901066;76.19743392;13.53774992;11.6492665;33.62056798;15.79240098;11.12340548;-10.15230213;2.580280382
5.114685891;-8.64681638;-2.527419315;12.53858898;2.382219631;-3.840516377;-28.19788541;-12.87407261;36.39399562;0.035634112;44.33666683;79.36317666;12.37747593;11.41053909;33.33185003;16.02950483;12.02666927;-7.661445345;2.781673258
4.246314529;-9.649150793;-4.702394464;10.68181768;2.254112754;-3.940068359;-43.88530122;-14.16975015;35.0871709;-2.52561884;45.16467444;80.78547921;11.005607;9.973558025;30.54126872;16.68033743;13.081384;-3.292722115;2.906616167
3.925120741;-6.53188204;-4.78646843;9.208018343;2.194792702;-3.956629041;-40.77980879;-14.61919089;34.93507491;-4.191662381;38.85080614;78.9417678;9.867653454;7.904242143;27.27015274;17.7494429;14.05809864;1.339618171;3.318689457
4.39677168;-0.236620615;-3.058299402;8.878198662;2.449234998;-3.967814872;-22.90295646;-14.56551951;36.17693707;-4.636531674;30.92599072;74.49193186;8.928673159;5.926060886;26.21215366;18.71826637;14.85951704;4.820706964;4.157771126
5.318338005;6.309991083;-0.720180797;9.570625211;3.111026054;-4.020616998;-3.37314734;-14.13850557;37.78382793;-4.598699648;28.74750728;69.7208881;8.002973151;4.586081511;28.30184939;18.64365357;15.36847821;6.45350975;5.105429883
5.893802274;10.0638262;0.770600849;10.32645014;4.063219002;-4.075052196;5.864885882;-12.94859714;38.57076762;-5.075526514;35.97233829;66.88519447;7.179691449;4.124492959;31.8280672;16.70930088;15.38375335;6.341249657;5.547293414
5.442960416;9.894357057;0.712650475;10.08812223;5.072821772;-4.038904579;2.825491274;-10.39821429;38.47296951;-6.242502924;48.97920501;66.76188758;6.885872267;4.501979464;33.8713347;12.93842858;14.77349944;5.168340724;5.037894906
3.957317166;7.264429815;-0.286896118;8.611798531;5.929673601;-3.862097462;-4.343564134;-6.380603975;38.73;-7.086296154;57.86100925;68.40093695;7.485639773;5.457618041;32.78999589;8.507196298;13.72115297;3.858863864;3.709811922
2.181225489;5.049296452;-0.715207161;6.821748156;6.516195896;-3.601769791;-5.516500398;-1.739733363;40.73226911;-6.174913304;51.89685086;70.0693486;8.789497698;6.552511267;29.56560867;5.263512213;12.77917926;3.210166836;2.279704195
1.124998871;5.393907865;0.730800791;6.245426152;6.789459161;-3.39294952;2.287346598;1.998703178;44.56045504;-3.004882878;26.58119804;70.50934082;9.994827632;7.269322049;26.83790575;4.627995764;12.57066523;3.572017238;1.599808532
1.370524522;8.223887644;4.139248576;7.882886116;6.746563712;-3.344377401;12.77171098;3.53162847;48.60257103;1.21229533;-12.06357719;69.56202816;10.22928724;7.229829205;26.49711633;6.611739051;13.30755173;4.705577515;2.063148781
2.698472255;11.49912233;8.255926196;11.36395986;6.442888279;-3.448604328;16.81636646;2.671702894;50.69662051;4.109108391;-49.07486987;67.87045692;9.306687655;6.450019531;27.95955012;9.729515077;14.52815409;5.970728981;3.307948242
4.311638354;12.95094312;11.34561494;15.0931889;6.050535258;-3.586463191;11.42793428;0.531979306;49.86765125;3.798459511;-67.955322;66.13736823;8.035606353;5.426715171;28.64061025;11.98620587;15.34545357;6.822127256;4.45963073
5.458033621;11.92418011;12.40547607;17.34268183;5.870486466;-3.624747354;2.908999648;-1.177915056;47.15412217;0.396521875;-60.03869897;64.65114563;7.725395621;4.90500872;26.21587461;12.28332667;15.08928617;7.315794933;4.745878088
5.950526321;9.903462196;11.83186989;17.48814599;6.226736007;-3.523877087;1.201232608;-1.244708256;44.79473308;-3.786393667;-30.08759841;63.40185431;9.196569329;5.412238772;20.71447092;11.19984807;13.85587675;8.198974002;4.031564557
6.180816316;9.339370632;11.05662548;16.41919049;7.269691607;-3.362797838;10.36873095;0.360725867;44.48011636;-5.663465567;5.896993537;62.51577792;12.06722017;6.87016116;14.64781305;10.51652237;12.48979808;10.38136851;2.875046564
6.645840282;11.6862709;11.43332706;15.76506293;8.814492678;-3.260772748;23.83821484;2.668581627;46.17203443;-3.463829007;29.92027103;62.47636181;14.92903078;8.594623464;11.06819651;11.80075751;11.95204384;14.07337555;2.069226037
7.400764489;16.13997391;13.19375765;16.50897782;10.34761946;-3.266499313;29.00534623;4.555688376;48.43983177;1.978521402;32.67737416;63.85293738;16.33424319;9.722375702;11.19471205;15.11359028;12.54118955;18.24860934;2.022792792
7.906801762;20.02344197;15.22680168;18.07815875;11.23543083;-3.313545714;17.62415152;5.552376554;49.87603012;7.665586682;18.62105542;66.74721128;15.84479749;9.770146596;13.56274128;18.83365475;13.5971191;20.97904532;2.456199502
7.416470467;20.55965658;15.83358967;18.65951281;11.03146699;-3.28175572;-6.791897355;5.997912611;50.20671385;10.29400998;1.874815622;70.44590625;14.31432911;8.9136142;15.33525073;20.74677195;13.96413248;20.59114737;2.641753585
5.599596373;16.79632897;13.93033137;16.54351624;9.705523434;-3.109503479;-30.94290993;6.497012745;50.07372725;8.226565878;-4.177844548;73.61800266;13.17501691;7.788258144;14.63103583;19.58692299;12.88760231;16.91684369;1.998469023
2.911259347;10.37729574;9.876697134;11.4825418;7.658992267;-2.855845606;-41.574589;7.198814157;49.79090838;2.251859335;3.842974398;74.97601588;13.30400149;6.993885472;11.97116711;15.89365684;10.65435617;11.71003906;0.582666937
0.39442872;4.67103754;5.375107786;5.016699611;5.517573189;-2.655830319;-35.08721059;7.534326303;48.42051884;-5.263140356;17.89662243;73.98570541;14.38490545;6.713442352;9.765843327;11.60706906;8.468227963;7.797397029;-0.901637285
-0.959706395;2.845737331;2.502998492;-0.495171655;3.820048828;-2.607423306;-19.22145568;6.638303749;44.27475891;-12.07498921;25.75624551;71.19254888;15.26914128;6.739331034;10.37318899;8.782819656;7.641655408;7.418473507;-1.582307016
-0.837043676;6.095330814;2.489486887;-3.415549242;2.774132458;-2.689933987;-5.963420782;4.103260198;36.59559687;-17.35170252;21.06802765;67.99419347;15.01471751;6.837551022;14.30434403;8.404540731;8.709383733;10.83989403;-1.031794096
0.23179675;13.03800435;4.993058468;-3.800078125;2.204379516;-2.786452546;-2.071656806;0.442039342;26.92854056;-21.72078257;8.264775644;66.00223162;13.72400582;7.086916794;19.87010104;10.06986782;11.11346366;16.19891973;0.435888507
1.266187863;20.54091747;8.314722446;-3.12738936;1.708280208;-2.790600124;-5.102956713;-3.124593751;18.76103285;-26.24285129;-1.458476473;66.31226831;12.47976427;7.864046629;24.35358734;12.57211059;13.64909602;20.70631611;1.990602043
1.496908733;25.40377163;10.40809247;-3.069115821;0.92566043;-2.702757596;-7.533718125;-5.403053513;15.39375901;-31.23581999;0.356038723;69.00060396;12.43946393;9.475188374;25.71649796;14.75748868;15.28256809;22.39465383;2.855603358
0.830710986;25.92831411;10.07077614;-4.270058594;-0.229466578;-2.629908737;-4.468355394;-5.938876242;17.58438964;-35.8661227;12.37585845;73.05771457;13.85206532;11.76923098;23.6787072;16.00423762;15.71699675;21.22518659;2.803587463
-0.175885769;22.5652646;7.597515128;-6.016463051;-1.502727118;-2.688674654;2.223648808;-5.205693272;22.86266905;-38.7374398;24.73645029;76.81257027;15.81976179;14.10158652;19.66726076;16.16680691;15.34788402;18.83542084;2.235468843
-0.767025153;17.39450719;4.504687588;-6.928372374;-2.436321679;-2.897283363;6.646536213;-4.188771032;27.18077155;-38.93143759;27.51982489;78.70949412;16.99710626;15.71718113;15.91754225;15.32843406;14.76245038;17.17749502;1.814880065
-0.51491486;12.82375336;2.507801996;-6.047292338;-2.632863427;-3.152498174;5.265789716;-3.718914416;27.71569404;-36.68025816;19.26672151;78.1012637;16.63758754;16.24600353;14.34383233;13.74801673;14.26030205;17.06304758;1.949121276
0.435835508;10.27047291;2.405589971;-3.491201675;-1.994407033;-3.312584484;0.555052309;-4.039226883;24.70767737;-33.22227954;8.251769256;75.62849959;15.12140489;15.8927418;15.6618716;12.000774;13.76750232;17.65216419;2.498312852
1.532074971;9.551975778;3.593428842;-0.29855146;-0.7951199;-3.313579048;-1.543937972;-4.845392594;20.97728333;-30.0491804;5.349058178;72.89784456;13.55160094;15.16183133;19.01325955;10.95614386;13.11936608;17.20971606;2.907983767
2.218170641;9.280155331;4.52703575;2.26100014;0.456600595;-3.216642974;2.295327407;-5.662047462;19.58902945;-28.15876442;14.51501247;71.55425833;12.79427317;14.36833962;22.25150185;11.32947368;12.36867496;14.5353538;2.646261594
2.278488147;7.965621393;3.824208865;3.31803538;1.28153399;-3.14536639;9.241864291;-6.20884216;21.53284179;-27.80865174;29.0895301;72.25875938;12.7913783;13.38013852;22.95902268;13.03260554;11.80271671;10.0113737;1.615422368
1.898275477;5.112552634;1.24798008;2.604339302;1.455979695;-3.169538744;12.94751836;-6.500263242;25.17245502;-28.78863891;37.29430108;74.22235873;12.71639135;11.83512819;19.9186133;14.93426145;11.66687959;5.513859027;0.241558652
1.448769412;1.597504036;-2.117547337;0.311182177;1.0676655;-3.239667331;9.993981983;-6.690019531;27.73315554;-30.82325658;32.45155911;75.64592052;11.80762517;9.646242424;14.25294551;15.45931716;11.88611743;3.252883064;-0.812684967
1.189110475;-0.908097333;-4.627117598;-3.063190947;0.386142906;-3.231989624;3.87591324;-6.87127903;27.51649697;-33.70141377;19.20402158;74.8325061;10.1360038;7.325624526;9.280955278;13.75982268;12.07867066;4.3498374;-1.099122684
1.103831095;-1.075652579;-5.229043467;-6.710195697;-0.343419454;-3.065866447;2.26891387;-7.026958966;25.08884693;-37.07173901;10.11130929;71.27569028;8.632987942;5.787461888;8.759344448;10.56980127;11.87666183;8.111568631;-0.678651004
0.965305963;1.155433062;-4.184094033;-9.527005253;-1.033517381;-2.790210896;9.578072577;-7.142266898;22.64357559;-40.20932022;15.00340363;66.03047579;8.350378916;5.732089031;14.36366215;7.931395547;11.27120434;12.44877746;-0.060232024
0.538272389;4.48089369;-2.83584403;-10.43834572;-1.734167924;-2.560353369;21.52170183;-7.323433725;22.2104826;-42.12019896;31.74998725;61.15110706;9.586355326;7.095207021;24.1167266;7.810369947;10.66039806;15.10249924;0.160370343
-0.244169266;6.9930704;-2.619560303;-9.022593017;-2.500188706;-2.520206893;27.22495073;-7.762938914;24.18320945;-42.04875509;46.33616886;58.58486084;11.62543608;9.028525576;33.11833793;10.57104792;10.53368743;14.84347743;-0.299461243
-1.255749799;7.244916185;-4.052546351;-6.013161435;-3.26578029;-2.685986998;17.82733272;-8.541621157;27.21865688;-40.04953262;42.79824851;59.21149559;13.31476791;10.46051571;36.38592235;14.52745547;11.04694568;11.91484663;-1.248254968
-2.295061017;4.907332613;-6.437286389;-3.13460216;-3.827158337;-2.927372697;-5.411052198;-9.425075243;29.40538981;-37.13405088;15.59427943;62.53589729;13.99032049;10.81205199;31.97;17.03212936;11.84495036;7.572823511;-2.197603821
-3.231140535;0.682193618;-8.446335729;-2.149111951;-3.941762879;-3.061194788;-30.62759272;-9.850039063;29.6842642;-34.76148419;-25.1521628;67.06950115;13.97734799;10.31077995;22.1230618;16.35408585;12.28375527;3.190263346;-2.734873993
-4.057129003;-4.29387602;-9.093592012;-3.65514939;-3.466753945;-2.981227285;-43.46217906;-9.172266956;28.48389342;-33.93467866;-59.67556283;71.0498395;14.25652099;9.673596778;11.63377906;12.91630418;11.87496762;-0.408897731;-2.817236257
-4.824665408;-9.015977793;-8.351224511;-6.524857148;-2.4440835;-2.722178345;-37.47341374;-7.054930091;27.26594496;-34.51179262;-71.41187258;73.08720987;15.5883504;9.438097042;4.548816342;8.91266688;10.60026856;-3.019695616;-2.782024472
-5.538541569;-12.79135511;-7.015163817;-8.520171623;-1.092269202;-2.414784513;-18.52399126;-3.757690601;27.47666872;-35.25856698;-57.26619699;72.53143029;17.82889453;9.496285212;1.715554518;6.588252892;8.86628629;-4.690721305;-3.082854595
-6.122343076;-15.13056887;-6.041632889;-7.778751658;0.270604294;-2.178706274;0.264923216;-0.12458998;29.67993106;-34.67425639;-28.27955635;69.57014584;19.99051977;9.197910602;0.894693142;6.534398373;7.169886013;-5.398606317;-3.959414195
-6.495144041;-15.72197283;-5.949705194;-4.155362241;1.324942169;-2.044441038;8.644717622;2.760691406;33.34132197;-32.06509815;-1.114545688;65.12568685;20.97432135;7.913484609;-0.863656219;7.340398508;5.763090994;-5.109299991;-5.284441324
-6.687547415;-14.69530247;-6.724400456;0.56921059;1.840560767;-1.961308775;6.148666614;4.087331928;37.22589457;-28.12334829;12.74499604;60.55566294;20.36383873;5.581818131;-4.63305427;6.848313259;4.572608069;-4.140318829;-6.682392115
-6.872639998;-12.94299009;-8.14833612;3.808445675;1.753055501;-1.870828047;0.554244794;3.725851728;40.06735342;-24.57627699;12.47843561;57.15927297;18.66036151;2.807400757;-8.88803657;3.964564231;3.393713857;-3.39173026;-7.801288118
-7.249507972;-12.01973532;-10.11639734;3.842924605;1.208069925;-1.77263312;-0.030280906;2.30376956;41.16363971;-23.10316191;5.429702336;55.62913585;16.83286005;0.461343289;-11.056232;-0.450028076;2.155990384;-4.069001528;-8.511725457
-7.851761204;-13.39502403;-12.58112807;0.862788468;0.531884164;-1.725243061;5.777617579;0.891328977;40.68642466;-24.23773575;0.064097401;55.74185066;15.60831283;-0.867226442;-9.85320043;-4.311993135;1.029355218;-6.951611105;-8.888449767
-8.44677139;-17.42988349;-15.22317357;-3.324701866;0.098002601;-1.787158383;12.38693858;0.4521292;39.59808622;-27.0030126;0.301978675;56.53801994;15.07992006;-1.147328659;-6.370135119;-6.030883611;0.301741487;-11.71128098;-9.028346555
-8.64869768;-22.85492997;-17.28889832;-6.635646347;0.127817665;-1.95599102;13.41844385;1.351848904;39.16402356;-29.53048913;4.744062515;56.94668582;14.8732862;-0.761144095;-3.094796426;-5.779804913;0.154047125;-16.85575613;-8.903319086
-8.20273878;-27.30325646;-17.92168472;-8.071694824;0.543462928;-2.16033009;8.280246299;3.199423803;40.22540289;-30.23892478;9.796919276;56.4643497;14.61824785;-0.143703556;-1.873281202;-5.28881117;0.519651207;-20.46541604;-8.409256152
-7.234920655;-28.68542254;-16.81409309;-8.13994433;0.998948166;-2.308535932;3.004864584;5.115125886;42.61878988;-28.76978485;13.07870194;55.4137787;14.26430341;0.461836821;-2.650078125;-6.364925381;1.117447569;-21.29554693;-7.580039063
-6.246125248;-26.48311399;-14.59828898;-8.140853181;1.110785633;-2.349287667;4.588349935;6.270669081;45.17743431;-26.06798134;14.42965119;54.60322621;14.00186276;0.984893371;-3.986546821;-9.380915633;1.601070268;-19.50514684;-6.755351406
-5.801187608;-22.00769275;-12.5072448;-8.986981392;0.751245327;-2.293736556;13.99682029;6.375237622;46.44605225;-23.61658449;14.73618511;54.66804983;13.96050505;1.379156951;-4.685466062;-12.96596419;1.70426683;-16.50731551;-6.491354888
-6.107902376;-17.41463903;-11.44841844;-10.49127284;0.185239355;-2.188479101;24.24235438;5.804864955;45.70874916;-22.42743775;14.61906391;55.61688503;14.05020298;1.582793094;-4.88672661;-15.11113519;1.313810645;-14.05284564;-7.207181043
-6.801780205;-14.21931671;-11.21800106;-11.60113961;-0.082910865;-2.07259733;25.4852786;5.292648434;43.58403387;-22.52166523;14.39260188;56.90838956;14.11938313;1.657985226;-5.59523776;-14.74159692;0.486446639;-13.18888809;-8.806298524
-7.132167029;-12.44199484;-10.58371749;-11.27883627;0.326390576;-1.960478699;12.98939723;5.382911367;41.65196704;-23.21725886;14.75910221;57.9196624;14.23277431;1.929224763;-7.163564714;-12.46628629;-0.549899384;-13.77884584;-10.58848908
-6.452500758;-10.9853605;-8.29299524;-9.272588505;1.353379708;-1.860828263;-8.706514895;6.015464273;41.28693788;-23.90303613;16.76003906;58.34894671;14.70579335;2.877099936;-8.306643915;-9.945746974;-1.418620712;-14.81651498;-11.58336957
-4.671721533;-8.835955205;-4.246967172;-6.20928557;2.486535668;-1.804161092;-28.81103344;6.52849721;42.54599225;-24.61434845;20.54309843;58.21019773;15.75814213;4.762016442;-6.783215417;-8.47749234;-1.691746344;-15.19324136;-11.11783244
-2.328355455;-6.024376245;0.162481702;-3.04938215;3.091400928;-1.843067355;-37.92135529;6.092113173;44.01469506;-25.91717626;24.25693504;57.51063929;17.06772927;7.257827673;-1.329396322;-8.011908742;-1.077057303;-14.32756139;-9.228403677
-0.219807356;-3.531022056;2.946294112;-0.441287342;2.853942423;-2.017898872;-34.12314101;4.291466165;43.81587412;-28.19977986;24.76436336;56.03269315;17.70410471;9.462413376;6.812254637;-7.395000739;0.389047708;-12.2932913;-6.61930621
1.142744543;-2.267006389;3.024467838;1.494624019;2.006308049;-2.316587875;-23.06225449;1.469443069;41.05581175;-30.99141005;20.19876194;53.53389503;16.65982726;10.39226253;14.21074257;-5.573633157;2.289137814;-9.536768128;-4.193356451
1.845252949;-2.079987068;1.154156613;2.870458222;1.154224195;-2.666204542;-12.68118472;-1.408271869;36.58306642;-32.95157693;12.25109362;50.21719093;13.6616377;9.653017207;17.33972441;-2.69840219;3.999294169;-6.549998288;-2.49602354
2.418480622;-1.718710013;-0.520806175;3.606151347;0.826269469;-2.967535112;-7.416006224;-3.289487965;32.43677973;-32.66330002;5.754851154;46.95882636;9.603131987;7.770690527;14.87652775;-0.171792176;5.018708596;-3.760808657;-1.46636055
3.355814969;0.15370174;-0.015722985;3.33683369;1.081995922;-3.147538604;-6.373786854;-3.633886145;30.39168443;-29.70688177;5.306547379;44.91037926;6.145016017;5.882363181;8.455806629;0.411593892;5.249876601;-1.578123562;-0.640734304
4.692036213;3.747904311;3.037868198;1.765774347;1.474433725;-3.191330434;-6.059010441;-2.696230303;30.73204676;-25.20357674;11.49560897;44.66064533;4.669204229;4.97733292;1.391656329;-1.432610675;5.037438777;-0.344322995;0.39319586
5.977685325;7.800651296;7.165629243;-0.86553944;1.392317815;-3.135473293;-4.361880565;-1.32482683;32.20268651;-21.34450012;20.090529;45.64685329;5.337731137;5.250790649;-3.523750034;-4.587783789;4.935040282;-0.091501664;1.665467479
6.658560416;10.44156164;10.22026704;-3.656467805;0.520388365;-3.036830068;-2.061697779;-0.416828246;33.135058;-20.13505751;25.22630911;46.42905529;7.00113715;6.061580057;-5.459275291;-7.048976979;5.357801509;-0.315834504;2.854515036
6.541836303;10.59562709;10.99844953;-5.456043859;-0.923708795;-2.945743509;-1.015525484;-0.382359178;32.81007813;-22.16353966;24.1203009;45.76151205;8.077660022;6.513380984;-5.36584424;-7.28628777;6.347477764;-0.11387912;3.60464726
5.968564635;8.785592375;10.02378863;-5.525336036;-2.334366714;-2.898545421;-1.469337374;-0.948522863;31.96250705;-26.21519622;19.29629229;43.65892877;7.758361347;6.184685049;-4.716979953;-5.238043085;7.5815035;1.234217414;3.830451705
5.564298341;6.706297668;8.937080032;-3.945569142;-3.111001889;-2.92031403;-1.49030247;-1.405260038;32.06524017;-29.98866135;16.30484965;41.53682705;6.606748742;5.423301315;-4.416672666;-2.250048828;8.582418069;3.607985672;3.752996409
5.789908475;5.969890373;9.093939484;-1.456969867;-2.996650154;-3.020701084;0.917355266;-1.11159575;34.03276694;-31.43758497;18.86703951;41.19105407;6.070481799;4.985817202;-4.639665253;-0.093711899;8.969046998;5.906901542;3.670544703
6.666787204;7.07383238;10.58407507;1.131931999;-2.136437647;-3.180848577;5.327847587;0.07559221;37.42283814;-29.87301561;25.72420155;43.35044057;7.27029287;5.338236217;-5.315837544;0.171939298;8.606771975;6.708786553;3.700420687
7.879798923;9.370940702;12.44926739;3.487381418;-0.870745301;-3.349069734;8.819168424;1.722701375;40.76234461;-26.16996111;32.01330281;46.96492085;10.00747368;6.199782469;-6.426392497;-1.271656719;7.617217524;5.351027497;3.733307534
9.12229313;11.89585879;13.79120676;5.824322403;0.523815913;-3.462360348;8.696730979;3.12340898;42.68614311;-22.0447795;33.89664182;49.86334752;12.77346272;6.697904706;-7.720107996;-3.310364549;6.295958459;2.603131906;3.623366061
10.34112151;14.17310584;14.6852778;8.485365633;1.930901482;-3.486456155;5.495236509;3.76326842;42.94300178;-18.95867148;32.13776269;50.32043835;13.77387232;5.999560927;-8.324665837;-4.670559019;5.000960356;0.29877328;3.405619585
11.64995391;16.25301864;16.03127648;11.40538402;3.288659518;-3.442715744;3.169036316;3.620048828;42.48373476;-17.37199394;31.20242557;48.31260811;12.20167128;3.912424873;-7.028664237;-4.576687127;4.041113966;0.079817837;3.30509263
13.00822954;18.05878946;18.47913759;13.92973397;4.428803802;-3.393598518;5.818424426;3.09557146;42.61982415;-16.76027557;34.61980167;45.47147871;8.814510472;1.002685238;-3.345386618;-2.952022641;3.578182626;2.169684623;3.50869212
14.01123934;18.87362231;21.46192896;15.15958856;5.045886446;-3.392482995;13.5736758;2.639968737;43.96406058;-16.26620308;41.01235552;43.79126339;5.412299455;-1.817075039;1.524350921;-0.221123757;3.57813646;5.175161144;3.919196601
