Channel 1 - P4;Channel 2 - O2;Channel 3 - P8;Channel 4 - T8;Channel 5 - C4;Channel 6 - Cz;Channel 7 - Fz;Channel 8 - F4;Channel 9 - Fp2;Channel 10 - F8;Channel 11 - Fp1;Channel 12 - F7;Channel 13 - F3;Channel 14 - C3;Channel 15 - T7;Channel 16 - P7;Channel 17 - P3;Channel 18 - O1;Channel 19 - Pz
-11.84157462;-14.90352667;-20.30572679;-8.293552251;-4.651413474;-8.686440951;-106.0528779;-23.30381823;-120.6585647;-26.58976162;-165.0216109;-0.938169039;-27.74622951;-9.888762354;-24.53608351;-20.07281034;-5.693742941;-19.26398073;-4.340240228
-20.64189967;-18.16402674;-24.27326219;-15.76117442;-7.550888056;-7.860440926;-42.74359862;-19.13527648;-65.18898964;-21.15189991;-108.90501;-7.436783988;-23.30945203;-14.37988107;-35.30493652;2.246065948;-9.099143314;-26.56533558;-6.549866545
-21.97079531;-16.94174466;-20.00098987;-15.5709619;-3.628533453;-3.665616676;28.18198217;-10.19946005;-1.157995711;-9.066834812;-26.26666531;-13.32536427;-15.87043037;-14.0427418;-38.61633268;12.34091345;-6.611916829;-24.7226843;-3.836171212
-17.70960229;-12.53121503;-12.69902528;-10.67971678;3.185015454;1.580616719;68.77857842;-2.10636101;37.57811802;3.023896617;32.95667039;-16.31185722;-10.15233277;-10.9928678;-36.559677;9.473351729;-1.194720411;-16.38281542;0.785958596
-12.91030058;-9.038330858;-9.064720936;-6.220427356;7.600704364;5.022568464;63.43352348;0.622005877;37.32346922;8.888723048;41.26286277;-15.8844557;-8.839225494;-7.987947916;-30.90309328;0.129489256;3.022881582;-8.176097605;3.129029477
-11.75782575;-9.714774066;-11.97599759;-5.800417872;6.716242089;5.237418439;25.38562927;-2.585083046;10.92631726;7.009943557;9.053495773;-13.47638228;-11.0606213;-6.573584141;-21.71847994;-6.87196254;3.643940319;-5.379811048;1.127907453
-14.6578393;-14.22024778;-18.58682398;-9.354349548;1.70760515;3.067177851;-16.34614858;-8.455618259;-14.926963;1.246806707;-28.375461;-11.05523852;-13.48667534;-6.353447665;-8.975725595;-6.173120977;1.472360381;-8.117954807;-3.623479938
-18.58495585;-19.01743407;-23.15905274;-13.99440898;-3.621710784;0.75563668;-38.19683955;-12.67409234;-20.49485196;-2.554151116;-40.02715171;-9.390268961;-13.01442568;-5.759574712;4.923990383;1.424173076;-0.493781384;-12.04113895;-7.260515693
-20.09803788;-20.45177468;-22.05336422;-16.85013753;-6.051397063;0.158046283;-35.64213193;-13.07092275;-5.737255495;-1.203682217;-21.08540765;-7.54793052;-8.959473528;-3.575719793;14.89250918;10.74043168;0.351115967;-12.60449785;-6.773712421
-18.33398619;-17.85210635;-16.64654802;-17.38439913;-5.285421226;1.451011307;-20.98911061;-10.76967673;13.4519585;3.640204459;8.164993696;-4.077088075;-3.235080876;0.004723012;16.30157225;16.54108868;4.133479902;-9.111562374;-2.340559907
-15.51532998;-14.03496214;-11.84960757;-17.3211442;-3.69775227;3.272783592;-9.911094743;-8.642539961;20.5383374;7.341914411;22.63413392;1.194141309;1.354236626;3.528168559;9.148436729;16.9632056;8.500296117;-5.079837951;2.941521385
-14.75172137;-12.82981346;-11.6765317;-18.50064049;-3.964444436;4.029907912;-8.820078125;-8.602214128;11.81567052;6.477217756;13.53645948;6.446814971;3.199039066;5.398302666;-0.73037684;13.83984447;10.56945658;-4.789250184;5.580602031
-17.21032251;-15.7653982;-15.74420197;-20.78015758;-6.715736429;3.213857942;-12.46573741;-10.05485592;-2.34260472;1.785165741;-6.662713508;9.045592353;2.760167761;5.022278115;-5.272343185;10.37746137;9.169648183;-9.194495223;4.354159764
-21.1435157;-20.74595389;-19.67020677;-21.97682565;-10.13549734;1.67714068;-11.60671793;-10.68821723;-7.924671483;-2.510416926;-17.4727139;7.726016949;1.777464163;3.127234473;-0.29885787;8.503461606;5.592421217;-14.85870085;1.001157749
-23.53138489;-23.83518687;-18.9417367;-19.94715772;-11.66760688;0.761934362;-2.603591146;-8.733448541;0.491978884;-2.311235404;-8.686011117;3.929173692;1.693605405;1.107183507;10.83283764;7.959421593;2.38929365;-16.84561432;-1.46094313
-22.79106528;-22.61329265;-12.88334084;-14.90849046;-10.22557277;1.120699892;9.505890209;-4.656073687;16.01179785;2.915845135;12.10401754;1.020392964;2.64159906;0.001614001;19.45389125;7.408759268;1.341298533;-13.00946123;-1.263571458
-20.12766847;-18.22504519;-5.326951616;-9.798097267;-7.006785982;2.239645142;16.22265466;-0.838454037;26.37727146;9.722532595;27.92212965;1.869594185;3.68087364;-0.095612906;18.36891277;6.155929995;2.294478737;-5.902097309;0.84797688
-18.36011684;-14.33686993;-1.432771226;-8.136419411;-4.331816012;2.993832085;13.56560431;0.396726953;24.68317159;13.53749387;27.89373915;6.684705441;3.851852137;0.167485942;7.861867022;4.86268871;3.697942044;-0.61167563;2.544545334
-19.29745982;-13.84613395;-3.361994657;-11.07809806;-3.643040415;2.666020967;5.487160985;-1.32509122;14.46922005;12.34032758;15.77493366;12.85110908;3.020426743;0.108357628;-4.153792075;4.817906354;4.203980443;-0.399052992;2.108411317
-22.00026248;-16.12802847;-8.425792377;-16.16505223;-4.429144715;1.520867819;0.03161757;-4.223287248;5.476345663;8.119472614;4.875767068;16.92091956;1.830457037;-0.413473303;-8.290451485;6.659973724;3.861968402;-3.907545529;-0.019253114
-23.47059685;-17.22268571;-11.21992587;-18.97749369;-4.924544322;0.484971607;2.077541781;-5.933768272;4.63812744;5.029028979;5.190078125;17.15460213;0.961588293;-0.986030707;-1.312673824;9.798370627;3.909801472;-6.349611639;-1.602667534
-21.19799208;-12.95576516;-7.944127519;-16.48748792;-3.846964849;0.287587336;9.230120931;-5.454671135;10.5177377;5.90339149;14.86172429;14.60322826;0.481058523;-1.118401786;11.06340499;12.98846403;5.456271754;-3.641646302;-0.502538944
-15.39229731;-2.536312091;0.629004485;-9.462097852;-1.584462008;0.851248586;14.32519877;-3.826104468;15.66570381;10.03182822;23.21816449;11.96622876;-0.104624248;-0.729252387;18.7122621;15.43253985;8.306039245;4.053200052;3.524967039
-9.010797791;10.29184842;9.864642064;-1.975343452;0.183002137;1.440433164;12.11998164;-3.066370126;14.07799499;13.90021913;21.64172809;11.29524452;-1.210236489;-0.222975097;15.44962621;17.38625404;10.99881103;12.36509522;8.577390183
-5.556549675;19.56514983;14.94617984;1.606480077;0.018179982;1.376176006;4.232906669;-4.381871581;6.681024192;14.10183942;11.71340579;12.48980326;-2.614920599;-0.117618847;4.361985489;19.78736094;12.02332072;16.25017525;12.02818841
-6.466521645;21.1725577;14.49543053;-0.200836642;-1.986172105;0.644095415;-1.932583711;-7.205676535;0.05280002;9.940799282;3.241422267;13.7451667;-3.554680103;-0.57616682;-4.403697154;23.30305817;11.12448829;13.99505562;12.41284381
-10.18178262;15.61437816;11.32824088;-5.108394962;-4.29317117;-0.133542621;0.627255418;-9.80177752;-0.038966159;3.711643149;4.535624463;13.39657809;-3.393911771;-1.256228616;-1.773709708;27.62329297;9.551013058;8.375503088;10.30760675
-13.53682502;7.43505396;9.969785672;-9.023091102;-5.260118385;-0.292589399;12.35228456;-10.78397605;5.881352565;-1.310836219;14.39673824;11.45678148;-2.243836574;-1.603007615;12.73890253;31.52782219;9.024115607;4.151589417;7.652073181
-14.21232413;1.892194;13.0932544;-9.205064867;-4.522209171;0.277585786;25.99623012;-10.1687001;11.49252329;-3.313562908;23.35073402;9.523823862;-0.929720997;-1.328705954;30.28790793;33.60189875;10.31320259;4.159279868;6.218000561
-12.24977739;1.449277534;19.67720456;-6.121605584;-3.224168278;1.067710078;31.46782294;-9.096794651;10.55851685;-2.840383505;22.78107501;9.248108143;-0.302333715;-0.669586978;39.40122633;33.05602796;12.62595188;7.292771093;6.475309748
-9.560301454;4.62021351;26.07865998;-2.687848242;-2.947833187;1.436635518;22.93597557;-8.592458756;2.766647984;-1.675372268;13.20917892;10.82322314;-0.496407905;-0.205697346;34.77251594;30.17046482;14.30417301;9.892571243;7.606216514
-8.074416632;7.734073415;28.87407405;-1.709139363;-4.310920508;1.183601917;2.954197594;-8.555244445;-5.737898068;-0.968934871;3.886705165;12.88592918;-0.806398408;-0.395684224;21.09596886;26.22157043;14.20288386;9.116096335;8.414865514
-8.196432768;7.978595299;27.1472085;-3.661211207;-6.44476671;0.688473717;-19.18855977;-7.897929245;-7.547077723;-0.322965997;4.112598721;13.88608194;-0.312776457;-1.213171095;8.975635919;23.00316813;12.57662735;5.320634114;8.251725782
-8.772144175;5.334044499;22.66698752;-6.484091013;-7.74501316;0.522206572;-33.40729084;-5.658382121;-0.285890909;1.502622039;14.50565862;13.63205258;1.273761745;-2.183254696;6.378860891;22.11708223;10.75404916;1.5523475;7.261703
-8.377433501;2.145960132;18.22918911;-7.343098343;-7.188471404;0.911839177;-34.74845494;-2.030039063;11.44942372;5.107145765;26.53710822;13.55430421;3.288809033;-2.785533134;12.61852082;24.22705414;9.927510256;0.827538016;5.969087456
-6.65918043;1.020133261;15.73533942;-4.802193138;-5.083242923;1.553245734;-25.47387711;1.646853752;20.02342338;9.644302349;30.85577521;15.40022927;4.613728066;-2.88742546;19.62440717;28.58036779;10.11612236;3.693537226;4.745913392
-4.580308805;2.868440236;15.41927975;0.276074496;-2.686531713;1.92207578;-12.48454243;3.93547759;20.99555594;13.41186069;26.52778807;19.51898312;4.599052501;-2.844367535;19.23368317;33.17470839;10.17557873;8.083124538;3.65100584
-3.502318079;6.512791515;16.40891593;5.598799131;-1.125707738;1.771448602;-2.418275362;4.462557274;16.32293525;15.23687177;22.15552629;24.30965869;3.648291406;-3.17382252;10.39066524;35.72311237;8.818844432;11.31425306;2.646435794
-4.044566688;9.82565157;17.73058937;9.1613727;-0.598285637;1.348886189;2.094975341;4.173651057;12.08901571;15.37541263;27.2278642;27.40337109;2.97575764;-4.060956826;0.385698572;35.02051852;5.768130267;12.25065199;1.82120967
-5.726535329;11.2321796;18.79549566;10.40558743;-0.478047287;1.143328457;2.843988321;4.482244179;13.09636519;15.15316251;41.3737943;27.60962996;3.72679631;-5.103140271;-0.781621417;31.83180359;2.078772227;11.71701551;1.325921294
-7.575590802;10.39377282;19.19510057;10.0872597;-0.098540882;1.414042212;3.467865153;6.074344571;19.10370749;15.73131052;51.84014199;25.9464335;6.152213349;-5.5245278;11.67624475;28.52895101;-0.611092266;11.04159817;1.109789708
-9.000181464;7.835742011;18.38772511;9.255057662;0.581424795;1.947055523;6.188542784;8.392864188;25.66329917;17.11934394;42.7157969;24.83351463;9.456861741;-4.724179851;33.35300969;27.52441003;-1.271883535;10.35738135;0.813820091
-10.08876924;4.212433963;15.86519623;8.345921647;1.025068616;2.261740218;10.27579348;10.18912357;28.32735768;18.25560933;8.910926103;26.10566676;12.38484149;-2.748613206;53.50345393;29.53363402;-0.162479219;8.42208509;0.028136321
-11.14957059;0.019182135;11.7394992;7.085053119;0.75003418;2.067378357;13.16083755;10.5921003;26.25523076;17.9874456;-37.0293831;29.52304244;14.04133775;-0.319341133;62.28061726;33.00632817;1.491805932;4.167111233;-1.280328755
-12.07050587;-4.105340527;7.110809251;5.069464912;-0.126027715;1.540782482;13.08428361;9.744101913;22.21953426;16.03338318;-71.89319541;33.02895006;14.33284968;1.625954853;56.85324318;35.29214069;2.498265406;-1.551126512;-2.598375464
-12.21753673;-7.051105773;3.67936795;2.377261318;-0.972767189;1.167262375;11.02505415;8.506054761;19.50416767;13.13468986;-77.85684147;34.50701726;13.78333821;2.552320689;42.29808378;34.75396489;2.556776213;-5.817571747;-3.187242096
-11.00609471;-7.496760651;2.754129157;-0.323793505;-1.271401956;1.293383693;10.19835394;7.594828031;18.89309674;10.40147993;-55.17528328;33.5216414;12.99702343;2.65557173;27.43336163;32.19719812;2.353649047;-5.533439609;-2.663556999
-8.573281769;-4.74260942;4.41696465;-2.147214144;-1.149602874;1.804553799;13.29454171;6.991674936;18.51242366;8.5464441;-21.51092003;31.5774384;12.25841783;2.664269605;19.26165532;30.41824253;2.910392496;0.161993069;-1.328369638
-5.845557157;0.565588827;7.529242528;-2.423230353;-1.282383465;2.223671649;19.54110955;6.149798272;16.36128152;7.67169686;1.415459083;30.73620955;11.54692483;3.272109802;19.87334837;32.13080462;4.757301167;8.979305221;0.077036528
-3.866898275;6.542244559;10.56901427;-0.866375818;-2.222224773;2.141193017;24.13295992;4.752662873;12.81929776;7.642188664;3.172809148;31.83497541;10.83487381;4.625833733;26.99560576;37.85061813;7.543707017;16.92286327;0.997560772
-2.974859742;11.06;12.59846527;2.482054564;-3.776841018;1.586916738;21.03306236;3.261745344;10.59092512;8.506592246;-9.814606789;33.84361215;10.30857347;6.237601434;36.52948299;45.39916285;10.28034023;20.97899754;1.517607868
-2.588478013;12.93844554;13.60142223;7.267891928;-5.03230349;1.009994267;7.536593989;2.703521891;12.13709782;10.46254151;-21.87131379;34.86284343;10.27846948;7.360606641;44.70063664;51.41799503;11.93279574;20.93064288;2.220945068
-1.822232753;12.4406093;14.03134969;12.67874918;-5.03935266;0.88897243;-12.73471274;3.865021091;17.11325296;13.42354656;-21.62035733;33.82976911;10.87364499;7.522773366;48.87398408;53.69302309;11.91954729;18.96518554;3.567603089
-0.372682935;10.76394244;14.10493506;17.35714818;-3.576312872;1.322469507;-31.0417035;6.62099795;22.347088;16.72726366;-10.20646091;31.42225443;11.83086117;6.818350313;47.74917987;52.48400348;10.26244588;17.59119616;5.348779022
1.14111548;9.024625686;13.53749799;19.70083392;-1.327521577;1.959336992;-38.65393935;9.997998147;24.48118086;19.42030906;1.691041781;29.40693267;12.60218335;5.771067942;41.82456754;49.92383944;7.443988273;17.68851009;6.733112048
1.708875891;7.586240224;11.92935791;18.58834115;0.663211437;2.316310241;-32.52747034;12.9108685;22.8738682;20.95511659;4.237400245;29.05927176;12.714752;4.921949329;33.81452287;48.14018593;4.170837239;18.22201752;6.899988221
0.85396203;6.193867282;9.359746527;14.11769844;1.766757712;2.18854499;-17.40032072;14.90725334;20.07421529;21.64364536;-3.259327093;30.07170764;12.09289774;4.487300885;27.82;47.71689211;1.171163182;17.61500548;5.725082732
-0.898390285;4.628039129;6.542912087;7.778021129;2.095901856;1.790633518;-2.579563129;16.27147498;19.41237084;22.35379924;-12.84650198;30.88951241;11.08886939;4.336737066;26.84305274;47.68089835;-0.976148698;15.39453941;3.918146409
-2.451370286;3.167153462;4.328927522;1.802700906;2.144874552;1.522558056;4.371899202;17.44471645;21.89932843;23.62297642;-15.80830205;30.13137823;10.21442637;4.254994439;30.15951425;46.81255917;-2.000454538;12.64779954;2.479581737
-3.085429999;2.400822804;2.979043954;-1.953546606;2.137530136;1.593634748;2.425980585;18.34881341;25.25902813;24.9620834;-10.36487405;27.81072975;9.79477971;4.220756994;33.07138974;44.97222065;-2.016942854;11.01011689;1.932423934
-3.060651553;2.601648738;1.902396446;-2.899632566;1.735051223;1.850896225;-3.139649541;18.27707565;25.95515337;25.03709061;-2.527516425;25.28666583;9.790265958;4.446641554;30.14256639;43.24735573;-1.410004883;11.21300755;1.980221233
-3.308205042;3.308361461;0.159870214;-1.802939346;0.397973361;1.954403433;-5.58869953;16.47357671;22.33968632;22.66817642;-0.028799004;24.01608785;9.860126133;5.15211092;19.97321199;42.87946232;-0.525777446;12.51091622;1.869808104
-4.469807038;3.587602672;-2.643102497;-0.106611061;-1.935996508;1.718616607;-2.199791233;12.86673028;16.04477716;17.8327164;-5.326961877;24.22142692;9.553598258;6.280640189;7.572597945;44.04438879;0.624002932;13.41755974;1.129411204
-6.151333605;2.800217631;-5.831275186;1.001244226;-4.521710129;1.294619869;3.981984699;8.260381872;10.36349712;11.79570616;-13.99214855;24.62613002;8.470165393;7.419474605;1.660423506;45.63677843;2.373665283;12.99803251;0.037596502
-7.097709497;1.193892642;-7.992518647;1.147356354;-6.200078125;1.027381592;7.284940646;3.769373736;7.115850834;6.212756877;-19.48579345;23.44998264;6.336002999;8.003376664;8.230124596;46.22778402;5.043041163;11.54613104;-0.577751105
-6.201853337;-0.252736675;-7.97200877;0.690672623;-6.245203783;1.128912112;4.545330192;-0.022606292;4.866650613;1.936544651;-19.53250422;19.77612726;3.057069399;7.64353618;25.23706929;45.26579171;8.44330003;10.12405391;-0.033306351
-3.523998439;-0.673724376;-5.795815079;0.191376704;-4.967223591;1.476265664;-2.203415154;-3.438094546;0.125745934;-1.479846283;-18.15909481;14.14341275;-1.197641834;6.326396293;43.0576093;43.39157423;11.66966212;9.485740626;1.60899408
-0.459047339;-0.169310524;-2.836891143;-0.13558031;-3.54868979;1.722303535;-7.676263682;-7.274851389;-9.536852283;-5.193117272;-21.74648067;7.958073199;-5.939578702;4.348531476;51.06529245;41.60498877;13.43732571;9.38887711;3.523327257
1.122188408;0.067277547;-1.096697245;-0.636854922;-3.21978124;1.615328464;-8.042437062;-11.94868066;-23.24337936;-9.944663513;-32.96411439;2.350144677;-10.45917868;2.076550558;45.5514544;40.12342792;12.79912941;8.854145668;4.678859018
0.109022243;-1.474439509;-2.087929998;-2.019186231;-4.415737628;1.23269432;-4.17474135;-16.9772081;-37.41867135;-15.39573169;-48.20702142;-2.499208377;-14.12469796;-0.251313734;32.62844255;38.07390793;9.748876143;7.046008373;4.517602514
-3.157865271;-5.486251032;-6.017022665;-4.863877915;-6.553586778;0.915889963;-0.621068579;-21.2774319;-48.69657942;-20.47684863;-60.75384848;-7.068905448;-16.7332859;-2.534514294;23.4035023;34.37457561;5.261188571;3.958131593;3.246422032
-7.193939557;-11.18013494;-11.69136834;-9.099586036;-8.54284394;0.969038497;-1.335400276;-24.03229791;-56.55081689;-24.38267045;-66.61738817;-11.67806175;-18.6446966;-4.672242352;24.93819755;29.01710928;0.734191118;0.375501853;1.593406963
-10.35445627;-16.58565982;-17.09686031;-13.70934227;-9.56938258;1.394876748;-6.081595468;-25.37560293;-63.38042647;-27.27225011;-67.76190634;-16.00573906;-20.52945306;-6.451547605;34.23028183;23.5280896;-2.748614235;-2.708777547;0.296687327
-11.73341129;-19.59623007;-20.26514073;-16.91952394;-9.541028448;1.901223077;-10.75555765;-26.29579238;-72.0673489;-30.02526552;-69.93522157;-19.40554073;-22.84931218;-7.594010169;40.36083946;20.08361242;-4.811962563;-4.621906519;-0.271448692
-11.41732769;-19.06159636;-20.02179191;-16.95425974;-8.938885428;2.161367848;-11.27586919;-27.83150368;-83.22283802;-33.28539574;-77.27858153;-21.63925167;-25.43562541;-7.929054254;33.44188088;19.95495614;-5.633214339;-5.095241011;-0.146890596
-10.11224555;-15.26675436;-16.36548153;-13.09817996;-8.325396907;2.086309943;-7.426236187;-30.23413915;-94.52117907;-36.68829676;-88.63381417;-23.22447388;-27.51401726;-7.53397391;13.28115439;22.57956314;-5.499276771;-4.055890159;0.412551399
-8.589004177;-9.610822202;-10.39515078;-6.453086577;-7.973283706;1.868293836;-3.071683697;-32.78601912;-102.6008716;-39.01584624;-98.71314043;-24.97804642;-28.21612356;-6.708287415;-9.440223211;26.01879634;-4.539717216;-1.554261714;1.114776665
-7.356861749;-3.80482604;-3.819464032;0.268411439;-7.86117536;1.773188442;-2.507131462;-34.39183598;-105.765497;-39.17967751;-102.8242528;-27.16196273;-27.24142557;-5.802286374;-20.85270049;28.36729846;-2.865137815;2.008117722;1.711948874
-6.626335002;0.896093242;1.791231412;4.078955209;-7.894061443;1.886773745;-6.306341514;-34.41684728;-105.1247304;-37.17500901;-100.7780887;-29.09249227;-25.18470011;-5.049064898;-14.62360767;28.90275198;-0.894573108;5.670767286;2.033373305
-6.357774885;4.065734491;5.695086918;3.526855623;-8.033877117;2.049335452;-10.59173581;-33.08159635;-103.3170955;-34.15276243;-96.60231076;-29.68806286;-23.2614198;-4.533816167;2.789336889;28.0943767;0.574904495;8.182756542;2.061990974
-6.248927405;6.024117917;8.229373694;-0.226698698;-8.204874538;2.026204622;-10.55348282;-31.15213837;-102.1193228;-31.53282805;-94.6227505;-28.53819718;-22.59360613;-4.292888638;16.71630986;26.68301517;0.781641211;8.774944847;2.012456422
-5.755001363;7.454766143;10.41793568;-3.991409901;-8.147907532;1.740586021;-5.070341479;-29.27806125;-101.1271102;-29.92966094;-95.66842856;-26.5136133;-23.53815142;-4.408406124;15.27705195;24.86534083;-0.370674899;7.860481551;2.264790038
-4.327801698;8.941683713;13.13741901;-4.625696577;-7.49427231;1.345774361;1.91049562;-27.58225397;-98.57983151;-28.82117592;-96.7857278;-25.27247306;-25.50644801;-4.977487781;-1.744860539;22.39774817;-2.038675303;6.948803814;3.095585741
-1.85315773;10.62200868;16.40684407;-1.26547992;-6.097888194;1.075866938;4.765722389;-25.80346766;-93.39773095;-27.21997624;-94.45338652;-25.99296919;-27.36845401;-5.975839068;-23.04144411;19.41631213;-2.887538044;7.626636599;4.375038725
1.039117573;12.10090414;19.34870609;3.939804773;-4.336388344;1.02762051;1.496300705;-23.75019149;-86.44798983;-24.70695465;-88.10662112;-28.40262642;-28.13028644;-7.163218049;-34.66845827;16.96071565;-2.035546607;10.29311668;5.522892512
3.161969509;12.68304826;20.89475703;7.266247358;-3.020902336;1.087309479;-3.922165936;-21.55718417;-79.85954624;-21.87012252;-80.67761547;-30.97691562;-27.42060821;-8.15984071;-30.54605549;16.4202146;0.215409852;13.67195077;5.85848406
3.471927838;11.81173079;20.70042815;6.099910176;-2.861378903;1.070185303;-4.626930416;-19.48039956;-75.0604494;-19.74237886;-75.77257663;-32.17551481;-25.51018755;-8.665381764;-16.35731773;18.21917466;2.495385433;15.58492286;5.130635112
1.824605166;9.442127747;19.50051228;0.905353925;-3.86537756;0.929769926;2.925710862;-17.46939273;-71.39574985;-18.75661346;-74.23212894;-31.65495292;-22.95010404;-8.643998235;-4.119766204;20.97846069;3.322273305;14.45807908;3.788831068
-0.824312304;6.067420495;18.54505744;-5.048017165;-5.194111826;0.823466855;14.97451217;-15.02207831;-66.64463081;-18.20185776;-73.30086017;-30.39287596;-20.16314606;-8.310212174;-2.215748913;22.16833491;2.193649746;10.40597132;2.709323047
-3.00251132;2.35058652;18.52622938;-8.062019584;-5.679845708;0.959608454;22.45678674;-11.58341067;-59.0253214;-16.74286293;-69.14079186;-29.6214142;-17.28989846;-7.924853626;-9.098372354;19.98336256;-0.052905684;5.063710976;2.53876032
-3.687844161;-1.344099449;18.90790294;-6.711516035;-4.663521809;1.367795461;17.78818626;-7.209825993;-48.93802876;-13.61944229;-60.35326668;-29.55440116;-14.33883921;-7.589227669;-15.57396173;14.94293954;-1.923538165;0.356668358;3.182591043
-2.917649256;-5.078554979;18.32241159;-2.802694843;-2.50946655;1.820356612;1.044205774;-2.89215222;-38.93;-9.504225108;-49.33351126;-29.11683147;-11.44112898;-7.23277987;-13.37508143;9.739703549;-2.456007552;-2.75523308;3.893095062
-1.575653317;-8.936135163;15.83018364;0.143213354;-0.37857432;1.999772649;-19.54019227;-0.145608723;-31.9177314;-6.23746574;-40.33277418;-27.00276674;-8.957453196;-6.802993625;-2.639304573;7.253810879;-1.926186188;-4.570492531;3.919052606
-0.573202822;-12.40267399;12.0374796;-0.328344937;0.574370112;1.774087987;-33.25721152;-0.080497936;-29.16518343;-5.580482799;-36.06101554;-23.15469384;-7.341180794;-6.454508665;7.988265053;8.281551349;-1.453160804;-5.870944877;3.175948741
-0.14460739;-14.18234825;9.043472235;-3.759222054;-0.043756705;1.328185524;-34.29450939;-2.639317375;-29.63463626;-7.94833182;-35.82802733;-19.28242706;-6.877001432;-6.508647982;8.657226932;10.92398322;-1.800926474;-6.900124477;2.341242949
0.14682185;-12.8709036;9.052721939;-7.30151951;-1.722473994;1.017374624;-25.06159118;-6.598319057;-31.07611173;-12.10432727;-36.65623894;-17.7998154;-7.50850694;-7.164983627;-3.117041895;12.27154613;-2.401166996;-7.073908789;2.25965174
0.745961242;-8.191420706;12.60348284;-8.126674885;-3.567444516;1.060250403;-13.2585889;-10.33773977;-31.77171188;-16.01836699;-36.08320227;-19.94030473;-8.881859294;-8.214846931;-19.77292252;11.03482307;-1.52578039;-5.673844884;3.161596687
1.443592902;-1.844146615;17.81213647;-5.728536825;-4.996632869;1.342393724;-5.60242214;-12.78238335;-31.45437014;-18.17785276;-34.02343153;-24.61644292;-10.55682024;-9.071935232;-29.21022248;8.82970756;2.361514246;-2.834003286;4.401381912
1.382107154;2.94;21.37868892;-2.253465937;-6.03073765;1.514288536;-3.502745948;-13.81258417;-30.81864304;-18.34947128;-32.18842287;-29.06684493;-12.22075844;-9.196172502;-24.10305639;8.846359048;9.056377852;0.165317613;4.996145055
-0.210945981;3.188012413;20.77481466;-0.636382778;-6.998970814;1.307686791;-3.772919102;-13.92157345;-30.32735925;-17.32031051;-31.94606052;-30.87309805;-13.7667725;-8.620332169;-7.588331809;12.86122392;16.14248528;1.671566058;4.534629903
-3.193328719;-1.752112349;16.05965701;-2.12512893;-8.012001687;0.794731236;-2.875285315;-13.52778277;-29.52981977;-16.00032067;-32.84636897;-29.75175491;-15.22118032;-8.119418994;9.131475393;19.11717312;20.1516678;0.904824344;3.651092459
-6.363385476;-9.39675065;9.940248583;-5.253195201;-8.739360487;0.355650411;-0.380428713;-12.5928083;-27.47571674;-14.71404063;-33.17722715;-27.65570959;-16.61503762;-8.781215827;15.27420429;23.07809642;18.68400355;-1.383772472;3.584563715
-8.226805641;-15.38354357;5.942699404;-7.096196693;-8.714955893;0.372098778;1.39054224;-10.85452151;-23.71868824;-13.21849969;-31.81422408;-27.08616316;-17.90766765;-11.20869731;8.350480713;20.75744214;12.02449173;-3.433905107;5.123580917
-8.107618258;-16.16237826;5.965253351;-5.752156592;-7.877482688;0.904261162;0.641524016;-8.384279301;-18.88817591;-11.27964232;-29.38147866;-28.99345035;-18.99860596;-14.93455634;-4.567644801;12.08152726;3.073334686;-3.786964811;7.807344719
-6.694263703;-11.33629094;8.971321387;-1.989997867;-6.807768092;1.627650108;-1.380283339;-5.864510058;-14.28702496;-9.169346371;-27.51498758;-31.99012387;-19.78578912;-18.54117728;-12.82244249;1.488244699;-4.415624764;-2.341160563;10.09965151
-5.538079449;-3.973101468;11.76057971;1.282197881;-6.380242538;2.083769771;-1.355098782;-4.239833139;-10.91846765;-7.594544032;-26.98706242;-33.51214413;-20.20876474;-20.48196941;-10.44716336;-4.97593715;-8.088929807;-0.335066771;10.46639675
-5.873071738;1.409816456;11.23619986;1.280942693;-7.077278567;2.032000318;2.566797768;-3.988206112;-8.845196468;-7.145934772;-26.64078419;-31.94779627;-20.25569723;-20.06222764;-0.34265799;-3.996269217;-8.208329444;0.663721992;8.5201426
-7.68769533;1.808362962;6.507784821;-2.497327592;-8.547481707;1.61018449;8.332053734;-4.649623596;-7.405731794;-7.80026416;-24.31800504;-27.95914903;-19.95726416;-17.88646513;8.501415194;2.570785971;-7.073571147;-0.09405007;5.305189554
-9.777084957;-2.441677288;-0.665594271;-7.934524875;-9.816754272;1.18330829;11.46189103;-5.074851664;-5.978279468;-8.931665895;-18.98650204;-23.90660367;-19.39120975;-15.4491889;8.130831096;9.14211157;-7.190936899;-2.144845252;2.481850541
-10.70812938;-8.226199539;-7.324183048;-11.96461381;-10.02047422;1.027336947;9.432181332;-4.253046973;-4.507885796;-9.794549303;-12.01525025;-21.87105158;-18.6845999;-14.16167146;-2.546864993;10.73592515;-9.561464754;-4.367254275;1.067420624
-9.905313452;-12.09403549;-11.48386464;-12.86078886;-9.077491893;1.12418754;4.811228241;-2.067168892;-3.322353072;-10.01611932;-6.263135204;-21.92471435;-17.97688674;-14.49846994;-17.3666015;6.903131028;-13.25452472;-5.902301883;0.750955575
-8.004463414;-12.71097986;-13.38958615;-11.3260676;-7.757526572;1.229033142;3.697775815;0.639699641;-2.508597283;-9.671236068;-3.692388927;-22.07829398;-17.33452104;-15.82499872;-27.6169489;2.217791792;-16.39831882;-6.643879059;0.315679427
-6.249626801;-11.52751291;-14.95376662;-9.630497907;-7.081238167;1.124844248;10.18382839;2.742911797;-1.557353579;-8.94659314;-3.657855906;-19.93669256;-16.66949512;-16.94749502;-27.85463383;2.876680826;-17.68282696;-6.980140985;-1.217184806
-5.482002951;-11.27690004;-17.88724865;-9.623262768;-7.529532597;0.823488245;21.55;3.701141957;0.303465359;-7.800915756;-3.468758239;-14.70093453;-15.74679406;-16.92378023;-18.628807;11.91210064;-17.20331016;-7.152892522;-3.694328807
-5.552525642;-13.57311701;-22.01010127;-11.26350696;-8.68274187;0.539281214;28.89326808;3.903461795;3.375850663;-6.006141178;-0.756730771;-7.902554195;-14.32017242;-15.55873958;-4.890941847;26.5755161;-16.10707023;-6.887451578;-5.924349953
-5.583399836;-17.50223999;-25.07270882;-12.76708284;-9.554085468;0.477717422;23.51768774;4.238987232;7.076112363;-3.538715701;4.473683225;-2.318121658;-12.33083871;-13.32287867;7.774580872;39.83329937;-15.47943477;-5.625415235;-6.657908919
-4.787554159;-20.25923668;-24.26929309;-12.10567829;-9.331154794;0.646918791;4.291743704;5.28299962;10.28225725;-0.892018295;9.942859259;0.024733507;-10.02235644;-10.88285337;15.91177063;44.90198072;-15.44048516;-3.109005569;-5.619336243
-3.13425058;-19.27768715;-18.35588395;-8.576282294;-7.942991541;0.866275271;-20.1756336;6.802362098;12.18191989;1.097308196;13.20331721;-0.82683768;-7.848916846;-8.659650415;18.44896915;39.61053851;-15.14999763;0.241757118;-3.736737285
-1.340726902;-14.19086351;-8.825288309;-3.256185784;-6.04614927;0.955241081;-36.81359239;7.99412588;12.8903952;1.869127235;13.80366698;-3.043232289;-6.189126792;-6.701163907;15.47570708;27.62802093;-13.62563177;3.501822918;-2.406066894
-0.263272007;-7.167420342;0.74061228;1.832978922;-4.496062961;0.917111648;-37.05992154;8.240690731;13.3182617;1.701101199;13.56917602;-4.537424033;-5.035506142;-4.843540859;7.568588956;15.91288868;-10.6411101;5.802861376;-2.422240331
-0.236892836;-1.454370339;6.730078125;5.028194197;-3.744926577;0.941672883;-22.62304739;7.730581702;14.44543367;1.673854064;14.84827057;-4.416172213;-3.888097635;-2.930401409;-3.52336904;10.32989552;-6.977768971;6.798371242;-3.451735643
-0.89739257;0.708849688;7.580019531;5.77956538;-3.606017537;1.22346364;-3.616209963;7.414423899;16.66044585;2.969507232;18.43871877;-3.255451432;-1.976459694;-0.905979654;-14.02112217;12.40510203;-3.887394247;6.668093014;-4.432935758
-1.578123753;-0.72514383;4.492336035;4.489407829;-3.495899307;1.765553575;9.259327347;8.324119352;19.69550649;6.00892286;23.10976312;-2.169751603;1.277652683;1.207433177;-18.93131024;19.10599866;-2.262020433;5.719510371;-4.514242836
-1.909018502;-4.059695319;0.37036924;1.881317209;-2.907503345;2.352301054;12.15784759;10.80147703;23.08615499;10.10673067;27.03719856;-1.633026641;5.822997566;3.318277471;-14.9147195;25.33908218;-2.17766048;3.977132748;-3.732578888
-2.130625822;-7.398944743;-2.227144117;-1.401431534;-1.753578093;2.718557505;9.455041915;14.23556358;26.60686011;13.9234841;29.6320021;-1.104604516;10.84825495;5.20065194;-3.29870868;27.18987537;-3.092394089;1.124175781;-2.907761597
-2.913747832;-10.01321276;-2.69866668;-4.706793685;-0.387970112;2.763064445;8.564875224;17.47634521;30.23206156;16.35154466;31.93068666;0.289380117;15.06910624;6.453793851;9.557026999;23.82320799;-4.411496784;-3.159816391;-2.908208092
-4.869938142;-12.53943962;-2.536074249;-7.150249004;0.627836164;2.61530328;13.08027642;19.55760701;33.72033889;17.13398735;35.2010313;2.722404788;17.29323865;6.633338747;15.69356802;17.21021543;-5.876689545;-8.741507254;-3.939076056
-8.127109999;-16.02907658;-4.002516134;-7.777204455;0.811404957;2.500651859;20.1088973;20.16671364;36.35129523;16.76982504;39.23250374;5.266917525;16.95447994;5.554670341;10.88996505;10.36459309;-7.479113435;-14.80568005;-5.422607386
-12.22700265;-20.73304198;-8.354825338;-6.190493663;-0.05057426;2.531690067;23.69175279;19.57196085;37.21645737;15.87648592;42.13574628;6.518814371;14.32788304;3.553790826;-1.932847056;5.503813587;-9.078898452;-20.02709049;-6.501624532
-16.33677124;-25.61927847;-14.85337242;-3.124830871;-1.83329096;2.61643009;20.83249444;18.18985087;35.89449923;14.62181879;41.99421147;5.7231819;10.33018735;1.435912184;-14.10270531;3.209287853;-10.18835835;-23.06277893;-6.690626605
-19.58928346;-28.95668751;-21.17970499;-0.313363002;-4.091777789;2.562445307;14.56263081;16.2315361;32.89477968;12.72573366;38.81998591;3.435735085;6.047904807;0.048323352;-16.84261781;2.742685523;-10.20193918;-23.13306732;-6.140891322
-21.37342633;-29.45463558;-24.88292005;0.490037842;-6.165018373;2.274958858;11.294023;13.71579612;29.39449639;9.980189601;34.83734942;1.146169387;2.271242983;-0.263207996;-7.349369039;2.938806987;-8.907457048;-20.43780982;-5.374501748
-21.50298243;-27.07720037;-24.81518538;-1.283084233;-7.395915733;1.863251359;14.84712539;10.75047815;26.42182226;6.74560168;32.64784039;0.157976385;-0.725558584;0.100072937;9.079751559;2.959214092;-6.808424107;-16.20726499;-4.79904708
-20.26378818;-22.97910977;-21.62493446;-4.511975697;-7.435421552;1.557411766;22.48046494;7.731213012;24.16594018;3.893394849;32.90498945;0.625870507;-3.086899438;0.27540147;22.51850596;2.543978913;-4.911691248;-12.28869124;-4.44538506
-18.33262312;-18.70772988;-17.11107478;-7.069135795;-6.478111012;1.512831086;26.5111449;5.207428055;22.01160168;2.171664197;33.72768862;1.508235488;-5.077892817;-0.416332666;25.0764751;1.838359576;-4.086855455;-10.35143819;-4.104947011
-16.54988268;-15.31806261;-13.02877678;-7.283272035;-5.231272953;1.681076901;20.31660112;3.509524121;19.25572794;1.524641544;32.53155845;1.445706821;-6.796668625;-1.94049916;16.02937398;1.082082663;-4.486969526;-11.03985975;-3.661537468
-15.58678391;-13.00955264;-10.21494647;-5.149155227;-4.548903823;1.862099575;3.809785497;2.487296394;15.85196604;0.999298198;28.64521057;-0.146019477;-8.069682529;-3.547529005;1.846619413;0.39613881;-5.492627553;-13.56449977;-3.265611591
-15.6494769;-11.41833541;-8.528960939;-2.39332055;-4.90612734;1.885708979;-16.03739694;1.635307611;12.51593131;-0.586396376;24.21018551;-2.611758567;-8.57280996;-4.316756611;-8.696794211;-0.255672469;-6.218505404;-16.09186001;-3.190338658
-16.39631645;-10.20171972;-7.434144936;-1.318097495;-6.055496877;1.754520831;-29.94776709;0.539009546;10.12382652;-3.682767899;22.37018947;-4.538470155;-8.082774665;-3.836987144;-10.61540345;-0.966695371;-6.162599789;-16.83082818;-3.528478872
-17.13940737;-9.406038021;-6.617470148;-3.216279738;-7.131097624;1.620643394;-32.52861537;-0.725428531;8.989719854;-7.509529916;24.3227633;-4.772161605;-6.691869196;-2.505527791;-5.616232589;-1.726122715;-5.475738567;-15.18401894;-4.032710096
-17.21801703;-9.370836883;-6.155331963;-7.43915748;-7.172235916;1.624262597;-25.21882634;-1.589445629;8.700894201;-10.44948438;28.01839591;-3.19699824;-4.845141728;-1.222688327;0.037877796;-2.288740078;-4.667191483;-12.16550714;-4.25418345
-16.31920015;-10.33257837;-6.221293859;-11.73297761;-5.73681426;1.748850545;-14.22724375;-1.413959614;8.641642549;-11.0865563;29.89198503;-0.744282061;-3.163960783;-0.723947714;0.776922834;-2.175666649;-4.046934067;-9.716966597;-3.855471857
-14.57673017;-12.113001;-6.744216847;-13.60416303;-3.199317473;1.829404519;-5.678414388;-0.00246;8.668083794;-9.146829787;28.1771099;1.298400065;-2.147232323;-1.059801793;-3.996172046;-0.867687626;-3.418841718;-9.345760738;-2.829569722
-12.44945773;-14.16219648;-7.411893074;-11.83189838;-0.543179037;1.706135587;-1.935784006;2.207512405;9.249314222;-5.677911025;24.71484918;2.124325841;-1.923193514;-1.60253192;-9.698366671;1.860646897;-2.301914225;-11.06370705;-1.463419487
-10.51057403;-15.90386928;-8.021214247;-7.206632082;1.199502847;1.38050629;-1.475559507;4.422777486;10.91017802;-2.371263836;23.38388778;1.806332246;-2.209568295;-1.54858514;-10.32927369;5.653576617;-0.479085772;-13.43374227;-0.118627668
-9.26749845;-17.0782255;-8.787239417;-2.088927744;1.491384198;1.027953241;-1.496063611;6.009801942;13.50676549;-0.538924638;26.38954057;1.053385109;-2.523906636;-0.523664904;-3.172130589;9.561790023;1.628500903;-14.69965147;0.963293775
-9.026905675;-17.79447516;-10.21724081;0.917233103;0.501106918;0.853112942;-0.509339644;6.838331184;16.06778514;-0.446660202;31.82160049;0.587667053;-2.526705407;1.147224905;9.093827664;12.40392103;3.127695467;-14.11589425;1.696526127
-9.76271754;-18.26107461;-12.55741162;0.409861496;-1.078823456;0.917315443;1.132659877;7.213124613;17.43138682;-1.379916933;34.97705482;0.62185948;-2.276244497;2.666455625;20.2520058;13.35549573;3.267999881;-12.4205564;2.072081839
-11.01221132;-18.438804;-15.27060179;-3.042030789;-2.423652766;1.092938219;2.540009766;7.506940266;17.15529503;-2.273899875;32.56416592;0.777543536;-2.208042513;3.288703841;24.75716731;12.42724357;2.024337113;-11.08251494;2.104129605
-11.93157189;-17.93123967;-17.07313536;-7.217472796;-2.925432439;1.183455316;3.593857904;7.837839577;15.88514425;-2.398173466;26.06084181;0.443092098;-2.823702837;2.771240119;21.11205473;10.51426532;0.178673946;-10.9599964;1.867570953
-11.62271291;-16.23187177;-16.63764586;-9.477147274;-2.358400954;1.098382072;4.878838358;8.053123391;14.82431796;-1.660173425;20.92801804;-0.719109753;-4.281641407;1.482506087;12.1596694;8.944768318;-1.169446116;-11.49547998;1.55066142
-9.641590923;-13.14500014;-13.49012244;-8.235128198;-0.875532041;0.92490391;6.589894656;7.981634762;14.75191729;-0.44946332;21.96464625;-2.466319468;-6.177337452;0.163940805;2.54535717;8.779404943;-1.282847088;-11.12108571;1.404780428
-6.366505076;-9.036972885;-8.399348156;-3.831987069;1.080365203;0.834331346;7.918896284;7.674244278;15.44619364;0.732598886;28.7595333;-4.052164143;-7.695454669;-0.452835914;-4.359071668;10.28954707;-0.14666945;-8.53125324;1.587086359
-2.889961048;-4.694905232;-2.912354239;1.718869726;2.904220688;0.912405567;7.854500698;7.383487492;16.00446437;1.551641474;35.53187046;-4.610494131;-8.063718877;0.056546391;-7.728919023;12.94232276;1.717154759;-3.757689463;2.038434896
-0.396781252;-0.883644105;1.633121783;5.979147531;4.002433722;1.070678108;6.677821647;7.299611179;15.73867189;1.897881185;36.02735384;-3.590175205;-7.013923671;1.709106726;-8.208961305;15.89320708;3.759403172;1.831104979;2.545250416
0.590311247;2.056361527;4.853178779;7.552342902;4.006703162;1.121258595;6.443983566;7.310534209;14.81395977;1.804119935;29.50610058;-0.981742557;-4.933422107;4.183535919;-5.967979948;18.64162868;5.781614591;6.556995918;2.964341579
0.537976031;4.255346488;7.247502323;6.80908691;2.949318633;0.948662738;9.504757481;7.051271164;14.05531467;1.371966377;22.35802241;2.763142541;-2.604465841;6.964027707;0.046019708;21.37543455;7.885340503;9.580681926;3.401608572
0.513199271;5.989322354;9.42555456;5.383067932;1.280114803;0.624821497;16.02603306;6.246668232;14.13055502;0.764169632;23.18377769;7.008083721;-0.72804871;9.480209103;10.85157072;24.7233971;10.08893849;11.21855345;4.134207563
1.341121693;7.294293466;11.33955242;4.815168231;-0.331466702;0.364052753;22.70318442;5.061181697;14.89558749;0.204927033;34.80428349;11.17633765;0.417328013;11.21162887;25.34923345;29.05029287;11.99469226;12.25604602;5.290466842
2.961661275;7.891604076;12.22532546;5.370138859;-1.326121306;0.356319359;24.20007813;4.118534188;15.52304813;-0.086718169;49.86017622;14.79761373;0.951885648;11.76098133;39.51240865;33.80066062;12.83579882;12.98193012;6.560841094
4.50767303;7.514456652;11.3217345;5.949699713;-1.529154583;0.622156932;16.67163244;4.107936635;15.28752618;-0.018619608;54.41895879;17.39025874;1.081193383;10.91607573;48.01949714;37.45087609;11.90432093;12.87495411;7.24745441
5.048302064;6.327645326;8.723106903;5.185499945;-1.208035906;1.009783007;0.881134214;5.249690304;14.25637821;0.296156942;37.76915113;18.38886627;0.810166994;8.720395786;47.42590312;38.27074583;9.044701778;11.21965311;6.695719977
4.382164759;4.984107139;5.554698334;2.829353506;-0.892638471;1.328467314;-17.50877591;7.047356235;13.22558956;0.592731672;1.288293507;17.31845228;-0.031066674;5.548347246;38.51514325;35.51355358;4.847857434;8.026547984;4.799018678
3.211814876;4.14644628;3.227714286;0.251608377;-1.083936519;1.496865822;-30.89872142;8.559408606;12.96189708;0.62440923;-40.63340155;14.19225824;-1.458873594;2.130622124;25.90354908;30.23869508;0.414036404;4.324703272;2.150589372
2.553275646;3.819992509;2.362594565;-0.475519564;-2.019250769;1.580767765;-34.0445225;9.021728001;13.48122412;0.332839595;-68.93545989;9.834691095;-3.02631006;-0.566944924;15.04427944;25.06987327;-3.14304453;1.477263154;-0.32462034
2.897083689;3.137130242;2.332094663;1.730488513;-3.588009102;1.699379195;-26.8559301;8.3638083;14.06692566;-0.105861363;-71.84822449;5.757211908;-3.898433368;-1.672976862;8.84119646;22.83278397;-5.141617734;0.111157004;-1.988614402
3.859697282;0.966751896;1.902380711;5.858437836;-5.38558466;1.895120141;-14.02503242;7.224894699;14.02120558;-0.392864627;-52.02849789;3.474522359;-3.38189094;-0.867456682;6.432152344;24.82075985;-5.515894117;-0.332655078;-2.857018952
4.632124339;-2.97475722;0.495508191;9.284496618;-6.845951981;2.086741158;-2.001987064;6.451578202;13.41793773;-0.300075684;-23.9882137;3.599548506;-1.557216379;1.290902104;4.977933845;29.82945395;-4.73035903;-0.953432873;-3.409639203
4.809787564;-7.405616319;-1.02509691;9.604183923;-7.417974345;2.143261114;4.571339538;6.455570946;13.08844566;0.176267284;-4.052580238;5.346987041;0.522802508;3.468672398;2.845964309;34.71942355;-3.543132644;-2.20057917;-4.020730741
4.817561032;-9.936268093;-0.844735764;6.450804441;-6.77608612;2.006198102;4.854565302;6.919208189;13.79;0.784913932;-0.260776623;6.912337975;1.352848636;4.191820419;1.411698402;36.27841972;-2.727610384;-3.268830792;-4.529166345
5.483692435;-8.640896992;2.285056582;1.85662306;-5.021091073;1.74875612;1.411001665;7.071238837;15.32224944;1.119523384;-9.061103093;6.611120528;-0.044584034;2.730226069;3.838089198;33.21989237;-2.801551646;-2.757865176;-4.35708255
7.097560176;-3.701156802;7.697559582;-1.188026674;-2.755553947;1.522511242;-1.894428494;6.321098261;16.48417823;0.800662461;-20.14796283;4.059260596;-3.353380281;-0.331842935;11.77777679;26.97307828;-3.813445733;-0.134460344;-3.093917451
8.821362738;2.21031116;12.84042864;-0.895549061;-0.909790346;1.442946866;-2.25099395;4.768118359;16.03417964;-0.330263404;-24.85381713;0.536563998;-7.021395336;-3.317525381;22.85979208;20.69997974;-5.296445494;3.295584172;-1.018476436
9.103749103;5.368368551;14.87131174;2.113536293;-0.317345745;1.513062994;0.750370313;3.195935605;13.86082293;-2.080957539;-21.62334847;-1.818805205;-9.197002424;-4.459731846;31.40148374;17.20946859;-6.503570703;4.928887237;0.954684337
6.900440592;3.456811741;12.7202248;5.483315784;-1.236869801;1.641496854;5.293092865;2.545528386;11.28139172;-3.916375867;-15.22831198;-1.50230096;-8.948513637;-3.085544617;32.22163811;17.23356183;-6.890039063;2.717494176;1.92809259
2.746108254;-2.66482583;8.022077024;7.08770109;-3.129000781;1.724478093;8.744419302;3.244023301;10.0791261;-5.147137805;-11.54998611;1.21015228;-6.918395489;-0.156416712;24.73313816;19.2668918;-6.576600839;-3.043944169;1.744388228
-1.275823544;-9.283290728;4.085027101;6.669735531;-4.890497438;1.711760857;9.439137593;4.871150444;11.001996;-5.253831935;-12.75039182;4.308719402;-4.929619881;2.287101258;13.927334;21.00867869;-6.421812919;-9.476868331;1.133810021
-2.794162133;-12.19383694;3.544867322;5.835229779;-5.456652129;1.605949695;7.789076778;6.404115261;12.99333672;-4.19192786;-16.4689498;5.3129681;-4.795877596;2.461077098;7.077477083;21.24891295;-7.519615771;-12.77856832;1.097810228
-0.770962285;-9.526657829;6.410347174;6.46741419;-4.409513206;1.416887686;5.984322438;6.877005607;13.88414754;-2.474850045;-18.85364544;2.900029297;-7.152163424;0.038376504;8.374024209;20.72724309;-10.354627;-10.66300582;2.00482152
3.733772643;-3.033023708;9.976589237;8.948754951;-2.194705647;1.134826778;6.372326205;6.010058594;12.06980971;-0.926805554;-18.19489452;-2.226625005;-11.09819137;-3.652700065;15.568143;21.31953871;-14.18932706;-3.82904519;3.17066997
8.250686675;3.113037987;10.71706747;11.72357778;0.194419589;0.758576269;9.564639136;4.39275626;7.842365527;-0.209106634;-16.00758385;-7.811919974;-14.8570365;-6.586744706;21.40962264;24.23885123;-17.20976968;4.574710021;3.338960417
10.53764698;5.150480334;6.801776253;12.58680064;1.837990818;0.348389725;13.72969726;3.107488704;3.291616203;-0.413110209;-15.07747314;-11.50087924;-16.94039849;-7.455699443;19.05114787;28.72953728;-17.47573598;11.02511607;1.734611427
9.956914398;2.1841421;-0.550800346;10.60807358;2.38514508;0.03689565;15.85519475;3.043764194;0.833371086;-1.016009732;-16.66041978;-12.24523363;-17.00111728;-6.496035965;7.41545091;32.35315022;-14.12092817;13.69885941;-1.148389746
7.635803349;-3.432629026;-7.786236877;7.0445862;2.109153286;-0.035697273;14.26224315;4.339189674;1.514005726;-1.269061252;-19.44556562;-10.74608188;-15.84353215;-5.136385016;-7.64854582;32.70427932;-7.989263073;13.15158111;-3.700625453
5.425455346;-7.911440418;-11.18635718;4.432931844;1.548136033;0.177708845;10.4243692;6.287807215;4.378623398;-0.772682544;-21.00125603;-8.754894533;-14.69698691;-4.778083184;-17.47241445;29.24875213;-1.218094698;11.37076093;-4.239050617
4.560293744;-8.593177343;-8.942294375;4.577818581;1.052699614;0.578505393;8.345007935;7.756584265;7.297027044;0.172502561;-20.13110439;-7.847080413;-14.34661398;-5.67465843;-16.90886719;23.85412354;4.006164154;10.16057424;-2.174937973
5.02834105;-5.422628023;-1.829227872;7.087833001;0.587802056;0.97136387;11.5190928;7.843330122;8.497218392;0.716373849;-17.91418937;-8.5483784;-14.72194006;-6.76879364;-8.038404477;19.57990646;6.70329942;10.11531704;1.565483665
5.971413434;-0.490092773;7.664232127;9.664274551;-0.106113551;1.186171901;19.60271197;6.378597593;7.602586853;0.033076121;-16.5844812;-10.30518013;-15.12644276;-6.57295486;1.683445013;18.62281221;7.52798;10.73783512;5.166159144
6.581055234;3.694644436;16.83298276;9.906437336;-1.18321895;1.182000464;27.56268276;3.986517565;5.51;-2.080048828;-17.40806732;-12.12026776;-14.81750201;-4.366337247;5.453660187;20.93056339;8.11364194;11.26668204;7.098501729
6.658671626;5.725897054;23.77790036;7.165620352;-2.491745304;1.055061553;28.47441643;1.694653489;3.436775421;-5.009435054;-19.52754574;-13.26162065;-13.47358805;-0.769406754;2.605371427;24.44574653;9.830564243;11.33753773;6.980364868
6.452733023;5.600114654;27.54381005;2.976024209;-3.653522681;0.950114973;18.32230886;0.350196608;2.040644941;-7.680137806;-20.75590197;-13.55610163;-11.28461199;2.708458157;-0.857484122;26.68720944;12.83779545;10.98464451;5.558155381
6.104554389;3.944834036;27.79757172;-0.213554322;-4.322103251;0.950406813;-0.652135578;0.200549321;1.261538943;-9.203630019;-19.53049876;-13.22046255;-8.741361051;4.732319666;2.736889912;26.41791292;16.04832536;10.21512906;3.961582258
5.358261935;1.174166364;24.69841842;-0.911523099;-4.384383051;1.031907002;-20.71146234;0.875312936;0.786022628;-9.360543708;-16.28284525;-12.54245015;-6.381289953;4.962840057;15.99621326;24.20212767;17.94542451;8.756097784;2.894690368
3.855839841;-2.608371194;19.12270544;0.448823357;-3.955717334;1.10820321;-33.18939773;1.74347662;0.521784064;-8.602741764;-13.09293704;-11.7289243;-4.662239346;4.053098376;33.33604818;21.60685576;17.60596731;6.294485715;2.361293108
1.701307601;-7.048553306;12.7790954;2.113255454;-3.221970574;1.117188174;-33.70278853;2.381597022;0.610379814;-7.628601723;-12.01565571;-10.96208604;-3.928907281;2.948537278;44.16893799;19.84487413;15.21770675;2.951180625;1.997728848
-0.335190385;-11.1333926;7.67790427;2.523659122;-2.307860978;1.073186925;-24.3717726;2.828937786;1.074221031;-6.890708259;-13.5236455;-10.46121269;-4.340704515;2.153390875;40.31164787;18.97389865;11.82307791;-0.545986103;1.585847582
-1.284533599;-13.59024416;5.027376374;1.412792414;-1.291370606;1.046316626;-11.70976088;3.463505223;1.583589538;-6.405453089;-16.27353429;-10.37272473;-5.731908399;1.561495366;22.19515844;18.18161616;8.599812362;-3.236702351;1.255921137
-0.772913191;-13.87788456;4.345980336;-0.360288401;-0.312302805;1.095676142;-2.061691804;4.603623174;1.666736942;-5.959419187;-18.21829803;-10.55497803;-7.544801155;0.888034734;-0.789236498;16.7528149;6.255531554;-4.546534466;1.258679228
0.571296923;-12.83565383;3.65607134;-1.902082884;0.38398219;1.217390875;1.956532452;6.13783121;1.172471505;-5.481331384;-18.04978197;-10.51599273;-9.004985213;0.201009562;-16.20702831;14.81153862;4.911679227;-4.590405279;1.609509199
1.526534447;-12.22777103;0.859268643;-3.187293831;0.560995892;1.348100539;1.763684324;7.470733199;0.480781222;-5.232151351;-15.88060195;-9.684341939;-9.525636271;0.003908904;-16.60285253;13.21757702;4.403550233;-3.899413899;1.997625123
1.219575202;-13.3883321;-4.621832902;-4.924088017;0.182969632;1.414131561;0.391271255;7.84960559;0.182106114;-5.639491324;-12.85983229;-7.89316691;-9.086493731;0.777603256;-4.02866736;12.76174939;4.616499796;-2.869670722;2.057176689
-0.185069145;-16.06789596;-11.21636737;-7.566185487;-0.504289567;1.382671587;-0.180538241;6.860691639;0.495802349;-6.910440897;-10.26609717;-5.708414036;-8.2742399;2.418073022;11.86542618;13.38225075;5.541542145;-1.503224967;1.723710339
-1.654824605;-18.54105004;-16.18102864;-10.49175326;-1.116286843;1.278437359;0.183156068;4.752552601;1.014264139;-8.745590427;-8.837612946;-4.282559071;-7.891311154;4.126233051;20.48183778;14.06691048;7.063578238;0.284988882;1.310984894
-2.198648727;-19.00922198;-17.5163903;-12.24359905;-1.408119954;1.162886038;0.881519372;2.354041345;1.091910276;-10.40230104;-8.661853323;-4.754182063;-8.383652858;4.91263218;16.83909023;13.52166617;8.773545457;2.111188683;1.217611499
-1.750421498;-17.18490941;-15.37655402;-11.74751401;-1.458715324;1.09904341;1.897019193;0.629935003;0.569249366;-11.08886394;-9.403104333;-7.572842142;-9.513579142;4.328617459;3.756152531;11.08818046;10.07309943;2.946518073;1.539431293
-1.265133709;-14.70075447;-11.89226249;-9.474060007;-1.59218007;1.12462472;3.79610681;0.161401187;0.133411058;-10.42823539;-10.50460445;-12.20965938;-10.54024828;2.818054059;-11.13999613;7.243892929;10.54830202;1.651956227;1.965600956
-1.931763179;-13.92040272;-9.57859878;-7.448753821;-2.089752321;1.2395692;6.5821921;0.878955807;0.878419939;-8.689582637;-11.2729347;-17.44509069;-10.77869555;1.391565277;-20.76425971;3.367388296;10.30043932;-2.109589857;2.071097997
-4.160181531;-16.07366014;-9.608179251;-7.933747381;-2.93520276;1.404028656;8.974299144;2.191016721;3.347918567;-6.657229491;-11.02891823;-22.0198152;-10.10402312;0.887716172;-22.35932106;0.968865568;9.90843279;-7.344055245;1.734570622
-7.190254603;-20.23869315;-11.27860615;-11.73144102;-3.816966177;1.54754524;9.311972628;3.38318542;6.872413008;-5.242923256;-9.448566453;-25.20744954;-9.006799857;1.415546226;-17.66041441;0.881298788;9.988639065;-12.10875963;1.275790145
-9.63884926;-24.01100436;-12.96348977;-17.43740451;-4.38892099;1.59614769;7.471843345;4.00574474;9.839601681;-5.078488304;-6.900732574;-26.97591767;-8.165112431;2.396109291;-10.36617497;2.844040153;10.67326278;-14.61369664;1.160691447
-10.51229524;-25.30218785;-13.60767683;-22.26916144;-4.561304145;1.514834168;5.778419164;4.019252173;10.76970402;-6.288714315;-4.409337157;-27.73222994;-7.886574951;3.107282338;-3.502128715;5.633640929;11.43783915;-14.25245604;1.536892743
-9.848743508;-23.79527274;-13.45718946;-23.89187865;-4.563143302;1.341807255;7.477344054;3.668619772;9.366421954;-8.506607498;-3.095017197;-27.92192839;-7.872134348;3.237659748;1.442267309;7.633553639;11.45665142;-11.82257448;2.04824927
-8.51334733;-20.92607445;-13.49033665;-21.92501915;-4.722131023;1.181727804;13.59937927;3.241113666;6.703046157;-11.07039417;-3.420511813;-27.7841948;-7.484370191;3.002646649;3.766884153;7.589246414;10.24020091;-8.845783036;2.142116405
-7.410646331;-18.54179135;-14.21822658;-18.10196942;-5.167182319;1.147345668;20.92193641;2.901732408;4.407576234;-13.29572136;-4.823910545;-27.37117365;-6.29160159;2.797335061;2.766968035;5.237439507;8.0569053;-6.586062966;1.623887238
-6.842043981;-17.4771415;-15.06376705;-15.07739613;-5.735037481;1.281559967;23.29640315;2.68835366;3.525011946;-14.72673914;-6.079783887;-26.71691217;-4.443727859;2.764324256;-1.935513394;1.500287126;5.784456271;-5.508747882;0.948731074
-6.53025737;-17.24495033;-14.92711037;-14.79510387;-6.175918775;1.518286899;15.92842818;2.602436947;3.959266358;-15.28714986;-6.151050663;-25.96464223;-2.58524774;2.687561592;-9.327490038;-1.940930795;4.281843872;-5.446211944;0.933317058
-6.175532285;-16.94584797;-13.3658953;-17.47856524;-6.465304145;1.720177547;-0.518364859;2.672940284;4.857411331;-15.26649526;-4.882569189;-25.35359662;-1.390371977;2.28177018;-16.67099127;-3.573709592;3.771906282;-6.10476339;2.076807314
-5.918016342;-16.38082564;-11.16940963;-21.70778865;-6.905181686;1.773126671;-19.41079469;2.932957206;5.491418073;-15.1221247;-3.011109426;-25.1092853;-1.097855729;1.563291856;-20.82637237;-2.990781189;3.743541781;-7.337691091;4.059559108
-6.20715465;-16.22833705;-9.632029292;-25.28874861;-7.869965472;1.668085518;-32.01408223;3.354296234;5.827537607;-15.17347821;-1.525005517;-25.34397599;-1.398793575;0.917644461;-20.49169848;-1.192632617;3.480107994;-8.972025068;5.886216467
-7.195197437;-17.12215901;-9.096679633;-26.28720787;-9.385370565;1.505117016;-33.05025809;3.829544906;6.339248371;-15.36430594;-0.919212834;-26.02964133;-1.729515578;0.777707984;-17.44073699;0.06733437;2.798274895;-10.51591219;6.613908631
-8.290870738;-18.61112592;-8.177641673;-23.78142377;-10.92653989;1.414425632;-23.84394921;4.23693684;7.343145204;-15.27454189;-0.929389854;-27.02831038;-1.705521112;1.208145517;-15.40141311;-0.464795218;2.363700346;-11.23727738;6.093080362
-8.423171334;-19.19225008;-4.630926594;-18.22352536;-11.68420286;1.456462173;-10.83317238;4.53071086;8.546953787;-14.42430728;-0.889507839;-28.13636415;-1.354438401;1.797216975;-17.17865655;-2.607898382;3.244783788;-10.71739357;5.097158079
-6.919537135;-17.62910398;2.603808952;-11.41416033;-11.1604268;1.580633167;-0.844958442;4.764541059;9.244874162;-12.69529467;-0.343634999;-29.12707047;-1.004400292;1.984700254;-22.29458987;-4.938029844;5.978462025;-9.421527131;4.696873776
-4.272670064;-14.4631656;11.87408808;-5.997923233;-9.637882699;1.673446723;3.115205459;5.016879416;8.952513213;-10.56262248;0.614174366;-29.80219388;-0.969209703;1.551600697;-27.21916495;-6.08942017;9.87820801;-8.667536449;5.360879939
-2.052318692;-12.22747129;19.3096287;-4.408252884;-8.107031352;1.653184283;2.605226813;5.288317415;7.861561603;-8.916273978;1.508481791;-30.04567553;-1.303857101;0.833696898;-28.19268309;-6.167476242;13.22077841;-9.829458854;6.513687636
-1.884348358;-13.84923629;21.29483494;-7.54866105;-7.636198133;1.53249933;1.144566737;5.482386186;6.689368675;-8.53097127;1.954813761;-29.83596047;-1.798169696;0.452414594;-24.38298973;-6.992950072;14.31896045;-13.31221158;6.935057016
-4.226054856;-20.3110649;17.16195208;-13.96068091;-8.62235373;1.40205762;1.007597633;5.513460006;6.090344074;-9.524010072;2.019396611;-29.18224535;-2.155773741;0.782207416;-18.65852105;-10.69743224;12.7715506;-18.12995512;5.714744485
-7.91204813;-29.44733294;9.959914333;-20.26276132;-10.49074106;1.35722848;2.129717742;5.460978438;6.204125165;-11.19707217;2.201390264;-28.02274984;-2.172706347;1.615274495;-15.1410235;-17.57426992;9.943430578;-22.49342037;3.025651367
-10.8820231;-37.00119636;4.529205133;-22.95322362;-12.09105144;1.43410759;3.480645581;5.620589543;6.750285328;-12.4168954;3.09883078;-26.19463182;-1.782680323;2.324030981;-15.46359177;-24.94519817;8.207209257;-24.98755073;0.111052269
-11.57043083;-39.30377548;4.214478279;-20.6178654;-12.50526094;1.603740912;4.917405144;6.363392828;7.513659226;-12.30802892;5.027777012;-23.56205074;-0.993832799;2.39540622;-16.96702353;-28.29051932;9.368159057;-25.4124799;-1.513269369
-9.906099294;-35.61156828;8.667579226;-15.01850305;-11.66013756;1.814868122;7.384105433;7.868165363;8.662495085;-10.7916755;7.828138677;-20.25422717;0.160494027;1.888451351;-14.67647885;-24.21760505;13.34153861;-24.63470575;-1.050204367
-7.183490238;-28.37636837;14.37734255;-10.09416138;-10.28977103;2.033080053;11.35053503;9.915579085;10.51152546;-8.599443284;10.91662781;-16.82215458;1.584662444;1.426226965;-5.789724619;-13.24189668;18.04031041;-23.63722761;1.103898106
-4.969933819;-21.34600967;17.43382172;-9.352743916;-9.304668144;2.237203426;15.44260051;11.91844866;12.93222227;-6.761847333;13.51751052;-14.11701375;3.056074661;1.720922267;6.914912783;-0.171190429;20.59966722;-22.63875978;3.690596509
-3.959978808;-17.06015503;16.31346653;-13.41939198;-9.08637957;2.386167089;17.16834549;13.20546191;15.04381732;-5.945308444;14.97779282;-12.87511427;4.255514599;3.014419938;15.85866324;8.547084192;19.10906552;-21.06712899;5.417738451
-3.672926731;-15.6472184;12.55315872;-19.55987102;-9.269519445;2.406678404;15.44034755;13.39019709;15.63565524;-6.106836708;15.07837135;-13.24508309;4.933419911;4.874714839;13.62304518;8.901331437;13.66130369;-18.38474076;5.66741396
-3.14979563;-15.61963808;8.970406963;-23.62917467;-9.164527201;2.233791459;12.40937612;12.58401478;14.09574001;-6.682524489;14.21388988;-14.6043836;5.098196324;6.486423028;-1.316619762;1.985645402;6.045983334;-14.96920097;4.64784829
-1.977224945;-15.68779191;7.081822405;-23.07435599;-8.448204029;1.878305179;12.28581515;11.31010674;11.06824418;-7.121408713;13.28412933;-15.85999069;5.042173975;7.178722748;-22.4616467;-6.705602653;-1.577177584;-12.16817458;3.022722192
-0.736498231;-15.89978648;5.926593616;-18.76409463;-7.532391752;1.454863587;17.50382673;10.17738945;8.184301548;-7.330143107;13.24093886;-16.09513686;5.12562941;6.775914171;-38.7562697;-10.94099865;-7.966421361;-11.37219216;1.407240503
-0.510357162;-17.20546834;3.204778781;-14.25647877;-7.287942581;1.127593636;25.42603013;9.532410165;6.961148211;-7.687610917;14.48150597;-15.15434907;5.448389503;5.544764969;-41.57466843;-7.812480921;-13.10683175;-12.85458042;0.109001252
-1.899506224;-20.0525326;-2.362648595;-13.05552038;-8.332104605;1.001974791;28.98273848;9.313705235;7.708288856;-8.6378988;16.4896808;-13.76853745;5.670948829;3.862183147;-30.44117078;0.627656907;-17.44943748;-15.40233301;-0.806988839
-4.40662572;-23.47546754;-9.548593823;-15.94904525;-10.45118313;1.047965067;21.5952481;9.187347899;9.341045881;-10.19867033;18.06131482;-13.12090872;5.169815928;1.931904918;-13.42358638;9.14686828;-20.87505523;-17.13087438;-1.334237727
-6.714770317;-25.60455074;-15.29812541;-20.44934088;-12.63401421;1.123845322;2.862445991;8.851209607;10.28301874;-11.78161413;18.06318171;-14.1309837;3.464231946;-0.21639123;-1.836593287;13.02352031;-22.37291954;-16.86337328;-1.458403039
-7.626321471;-25.1462491;-16.98507893;-22.72302963;-13.71521489;1.089322817;-19.74775925;8.289249151;9.732537343;-12.48034765;16.23307389;-16.91601209;0.623537721;-2.496177067;-2.876238454;10.88786479;-20.77229747;-14.94287366;-1.246434092
-6.891648428;-22.45965589;-14.34795797;-20.48644413;-13.1527092;0.918441136;-35.154706;7.800559298;8.254435775;-11.6345846;13.41796384;-20.75319463;-2.655543466;-4.563615;-15.1972399;4.841280746;-15.91456944;-12.80138904;-0.928570073
-5.279901739;-19.22571971;-9.545751309;-14.65277355;-11.3650979;0.718488596;-36.05532184;7.783869062;7.220253626;-9.286944819;11.02512749;-24.52424173;-5.394244319;-5.87345202;-30.29290742;-1.792942096;-9.212749078;-11.66420716;-0.81144575
-3.892195985;-17.01532573;-5.410256701;-8.553766074;-9.399008295;0.638444312;-23.87656136;8.422081835;7.585803382;-6.234724558;10.06709273;-27.32522286;-6.891998935;-5.983694786;-38.4713234;-6.997909454;-3.008821886;-11.51433274;-1.050666569
-3.324431659;-16.08068007;-3.451736134;-5.45438381;-8.202859545;0.744357992;-7.433716564;9.481644025;9.04308787;-3.655023072;10.51938401;-28.86305873;-7.133257428;-4.882687204;-35.17574461;-10.8681681;0.859853013;-11.22117165;-1.488614638
-3.354546394;-15.46677979;-3.243189024;-6.32154347;-8.055050716;0.967050282;3.632770596;10.37768281;10.25303914;-2.538537762;11.4743466;-29.44289803;-6.768725551;-3.086545608;-23.44361068;-14.38109776;2.173787361;-9.719323705;-1.739548669
-3.33875884;-14.27329806;-3.486315046;-9.468366759;-8.536545227;1.163905275;5.464340579;10.49521643;9.95039174;-3.24374359;11.93867549;-29.62261078;-6.680789821;-1.424239018;-11.21120612;-17.59767286;2.225402612;-7.180147189;-1.488531907
-2.901178306;-12.78065633;-3.580797597;-12.13965551;-8.999120743;1.236847401;1.59280038;9.590282239;7.995829163;-5.370767615;11.61388458;-29.78894636;-7.412245862;-0.640482534;-5.730591507;-19.10643064;2.575686528;-5.08152682;-0.763038792
-2.298902741;-12.26038022;-4.192362629;-12.63397435;-9.117437736;1.201274559;-1.254439491;8.02051585;5.524972577;-7.967961243;11.04604697;-29.91032559;-8.816994952;-1.044813438;-9.06964683;-17.23611272;3.70010799;-5.01415914;0.062358797
-2.17709413;-13.56284657;-6.373483936;-11.31286642;-9.097208429;1.147896167;0.783356858;6.627560503;4.111633289;-9.946662768;11.08344317;-29.58455729;-10.1428083;-2.378859381;-17.51456422;-11.8464361;4.656963343;-7.186125513;0.54584697
-2.971762671;-15.84235634;-10.20622353;-9.905243302;-9.423751028;1.138339012;5.963607108;6.290254292;4.650507611;-10.53259325;12.15165391;-28.32788477;-10.48889116;-3.941571047;-24.76165592;-4.916042025;4.061820752;-9.929704789;0.512639035
-4.495510543;-16.80846852;-14.38543473;-9.907222129;-10.40246387;1.136143021;9.537644969;7.384307644;6.823216891;-9.592969923;13.95618799;-25.93063864;-9.363304269;-4.902671089;-26.27544884;0.786855705;1.536519373;-10.7439481;0.164413396
-6.04058553;-14.55241305;-17.23497658;-11.46080471;-11.87469846;1.041437484;8.922681262;9.483567769;9.464530459;-7.711239772;15.79586427;-22.67481562;-7.016469543;-4.681401344;-21.77862135;3.893538359;-1.640993233;-8.135445588;-0.118001321
-6.867583103;-9.447904876;-18.22710582;-13.49617192;-13.31153088;0.799585718;6.507908101;11.53127038;11.41161791;-5.946190406;17.1283214;-19.2765009;-4.359627112;-3.2468972;-14.55310437;5.54414146;-3.330029297;-2.807185176;-0.092360894
-6.640857714;-4.319363849;-18.50926108;-14.77624036;-14.17118326;0.480740742;7.412705507;12.4310895;12.12283963;-5.335474284;17.86344163;-16.56159365;-2.509310343;-1.196058086;-8.607342313;8.319243346;-2.201613358;2.788623124;0.19085836
-5.474814074;-2.424972099;-19.80956299;-14.80757771;-14.2193186;0.247452013;14.16863914;11.71958459;11.68082201;-6.358540923;18.18825099;-15.04819074;-2.206826973;0.480288852;-6.04894313;13.7789327;1.054053799;6.225126522;0.521086559
-3.64096383;-4.739494015;-22.63550343;-13.8884371;-13.58725229;0.22643244;23.21809339;9.884365237;10.37897282;-8.658286821;18.19897613;-14.69549913;-3.437400239;0.889017009;-6.43215875;20.69099885;4.027094724;6.822633292;0.798373797
-1.285180987;-8.840611647;-25.46917044;-12.46478989;-12.58599267;0.391297711;26.71210531;8.084223275;8.387508603;-11.22796583;17.76720384;-15.00220131;-5.470860184;-0.251819686;-8.090985696;25.5694841;4.255754688;5.970125561;1.161837601
1.54895934;-10.56417332;-25.89390198;-10.58862672;-11.48269244;0.563005881;18.5348027;7.41233179;5.787023264;-13.00289215;16.76883403;-15.40832604;-7.307566533;-2.397882225;-9.975002178;25.25096053;1.021756773;5.820814321;1.830087891
4.632566018;-7.327874178;-22.85758545;-8.072113472;-10.42996788;0.539872485;-0.289368276;8.170265358;2.815602822;-13.51107122;15.38274333;-15.71679122;-8.265915207;-4.45152148;-12.36719037;19.48369659;-4.093968723;7.439547174;2.790920818
7.335120269;-0.503310051;-18.10797159;-5.150495976;-9.55788529;0.259029229;-21.37125227;9.648485462;-0.040853509;-13.15016372;14.06998171;-16.19801517;-8.345183506;-5.402632263;-16.03029621;11.39394145;-8.307902209;9.906788801;3.648297507
8.783857685;5.207481144;-15.33904241;-2.879259284;-9.072859772;-0.139596831;-34.35198872;10.58952159;-2.280660719;-12.87526568;13.18840437;-17.25865598;-8.126237936;-4.935783368;-20.74719226;5.362872989;-9.531024913;11.09172942;3.823849117
8.3676619;5.122732288;-17.44864122;-2.673189669;-9.208995031;-0.400151362;-33.83329674;10.04444973;-3.72101246;-13.4841862;12.63182901;-18.91284738;-8.274619274;-3.584007385;-24.72168711;3.935970363;-7.648340304;9.446626949;2.998780579
6.214776651;-1.823104355;-23.98965482;-5.199666609;-10.03700915;-0.323210011;-22.58897374;8.045736752;-4.567485083;-14.99181198;11.93306082;-20.50954621;-8.993188595;-2.31126108;-25.5251607;6.167000744;-4.314889309;5.353462321;1.44028943
3.239415312;-12.01944368;-30.93560633;-9.532592886;-11.29996359;0.105446754;-8.859980101;5.62616556;-5.108741201;-16.55252528;10.82782092;-21.02946765;-9.8267839;-1.823230565;-21.90370387;8.629710648;-1.580571562;0.931295661;-0.090776932
0.666841308;-19.53396275;-33.15524383;-13.40003906;-12.45657665;0.718251206;-0.185466459;4.155259607;-5.336906282;-17.01693045;9.748971579;-19.82758644;-9.983446264;-2.115633228;-14.95983513;8.189985189;-0.493188816;-1.532941358;-0.830026855
-0.649434863;-20.15112506;-27.86487658;-14.52843046;-12.95280974;1.284486479;1.351164444;4.437153935;-4.925347537;-15.75328961;9.663477293;-17.2886816;-8.956128657;-2.589033455;-7.670239188;4.287394777;-0.693883028;-1.264524512;-0.542841375
-0.645987627;-14.11392859;-16.529199;-12.17525657;-12.54608762;1.645997792;-0.832474408;6.182706848;-3.672248859;-13.15847785;11.22548533;-14.83660028;-6.983398998;-2.61695546;-3.038618599;-1.000170379;-1.112191144;0.535477029;0.312769221
0.057826801;-5.64885292;-3.860413279;-7.718191839;-11.4449703;1.77658929;-1.770704611;8.212681968;-2.017635658;-10.4856014;13.9309555;-14.17057435;-4.978383371;-2.099382734;-2.304050696;-4.9436378;-1.000049591;1.761145167;0.930070801
0.656380403;0.173245059;5.240019531;-3.828634312;-10.15809875;1.746831868;0.799160635;9.249621711;-1.054968399;-9.084230367;16.1285415;-16.19482296;-3.938047984;-1.555648035;-4.581544161;-6.39431609;-0.417279328;1.086132593;0.745444113
0.64808235;0.777537604;8.499380014;-2.787822717;-9.16453671;1.649673342;5.262704854;8.764490267;-1.827052319;-9.548857072;16.10414999;-20.39521836;-4.243372944;-1.693163727;-8.111829837;-6.4041904;0.092623588;-1.115805596;-0.173333444
-0.006259941;-2.752015703;6.937669878;-5.098664347;-8.645237473;1.554063299;8.406769576;7.325453775;-4.35143849;-11.32350316;13.49248684;-25.14067322;-5.36739165;-2.816793561;-11.93495359;-6.879526018;0.14865548;-3.310967398;-1.227944924
-1.075941435;-7.207422956;3.259893625;-9.282484177;-8.452164549;1.505956562;8.633903405;6.244748314;-7.18850949;-12.99597176;9.834392259;-28.72673404;-6.225593141;-4.565101853;-16.4504031;-8.615448751;-0.184594113;-4.270404971;-1.778247126
-2.352687327;-9.960690772;-0.452698895;-12.88375004;-8.297027599;1.543711869;7.202928505;6.778154318;-8.067928055;-13.07227171;7.665015254;-30.43263116;-5.933477904;-6.179313803;-22.33870304;-10.50798109;-0.691552618;-4.167919253;-1.624049308
-3.771728844;-10.66442238;-3.90892479;-13.92125237;-7.979943397;1.68937981;6.711826884;9.388998553;-5.301168221;-10.75462399;8.69506354;-30.85694478;-4.432490032;-7.069843558;-28.87165211;-10.61094725;-1.460817542;-4.364173595;-1.115088875
-5.301004059;-10.87041247;-7.985859496;-11.86132081;-7.477674765;1.917886434;8.558350819;13.49959901;0.956423283;-6.303761502;12.46058802;-31.33922607;-2.540195123;-7.213606279;-33.36620046;-8.042383821;-2.918957992;-6.074128651;-0.837671022
-6.767383629;-12.25212155;-13.20568049;-7.655072604;-6.85784243;2.144698267;11.79615555;17.81841339;8.51876544;-0.858534157;16.53454694;-32.94322633;-1.401367769;-7.077245046;-32.69333337;-4.012646942;-5.317226127;-9.09209831;-1.156546412
-7.833877911;-15.08068253;-18.78522697;-3.033184809;-6.142720723;2.264641568;14.2615595;20.99549043;14.2664631;4.111751146;18.19070787;-35.75798319;-1.743375426;-7.165090614;-25.92602288;-1.04905762;-8.164346048;-11.72833167;-1.973114991
-8.181243963;-18.12029526;-23.02098482;0.389279458;-5.276292834;2.224627822;14.69046178;22.22387511;15.84690641;7.412160517;16.26071155;-38.97172165;-3.454836222;-7.58827491;-15.93491174;-1.07999987;-10.25162947;-12.09543937;-2.850765194
-7.743567153;-19.77846097;-24.52844773;1.725472573;-4.231815167;2.070886998;13.77344947;21.50522209;12.89234963;8.528666651;11.78478986;-41.56;-5.741530464;-8.001817656;-8.243008545;-4.007019074;-10.41179901;-9.714553578;-3.352760998
-6.787636863;-19.37057834;-23.19342181;0.985422603;-3.146373732;1.922817708;13.27526393;19.51866745;7.032736235;7.724060341;7.042147077;-43.00039299;-7.688937717;-7.924988998;-7.533507101;-7.919366808;-8.436883363;-6.079218616;-3.297332523
-5.756420819;-17.4722707;-20.09086852;-1.113218844;-2.325683707;1.886050079;14.22223805;17.22284687;0.804918105;5.836789245;3.829153604;-43.49290829;-8.801635056;-7.145947957;-14.26053264;-10.66035617;-5.33796191;-3.628912328;-2.75748219
-4.993768601;-15.26149385;-16.59309976;-3.538149483;-2.071497965;1.973121859;15.95302755;15.40212606;-3.763127379;3.875016447;2.369922195;-43.62112199;-9.168422503;-5.876786665;-24.06694459;-11.34015895;-2.638783312;-3.897161269;-1.884579473
-4.558522696;-13.58666814;-13.51118882;-5.403475765;-2.451933454;2.098152515;16.88327425;14.34937987;-6.026491341;2.556257504;1.60779222;-43.82390032;-9.219114844;-4.571420007;-30.73934684;-10.56445007;-1.239384967;-6.324854276;-0.77887926
-4.25379503;-12.5575449;-10.91136701;-6.349125775;-3.210274048;2.150412469;16.15367688;13.80447604;-6.662926485;1.986964188;0.435981014;-44.122213;-9.327873343;-3.605389753;-30.65177025;-9.389670487;-0.803798831;-8.737404673;0.456343395
-3.825457824;-11.83971285;-8.542409305;-6.658557257;-3.913805439;2.084256486;14.53234045;13.16773412;-6.914547256;1.65780475;-1.286148969;-44.25230296;-9.570545369;-3.091247623;-25.30555982;-8.153993274;-0.204423534;-9.141637945;1.561619495
-3.170378117;-11.20672611;-6.321954191;-7.006910435;-4.250236499;1.949993806;13.72597417;11.89139407;-7.722854663;0.797848049;-2.758799362;-43.99692753;-9.763790215;-2.928221849;-19.89666456;-6.333334954;1.367157042;-7.393940245;2.089025307
-2.417900223;-10.81546027;-4.459667113;-7.949347653;-4.246523895;1.843530816;14.80117341;9.850237525;-9.27227339;-1.082987119;-3.143957069;-43.39205297;-9.683050314;-2.954410419;-18.93815656;-3.475971017;3.619499595;-5.352525932;1.619906835
-1.861635711;-11.07454723;-3.285371302;-9.480724485;-4.231567652;1.823658635;17.23181042;7.469771049;-11.10737341;-3.793325582;-2.438200131;-42.67110857;-9.259950163;-3.011080356;-22.40265667;-0.146117574;5.428524681;-5.341664269;0.116559666
-1.813789578;-12.37271867;-3.12172159;-11.00174699;-4.56215969;1.870634604;19.43448326;5.500149969;-12.64040922;-6.490693242;-1.545269097;-42.07405833;-8.636729264;-2.882436729;-25.58177412;2.245890469;5.922362503;-8.152645146;-1.883229751
-2.465719949;-14.92862121;-4.323852981;-11.74328137;-5.323685903;1.917476811;20.21294212;4.538230329;-13.69936561;-8.170400029;-1.58116139;-41.73629932;-8.095748644;-2.261822098;-22.95854018;2.740611781;5.378687307;-12.23084559;-3.448728661
-3.792622205;-18.71677485;-7.215604265;-11.32800855;-6.243950075;1.917333569;19.7062311;4.591624506;-14.80046306;-8.317189875;-3.124913608;-41.7308053;-7.952005584;-0.90195931;-13.10232779;2.033008038;5.054845018;-14.76745359;-3.753895559
-5.507778243;-23.25565151;-11.6225853;-10.01098901;-6.891169011;1.880415128;18.99065631;4.996761501;-16.99098867;-7.277780489;-6.073466517;-42.14685661;-8.462684176;1.097101073;-0.59905485;2.229266895;6.033474789;-13.85949138;-2.562569021
-7.083688169;-27.27638897;-16.18652803;-8.391298144;-6.996198601;1.848880545;18.84046993;4.796743603;-21.32316177;-6.076148683;-10.09221732;-43.06180085;-9.746933511;3.124849533;6.765269926;5.033280575;8.123402759;-9.995264603;-0.353192035
-7.874735629;-28.68565917;-18.17495161;-6.838379688;-6.632497207;1.842165296;18.96349477;3.369771959;-28.22133151;-5.771729024;-15.07078077;-44.42;-11.70808475;4.271187292;3.614303998;9.8005995;9.910946565;-5.636100016;2.008410393
-7.342500405;-25.27537127;-14.41978503;-5.139230935;-6.098324715;1.834982022;18.50094026;0.89525048;-37.10554233;-6.785267224;-21.0668752;-45.98885981;-14.00697017;3.875698865;-8.863574992;13.33020445;10.07869137;-3.212326247;3.805211941
-5.302129155;-16.08401982;-3.183275304;-2.697558222;-5.592286825;1.795409408;17.24155985;-1.682268021;-46.54344257;-8.646393434;-27.84140575;-47.51874628;-16.16207118;2.049490065;-23.44149211;11.99928095;8.90628649;-3.172983758;4.826547034
-2.049709933;-2.570242568;14.21067037;0.86364821;-4.958310817;1.744389102;16.19346238;-3.207345984;-54.91385344;-10.32481263;-34.59070853;-49.01151414;-17.78080644;-0.263932735;-31.71920055;4.816848277;8.526827896;-3.716837138;5.318611188
1.728126716;11.45092014;33.31561358;5.213539208;-3.742327689;1.766879116;16.73846595;-3.043797099;-61.22645007;-10.90609478;-40.3221123;-50.81939699;-18.7961676;-1.819885627;-29.68700112;-5.088298782;11.43759215;-2.459330542;5.627603007
5.227852989;21.45355416;48.45487977;9.38076595;-1.562548366;1.944479007;19.0643512;-1.501517599;-65.59243737;-10.15278141;-44.62993828;-53.38449916;-19.5217328;-1.869106099;-19.91589702;-12.06373159;18.26304963;1.33485138;5.862749822
7.827122827;24.57605881;55.512928;12.35307833;1.47120987;2.25748322;21.4939031;0.328185418;-69.03051169;-8.599138175;-48.11130922;-56.75020968;-20.43782269;-0.653574702;-9.011564174;-11.74876335;26.5794866;5.847351835;5.854099536
9.241561884;21.15307286;53.81366395;13.73334485;4.632407297;2.547618992;21.68742024;1.22548861;-72.72670125;-7.165859333;-51.89106557;-60.24980846;-21.83060906;0.769283743;-2.595162981;-4.328203556;31.96368027;7.971657077;5.405194724
9.495470269;14.28335834;45.88230892;13.93290121;6.901723589;2.594070559;18.92267853;0.559341937;-77.24159701;-6.594956433;-56.55333651;-62.71366606;-23.55132701;1.251959627;-1.73804507;5.363772109;30.74204255;5.793178315;4.583526489
8.803415811;7.700039063;35.43218627;13.78018248;7.56450269;2.261033236;15.35852935;-1.38494482;-82.18642778;-7.08204416;-61.42332735;-63.13419633;-25.09826619;0.306800513;-3.293449219;11.18020413;22.5154916;0.266355305;3.76840208
7.49277529;3.471036238;25.16347195;13.90113525;6.67808067;1.605783409;14.71933212;-3.650019531;-86.54032362;-8.300491573;-64.93125776;-61.31433457;-25.97546275;-1.639612587;-3.325217152;10.06382548;10.58074889;-5.342813989;3.398080891
5.995286843;1.162014116;15.90825663;14.3686283;5.061927277;0.856860293;18.98921044;-5.227528661;-89.32225724;-9.728827486;-65.83706633;-57.98202975;-26.0466997;-3.611263363;-0.538508748;4.227429052;-0.112633337;-7.880801883;3.628186071
4.80913252;-1.074440049;7.404317468;14.82338754;3.782589866;0.271298763;25.72460182;-5.635721372;-90.11555053;-11.01252325;-64.25982803;-54.25995318;-25.59065884;-4.732815232;2.985392798;-0.553368009;-6.003751017;-6.675616692;4.197567662
4.327868763;-4.526783383;-0.362203645;14.84193569;3.466476066;-0.023199578;28.60986457;-5.098673264;-89.11957418;-12.11399098;-61.55977741;-50.91096484;-25.00460708;-4.675046055;3.941943858;0.737083248;-6.790211779;-3.919986052;4.62537203
4.580604742;-8.731265282;-6.595783189;14.17365678;3.91296434;-0.083063163;21.56792141;-4.26100079;-86.80058952;-13.18068022;-59.13809167;-47.97209296;-24.40884096;-3.643944297;0.680250996;8.660527371;-4.913064962;-2.723923556;4.583632492
5.095221495;-11.96268597;-10.32968551;12.70714323;4.285423869;-0.066650478;3.76486876;-3.676300792;-83.49637288;-14.25599182;-57.23925261;-45.0561331;-23.50978542;-2.057855839;-5.64095267;18.98186968;-3.278513318;-4.403434852;4.141858237
5.094209396;-12.84833937;-11.44999404;10.376153;3.755989477;-0.09110682;-18.35783936;-3.429472326;-79.28836592;-15.05450099;-54.88384813;-42.01748051;-21.87864712;-0.266051034;-12.27566716;25.81508523;-3.093105298;-7.238412776;3.687571117
4.003090671;-11.61883231;-10.92650042;7.28569386;2.154471284;-0.147989736;-34.11498409;-3.132179026;-74.17219893;-14.98200285;-51.0215592;-39.35919146;-19.44695018;1.467540083;-17.05710104;25.78267656;-3.415087343;-7.776513096;3.595889804
1.955277893;-9.891568671;-9.899655829;4.030212178;0.159281195;-0.14000885;-35.11412991;-2.266841556;-68.30535012;-13.43521275;-45.80844708;-37.99232495;-16.8052751;2.802450736;-19.52449809;20.07771526;-2.52696158;-3.693480263;3.92455947
-0.118245426;-9.20837955;-8.487001621;1.808916376;-1.114977691;0.005174022;-20.91418768;-0.626443222;-62.09528121;-10.23839848;-40.72208589;-38.543686;-15.00899583;3.255766624;-20.31604311;13.06784401;0.22098511;4.079835294;4.381107969
-0.982511678;-9.651382107;-5.579275051;1.956530874;-0.853993678;0.251238201;0.320964666;1.455606676;-56.07862333;-5.951882418;-37.29132625;-40.81835216;-14.96615252;2.400178802;-19.87012565;8.762879629;3.696381119;11.71475832;4.577548098
0.095229617;-9.786738962;-0.040368816;5.00081775;0.904585426;0.474273014;16.9447128;3.247786385;-50.72240374;-1.800394125;-35.5896188;-43.88365992;-16.81654939;0.207287368;-17.97758717;7.975905607;5.922872978;15.11636017;4.352863999
2.788590314;-8.013311772;7.650898802;9.926842724;3.282575112;0.567126272;21.3767552;4.0540877;-46.28899153;0.848868958;-33.99526956;-46.67726655;-19.74154724;-2.770103269;-14.60736888;8.256341729;5.757824851;12.81271195;3.897822679
5.843386828;-4.151741545;14.88384138;14.39302035;5.11745859;0.531519387;14.8603254;3.66627011;-42.78428167;1.241596728;-30.61154581;-48.57592234;-22.3471543;-5.58732379;-10.9077643;6.388341501;3.812764953;6.887289796;3.589325708
7.850838123;0.122383458;18.27072839;16.00685594;5.669066928;0.474496604;6.04712179;2.538716901;-39.92661342;-0.216007222;-25.11454533;-49.43418486;-23.3722079;-7.38015251;-8.960464961;1.294962883;1.832183278;1.299332701;3.680612905
8.128766842;2.423908231;16.00838107;13.87529318;4.996327506;0.511068201;4.355327489;1.55311243;-37.1359814;-2.032779282;-19.21371976;-49.15191588;-22.28244206;-7.794775303;-10.12620994;-4.951489258;1.100684772;-1.016810106;4.101203387
7.079383396;1.468041454;9.382544069;9.266170289;3.781573734;0.657353888;12.79730965;1.496493407;-33.65893578;-2.412685086;-15.07323472;-47.32969861;-19.43784917;-7.084219088;-13.44165611;-8.671030155;1.281121591;0.006729169;4.518232437
5.781479001;-1.92742842;2.10269024;4.775979751;2.782613129;0.806757029;25.43782018;2.56935702;-28.92505061;-0.345525046;-13.02020986;-43.51416955;-15.82942065;-5.849064538;-15.8252395;-7.313562724;0.710640128;2.12106233;4.596493042
5.155199628;-5.441292851;-2.137089133;2.535579368;2.339471283;0.810457074;31.4221343;4.241797254;-23.01379458;3.676310593;-10.80513194;-37.92638677;-12.61956302;-4.663677639;-14.34825113;-1.234032709;-2.060354781;3.06645352;4.248253857
5.349156961;-6.926209745;-2.034369445;2.789877488;2.278700983;0.595741237;22.84189857;5.56907491;-16.87645559;7.846400476;-5.493744639;-31.96269794;-10.73758816;-3.865139629;-8.818193398;6.732768631;-6.758623614;2.629555476;3.693962337
5.794252779;-5.803206468;0.792775441;3.95;2.224529472;0.225945628;0.893416782;5.783904917;-11.98644886;10.10698916;3.406182606;-27.77778796;-10.63593294;-3.584502124;-2.33559886;13.36014876;-11.1830985;2.758577516;3.315919267
5.818934425;-3.127774149;3.405614704;4.065798591;2.011947363;-0.143668024;-24.13236635;4.792017009;-9.471737292;9.44183781;12.52763296;-26.99119215;-12.18331989;-3.871941634;0.93749496;17.06052118;-12.54407454;5.719866477;3.434494164
5.280154186;-0.429332708;3.8750886;2.518105942;1.845809334;-0.374858452;-39.20951368;3.24709195;-9.25969795;6.543185613;16.82635299;-29.41329734;-14.67168118;-4.722703897;-0.91239441;18.39800196;-9.366719984;11.9064458;4.158721762
4.689396076;1.594106713;2.485769868;0.543383332;2.089422966;-0.433108088;-36.98370969;2.151455412;-9.909381433;3.383365976;14.13489849;-32.87820324;-16.98918819;-5.973952429;-6.002071044;18.96292613;-2.54628424;19.16019457;5.369889377
4.7652988;3.433052091;1.033870901;0.160926632;2.889478673;-0.38994824;-20.42253064;2.243770723;-9.400118846;1.966341935;8.263731298;-34.52257457;-18.01245136;-7.233229067;-10.3264215;19.752965;5.195333893;24.18580012;6.791905979
5.828128585;5.979437897;1.052779176;2.396383825;3.981774166;-0.349782813;-0.500791261;3.576990187;-6.430991991;3.10633855;7.27860123;-32.70202884;-17.12661914;-8.011391718;-11.30146206;20.41813396;11.00520437;24.9135686;8.076831992
7.556433001;9.386142902;2.554482283;6.281726154;4.862186906;-0.365953053;11.39935458;5.556000534;-1.323403891;6.0521236;17.24387289;-28.13919536;-14.59955725;-8.038588874;-10.05124189;19.84502972;13.50676591;21.92296878;8.884284616
9.279971758;12.60570114;4.215157256;9.466522113;5.187496501;-0.409475304;10.98860731;7.386643846;4.168685179;9.159717905;35.87170585;-23.40398884;-11.51507698;-7.523817476;-10.28192041;17.40335103;13.25052094;17.83729764;8.978975846
10.50665867;13.99458081;4.575432603;9.940648275;5.063683267;-0.404460414;3.232352783;8.611195838;8.053306497;11.07183536;51.5761921;-21.08486232;-9.205338153;-7.100126147;-14.58566736;13.70485036;11.86588004;15.23911601;8.346964169
11.20094304;12.4537731;3.041121498;7.468080924;4.964563503;-0.292575302;-2.162033685;9.364350956;9.450474492;11.54363736;49.97272186;-22.01608063;-8.480563871;-7.426841129;-21.44137307;10.24137601;10.69831635;14.78855146;7.262214809
11.59806629;8.18439041;-0.101782115;3.612481783;5.333911433;-0.075071097;1.555358689;10.19880414;9.120152407;11.38122801;24.12;-24.85580475;-9.153597283;-8.712813533;-25.78647253;8.262316454;9.967498423;14.97842176;6.210582461
11.79545815;2.543265442;-4.343763069;0.433344117;6.198377547;0.192208181;12.99966918;11.63536482;8.81522739;11.65116379;-18.78731026;-27.22176382;-10.20169202;-10.52182958;-23.0058389;7.873529572;8.958165441;13.6068639;5.65733783
11.57726193;-2.745720437;-9.338196736;-0.992311856;7.119780559;0.437246024;23.71487568;13.76680053;9.993341014;12.82962912;-59.83037998;-27.38858101;-10.47476767;-12.02324983;-13.09197942;8.109782165;6.934416613;9.723236538;5.780419628
10.69064588;-6.334064339;-14.53618708;-1.021759285;7.534684176;0.61174355;24.51699375;16.17521879;12.86785323;14.51728767;-79.18624446;-25.21691783;-9.463348259;-12.51251241;-1.34167966;7.890994421;3.980412846;4.535526176;6.360650514
9.316909194;-7.48187817;-18.62109924;-0.650529816;7.199676279;0.709196953;12.3033734;18.18336086;16.44917159;15.83764752;-68.3891993;-21.74829172;-7.591024698;-11.82569686;5.248058102;7.034684272;1.120031738;0.672861456;6.93436683
8.220625026;-5.904671873;-19.76043377;-0.355642665;6.364967633;0.757823568;-7.65734002;19.23924161;19.42441718;16.10896384;-35.58798647;-18.05397785;-5.84515169;-10.37047775;3.068705001;6.457056405;-0.337658682;0.46486339;7.117623564
8.295821787;-1.697230954;-16.97957594;0.283326428;5.527070958;0.798036542;-25.40916079;19.18235494;21.11386362;15.24903594;-0.047951074;-14.46192334;-5.043231734;-8.799620036;-5.672894006;7.367320073;0.283807913;4.524710474;6.861683298
9.788334823;4.42311436;-11.65937198;1.853961906;4.976552723;0.856381415;-32.97481841;18.26414224;21.79272213;13.68788391;20.29998293;-10.77825562;-5.281117955;-7.604873395;-15.11649746;10.0963762;2.509924558;11.51912711;6.436610905
11.85983013;10.83727115;-7.577195728;4.050241627;4.546026915;0.926884415;-29.04611157;16.97347074;22.26691605;11.99959999;19.62055648;-7.091871892;-5.940267461;-6.91433844;-20.53234814;13.53731506;4.950392923;19.03999077;6.154021435
12.98117127;15.25313618;-8.830954741;5.440288466;3.803057274;0.971129261;-18.61095193;15.81374234;23.18968048;10.63354254;6.060408212;-4.180982534;-6.192108777;-6.565039231;-21.58448509;15.7398141;6.13016185;24.78956665;6.062849946
11.98755026;15.65560083;-16.80889093;4.493368734;2.544847247;0.944220917;-8.46;15.14937755;24.70998117;9.919512124;-5.829732691;-2.966086473;-5.579174977;-6.302574854;-21.40163315;15.31225061;5.38644;27.33088511;5.889562254
9.024645038;11.51526994;-28.51686467;1.089492512;1.162915778;0.838292977;-2.440676849;15.14884243;26.63613028;10.18693187;-5.994947398;-3.470313184;-4.243328423;-5.917082677;-22.60934134;12.61054865;3.278497279;26.22597964;5.297146201
5.601610405;4.385171602;-37.87028977;-2.857576176;0.514996889;0.715004834;0.039519596;15.7901167;28.80556182;11.7199642;4.928575251;-4.372122361;-2.688618977;-5.259109532;-24.23358252;9.755301231;1.265539856;21.88050214;4.257401718
3.614657591;-2.698903862;-39.36342854;-4.421938865;1.333277949;0.693631666;1.81495919;16.8961659;31.22656899;14.48187792;18.02373246;-3.81377773;-1.333244943;-4.225556577;-22.54959513;9.314606814;0.851229944;15.42119766;3.205543847
4.022491109;-6.778047098;-31.57724356;-1.734045426;3.599840871;0.886292702;4.638745286;18.19445369;33.86799406;17.85945373;24.29604005;-0.973404959;-0.229973603;-2.810822762;-15.20551472;12.47518717;2.714689073;8.57656074;2.797610337
6.172217947;-6.533533631;-17.95387554;4.463648386;6.393520718;1.315106586;7.791842685;19.39492033;36.37383471;20.76196316;21.78067235;2.939406208;0.854549685;-1.1924708;-4.674252989;17.9850956;6.359533066;3.282835655;3.413514819
8.30334061;-2.85941834;-4.295117863;11.05339453;8.37767189;1.872567205;9.489932832;20.25417051;38.06897234;22.13837805;16.15712925;5.298727152;2.127298419;0.278768714;2.629777893;22.71007813;10.49427487;0.918755231;4.782186121
8.851364129;1.865262648;5.060954187;14.50649598;8.610308952;2.366363927;9.250039063;20.5870035;38.32614396;21.58132047;15.02899145;4.014430931;3.522609919;1.254867571;1.42157974;23.55437464;13.88580582;1.528903338;6.047697263
7.553331482;5.235159349;9.500573135;13.17304762;7.104269492;2.629736468;8.642307983;20.23234438;36.99164743;19.54481588;21.0596097;-0.675898117;4.728442239;1.623494202;-7.395192829;19.49919579;16.10007813;3.646747996;6.274509299
5.525904639;6.022233158;11.33481141;8.239863496;4.749632482;2.623189889;9.64511302;19.04446537;34.49257253;16.98259804;29.73769349;-6.105604718;5.439121995;1.57900587;-16.43821516;12.34164472;17.60313233;5.039458715;5.051376219
4.305571384;4.447253507;12.96505484;2.720954908;2.686569396;2.451687032;12.34336176;16.98357293;31.54218353;14.69354711;33.4509638;-9.006515243;5.603768866;1.417796548;-17.32347851;5.557411382;19.14265632;4.026236272;2.765890182
4.645797175;1.569976814;14.58056496;-0.68606696;1.606908122;2.281727078;14.49217543;14.28553482;28.72652191;12.91281102;28.26382077;-7.907460448;5.466685729;1.20493971;-7.84110462;2.018354392;20.88026452;0.515959123;0.358885597
6.013471419;-1.586748915;14.27416128;-1.27873059;1.468900294;2.220274128;13.69672149;11.5650864;26.33181225;11.46569468;17.62678154;-4.194905211;5.386267222;0.633638141;5.207590751;2.141234317;21.98436813;-3.970755066;-1.253329832
7.121025533;-4.541409033;10.23235706;-0.441487177;1.751923768;2.248451856;10.26275902;9.680716949;24.49276013;10.28609548;9.855789066;-0.945006119;5.59438475;-0.715212666;10.43630381;3.778222512;21.09941108;-7.327681146;-1.674256519
6.990393359;-7.281517136;2.853815158;-0.286229819;1.964705976;2.258916988;7.767739419;9.334922784;23.40208955;9.756244643;11.39482504;-0.433326291;6.077457202;-2.859691262;0.603269473;3.925036064;17.44071121;-8.218380025;-1.119038019
5.660732282;-9.882529007;-5.181040972;-1.995071711;1.982538927;2.16131721;10.24237747;10.61949273;23.27912819;10.48274546;21.38869118;-2.3260277;6.633605597;-5.091940194;-21.13581184;0.997940166;11.71286966;-6.829557976;-0.107872461
4.010078125;-12.23618792;-10.94367545;-5.067329568;2.004696957;1.965709547;18.0468238;12.84414694;24.09965966;12.6671777;32.11086825;-4.023543715;7.018695225;-6.223806376;-42.6537497;-3.993020022;6.068946765;-4.573997746;0.942023236
2.924039308;-14.09394908;-13.52368371;-7.849080584;2.271594232;1.775673039;26.16332372;14.85582369;25.4179286;15.66800071;35.10042944;-2.879279037;7.058192073;-5.354325825;-51.24451348;-8.225387374;2.97094123;-3.07447199;1.896185508
2.558004332;-15.30723404;-14.44767869;-8.76995222;2.850412322;1.702162728;26.9945706;15.71387182;26.58947234;18.25377723;28.2;1.514703648;6.676643999;-2.634527865;-42.72357292;-9.183767548;3.64085557;-3.222951443;2.757151781
2.295149935;-15.99447972;-15.84764974;-7.344185806;3.662779895;1.776891144;16.00737885;15.28220912;27.30079638;19.45211589;17.77266385;6.834162103;5.885913796;0.59896484;-24.3110005;-6.50444789;7.177357249;-4.929879241;3.386518633
1.366485142;-16.46852563;-18.02947848;-4.352413686;4.648996194;1.941107542;-4.134334093;14.29732481;27.91540515;19.31262914;13.99267125;9.71562178;4.786111071;2.536563696;-9.173224229;-2.178879868;11.02167398;-7.562866231;3.394916815
-0.455903988;-16.97967684;-18.68564464;-1.275811415;5.824431397;2.115340646;-24.48103164;13.82042984;29.19937004;18.87649541;22.51250361;8.26457125;3.573143949;2.023737663;-6.923181763;0.954472297;12.53321292;-10.55646808;2.343738829
-2.689746976;-17.47412908;-14.58952292;0.533690943;7.121826547;2.281270276;-35.42091141;14.44341894;31.53297638;19.26980942;38.83775164;3.388627235;2.498608633;-0.691925734;-17.30754516;1.183053134;10.64580336;-13.65615655;0.122600332
-4.5882237;-17.54684141;-4.42878222;0.487921031;8.186713326;2.495681812;-32.90536575;15.83011512;34.27913369;20.61744659;50.02490708;-2.030427197;1.760353645;-4.15356078;-31.52621092;-1.180073242;6.505622222;-16.69185586;-2.802577766
-5.746024608;-16.635141;9.612867556;-1.003239854;8.414669084;2.819337541;-20.64289827;16.94485481;35.98815662;21.72309951;43.036458;-5.352594895;1.390101701;-6.69902697;-39.54648888;-4.55616348;2.696623539;-19.23961617;-5.498452651
-6.310758243;-14.35926406;22.91955166;-2.712361818;7.33287331;3.224549301;-6.825520018;16.8040493;35.45377385;20.90108467;14.12020032;-5.956847919;1.249168262;-7.537788275;-37.3436258;-7.714286105;1.618021362;-20.61510132;-6.999206558
-6.651021503;-10.83519058;31.36505128;-3.147095417;5.076580437;3.570779787;1.788565286;15.18157911;32.82349531;17.38691505;-27.41590927;-5.23197507;1.174795071;-7.116019193;-28.6168358;-10.7637362;4.097207427;-20.29802661;-6.80068313
-6.851705189;-6.779989064;33.80085611;-1.355471142;2.524839006;3.682601021;3.806653024;12.73427453;29.76090038;12.19122525;-63.92085432;-4.977156746;1.179555601;-6.545626547;-20.3696394;-14.66229854;9.061786651;-18.44097555;-5.107423944
-6.558036536;-3.304703049;32.23659863;2.33530752;0.8590155;3.475286431;2.534533403;10.47231944;28.3467173;7.612955056;-79.67823366;-5.691288804;1.523226924;-6.597906574;-16.64576398;-19.73899303;14.30907788;-15.9766162;-2.698058909
-5.341699498;-1.443182985;29.76174785;6.13674013;0.776175031;3.027875462;2.03835151;9.01777339;29.48111436;5.668437341;-70.03248435;-6.207141385;2.548644842;-7.07849479;-15.74313539;-24.66078527;17.71363774;-14.1369103;-0.51792683
-3.246183047;-1.64627723;28.02431266;7.517268291;1.940646977;2.542165843;3.698735171;8.251292732;32.08355488;6.601028249;-43.51439717;-4.88993835;4.365146708;-7.064873681;-12.85633917;-26.94328882;18.08274179;-13.68713388;0.749211417
-0.968751277;-3.557754964;26.25291511;4.620194216;3.156294937;2.216432317;6.013607276;7.611316724;33.8390494;8.651061977;-15.91104115;-1.270148365;6.619786676;-5.782229795;-5.40212043;-24.76298164;15.30215928;-14.44257149;0.91168341
0.553323301;-6.26367223;22.36710866;-2.430122646;3.213756833;2.12835194;7.13409002;6.756776343;32.98829114;9.328655283;-0.528969038;3.342858349;8.57057403;-3.38761131;3.7989885;-18.6140002;9.983492748;-15.44673858;0.236020025
0.839388814;-8.891258294;14.99616175;-11.28374082;1.812071274;2.209069729;7.187721634;5.994811916;29.74105482;7.26138609;-1.079194603;6.794391184;9.464015119;-1.020415774;8.254615129;-11.3402821;3.070948281;-15.68938327;-0.769084581
0.247525038;-11.13801192;4.668212496;-18.53707609;-0.16282816;2.314207097;8.013254337;6.073442207;26.13065217;3.217608929;-11.36735458;7.758476877;8.979373921;-0.068238832;2.980284713;-6.338031088;-4.328968062;-14.82640218;-1.609131795
-0.311109586;-13.3053598;-6.631225949;-21.68367207;-1.263841781;2.325139233;10.77525723;7.487079658;24.3871161;-0.475406267;-21.12285518;6.743902874;7.430345557;-1.206201207;-11.15900665;-5.239663515;-10.99530649;-13.36229872;-1.98942107
-0.110721485;-15.77435314;-16.87172208;-20.5630982;-0.576238883;2.204003615;14.1907709;9.88300792;25.15486947;-1.667973154;-23.34369309;5.626524947;5.580058594;-3.920191206;-27.44838653;-6.879581981;-15.77581858;-12.17254813;-1.884478745
0.807332685;-18.34937906;-25.02716477;-17.29491611;1.544929387;1.978849958;15.53153863;12.11163885;27.0433329;0.048603709;-18.09886232;6.146433205;4.204717152;-6.830718869;-37.64909639;-8.357656293;-17.97928107;-11.75538897;-1.496645479
1.690836715;-20.08862772;-31.01149745;-14.73371828;3.670140357;1.69700317;13.67233666;12.95355188;27.89799987;3.119519015;-10.79610261;8.624286547;3.715275033;-8.535883596;-37.34756821;-7.345271155;-17.73577422;-11.81313222;-1.135261665
1.711990281;-19.89787047;-34.89631282;-14.53953926;4.294575627;1.399482882;11.07119757;11.99313522;26.72260017;5.258772217;-7.01837493;11.88623168;4.081152399;-8.360199737;-28.47695325;-3.798853337;-15.97528936;-11.50602278;-1.064662864
0.639924834;-17.49710311;-36.39292007;-16.21131825;2.897315819;1.130910381;12.17767753;9.95838619;24.61183408;5.144712458;-8.17035421;14.33075154;5.051379719;-6.549487404;-17.49497428;0.231503606;-13.91534253;-10.18902841;-1.38240315
-1.002024956;-13.93314635;-35.13301361;-17.68682;0.275574582;0.952834331;19.07092726;8.244222948;23.87776254;3.288597019;-11.02702479;15.15548807;6.444776379;-3.910645195;-10.86276301;2.42881048;-12.34717503;-8.041233649;-1.983631127
-2.389847973;-11.05423909;-31.35038535;-16.96023717;-2.069385427;0.923624262;28.14909921;7.969890766;26.08949623;1.490289605;-11.00041054;14.73934042;8.258503958;-1.26705436;-11.07050896;2.087504747;-11.21492549;-6.047198381;-2.629449713
-3.04393501;-10.19027007;-26.12612154;-13.49689158;-3.00099997;1.049838104;31.42850137;9.281447939;30.6882038;1.406277699;-6.150803689;13.99494942;10.53232931;0.879980194;-15.6232111;0.500212249;-9.794725512;-5.275140966;-3.080153917
-3.11906317;-11.04648853;-20.8354041;-8.501130126;-2.465118692;1.257375363;22.30051278;11.4082956;35.37243884;3.388027248;1.301256121;13.41037384;13.13574159;2.368629587;-19.1462614;-0.363510318;-7.337439407;-5.966915264;-3.216758127
-3.141245278;-11.8164121;-16.30480218;-4.019007959;-1.368319913;1.426076054;1.48809573;13.38295463;37.95671478;6.440972325;6.971180609;12.70606313;15.71756236;3.240806981;-16.87375296;0.355163452;-3.696484418;-7.168541468;-3.085742696
-3.484952137;-10.62209731;-12.53542607;-1.6621578;-0.795596059;1.475508076;-21.85975145;14.81900471;38.15327444;9.208854789;7.988603745;11.40681119;17.9098563;3.670302174;-7.344172694;1.737997196;0.506123337;-7.285801462;-2.853640643
-4.07633432;-7.246756473;-9.284694019;-1.842041371;-1.222638547;1.433112476;-35.47038947;16.12163012;37.77850802;11.09083389;5.320293464;9.754914171;19.63546766;3.993206417;6.995056006;2.097647632;4.254262503;-5.258656507;-2.709068392
-4.549461058;-3.70105927;-6.878290753;-3.853131253;-2.306349979;1.417037525;-32.05590147;17.98433278;39.19838201;12.56970781;2.939623133;9.043977616;21.24082627;4.69119673;21.26210059;0.719545945;6.733413871;-1.513170699;-2.764975619
-4.638393826;-2.93431421;-6.298660004;-6.490555549;-3.319553308;1.533556682;-14.18649182;20.61010391;43.29125657;14.54138405;4.61808302;10.92735624;23.28195797;6.187262783;30.70702761;-1.250798874;7.710700452;2.092739525;-2.995160321
-4.382422735;-6.470305082;-8.269482639;-8.654897688;-3.783407059;1.767952469;7.733489333;23.31632516;48.59547107;17.27413179;10.94078233;16.13856384;26.06051788;8.516888551;33.0126229;-1.611477283;7.486904134;3.4359381;-3.217558885
-3.940909391;-12.76044449;-12.13085354;-9.646382226;-3.755595415;1.965567541;22.72295957;24.87175618;52.31866846;19.91195342;18.84936007;23.6080462;29.23;11.13174967;29.17175471;1.051775247;6.557699999;1.667578764;-3.134220125
-3.2353696;-17.70187896;-15.70907185;-9.219666448;-3.592378392;1.932695601;26.13717078;24.32931425;52.3698621;20.96754193;23.94705403;30.72266783;31.78880891;13.06834595;22.48593453;6.05654972;5.304039267;-1.991843436;-2.439962595
-1.842054847;-17.2035476;-16.61895635;-7.583901181;-3.477010552;1.586482233;21.29579148;21.72636048;48.7969292;19.43408791;23.67279532;34.64818891;32.53157204;13.45651193;16.27680115;10.98811966;3.928055357;-4.882442176;-0.985980574
0.666629677;-10.05798748;-14.10077297;-5.365243803;-3.184858401;1.03462251;15.35636416;18.1249382;43.57316259;15.64295342;18.91678012;33.87026046;30.71629985;12.05651233;11.80485394;13.46147277;2.593270436;-4.636397663;1.072826178
4.19;1.006104259;-9.818961387;-3.392768516;-2.305727084;0.514966915;13.40687722;14.96392259;39.04366456;11.18879511;13.01569948;28.97080217;26.53728713;9.446338967;7.931168182;12.83685676;1.558332289;-0.831314546;3.258983654
7.885818752;10.96758514;-6.762274109;-2.27443864;-0.70976689;0.235479943;15.54930576;13.1969274;36.35071898;7.957791384;9.136939757;22.20128027;21.10139777;6.707946607;2.900271147;10.515502;1.143804878;4.649326477;4.954156271
10.56474932;15.74701083;-6.972755429;-2.011232303;1.185316161;0.235922348;18.5855947;12.81687303;35.0181258;6.960777123;8.177280627;16.2015826;15.90855021;4.815193075;-3.111827223;8.663774044;1.562479659;8.879552218;5.723567321
11.45522556;14.72555383;-9.923411797;-2.013386916;2.616291358;0.376287255;19.86440611;13.04959262;33.8077128;7.791734271;8.675099184;12.68615351;12.13797708;4.133595911;-6.968709249;8.51334572;2.780589419;9.914902905;5.588618203
10.73615873;10.77277548;-12.93617041;-1.615617006;3.003663541;0.456274351;19.4714304;13.00295562;31.93554241;9.045310331;8.509924253;11.81754529;10.1453619;4.346157021;-4.421301141;9.653005114;4.538718093;8.108420417;5.035018872
9.381376925;7.873809227;-13.3620782;-0.723094387;2.376352114;0.367915455;19.15055861;12.26347571;29.59303628;9.331047553;6.798192891;12.4768909;9.428225812;4.803418252;6.183943412;10.77947968;6.502889153;5.736797129;4.700285509
8.419927693;8.210970235;-10.73933313;-0.010147017;1.341404093;0.162720087;19.73280946;11.03513056;27.47428097;8.138501363;4.437812224;13.11430316;9.027485692;5.006933089;21.31395044;11.08464124;8.402753803;5.214407575;4.927758178
8.213138432;10.86593444;-7.126212007;-0.413930354;0.625316982;-0.010984203;20.11982277;9.798873254;25.9156844;5.988414962;3.036428199;12.62930081;8.091421145;4.883182929;33.4134882;10.96631161;10.05270744;7.259887774;5.515122555
8.339840455;12.96737397;-5.337651023;-2.291497336;0.561071938;-0.040119043;18.92975233;8.824722312;24.51012144;3.870115476;3.32349237;10.8431912;6.275436843;4.702904154;35.67611938;11.45922775;11.29259813;10.43550185;5.881260372
8.157542177;12.20749741;-6.600808065;-4.971957646;0.922841557;0.061256314;16.84776881;7.935477831;22.51554465;2.470048828;4.469255072;8.423599023;3.795298739;4.773368867;27.10156256;13.01335031;11.97461073;12.42070999;5.567404076
7.518092039;8.682357744;-9.640274287;-7.149257519;1.20696313;0.168286589;16.71433195;6.684029075;19.60668772;1.779888466;4.837973223;6.405104425;1.178346984;5.168141878;13.73082092;14.86607348;12.06212558;12.00749843;4.701020048
6.980058594;4.67996902;-11.96338031;-7.82817446;1.089208277;0.146783961;20.59298383;4.771788614;16.23497545;1.313687698;3.433496994;5.600987934;-1.083316813;5.6799676;4.600965323;15.69574558;11.75159128;10.20003906;4.027659742
7.306362315;2.736756519;-12.20256396;-7.014345832;0.663627258;-0.046533013;26.41689788;2.360190167;13.27747432;0.669675503;0.74632967;6.199561753;-2.766370863;5.982213415;5.194157225;15.01249935;11.44338554;9.476521753;4.415468142
8.681565005;3.619118467;-11.44161061;-5.544364628;0.278845364;-0.339730124;27.92231543;0.025418497;11.33003906;-0.072836826;-1.703884821;7.717689578;-3.944332463;5.835127434;13.48041014;13.96650439;11.48406424;11.73018348;6.155900594
10.36135908;5.833900132;-12.31780099;-4.240883643;0.141438125;-0.604443412;18.9929926;-1.614522179;10.29482597;-0.454461908;-2.683769672;9.29933409;-4.860623735;5.18029116;21.86225043;14.67292937;11.82096558;16.50771113;8.594532902
11.12127807;6.957142272;-16.61307398;-3.22719327;0.050737493;-0.742913798;-0.655306391;-2.325448396;9.589504201;-0.129418493;-2.261280852;10.175581;-5.765763668;4.095283385;23.59176542;18.44571811;11.85713937;21.00852926;10.43270747
10.18898514;5.614006757;-23.37459452;-2.09749273;-0.490585388;-0.739374487;-23.44182345;-2.421548303;8.717856084;0.696671183;-1.66937607;10.03125005;-6.807724947;2.703818475;18.39491595;24.37829911;10.71042194;21.97911729;10.55623934
7.909059662;2.506503161;-29.20404696;-0.783132496;-1.868415898;-0.651994129;-38.0505961;-2.541911106;7.649656802;1.303224064;-2.179528926;9.097700145;-7.989542891;1.150623982;12.48402933;29.56170168;7.792860309;18.14700064;8.82784704
5.57999845;-0.254045452;-30.57216587;-0.172886983;-3.981450005;-0.567753925;-37.13999805;-3.187996256;6.708851313;0.996025769;-3.97422919;7.966606184;-9.164626376;-0.34335661;12.76928586;30.95189098;3.34833372;11.35874725;6.258673413
4.565268231;-0.867953566;-26.35860836;-1.645418454;-6.205887204;-0.55692138;-22.69480069;-4.344408154;6.168921848;-0.257634498;-5.965755905;7.274548585;-10.05770525;-1.436357526;20.13770849;27.53038005;-1.450569518;5.510981563;4.394240692
5.35958892;0.796699354;-18.65399057;-5.682870576;-7.741933071;-0.645764031;-4.594040813;-5.457496844;6.003237571;-1.64457773;-6.678521748;7.437649779;-10.33864219;-1.740425872;27.77026806;21.09192357;-4.98261983;3.996974689;4.314113165
7.310781498;3.23356349;-11.27316214;-10.77823206;-8.093483179;-0.805051771;6.659107995;-5.806249544;6.015278423;-2.005689413;-5.429153511;8.520539057;-9.772002121;-1.029730992;26.40228289;15.02205797;-5.98417692;7.486551931;5.932717846
9.158115005;4.571479236;-7.200961182;-13.88240277;-7.344129509;-0.951078011;7.317458444;-5.025547678;6.141231618;-0.712693883;-2.836809585;10.21213943;-8.396537769;0.536162176;12.4268309;11.97335506;-4.199088053;13.58974982;8.080809445
9.914737944;4.001453842;-6.888054081;-12.44177082;-6.058156051;-0.968305933;2.075250604;-3.419995629;6.535795857;1.736592325;-0.298052759;11.86118455;-6.611872126;2.353856632;-8.081157654;12.17298259;-0.482599849;18.55592445;9.294522843
9.412739159;2.253975195;-8.47756572;-6.583948952;-4.909178011;-0.762059465;-0.968348741;-1.830618638;7.308345431;3.917593937;1.084844179;12.59525394;-5.055015217;3.588346655;-23.31766305;13.55964905;3.681795554;19.71246708;8.750629807
8.178717449;0.864265386;-9.490724;0.428501359;-4.310397959;-0.324215996;2.492562868;-1.116928545;8.196375607;4.411019092;1.243654585;11.59309578;-4.273527908;3.587849557;-24.9614869;13.52164435;6.938347513;16.92513833;6.715629408
6.876261402;0.914501315;-8.532688072;4.170865169;-4.278838775;0.233700008;9.788142694;-1.593962128;8.590448047;2.821455452;1.024814146;8.494928635;-4.37339061;2.273296939;-15.2128215;10.83983069;8.648875768;12.21034799;4.254981235
5.847229866;2.256660735;-5.861444179;2.177771797;-4.570627538;0.720946411;14.57304703;-2.817533516;7.99314331;0.110518828;1.417373053;3.755245659;-4.896742052;0.246150657;-5.563998857;6.411326193;9.038123002;8.023896576;2.476556022
5.092375023;3.734054006;-2.752394223;-4.180175882;-4.936060428;0.973456591;13.31073637;-3.884433501;6.51618047;-2.05390427;2.812110698;-1.35526787;-5.071603592;-1.498990548;-7.781070912;2.37142367;8.91464022;5.613147189;1.868205689
4.579543138;4.110899547;-0.466478514;-10.65562416;-5.291448926;0.958089304;8.880058594;-4.05191437;4.8931254;-2.487060416;4.838256156;-5.248384428;-4.320228502;-2.129927048;-24.08029105;0.449131564;9.205304683;4.568305663;2.150508732
4.485514835;2.946616901;0.361486114;-13.30393104;-5.701581897;0.79380008;7.898691997;-3.240772754;3.892766663;-1.328774425;6.768411968;-6.820826764;-2.695343162;-1.484457435;-44.47126033;0.843079025;10.55959455;3.659086317;2.648749619
5.102211501;0.815251963;-0.262563613;-11.42655882;-6.220058594;0.662862434;14.08296256;-2.056217953;3.611368422;0.11754152;8.035090246;-6.06987546;-0.917276262;-0.20978789;-53.71149766;2.342178806;13.14587506;2.081988615;2.829488236
6.51327934;-1.164611742;-1.903712455;-7.924452821;-6.732313924;0.672490035;23.69181783;-1.306636997;3.322832997;0.443340169;8.431545053;-4.066276101;0.059065645;0.581461381;-42.67676361;3.402222832;16.62171537;0.086989952;2.600207158
8.39428345;-2.052361098;-3.799148334;-6.763318751;-6.932453699;0.774614295;27.49478656;-1.37444207;2.123191128;-0.721502299;7.974871866;-2.235201501;-0.321194049;-0.045448673;-15.40769346;3.25558902;20.22003906;-1.389662216;2.222882332
10.17329565;-1.563823192;-4.92986916;-9.614403332;-6.465723699;0.81241972;18.08630649;-1.910826162;-0.126221222;-2.379871686;6.754923607;-1.401368586;-1.813864904;-2.290619463;13.48469794;2.286633426;22.93807708;-1.611988614;2.006733918
11.43170491;-0.095439028;-4.360600659;-14.4329349;-5.152789932;0.661272946;-3.407873023;-2.087629151;-2.404084972;-2.927626168;5.037260401;-1.262698683;-3.503632853;-5.495595656;28.82849628;1.583826972;23.84620996;-0.631247021;2.072150328
12.18071686;1.591109624;-1.852516627;-17.1492736;-3.152628381;0.350413381;-26.96;-1.219164622;-3.130579203;-1.418753833;3.507720495;-0.67488321;-4.382551488;-8.52867543;24.5723091;2.163638472;22.47510817;0.880508279;2.351541139
12.75745539;2.78173844;1.731352032;-15.06761505;-0.94902673;0.061273972;-40.23570001;0.71219337;-1.364507603;1.654696743;3.253620478;1.452736748;-3.982112825;-10.42807719;6.220427173;4.437174894;19.12374965;2.316574994;2.759022532
13.44354028;3.141973498;4.777111637;-9.145896128;0.851794726;-0.003920941;-37.10949216;3.012037063;2.362468361;4.676229905;5.220019531;5.291331794;-2.630309219;-10.88950115;-14.7545673;8.139324179;14.87756531;3.695637615;3.328820204
14.17289476;2.885143863;6.003659627;-3.267212301;1.805218397;0.218066402;-21.54975403;4.721102767;6.282756711;6.050727957;9.388479959;9.861208707;-1.18515148;-10.30423855;-29.15022974;12.56084544;11.2287311;5.615762127;4.18550744
14.60733258;2.720394698;5.50740601;-1.125325943;1.824065196;0.592033556;-4.139223041;5.193585031;8.537724544;5.267957367;14.34129358;13.56259477;-0.471302344;-9.372749469;-34.37815332;16.82411095;9.422336155;8.665874803;5.383712848
14.4986312;3.539221222;4.831701984;-3.322250437;1.161578568;0.875726716;5.663451375;4.37754656;8.323221986;3.065642888;17.75259914;15.06019507;-0.831970923;-8.607488528;-32.65328014;20.0947413;9.861141422;12.79893563;6.774115189
13.97007813;5.909548474;5.835739113;-7.06055475;0.195297854;0.892012503;5.404419098;2.644296661;6.160561007;0.63562472;17.68581637;13.92240058;-2.076049513;-8.088168538;-26.34312441;21.77212382;11.92104421;17.16922304;8.02
13.42169415;9.63249339;9.184088523;-8.612467641;-0.830391664;0.648161177;-0.398885948;0.392009704;3.190058594;-1.395896115;13.87305462;10.67398408;-3.77539426;-7.611299015;-15.68092791;21.67826321;14.31168853;20.545246;8.752226389
13.13415832;13.70016746;13.71384225;-6.439694227;-1.906040292;0.313779517;-5.209781036;-2.193888434;0.203529946;-3.331565119;8.016737776;6.37144482;-5.61622098;-7.05786799;-0.872913806;20.14074796;15.78690973;21.97959876;8.741630751
12.9660776;16.80639682;17.28316343;-2.361126907;-3.119939522;0.083786066;-5.691330176;-5.031898422;-2.726452596;-5.834872497;2.783939672;2.081938634;-7.519868777;-6.636548637;14.31592145;17.8456001;15.78745815;21.27563361;7.976619742
12.48246672;18.1626613;18.45614896;0.124469528;-4.395625307;0.041183863;-3.117975318;-7.853685644;-5.797205848;-8.996242243;0.129552082;-1.426629265;-9.484325686;-6.774268772;22.29643655;15.49856351;14.64137016;18.99392324;6.630572776
11.44906755;18.05922367;17.61975586;-1.144004366;-5.345034957;0.12510629;-0.728126876;-10.09170921;-8.782543652;-11.93744227;0.134250503;-3.747371862;-11.34298777;-7.729077724;16.42511972;13.52597811;13.23247695;16.07903169;4.986412935
10.24029266;17.69591007;16.57190367;-5.18646582;-5.415114384;0.215542929;-0.197810776;-11.14729701;-10.88087717;-13.38819986;1.205691073;-4.795070519;-12.68839499;-9.24842524;-2.719087127;12.0420349;12.38228837;13.39559739;3.379366646
9.72050357;18.30793816;16.92627657;-8.719333726;-4.274709805;0.250219402;-0.552514862;-10.86245672;-11.31942955;-12.78393522;1.482024441;-4.770648187;-13.04404656;-10.58611223;-25.47634243;11.06615472;12.34906074;11.43440935;2.150198345
10.59908136;20.17946355;18.71391007;-8.802819595;-2.161533671;0.271296796;0.015837889;-9.765483641;-10.13030537;-10.90670883;0.362073504;-4.083221735;-12.14782588;-10.9228341;-38.53058141;10.71482718;12.73304236;10.27226959;1.560621045
12.75711893;22.30258582;20.39469569;-5.033283583;0.117719209;0.369303741;1.835499026;-8.788835226;-8.270573887;-9.411046281;-1.01101085;-3.144302308;-10.12626564;-9.913916929;-34.27858001;11.09815965;12.78639496;9.707158325;1.667125076
15.14085469;23.01134261;20.25081617;0.431989658;1.612260197;0.583545409;3.543277281;-8.593133698;-6.840470587;-9.50967898;-0.671733352;-2.094901821;-7.443421025;-7.965380483;-16.84564262;11.96494919;11.87417113;9.437305202;2.237428737
16.38917737;21.18476527;17.91623435;4.790933271;1.824771641;0.851902791;4.106277674;-9.010233318;-6.041831246;-10.86216519;2.577657645;-0.693552401;-4.687115013;-6.017127075;0.509666177;12.47856306;9.787102976;9.192376897;2.821210075
15.751176;17.13946057;14.69345602;6.652011371;1.056535936;1.053303496;4.680123379;-9.093131464;-4.866398829;-11.63769039;8.161498044;1.449922501;-2.347332275;-4.961320313;5.136293962;11.50544029;6.769355635;8.789035093;2.993734573
13.58061882;12.51954006;12.41386108;6.540402581;0.21914708;1.101802726;7.903041121;-7.809727904;-1.928049358;-9.825081125;14.08641216;4.39842105;-0.689572452;-5.0858142;-5.519004892;8.378210614;3.34267319;8.127517873;2.635437818
11.01687865;9.227575428;11.90659572;5.728930451;0.209039956;1.008063341;14.82621259;-4.889665441;3.176441749;-4.850374585;18.35096957;7.562471052;0.283590693;-5.915143173;-22.15478104;3.590225443;0.108619616;7.167015544;2.032431307
9.118190634;8.166386632;12.45866308;4.771104966;1.272309566;0.857468107;22.37158341;-1.169678656;9.149223986;1.73405351;20.27968807;9.896303169;0.830414779;-6.542809325;-31.04071722;-1.227518063;-2.361490879;5.919786437;1.680280195
8.149966946;8.710058594;12.6887172;3.19931082;2.811850464;0.730236596;24.26183793;1.857281087;13.62233629;7.046499208;20.74883144;10.58689776;1.418001795;-6.215323713;-24.76985485;-4.215873799;-3.58437859;4.479422504;1.898912372
7.577232427;9.272580587;11.91855306;0.536623219;3.775971131;0.638135984;15.46452765;2.972322123;14.71710343;8.597962339;21.19564031;9.7373159;2.553280039;-4.776795352;-7.872868696;-4.521149629;-3.269006936;3.049594114;2.545115138
6.702262319;8.520306333;10.67520648;-2.616302596;3.349860302;0.53263698;-3.168171071;1.951747847;12.29680667;5.706991841;22.28828229;8.439328175;4.484337509;-2.705691873;6.970988234;-2.925667355;-1.482750828;1.904830971;3.075811157
5.352695536;6.315742164;9.841499027;-4.753303745;1.464898053;0.371915638;-24.09631259;-0.436116105;7.908020637;-0.334708474;23.37284951;8.05580019;6.915605795;-0.766134157;8.874601028;-1.320685989;1.246965531;1.24777392;2.963295753
4.019430268;3.723052764;9.372422137;-4.924043679;-1.20416651;0.181355564;-37.34953995;-3.095384109;3.503309278;-7.306813068;23.12437157;9.188858461;8.98480395;0.458915757;-3.116549175;-1.342493846;4.06184482;1.030330907;2.172216615
3.357976945;2.137322465;8.047030095;-4.073628674;-3.700199189;0.050330813;-36.97462093;-5.356738017;0.051662812;-13.4120899;20.80384242;11.14118469;9.64628153;0.846061506;-19.8442123;-3.17962088;6.157010153;0.895812483;1.313932075
3.53833959;2.238529928;4.804936174;-4.722730576;-5.338344811;0.066909266;-24.87869054;-7.224746847;-2.812991567;-17.95157121;17.02883105;12.35440703;8.310798487;0.682227683;-29.4202483;-5.473245034;7.215058036;0.363685785;1.299510349
4.052033623;3.542208531;0.585667978;-8.89079133;-5.97886846;0.247209438;-9.197520159;-8.988276707;-5.911084208;-21.02959654;13.40795541;11.5453765;5.326796692;0.381914113;-25.9584521;-6.40247219;7.571589455;-0.803847348;2.687717203
4.159440621;4.812951547;-1.22030709;-15.91872066;-5.90647067;0.51920966;1.46763618;-10.61780089;-9.309402437;-22.81754285;11.3732177;8.676333423;1.908379295;0.19860875;-12.96250869;-5.119196727;7.935368198;-2.3142864;5.189058673
3.57373315;4.956084064;3.324404228;-22.25162628;-5.50596349;0.772068753;3.544212433;-11.54321448;-11.95204173;-23.16597351;11.21415952;4.996110121;-0.528645558;0.117719562;0.494301922;-2.420391804;8.812031654;-3.418190146;7.722767678
2.75635583;3.707939602;15.51312801;-23.75974153;-5.023718523;0.927036179;-0.182946326;-11.05190909;-12.49568659;-21.89237101;12.10179429;2.123103719;-1.21104475;-0.040060577;6.873261661;-0.14646579;10.04181882;-3.386673592;9.050403974
2.540894963;1.68232038;32.00093613;-18.97357949;-4.555569554;0.97267223;-3.840872329;-8.978800195;-10.58452752;-19.35875451;12.99667071;0.91059962;-0.441362772;-0.42491624;4.659858892;0.211135593;10.82595825;-2.088968344;8.586557924
3.40125743;-0.149511357;45.92643292;-10.60684554;-4.170780031;0.943302365;-3.298892671;-6.070462743;-7.370107109;-16.65197254;13.56801535;0.996367163;0.699462159;-1.031823838;-2.617997052;-1.38234924;10.27147272;-0.205764013;6.827507975
5.002292544;-1.094163461;50.78257287;-3.927808896;-3.982289857;0.869484332;1.225295323;-3.649504661;-4.746311568;-15.05066836;14.29395937;1.352027432;1.158038911;-1.719636654;-10.74483678;-3.493508121;8.077711155;1.169520018;5.075485834
6.42980575;-1.056624333;44.4399249;-3.044886986;-4.075546267;0.748250221;6.311995122;-2.782592911;-3.930665124;-15.1528588;15.71473131;1.30925668;0.613491051;-2.329625141;-18.00579454;-4.244555136;4.845281783;1.31476148;4.614896714
6.906184171;-0.433342016;30.41245068;-7.934921932;-4.388016497;0.555964505;8.661707307;-3.58105779;-4.626804519;-16.40998203;17.6237109;1.160975445;-0.439428798;-2.788977559;-24.58113196;-2.55011969;1.74685787;0.46383855;5.881022937
6.378997408;0.227626984;15.42033581;-14.55029645;-4.701218515;0.284941258;7.636261544;-5.177704729;-5.495513087;-17.51980037;19.03962562;1.832130321;-1.244924137;-3.115521424;-29.62508536;1.321286306;-0.22085617;-0.302448925;8.17593267
5.488504967;0.534705355;5.046424282;-17.93818518;-4.796873026;-0.034322381;5.230975074;-6.395613806;-5.493625077;-17.41806548;19.03774386;3.934784948;-1.482283718;-3.336048945;-29.82107756;6.136258978;-0.855883623;0.165453972;10.1169041
4.965026593;0.404544926;0.638681008;-15.93640126;-4.650414931;-0.345572022;4.040698789;-6.588232415;-4.863941974;-16.09441669;17.64608321;7.054211951;-1.51281801;-3.409566729;-21.60952199;10.57632721;-0.783406018;2.212857903;10.50865763
4.995456053;0.083288071;-0.473542603;-10.60084041;-4.471308443;-0.599833781;5.211954326;-6.018028507;-4.879113364;-14.58641725;15.88905499;9.903843494;-1.98828671;-3.242459076;-5.382057725;13.88817959;-0.895644833;5.099783775;9.056943226
5.105719023;0.077502921;-1.992855603;-6.372615998;-4.525133394;-0.777867681;7.918263088;-5.528495868;-6.574626829;-14.16718214;14.85932064;11.23231699;-3.187111121;-2.796926902;12.50807443;15.93450782;-1.650211399;7.544662655;6.471718771
4.639281442;0.962111695;-5.468506667;-6.561562479;-4.877340077;-0.884944363;10.34750203;-5.819632637;-9.631142384;-15.37782854;14.69225669;10.727643;-4.678452648;-2.197615386;22.61842842;16.84911515;-2.774901004;8.657605851;3.939512535
3.392476222;3.038387901;-9.368282524;-10.92878022;-5.288164531;-0.929357745;11.08310111;-6.910984686;-12.44741177;-17.6455918;14.51567452;9.185957537;-5.624508124;-1.719666942;18.66251645;16.76903763;-3.584156177;8.507274296;2.36614947
1.850265331;5.971745554;-10.83675908;-16.10754499;-5.367625768;-0.909999266;9.877805032;-8.174818234;-13.38392009;-19.7270995;13.55050285;7.851655873;-5.468759473;-1.625200339;2.370356023;15.89060472;-3.609180311;7.880889973;1.911779799
0.83737278;8.707741679;-8.387168077;-18.28363806;-4.869758401;-0.825404688;7.651165169;-8.846702248;-12.1054432;-20.56858125;12.31700457;7.516850694;-4.412486;-1.94751661;-17.0974603;14.66052816;-2.993608289;7.493925295;2.093120539
0.912481369;9.910078125;-3.20358582;-15.89758868;-3.875993077;-0.692077887;6.06969608;-8.574168377;-9.852193242;-19.91301822;12.56954714;8.106498929;-3.257935311;-2.394905536;-29.0357668;13.72752402;-2.317247134;7.38175121;2.307957192
2.029149808;8.810510276;1.897917245;-10.38361984;-2.713446777;-0.549341547;6.907098742;-7.602830271;-8.411131911;-18.27703294;15.64943464;8.990471312;-2.744296645;-2.484081536;-28.01815959;13.53518032;-2.007551762;7.028937113;2.351099505
3.709194811;5.935742594;4.770845529;-4.720731696;-1.69287148;-0.441619587;11.08078295;-6.538408373;-8.694608793;-16.4614675;20.59217768;9.626280378;-2.944628903;-1.845412101;-16.61568637;13.87636046;-1.865906617;6.099876151;2.534467289
5.497540905;3.075767538;5.467391126;-1.258280129;-0.913356455;-0.392135029;17.51158429;-5.944600932;-10.14783998;-15.07096734;23.99159246;9.921489031;-3.23957075;-0.492072076;-2.357786262;13.897481;-1.15888574;5.039823449;3.346467256
7.236853231;2.287424487;5.783959493;-0.549091253;-0.310846629;-0.390790038;22.63995094;-6.084932525;-11.43171643;-14.3758148;22.40564523;10.06783382;-2.880357131;1.158278383;8.161514596;12.72040886;0.744544187;4.878890229;4.938840675
8.919471818;4.463575378;7.383963009;-1.767100831;0.115999928;-0.405200866;21.62728235;-6.908412358;-11.67839507;-14.45318034;15.74795081;10.15174698;-1.640489471;2.553045031;13.20027231;10.28535795;3.688061208;6.286378534;6.853729774
10.32246317;8.476006204;10.2139065;-3.886643219;0.157698354;-0.402510677;11.27159037;-8.151917324;-11.13901252;-15.29737824;8.655778277;10.04093795;0.015210949;3.385543529;15.11887851;7.715952588;6.581057254;8.679731242;8.217526209
10.87290457;11.65570737;12.54116078;-6.385327228;-0.477537675;-0.362749327;-7.009955498;-9.40076416;-10.65971521;-16.70910905;7.858534234;9.702552971;1.380548946;3.803883167;16.44270744;6.784100423;7.982634942;10.2876592;8.277639824
9.982145718;11.46646783;12.46017994;-9.001791482;-1.82779711;-0.277955003;-26.58986223;-10.10388654;-10.55327591;-18.106202;16.70607671;9.582215351;2.1588656;4.278408772;16.75689783;8.735208883;7.038107858;9.334302282;6.903988017
7.612807571;7.284929323;9.48059509;-11.14288523;-3.441745283;-0.148632511;-38.67067316;-9.678528647;-10.0253256;-18.58010475;30.87183222;10.51611519;2.71826791;5.216085486;13.29865679;13.2840145;4.09257735;5.518164328;4.700454762
4.549150028;0.97898906;4.85426194;-11.83459493;-4.522277802;0.010252702;-37.49704994;-7.783635792;-7.806042311;-17.34226069;39.22959014;13.0650592;3.714807971;6.613731285;4.486455768;18.54546024;0.523465571;0.563864051;2.647966119
2.032173275;-4.250460409;0.480056152;-10.4233922;-4.42367089;0.159272002;-24.2113731;-4.62843532;-3.483321066;-14.31262302;30.46910222;16.78447565;5.426450699;8.022243347;-7.154005974;22.02759256;-2.098572314;-2.759530102;1.525012892
0.960806534;-6.030311264;-2.55593447;-7.32306011;-3.144443861;0.24113583;-6.344805014;-1.038131644;1.703036066;-10.37468374;1.460300467;20.1615078;7.41583281;8.855070135;-15.69251852;22.05944257;-2.928471077;-2.559827249;1.492712637
1.279637432;-4.430640645;-4.538822705;-3.928368109;-1.401014652;0.215121124;7.006804401;1.887883315;5.456206509;-7.006025607;-38.71161004;21.47586796;8.852802025;8.801532291;-15.87056802;18.72254724;-2.217807519;0.733654194;2.099544636
2.078558559;-1.808360674;-6.416011691;-1.591062898;-0.168404337;0.099814093;10.96534379;3.36889097;6.046089685;-5.468859172;-72.69978837;20.03030661;9.224927308;8.020961119;-7.202952587;13.71270521;-0.932463721;4.552246363;2.662877096
2.364601257;-0.944488405;-8.597405599;-0.527089361;-0.005566468;-0.017353803;7.426129592;3.375103549;3.640256347;-6.11344848;-84.95322173;16.76646903;8.787352207;6.970840387;5.412153006;9.28931965;0.04373702;5.943691015;2.737674903
1.895820955;-2.854647788;-10.41397931;0.286287083;-0.683070049;-0.02942103;2.666271713;2.553620452;0.188867502;-8.284276371;-71.3408266;13.67433478;8.308240537;6.019084857;15.19679696;7.032383568;0.519338905;3.635994083;2.354045562
1.385619632;-5.958955298;-10.71553522;2.016288857;-1.413158615;0.105828196;2.115410714;1.678601463;-2.097293842;-10.86392865;-41.69516478;12.35561626;8.29366465;5.162183596;18.29455487;7.153491656;1.011175169;-1.111542135;1.896335149
1.88636773;-7.300868984;-9.031074127;4.61900971;-1.50672259;0.312477976;6.471662965;1.045071845;-2.440342812;-13.01712644;-13.41212379;12.83012167;8.376085975;4.074238278;16.01732911;8.652943408;2.222765128;-5.473997842;1.755386613
3.841219916;-4.924687593;-6.217011245;6.510039063;-0.934654865;0.43014212;11.99203331;0.28875632;-1.969514375;-14.59170021;-0.512785256;13.53813127;7.461704766;2.429829923;12.88384513;10.06232104;4.418011772;-7.076016324;2.026391183
6.585732896;0.423996363;-3.984163899;5.71171008;-0.344270759;0.326202211;14.23201575;-1.225362097;-2.616948997;-15.95979544;-5.680559001;12.56234108;4.598114442;0.216998436;12.29982953;10.24179477;7.150104492;-5.538035486;2.461590297
8.732723424;5.649678259;-3.673080306;1.595193237;-0.52233442;0.007310869;11.80642431;-3.773918312;-5.407495036;-17.54177819;-20.42086752;9.120344759;-0.122507866;-2.221965998;13.57346488;8.820078125;9.506603107;-2.46860246;2.685086399
9.162366051;7.525986739;-5.277000689;-4.293589175;-1.744609643;-0.362691639;7.108978308;-6.936885183;-9.59904372;-19.4559083;-32.49514349;4.167812102;-5.398565344;-4.438079987;12.68025075;6.187035182;10.66025666;-0.051695107;2.4914733
7.845618447;5.129122652;-7.482162416;-9.147284853;-3.538472117;-0.566160503;3.838695159;-9.836524215;-13.36092293;-21.53828566;-34.71739079;-0.321883804;-9.492019683;-6.176822117;5.989999794;3.201921907;10.33956308;0.584828611;2.007786123
5.85538802;0.610645818;-8.651199717;-10.90798175;-5.040844823;-0.486534381;3.923843758;-11.75022498;-15.34031896;-23.59793095;-28.7903248;-2.780205693;-11.3668407;-7.465394186;-6.223943972;0.831627194;8.941310038;-0.016110422;1.612445036
4.560938422;-2.331146841;-7.950039063;-9.756217452;-5.647182036;-0.195700873;6.597256574;-12.57942558;-15.72745403;-25.57341667;-22.12807765;-3.032212167;-11.30332326;-8.430563022;-19.3513579;-0.158582613;7.274990853;-0.375450511;1.679315389
