Channel 1 - P4;Channel 2 - O2;Channel 3 - P8;Channel 4 - T8;Channel 5 - C4;Channel 6 - Cz;Channel 7 - Fz;Channel 8 - F4;Channel 9 - Fp2;Channel 10 - F8;Channel 11 - Fp1;Channel 12 - F7;Channel 13 - F3;Channel 14 - C3;Channel 15 - T7;Channel 16 - P7;Channel 17 - P3;Channel 18 - O1;Channel 19 - Pz
-18.90238534;-11.45848998;-9.290219979;-12.96398979;-21.54813974;-7.729991256;22.20636366;-18.70640289;-49.69367895;-24.66071004;-61.99189056;-27.82007813;-23.77046463;-17.38645108;-14.72581964;-14.97824154;-22.80878041;-21.33056812;-18.175663
-22.92408312;-16.54210744;-5.114104792;-18.79065185;-21.90231286;-10.01440203;48.66;-20.98394105;-29.5294844;-30.40033507;-26.58948122;-33.16538624;-19.69543394;-16.03838155;-17.26555875;-15.07279623;-18.99068998;-25.24756568;-20.33255704
-19.45795636;-14.33524572;3.77685369;-13.98515608;-15.26380723;-7.670279588;62.31191644;-13.91043015;-2.970039063;-25.12135213;16.17209571;-27.12056112;-8.738548835;-10.42596653;-11.40145322;-12.11271525;-11.27012346;-21.34752451;-16.6190478
-9.41596921;-4.463832517;13.76780978;-2.114907607;-5.03273101;-2.382935408;51.66766911;-2.714999831;7.503225237;-13.06979345;38.56942122;-13.6853379;1.527503652;-4.641569314;-1.473555366;-7.852749424;-3.069973082;-10.42272985;-8.66173472
1.982876891;8.346833506;20.45155872;9.033761013;3.299405788;2.438303449;22.66050442;5.398593879;-6.763391323;-2.411852573;29.6080883;-0.920518629;4.906917025;-2.610522042;4.208658289;-4.537252212;1.749768389;2.454950011;-0.826812189
8.876316853;17.57565847;21.57560043;12.9474091;5.910058594;4.090971061;-5.421258331;6.24567853;-34.88598368;0.762382607;1.315121127;4.684736778;0.743482254;-5.355569697;-0.008063635;-3.447871049;1.378562649;11.19568538;2.853039066
8.795229282;19.40429309;18.4437395;8.561286423;3.098917255;2.350468674;-14.22364804;1.175732949;-55.98674907;-3.458577621;-22.56893092;2.254278431;-6.301465029;-10.54802076;-12.69403666;-4.32188544;-2.929509316;12.61186305;1.371334294
4.024530755;15.02051455;14.71535387;0.280939681;-1.314744492;-0.680383706;0.151309243;-4.563436663;-55.80606117;-9.567797043;-25.56063758;-3.781453218;-10.32237075;-14.50077352;-26.40381114;-5.855815011;-7.948735661;8.176216681;-2.897812861
-0.589392075;9.156905131;13.56576125;-5.736505903;-3.044470168;-2.384063407;24.61316079;-6.065632094;-37.02883339;-11.32194524;-9.725951577;-7.68389485;-8.659462439;-14.90050558;-33.07316232;-6.701377019;-10.74171248;2.467149543;-6.26747132
-1.471164364;6.267128564;15.43790767;-5.959059782;-0.427064086;-1.60530545;39.12923425;-2.214487188;-15.68205465;-6.447123121;8.890078125;-6.744413487;-3.34655044;-12.1730959;-29.40139852;-6.167170202;-10.38036952;-0.338144885;-6.482046031
1.276432807;7.447095207;18.0945686;-1.328890664;4.729910761;0.70844715;31.40685082;4.149371319;-7.469135981;2.224728893;15.50187976;-2.664981756;1.255464085;-8.636923773;-18.3452627;-4.282869874;-8.004790543;0.805130743;-4.036379347
4.608646953;10.34638226;18.79540269;4.316968087;8.950210052;2.543511692;5.220886354;9.05536483;-15.62863163;9.662637007;8.928609358;0.721889305;2.340360645;-6.392569226;-6.212479209;-1.461980083;-5.465879991;3.770170162;-1.266161864
5.501430021;11.73849504;16.72254439;7.504257078;9.897650705;2.543221467;-23.1944137;10.63217466;-29.80635651;12.83007813;0.81966477;1.160224223;0.7818873;-5.75800553;1.870078125;1.79838815;-3.816045513;5.583024457;-0.207629235
3.514035733;10.33907832;13.65206404;7.380823967;7.943015748;0.992183918;-37.0892443;10.12738771;-35.82745354;12.683124;3.285409176;-0.069624245;-0.029542664;-5.393683756;4.660736918;4.991615558;-2.818514308;4.979680281;-1.059438234
0.884128204;7.547000068;12.39010203;5.571350346;5.445303463;-0.630443943;-30.18212783;10.2004143;-27.48019549;12.65020702;16.41621806;0.559725764;2.649617894;-3.763598715;4.266414281;7.605777476;-1.642350915;3.129471337;-2.369996128
0.31177245;5.787353477;14.36457324;4.34148503;4.609856018;-1.004132719;-9.157642456;12.28200315;-10.60099465;15.29161726;26.96226046;5.559193863;8.554907414;-0.546850646;3.633657291;9.27276332;0.084902526;2.201845849;-2.541556066
2.519194333;6.208496769;18.41856706;4.910162003;5.80601862;-0.02658733;12.74377285;15.37999154;3.043341128;20.14567577;19.53168776;14.0310777;14.7379797;3.162348613;4.423713754;10.02150061;1.864553956;3.297478738;-1.219501783
5.707667562;7.845005978;21.77413185;7.134874276;7.62235234;1.254080377;25.03465301;17.22114638;5.941538427;24.43218502;-9.285224544;22.14970461;18.07223727;5.875214393;6.605093629;10.34867374;2.849166954;5.638938204;0.586396199
7.259144649;8.826587132;22.28;10.29154781;8.361697329;1.6546742;25.20568841;16.488413;0.201549939;25.67382205;-46.09927874;26.06963972;17.68272949;6.937290768;9.309329397;10.89980957;2.715507562;7.602038518;1.586403497
6.068700954;8.287447765;20.01522597;13.77780331;7.528646309;0.87309641;17.29855135;14.03157252;-5.842489397;23.75134842;-69.66364657;24.83812023;15.32061207;6.903104463;11.66363798;11.92286682;2.02856603;8.432818156;1.406753779
3.439444548;7.078570642;16.95036025;17.01271855;6.0546074;-0.346709585;6.766362124;11.98918585;-5.878048115;20.6629666;-66.53692011;20.96696134;13.59646914;6.847473886;12.93280941;12.94963513;1.757926753;8.920317029;0.821424425
1.835887022;6.646931331;15.08454538;18.95222359;5.243470242;-0.953892432;-3.369430138;11.71752637;-1.020933658;18.45913657;-40.91510791;18.29568131;13.76638438;7.33649019;12.39466773;13.04602449;2.40436348;10.36538746;0.903286171
2.698671394;7.276966692;14.76191484;18.20982515;5.541451071;-0.517462485;-12.48228176;12.49301509;2.122147687;17.42;-10.97634327;18.96293684;14.94907882;7.986934389;9.662028069;11.50251562;3.540058594;12.8738259;1.95995963
5.285085798;7.540553492;14.63460193;14.13683766;6.273680835;0.467272222;-19.91934527;12.21026591;-1.635874892;16.15794111;4.942380849;21.9235787;15.24124635;7.925505987;5.404024445;8.426658032;4.176307831;14.72167082;3.253967327
7.501578952;5.642204404;13.21857295;8.01084777;6.502373919;1.095476462;-23.59502328;9.45384071;-10.82544872;13.43172956;1.157043811;24.08427751;13.54409582;6.642786281;1.576440335;4.746719015;3.628885464;13.59593506;3.730727458
7.888257517;1.45539251;10.55319428;2.985175924;6.104079392;0.870628992;-21.3386496;5.054024661;-18.48688014;9.848447947;-13.24799743;22.98411092;10.45080477;4.452890594;0.4363302;1.627490607;2.125876834;8.744497599;3.041549675
6.92539108;-2.774674404;8.394820809;2.322854232;5.996486751;0.08905031;-13.51526876;1.673849135;-18.43953546;7.753946338;-23.5703742;18.78371514;7.549552143;2.207811489;2.800657856;-0.197960678;0.652311357;2.100776281;1.903424536
6.504475498;-3.984884501;8.712686318;7.009644341;7.278595684;-0.502193261;-3.916114727;1.712767847;-10.80249745;9.309851285;-21.59714336;14.02229727;5.952674225;0.609888919;7.045500299;-0.627284246;0.197241478;-2.779205416;1.472771534
8.090793098;-0.931639243;11.81755171;14.66991425;10.08400213;-0.408628726;2.484121655;5.30397567;-1.821939779;14.44542482;-10.87412042;11.48632872;5.453093658;-0.227805107;10.03408825;0.175772225;1.056041421;-3.242902415;2.317250397
11.27403295;4.436252947;15.84320104;20.9019316;13.23181815;0.197445806;3.206824375;10.11856343;1.653138544;20.53420871;-1.848869723;12.02296256;4.996131254;-0.635999776;9.549324848;2.259442348;2.737275526;0.5319074;3.920714954
14.02978716;8.299821103;18.15092252;22.24450548;15.04523901;0.693245633;0.117913084;13.14294252;-2.040345489;24.15742747;-2.109535267;14.05549969;3.89109468;-0.90134397;6.283361994;5.914723735;4.46473521;5.836401662;5.155151235
14.46313161;8.09676871;17.52892548;18.56831535;14.65371787;0.607206702;-2.314390061;12.92796715;-8.415471215;23.52242281;-10.31630532;15.07696334;2.554640339;-0.96386693;3.515396813;11.147702;5.772469836;9.70444364;5.278603684
12.47769255;4.852189191;15.30011577;13.0188214;12.65410289;0.036164782;-0.884724403;10.45630611;-11.26557516;19.57631306;-18.38258749;13.78853569;2.10066835;-0.57991214;4.449404872;17.08645278;6.685242203;11.21521315;4.564467429
9.884210318;2.595222222;14.31842137;9.534367756;10.56641859;-0.485095037;3.783147743;8.004180716;-8.259633551;15.00517042;-19.08798034;11.11188041;3.21212845;0.268014396;9.294647731;21.99420671;7.415534943;11.86871955;4.023415372
8.847369754;5.128095833;16.60657903;9.887343349;9.570714705;-0.506537908;8.225831188;7.082045387;-2.685225117;12.08;-12.07944483;9.316302041;5.385422429;1.181990372;14.64926347;24.09792654;7.95646044;13.78199741;4.49617468
10.02783814;12.71202525;21.55895794;12.55324045;9.617878976;-0.076740983;9.678648944;7.250130191;-0.046207413;11.16428929;-3.370535543;10.06280088;7.253633519;1.614229916;15.99394486;22.7110491;8.000624745;17.38244134;5.92990312
12.02826303;21.44752166;26.20181575;14.20645399;9.647940453;0.325375719;8.773951333;6.753851088;-2.898767896;10.9721639;0.485686357;12.99502835;7.677768986;1.350876575;11.47210997;18.78103292;7.255116682;20.72041586;7.4451176
12.60202779;25.9920144;27.33180459;12.52835729;8.664999373;0.254772704;8.741922894;4.308954603;-8.693078727;10.09903971;-2.044629659;15.98635273;6.608805186;0.738550917;3.85381386;14.37178592;5.819057958;21.07566307;8.076947471
10.56351123;23.52242382;23.84386201;8.030929308;6.687359798;-0.283586095;11.72243464;0.407068595;-12.39794313;8.34123575;-6.929814489;16.77972607;4.978542567;0.407338759;-1.151601797;11.41109233;4.228152828;17.46019912;7.504831732
6.772074706;15.80643548;17.45271629;3.50738508;4.74317188;-0.84725991;15.66532172;-2.996930899;-11.24091544;6.690504799;-8.917984602;14.67250595;3.792474117;0.721304966;0.822960439;10.60813676;3.095601359;11.76530426;6.162794972
3.403603714;7.776367052;11.34848101;1.697223181;3.950980063;-0.970039063;15.08151333;-4.102413032;-7.101844331;6.184186473;-6.391737072;10.93776987;3.300898786;1.453998851;9.168420763;11.28885706;2.668341128;7.444477888;4.730087891
2.195219561;3.820854854;7.952496097;3.136203248;4.525042013;-0.582981846;5.608906358;-2.752578619;-4.471479118;6.795490791;-2.362403129;7.731484267;2.981706516;1.984701548;18.2158638;12.14814473;2.698456299;6.782888834;3.549935959
3.164048816;4.770793667;7.521557674;5.868854788;5.581439454;-0.056553711;-11.23452894;-0.524391348;-6.07890298;7.401439614;-1.113620207;6.416099124;2.257185133;1.830510678;20.9543829;12.22225058;2.730369262;9.077305954;2.515600063
4.801307842;7.837994602;8.496796809;7.090292643;5.892820907;0.161250992;-27.41381019;0.608680946;-10.37442877;6.798807047;-3.965170474;6.611348833;1.177356709;1.023339392;13.9085955;11.31975932;2.515594176;11.29893133;1.449110381
5.437457162;9.259841403;9.029458843;5.265216017;4.914086693;-0.036351221;-33.10531084;-0.141396734;-13.17643595;4.782454061;-8.128481697;6.631067852;0.377437013;-0.00346631;-0.355455077;9.721873379;2.159184691;10.67294537;0.500859531
4.534405973;7.270372351;8.299342099;1.062776525;3.200101843;-0.329266206;-23.63848421;-1.877636631;-11.81314893;2.30658087;-9.495552036;4.864888452;0.359071042;-0.887094448;-14.87327116;7.621926189;1.87482009;6.951233606;0.103940431
2.862993354;3.005752483;6.67120161;-3.421667856;1.902337688;-0.290910014;-3.397668304;-2.94157628;-7.768811925;0.638623809;-6.542776399;0.993590031;0.827897225;-1.698750242;-22.85181983;4.925320602;1.615288776;2.436469478;0.505097001
1.595577257;-1.073697133;4.889692471;-6.286994038;1.831353165;0.189637466;16.51577835;-2.387039568;-5.310325881;0.319164931;-1.690401407;-3.844180006;0.78710073;-2.84422443;-21.95318435;1.576384698;0.977180173;-0.205787482;1.369996786
1.270670624;-3.521130049;3.300162837;-6.924435074;2.899064072;0.77887434;25.38051412;-0.732464002;-7.394090937;0.843918568;0.995279144;-7.948695658;-0.631012274;-4.597890923;-15.45060001;-2.009663493;-0.478274683;-0.372143943;1.935452154
1.561789131;-4.826497366;1.844487115;-5.916637906;4.356884605;0.985508977;19.61713757;0.581075233;-12.72852377;1.25853459;-0.524645648;-10.24744094;-3.333547178;-6.724446919;-9.6948734;-4.967229844;-2.754474583;-0.016352823;1.654339387
1.914746298;-6.27048404;0.655395456;-4.172494251;5.522154246;0.602801189;4.422995502;0.471409766;-16.79352656;1.030697817;-4.595259639;-10.87852578;-6.21018617;-8.564658912;-9.779088906;-6.554481163;-5.239213843;-1.770019531;0.752288897
2.276723962;-8.060633069;0.414418461;-2.249890046;6.295753068;-0.094303828;-10.58372334;-0.891203916;-15.91246247;0.396539788;-7.546795593;-10.82874955;-7.933876342;-9.518911674;-16.27682241;-6.778574813;-7.022363671;-6.364071042;0.121212561
3.118115329;-8.738123201;1.895315692;-0.385642509;7.038489247;-0.574905862;-18.15894592;-2.287097204;-10.5999627;-0.039422504;-6.940294018;-11.02573129;-7.922053355;-9.477150148;-25.01376389;-6.428772042;-7.482241884;-11.67003906;0.556423594
4.725699541;-6.557763815;5.020665482;1.081667641;8.006954107;-0.498538229;-17.62122722;-2.482862484;-5.051726944;0.047880836;-3.334794119;-11.63288394;-6.619549861;-8.789166398;-29.83695786;-6.381286451;-6.666285994;-14.2753493;1.984292733
6.539364787;-1.562060919;8.400560716;1.587379702;8.950202292;0.012004699;-13.78571269;-1.178089817;-3.214337394;0.472723721;0.844288601;-12.04481484;-4.895074306;-7.811716822;-26.58366657;-6.749486021;-5.162507216;-12.28152791;3.412047608
7.324372666;3.737425471;10.01714632;0.793137532;9.280912462;0.502304325;-12.17130383;0.881948621;-5.068405364;0.889694329;3.936680306;-11.4947641;-3.161760532;-6.490780847;-15.85794045;-6.68315509;-3.593110589;-6.923017564;3.73
6.174489759;5.991548951;8.684657275;-0.83700011;8.660125484;0.590122307;-14.61170831;2.601392007;-6.609350821;1.272558003;6.480019531;-9.74363939;-1.07606444;-4.425284579;-2.96448383;-5.094708817;-2.17158541;-1.601661363;2.717122308
3.478746401;3.750199853;5.097016585;-2.05753589;7.424535798;0.275886233;-18.56280619;3.36173129;-3.626827167;1.955928481;10.11248459;-7.32635704;1.893527557;-1.400736852;5.049592319;-1.735437243;-0.678376999;0.850624826;1.353725406
0.897678484;-1.061509827;1.481527546;-1.670987138;6.421614302;-0.105481331;-20.10017171;3.311222347;4.141153516;3.171770778;15.2164591;-5.215146292;5.586379038;2.104854973;3.63508864;2.359003139;1.181415252;0.364624298;1.096663146
0.219700954;-4.368956177;0.008749139;0.443972434;6.366375529;-0.224900331;-17.67320125;3.005757471;12.32882177;4.592871659;19.85078051;-4.187218378;8.857047579;4.984595861;-6.226136259;5.561508869;3.408753196;-0.533149739;2.673232162
1.985306845;-3.042390485;1.202872197;3.043168537;7.280377063;-0.06730092;-13.40849172;2.847089836;15.49228449;5.444854422;21.23880747;-4.347763758;10.26220321;6.2;-18.2041697;6.996238837;5.676980479;0.979644812;5.410873361
5.044526502;2.633708251;3.667727666;4.36316261;8.50596227;0.072056537;-11.09510569;2.833926603;11.81512401;5.184803977;18.50306687;-5.095474688;9.207447093;5.58364327;-24.2344296;7.389793996;7.637428049;5.605771863;7.706226562
7.461581028;9.177128012;5.374213932;3.521846197;9.272915032;-0.112881348;-12.80780774;2.743764932;4.800249679;4.117035736;13.97297372;-5.503156547;6.548600226;4.052209783;-19.55571314;8.604447689;9.236244504;11.42056969;8.277890226
8.034931125;12.66474767;5.436557642;1.342559277;9.306427132;-0.630275355;-17.1024726;2.438530801;0.4106826;3.276681129;11.60297456;-4.855237506;4.049325101;2.981216546;-5.952262536;12.1081895;10.70880952;15.5715435;7.165811192
7.167372254;11.77003906;4.876830509;-0.130060425;8.947848563;-1.160592018;-20.2161782;1.940468243;2.125232327;3.562460707;13.72973281;-3.049895522;3.067493004;3.190405631;9.162756676;17.58479006;12.24225423;16.59042906;5.639585501
6.379224306;8.604306519;5.728668336;0.890127403;8.719517634;-1.332332399;-19.14809765;1.248827245;8.178762456;4.85672414;19.04043556;-0.688071258;3.531360877;4.341627643;17.50530334;22.86488941;13.64085417;15.30947344;5.101873459
6.926014732;6.746475926;9.245776104;4.58596265;8.773325312;-1.050041504;-14.04207767;0.188835208;13.29077017;5.991768054;23.63491293;1.177493149;4.059429496;5.236732616;15.41634395;25.33076739;14.35983704;13.73510202;5.928901186
8.738380467;8.196677824;14.74673708;9.364701217;8.754096373;-0.577147261;-8.021138417;-1.442184358;13.2533385;5.721339379;24.30332609;1.538086886;3.137580437;4.775637671;6.208919113;23.74554264;13.94605699;13.08330951;7.234949037
10.58836662;11.83045994;20.08570186;12.97696101;8.206349163;-0.30195631;-4.770563097;-3.511515571;8.354625982;3.924869424;21.136579;-0.019588016;0.393378474;2.804824767;-2.444672945;19.09124392;12.53081955;12.84778284;7.740419996
11.28947779;14.58608117;23.35356601;14.06366703;7.132682552;-0.40076962;-5.895446912;-5.348919348;2.805358509;1.965766655;17.19298003;-2.96258644;-3.060472063;0.197687648;-4.272740624;13.79091209;10.92533329;11.69940866;6.964628445
10.83024613;14.27032512;24.37216441;12.99990309;6.154770414;-0.698851515;-10.05993829;-6.007032883;0.927694068;1.779479484;15.61735394;-5.901812905;-5.460878958;-1.845132401;0.969411768;9.984129594;10.17624487;9.242535503;5.6886973
10.41790222;11.53279751;24.72852515;11.50475151;6.080338504;-0.845729128;-14.33809034;-4.874556968;3.599777178;4.355487186;16.89597491;-7.194996894;-5.700227823;-2.661427084;7.557124715;8.244134914;10.89071046;6.837214598;5.279436715
11.38930358;9.336631999;26.33587496;11.41162404;7.223501191;-0.638734839;-16.47524547;-2.169539992;7.969174985;8.850478128;18.73351424;-5.83515464;-4.063375702;-2.461022477;8.533636896;7.682433849;12.84623768;6.592611725;6.466928721
13.95598477;10.42502908;29.73923029;13.51197006;9.069698901;-0.203466364;-16.24732479;1.115763779;10.36222336;13.09725639;18.55189452;-2.135436727;-1.882154016;-1.92773373;1.43546037;7.187022455;15.18072612;9.407906832;8.652459397
16.90053743;14.9684544;33.57270195;17.18123462;10.5982818;0.122090748;-15.0642213;3.809128998;9.520201485;15.13234822;16.15092088;2.276532639;-0.487969098;-1.515409441;-9.54106018;6.618785731;17.00089996;13.92315164;10.36818266
18.51035184;20.36885493;35.59401329;20.85663772;11.01890977;0.084807864;-14.44936627;5.235009169;7.264125006;14.52537883;13.93556368;5.283625597;-0.343857529;-1.076793508;-16.70197959;6.918130735;17.93783555;17.48801352;10.51159
17.96017164;23.33600446;34.42408516;22.91496355;10.32882941;-0.274151201;-14.79641027;5.461691734;6.271313094;12.4731295;14.45064205;5.513488458;-0.974277933;-0.11144645;-14.84963417;9.098935763;18.26083815;18.4063546;9.301510852
15.97372196;22.46197549;30.5885521;22.41897454;9.253748947;-0.675020983;-15.34308428;4.990252034;7.320444004;10.65892357;17.60123743;3.222463164;-1.585484524;1.653309773;-5.296502706;13.10627715;18.53737596;17.45580731;8.130078125
14.22191241;19.18345953;26.08790472;19.45600248;8.649059253;-0.853478314;-15.15263259;4.227369251;8.664119422;9.879250222;20.37417847;0.210160293;-1.739180204;3.910278981;5.339745719;17.61201159;19.16300294;17.21588115;8.417636417
13.98682139;16.44483552;22.92807838;15.05908599;8.863522859;-0.775689316;-14.08329576;3.221259799;7.977307883;9.563379233;19.60304794;-1.251838054;-1.525346404;5.966119714;10.56539515;20.95404515;20.11568984;19.66366123;10.41569163
15.20878733;16.28329881;21.80710239;10.79777791;9.555447173;-0.628683744;-12.87854257;1.840229175;4.818136278;8.494068596;15.35432982;0.180467328;-1.219514727;7.282982849;9.221860045;22.38179208;21.03807774;24.11949262;12.9424071
16.66007813;18.34445614;21.90267979;8.13856857;10.04492559;-0.615419105;-12.3820456;0.137866195;1.128156814;6.018561094;11.61907965;4.108341104;-0.870449961;7.863097219;6.217060143;22.48848844;21.47947232;27.45436898;14.25869756
17.01745886;20.42896799;21.74846861;7.765690143;9.856947794;-0.758599099;-12.66117612;-1.507954864;-0.686893466;2.691221898;13.16335655;8.691996271;-0.246122219;8.13871898;8.190039063;22.44228149;21.07380727;26.5693714;13.37031626
15.89110832;20.44088572;20.37439366;9.200495619;9.015651378;-0.894775954;-12.86003906;-2.637659092;-0.131654609;-0.141375958;20.85578146;11.83680115;0.851944335;8.496672226;17.67044626;22.71894542;19.59040106;21.13984227;10.73403942
13.9945046;18.04446186;17.84739703;11.04229227;7.925641147;-0.851453847;-11.92509883;-3.083363338;0.967853157;-1.371198995;29.50483214;12.43494874;2.274580846;8.894011905;30.50949295;22.51226822;16.9631192;14.26078996;7.872090478
12.43316031;14.75118624;14.99003906;11.82143537;7.03730623;-0.627351763;-9.571544478;-3.074192049;0.474950709;-0.865929368;30.54075386;10.84326459;3.559426038;8.915644281;38.67515656;20.4188144;13.39193279;10.31033576;6.277234512
11.82160615;12.56582719;12.73;10.97200145;6.616613433;-0.399785246;-6.642398376;-2.938318462;-1.6281289;0.643918099;18.01;8.374406789;4.292559209;8.200244178;36.17181449;15.85768474;9.444136997;11.67415695;6.487687667
11.98576368;12.45601654;11.67416594;9.215517281;6.756548613;-0.353701623;-4.510244653;-2.689446502;-2.920959569;2.298056288;-6.521775355;6.294369139;4.440545364;6.820774694;23.42208852;9.988387484;5.968806155;16.96677548;7.966619142
12.39831521;13.86961154;12.100705;7.991837491;7.497179417;-0.499149664;-3.960745251;-1.945409867;-0.863939225;3.741194678;-34.00880411;5.106589953;4.325373235;5.262822746;6.831036104;5.255303422;3.744593235;22.18235268;9.716725194
12.82589295;15.48862696;14.10342269;8.302598528;8.839900479;-0.655113379;-4.441776964;-0.338645908;4.372434303;5.147276089;-53.13376267;4.570508033;4.269843733;4.033303334;-5.837028643;3.821220215;3.043160305;23.81251915;11.0221649
13.53981813;16.375654;17.56157118;9.866870303;10.61189875;-0.619071269;-4.323917366;1.91262839;9.413411849;6.756385791;-57.07425389;4.260413813;4.2652195;3.280649074;-10.47954763;6.093977574;3.452666018;21.39543503;11.74816957
14.92359874;16.50905914;21.94547781;11.3215769;12.36132741;-0.364222271;-2.083394619;3.834390522;10.32007813;8.480865204;-47.15158615;4.064411148;3.987529356;2.786551209;-8.360453922;10.49956079;4.166905161;17.51;12.11564342
16.91051593;16.42346612;26.28495834;11.38332413;13.49071521;-0.077300097;2.37345215;4.207571384;6.168417805;9.98297548;-31.11971008;4.174409811;3.14227281;2.321495589;-3.775417278;14.65668685;4.57718957;15.39355986;12.31483872
18.83771838;16.50963049;29.54694389;10.06120219;13.61651176;0.003295172;7.189294415;2.453829018;0.25774615;11.08815504;-17.75549869;4.657422236;1.792165895;1.993564643;-0.17603749;17.0030538;4.71743829;16.28515354;12.35022163
19.88979659;16.71649336;31.24562996;8.885972823;12.88425583;-0.196567765;9.312051655;-0.791829829;-2.406995489;12.0365409;-11.76577995;5.1224468;0.338910085;2.213030161;1.946557344;17.62304929;5.187306387;18.68563506;12.17300831
19.73736448;16.85831598;31.78034399;9.862979779;11.9380118;-0.51461186;6.202890321;-3.931145389;0.64641761;13.24973442;-12.24914545;4.913307556;-0.827354162;3.262894074;4.128664041;17.74344132;6.590184853;19.98372571;11.84258791
18.79213114;17.06816523;32.13899593;13.89245909;11.50224018;-0.691780082;-2.457587834;-5.362583747;7.110503203;14.81298642;-14.99043744;3.735933518;-1.664003332;4.869764571;7.463677081;18.45772945;8.937882258;18.88137949;11.47660547
17.85787575;17.816471;33.1378572;19.8787313;11.86947756;-0.599186727;-14.09875755;-4.477335563;11.74067738;16.20826114;-16.19738789;2.147689344;-2.456875626;6.223073355;11.19564526;19.79218284;11.5262215;16.47783338;11.04601584
17.50476267;19.41307828;34.80498541;25.25517755;12.69496313;-0.349263903;-24.13817488;-1.981487439;10.79617461;16.62849631;-14.81742231;1.362787816;-3.453593449;6.517477068;13.58431596;20.82333976;13.4079259;15.15587902;10.30124261
17.71779381;21.49719493;36.42223603;27.57262637;13.26729859;-0.19368867;-28.08085145;0.649424192;5.229460835;15.64106418;-12.24676505;2.387954252;-4.511138596;5.610831181;13.88868459;20.60917264;14.08885995;16.36232265;9.009572306
18.077793;23.08925856;37.17099047;26.00410086;13.04111804;-0.302518533;-23.80492395;2.135627315;-0.178643533;13.5961896;-10.39911244;5.131363372;-5.129028827;4.233855137;13.27023944;19.04289949;13.87814424;19.27995114;7.331432416
18.22489506;23.25494016;36.79239886;21.72947801;12.01040237;-0.621973894;-12.81901663;2.073729379;-0.96816411;11.37461155;-10.02481407;8.256447167;-4.878046556;3.520583553;13.60591559;16.90563529;13.60614125;21.52084119;5.932609042
18.12133011;21.82739084;35.67607315;17.04410173;10.64485973;-0.931651392;0.248775392;0.925595581;3.242193456;9.673830677;-10.45014258;10.01134367;-3.838462661;4.185987537;15.39135326;15.16603789;13.94958789;21.16624548;5.599852154
17.88269612;19.54400128;34.3403466;13.94197979;9.476950205;-1.039909157;9.760272406;-0.530352972;8.675386254;8.476710543;-10.49556274;9.464804656;-2.616976628;5.987381003;16.94183141;14.23003906;14.9228876;18.34493569;6.589508058
17.41899872;17.47436084;32.85028567;13.15834535;8.698087286;-0.936628946;11.73478058;-1.777395574;10.94242554;7.195322208;-9.507460579;7.189641368;-1.88298357;7.898166711;15.92279573;13.81539239;15.93925491;15.02958636;8.266453688
16.34;16.25215368;30.77611662;14.137226;8.078558226;-0.771537175;5.694682712;-2.759667028;8.906475473;5.35724539;-7.69128495;4.818178247;-1.819894193;8.861069542;11.93893778;13.4890686;16.35631197;13.33323202;9.433241025
14.3107905;15.76986121;27.75408274;15.65424553;7.228228083;-0.692599776;-5.276531557;-3.687200828;5.350503357;3.179757377;-5.749935702;3.776969418;-1.996393225;8.534969579;7.676968883;13.27903939;16.0225515;13.85126825;9.185042153
11.54842059;15.52092086;24.08305487;16.49627576;5.938136856;-0.705536385;-16.26034638;-4.740998215;3.957142897;1.459945396;-4.364086441;4.181044514;-1.80220152;7.47187918;7.200336314;13.72499606;15.36870661;15.43596607;7.630731182
8.927328729;15.15096401;20.69663769;15.83674555;4.319481391;-0.686610764;-23.02827892;-5.953499039;5.563377813;0.840972155;-3.938582008;4.767598925;-1.075428635;6.626565174;12.55126154;15.29393243;14.99916316;16.43455576;5.857478247
7.465566866;14.62403148;18.42856529;13.37319579;2.675979241;-0.528475653;-23.96410937;-7.280874772;7.322656494;1.120827438;-4.602422525;3.934914844;-0.347875912;6.618800004;21.53607008;17.71588224;15.16294731;16.14194312;5.105666882
7.549767811;13.8768064;17.22228952;9.437283488;1.28403663;-0.269681733;-20.38622359;-8.678800132;5.639452335;1.278346198;-6.222253944;1.073021521;-0.451886763;7.323002343;28.81250734;19.90792283;15.557949;15.15519351;5.787411003
8.575422493;12.4515213;16.10676089;5.059499139;0.295089448;-0.074982832;-15.25580073;-10.0414256;0.092613359;0.268754418;-8.343932666;-2.861765079;-1.800309846;8.055721417;29.69007813;20.64147816;15.60493486;14.45586634;7.149096474
9.392734413;9.712175126;14.12985741;1.72857981;-0.195065391;-0.07936139;-11.20830883;-11.08279851;-5.525036429;-2.06224722;-10.22667731;-5.978399762;-3.963731487;8.147203556;23.69187551;19.43248457;14.92019817;14.27421699;7.874876642
9.262049405;5.672178584;11.52025112;0.71471805;-0.054314518;-0.244614634;-9.171970205;-11.37065562;-6.329436424;-4.741034686;-11.12609502;-6.795895567;-5.935266138;7.418226864;14.98028074;16.90611991;13.57649805;13.94381319;7.156319419
8.532390239;1.704747462;9.98385879;2.285498028;0.842331688;-0.372652184;-8.345102405;-10.59983367;-0.948623218;-6.340585271;-10.70762974;-5.276401169;-6.885262695;6.222106895;9.244529404;14.31600456;11.96877093;12.90409055;5.359665772
8.423831259;0.240053711;11.64933859;5.455995394;2.445928105;-0.275430704;-7.338782412;-8.922239374;6.70357549;-6.026526426;-9.258087713;-2.803968306;-6.778698294;5.095531425;9.506818316;12.60783367;10.46100626;11.7704764;3.745111156
10.01988629;3.274944407;17.32070637;8.641912892;4.426201728;0.048978364;-5.511986073;-7.011140573;10.4261399;-4.126016799;-7.485527476;-1.199494092;-6.33653258;4.354499332;14.13701064;11.79123682;9.152203953;12.19;3.468247334
13.25965364;10.61198096;25.40777087;10.83431664;6.288839669;0.399082585;-3.466131895;-5.70552456;7.091876481;-1.794004918;-6.059169152;-1.559022105;-6.378530442;3.953947711;18.50430788;11.10615378;7.939355576;15.3106265;4.67623022
16.76982215;19.25251139;32.51800291;12.33853658;7.674865731;0.53656836;-2.359791871;-5.440849118;-0.40831632;-0.118427271;-5.267722794;-3.733149192;-7.107822995;3.663589287;18.74353849;9.796065627;6.756014038;20.13968117;6.419872359
18.72703852;24.73149986;35.44593348;14.34062765;8.597740063;0.393318013;-2.64989298;-5.906438218;-5.4841278;0.563864827;-5.025936109;-6.67688176;-7.938316651;3.352082621;14.53823118;7.815920795;5.721357904;23.47561118;7.426022226
18.11748818;23.77184739;33.17730323;17.53469331;9.387337446;0.132990318;-3.361234211;-6.241523831;-3.596763758;0.63206037;-5.09802272;-9.231243292;-7.998929895;3.12590679;8.846717814;5.905555918;5.06739445;21.93870055;7.084639301
15.43898011;16.52419779;27.45772093;20.97306024;10.35299317;0.007596277;-2.630078125;-5.666483957;3.634068967;0.599013842;-5.229803343;-10.69231745;-6.8829609;3.235984706;5.126157766;5.025743968;4.961607665;14.78174668;5.866406825
12.32824627;6.7659427;21.53516919;22.30177083;11.44077055;0.133179901;0.725574545;-4.080983357;9.792765894;0.612691943;-5.081954034;-10.87113315;-5.025613543;3.867367284;4.570508992;5.672494284;5.441177346;5.213519391;4.885638912
10.42386409;-0.233247339;18.03003906;19.46412279;12.19543419;0.384183557;5.767880876;-2.160204695;9.495930962;0.506993458;-4.192714956;-9.85749878;-3.423235514;4.993038036;5.601577111;7.622153206;6.522005239;-1.140322392;5.016748292
10.32319316;-0.860140119;17.45802091;12.62435565;12.0923746;0.503289276;9.394384289;-0.859890387;3.52029258;0.269658833;-2.241723334;-7.890373445;-2.948026718;6.380152839;5.747638778;10.22973702;8.311725735;0.144288691;6.284806349
11.35111121;4.711673884;18.32850945;4.653489457;10.98216918;0.332424522;8.056472203;-0.699143636;-1.576132063;0.357035207;0.486563443;-5.476109646;-3.801938332;7.702962757;4.027170811;12.92431298;10.90946328;9.11211299;7.959804157
12.19698157;12.75085652;18.5178942;-0.483983059;9.275987298;-0.038654754;0.285558808;-1.360163557;0.656060068;1.433631896;2.949527134;-3.499126836;-5.481254426;8.664808049;1.720420143;15.44285317;14.10027256;21.08400054;9.182309906
11.85652343;18.32560727;16.77080064;-0.411128351;7.704544185;-0.339212849;-11.72336744;-1.897171096;10.26257297;3.707196867;3.924916646;-2.973984298;-7.183486741;9.078064071;1.007590779;17.66998737;17.13905462;29.54807938;9.558096425
10.20161694;18.22387069;13.31198934;3.939934577;6.837190926;-0.344258135;-22.80324888;-1.388016332;20.05918408;6.493265612;3.076721869;-4.422165738;-8.275905808;8.913481397;2.861054954;19.36329717;18.95225983;30.32543242;9.276483324
7.896986363;12.64544895;9.403002642;8.981753367;6.745913518;-0.065499393;-27.63742698;0.449409442;21.58680939;8.512588057;1.596880366;-7.310121411;-8.495210311;8.332881582;6.131635154;20.14265225;18.76447636;24.11587268;8.770914606
5.890463466;4.793400176;6.454691978;11.09618462;7.069991861;0.257800022;-24.00835227;3.09699205;13.03197719;8.788814866;1.600230654;-10.09525391;-7.85148615;7.674209695;8.591155914;19.82406232;16.73150326;15.72749311;8.314108086
4.911803864;-1.166659421;5.407002657;9.245528192;7.395170468;0.358580688;-14.27484633;5.604047765;2.009501394;7.442305752;4.444537448;-11.02290408;-6.455027926;7.343265545;8.929902241;18.78336196;14.03463602;10.68666586;7.914570306
5.243030943;-2.432415873;6.592964168;5.561428298;7.605006095;0.159856583;-3.933413525;7.194410536;-0.007984717;5.700631434;9.277000542;-9.20477536;-4.465264016;7.627639271;7.922051952;17.93521341;12.24269909;11.70442993;7.53174009
6.726588859;1.138663113;9.807677546;3.497637062;7.909983816;-0.172881527;1.907793281;7.705022798;12.26597998;5.070866328;13.26223705;-5.215718768;-2.15168282;8.536947259;7.770630771;18.22238893;12.33214942;17.37493967;7.310390934
8.85375378;7.315657456;14.28706835;5.06579769;8.559619001;-0.381739428;1.789087198;7.611110326;31.63941661;6.308613401;13.72036362;-0.754405419;0.094686338;9.790667744;10.23174212;19.95682277;14.07833282;23.70909047;7.543750937
10.87774254;12.98495449;18.68048861;9.366618934;9.522819093;-0.332984444;-1.385441829;7.680764476;41.78608735;8.978530291;10.65326769;2.401502218;1.897448319;10.97892341;15.09758803;22.52961394;16.28292328;27.08844853;8.375564621
12.02388575;15.88729712;21.36122852;13.52293687;10.43674169;-0.114438237;-2.730557542;8.509211037;28.63084142;11.90239568;7.404708459;3.405279564;3.085793179;11.78487428;20.22859599;24.74239561;17.65522163;26.44164489;9.537485409
11.82089437;15.64155112;21.18453933;15.14508865;10.8706659;0.060835832;0.795778992;10.20626204;-8.49988179;14.07433102;8.381723529;2.648015927;3.753041721;12.10683015;23.02035792;25.52964922;17.65192257;23.31891813;10.41088405
10.38416745;13.58390837;18.26042674;14.24857582;10.6636008;0.050057068;7.879268788;12.38191573;-54.61365782;15.29573368;15.1633713;1.266002689;4.115136087;12.01014452;22.12233186;24.5523137;16.64186533;20.22510881;10.40988435
8.383371225;11.6432399;14.04700009;13.07196375;10.03031502;-0.097940989;13.52823902;14.39748613;-87.88052586;16.08576311;24.02219835;0.335074553;4.314312215;11.59372684;18.19689636;22.28;15.3513378;18.72855986;9.382965744
6.605276709;11.01591237;10.47919144;14.02234284;9.341721912;-0.195018609;12.54945607;15.71580487;-93.46247084;17.04862866;27.28189503;0.368377024;4.383476031;10.92525281;13.36631634;19.59879495;14.15121254;18.72493929;7.703587214
5.377796873;11.50044236;8.665607255;17.50107349;8.777680744;-0.084688559;3.37415212;16.14522922;-72.55381338;18.27780194;18.19365091;1.362317514;4.41564209;10.10970117;9.920241603;17.30925126;12.83885756;19.10898975;5.987803746
4.322541708;11.91107516;8.173475139;21.393274;8.162506623;0.220799235;-10.52249903;15.84271556;-40.5225006;19.25436992;-3.865651752;3.139079101;4.73095233;9.390884341;9.16154295;15.85887781;11.06935243;19;4.689817411
2.703926061;11.23652243;7.542707402;22.58571949;7.131065562;0.550845493;-22.66930573;15.09545156;-16.08758909;19.2350943;-31.75048988;5.554741725;5.775752816;9.115125397;10.9316774;15.35769057;8.958771075;18.41849818;3.902897986
0.150974482;9.636875207;5.654343788;19.24607788;5.485073904;0.71574123;-27.69222444;14.05880562;-9.635441423;17.76470496;-54.06055455;8.391724596;7.729055858;9.502182993;13.85399318;15.67461344;7.203410568;17.97291871;3.478450709
-2.841784993;8.436805477;2.794046263;12.09077288;3.437870704;0.650635443;-24.580223;12.676509;-18.6026487;14.95812658;-61.74263111;11.14297135;10.12977601;10.38088068;16.06642387;16.43767241;6.514612839;18.02032138;3.284022436
-5.112619367;9.02164158;0.447349653;3.81064691;1.543886971;0.448513046;-16.89779271;10.87827713;-31.99455769;11.47096568;-53.39562698;13.02977198;11.93087923;11.15021944;16.16861492;16.99812435;6.854402257;18.15095855;3.325057167
-5.649362422;11.46697654;-0.04928287;-2.682942424;0.370532096;0.27042496;-9.965163851;8.904703807;-39.4540393;8.291526107;-35.72725949;13.35542155;12.08338372;11.09019323;14.04217911;16.57632691;7.230821364;17.47007813;3.630928507
-4.394877183;14.08402737;1.177804067;-5.755038816;0.16783525;0.222116807;-7.188658482;7.440824683;-37.84190938;6.469550409;-19.0033738;11.93687721;10.27715187;9.854338575;11.07815658;14.67535509;6.378299216;15.4108319;4.067383427
-2.362073945;14.45334673;2.492633339;-5.33848586;0.769352896;0.298698075;-8.199660415;7.328044475;-31.29664444;6.773466261;-10.75433908;9.243135683;7.246362621;7.77690736;9.444233051;11.5273044;3.852278497;12.35690329;4.322330761
-0.91405954;11.32421966;2.126156065;-2.236478537;1.758165135;0.424362948;-9.949487346;8.958861243;-26.18091258;9.282778883;-11.96177287;6.11922298;4.331892236;5.720636286;10.57861228;8.160398885;0.615420603;9.5317884;4.134474544
-0.757027055;5.916353245;-0.16881822;2.606729556;2.737190619;0.529880443;-9.618841193;11.79334879;-25.7468382;13.11804355;-17.88347182;3.342264846;2.586216912;4.534303002;13.84745982;5.884109902;-1.469707362;8.227915848;3.568567291
-1.452987029;1.445126408;-2.682901706;8.193228042;3.506365706;0.592527587;-6.90744313;14.45967897;-28.5222734;16.64086435;-22.29626128;1.377002051;2.108206284;4.510750397;16.54732815;5.467762757;-0.936319602;8.975948501;3.053424598
-1.845902;1.007195531;-3.047985134;13.14559304;4.068079398;0.616980617;-3.932568741;15.51567158;-30.73330223;18.24663795;-21.79437867;0.454733921;2.132574796;5.256620301;15.67066244;6.622662033;2.203230002;11.27758097;3.090835519
-1.042498651;5.319509807;-0.25447171;15.75397796;4.525770239;0.599315393;-2.999880121;14.4093524;-29.91480389;17.37473993;-17.27754935;0.745100385;1.778733314;6.065889761;10.42941633;8.241995757;6.467577939;14.05889905;3.848295337
0.866664389;12.06652904;4.347620223;14.81375977;4.985717403;0.525600773;-4.2648523;11.92797301;-26.59125958;15.0014456;-12.2051422;2.30122921;0.809175505;6.483473786;3.581885703;9.269221102;10.01780507;16.44090607;4.981331781
2.92901083;17.45844479;8.015438402;10.73297134;5.511639979;0.407808574;-5.371600188;9.731469904;-23.16579509;13.09361395;-9.534943154;4.750959815;-0.250985696;6.59368328;0.145181319;9.520823275;11.97039031;18.21103167;5.855621209
4.156992362;18.88374759;8.81922807;5.833920413;6.10771254;0.309034063;-3.489194506;9.246348746;-21.60104883;13.2582279;-9.811309914;7.091959055;-0.709852811;6.807670155;3.980454162;9.771588891;12.84472684;19.66120145;6.000436939
4.331768791;16.63776458;7.22957283;3.239095488;6.69943761;0.313867095;1.888985586;10.71953931;-22.07214699;15.54631316;-11.51062346;7.997524286;-0.450518794;7.358560104;14.61381802;10.98930169;13.81074099;20.99263662;5.423951175
4.099137144;13.40924481;5.68425187;4.903813422;7.131081197;0.456996462;7.784147259;13.14431394;-23.42050311;18.3850059;-12.83432987;6.618242071;-0.109189709;7.972111656;26.86495871;13.32972005;15.42314686;21.84721069;4.540483766
4.305267023;11.99149474;6.448198726;10.21350853;7.222655544;0.675431928;9.421372168;15.09897318;-24.50641574;19.78163853;-13.21226227;3.317190368;-0.488408262;8.034092332;33.95391835;15.75524708;16.96765185;21.42602135;3.795907871
5.182977361;13.10534286;9.592243568;16.28229216;6.880499302;0.839927128;3.724932102;15.81293372;-25.03011396;18.88866757;-13.37392494;-0.352118022;-1.720682139;7.137566954;32.06436684;16.66871434;17.01656832;19.16934292;3.330663421
6.116423108;15.08998732;12.87641299;19.81914333;6.179845114;0.851896202;-7.979422872;15.60334379;-25.27023161;16.6473486;-14.22681076;-2.598965283;-2.975223024;5.535777816;23.01293011;15.11304043;14.73776785;15.47143645;2.966010546
6.189035148;15.62495807;13.70021219;19.19933374;5.330318785;0.72662112;-20.23872349;15.37105067;-25.36701825;14.93945148;-15.72442392;-2.659071305;-3.061741474;4.066315902;12.92857131;11.57322858;10.82093614;11.78844564;2.492348858
5.022993478;13.92336871;11.44812447;15.22774493;4.530319692;0.586641858;-26.76320654;15.6552071;-25.07476882;14.93645612;-16.73882717;-1.372022625;-1.488719308;3.537762623;7.843244175;7.685443174;7.170338259;9.893794551;1.960901553
3.161573934;11.45052041;8.133466837;10.14673266;3.833235973;0.563959711;-24.49657181;16.11988696;-24.19304292;16.07076306;-15.98513315;-0.529555435;0.923256872;4.0384983;9.493993255;5.024856197;5.538233644;10.68453966;1.684689442
1.649488004;10.51972078;6.670111342;5.834014728;3.161282671;0.691057365;-15.56135241;15.94322755;-23.05108716;16.57172988;-13.16500863;-1.438484681;2.463170728;4.744427089;14.47674369;3.912792079;6.17974433;13.36731166;1.93484474
1.170666919;12.00018773;8.201228328;2.696178961;2.472169432;0.874092969;-5.660150785;14.74078217;-22.36956086;15.15643745;-9.378045318;-3.846002204;1.733376867;4.449367856;17.25171128;3.211217509;7.631934302;15.69955771;2.614709072
1.488814175;14.21069758;10.85731548;0.052830464;1.918358627;0.972151859;-0.07361912;13.12888797;-22.56062813;12.39258752;-6.478209952;-6.146668246;-1.286597485;2.481130285;14.49746241;1.308543054;7.829008878;15.27766307;3.232181242
1.670523257;14.10509208;11.20356625;-2.528862914;1.807277912;0.914627831;-0.133140504;12.32114068;-23.21559994;10.43999463;-5.858559124;-6.747978524;-5.157779935;-0.664251495;7.378351397;-2.454596781;5.694097356;11.10091616;3.231221316
0.893543397;9.87;7.332050374;-4.291327124;2.336203849;0.756411003;-2.673677551;13.03404022;-23.40304405;11.24658556;-7.52845959;-5.463680747;-7.948249568;-3.471900239;0.148991447;-7.04756075;1.972571605;4.357689374;2.41878413
-0.852584619;2.747845462;1.006645587;-3.675630277;3.309252117;0.626296306;-2.777762248;14.67621847;-22.56435402;14.6827461;-10.09776746;-3.715141654;-8.492309913;-4.295149199;-3.43062228;-10.31348665;-1.314333626;-2.167691458;1.12729243
-2.756316228;-3.568894873;-3.132208696;0.244837832;4.122680608;0.617412177;2.262620831;15.64303396;-21.114034;18.29168372;-11.64818263;-3.290941485;-6.994452359;-2.407462744;-2.722583685;-10.44403836;-2.331649484;-5.750534229;-0.026035712
-3.842963831;-5.641595608;-0.943125628;6.548187208;4.117496129;0.715968746;10.67010869;14.60016623;-20.06691742;19.05562521;-10.90059405;-4.664775647;-4.6068026;1.478645045;0.205007344;-7.271209941;-0.669014556;-5.376533673;-0.578822794
-3.718706405;-2.967004835;7.81829543;12.60873386;3.074764213;0.825587384;17.21099759;11.70834807;-19.96770817;15.85158694;-7.923370747;-6.329242213;-2.442941082;5.567736866;3.326637108;-2.42449787;2.537151336;-2.290139347;-0.496826422
-2.777549824;1.556829072;18.82723028;15.63922928;1.452071732;0.857093785;16.74811313;8.670697569;-20.16174865;10.57167557;-3.944435028;-5.822493883;-0.878807306;7.981127099;6.968653362;1.738578982;5.572415798;0.915206053;-0.075012802
-1.746582369;3.822332408;25.93751989;14.51099147;0.118620547;0.798473217;7.79191209;7.421421922;-19.22342824;6.873510973;-0.427235369;-1.709935389;0.357693187;7.772803202;13.38422474;3.623623346;7.360354637;2.019786748;0.407184514
-1.023763642;1.653626687;25.36419864;10.48559743;-0.253969563;0.705090726;-6.354732285;8.471371263;-16.28847212;7.444448869;1.923908975;5.082739718;1.540842838;5.360435174;23.87895247;3.251809131;7.994937578;0.5246233;0.942952723
-0.414343442;-3.588554118;18.16738365;6.335140498;0.32387238;0.629074206;-19.48283824;10.33711394;-12.10422752;11.92406106;3.500278546;11.73831719;2.437536048;2.164376188;36.1611161;1.950762001;8.299158477;-2.261836208;1.732432711
0.519259997;-8.186153263;9.217341965;4.546963274;1.205598141;0.563290562;-25.96519897;10.6706219;-8.735539014;17.15484651;5.215807987;15.5297241;2.433227383;-0.270263863;44.6316408;1.231249567;8.90711303;-4.362454918;2.867193695
1.848856531;-9.04086486;3.535877346;5.923243791;1.669980853;0.456993129;-23.55110361;8.280581018;-8.008038873;19.57867083;7.500701236;15.77120283;1.161870587;-1.121016726;43.89431126;1.727335958;9.664153526;-4.606934919;4.074795689
3.00537853;-6.05624203;2.858546212;9.461591849;1.542640221;0.286251088;-13.95957802;4.383420943;-9.938116057;17.88007813;9.755856286;14.18433712;-0.97098451;-0.628445127;32.90319635;2.915131204;9.774840134;-3.382511277;4.787787335
3.131066418;-2.071949172;4.938527215;13.36279175;1.345192702;0.10481905;-1.416526289;1.923977729;-12.52093947;13.80583642;10.850166;13.39098476;-2.888186177;0.212748312;16.35388092;3.674013717;8.479806525;-2.195723065;4.516573018
1.7903508;-0.49592522;5.863844945;16.22641541;1.819419025;0.016567355;9.510319616;3.336106995;-13.16376132;10.58738625;10.33498926;14.75639974;-3.521790005;0.370073242;1.95153248;3.157382695;5.665594551;-2.465922022;3.234737591
-0.559497359;-2.588491005;3.342803274;17.54336525;3.210215657;0.085930986;15.44378009;8.451406506;-10.67342467;10.30986204;9.266795815;17.31658411;-2.526640511;-0.563881339;-4.55995038;1.324362395;1.961954238;-4.478347906;1.463210028
-2.752978595;-6.539008234;-1.65578677;17.32862723;4.92721737;0.26710505;14.7181436;14.27907166;-6.218769958;12.34007813;9.650538548;18.6197395;-0.467466269;-2.166437288;-2.915265892;-1.14886972;-1.651840476;-7.219094918;-0.021721224
-3.64047159;-8.973048893;-6.014227635;15.47825872;5.917379478;0.423301953;7.407079688;16.98496953;-2.506108201;13.97379595;12.64931788;16.75260533;1.618423137;-3.547652347;2.177219253;-3.369335165;-4.358836346;-9.117574349;-0.641997626
-2.812864957;-7.615450174;-7.19103711;11.57706756;5.487267075;0.429319053;-4.568926943;14.66475396;-1.827398215;12.64125432;17.00361679;11.89773492;2.883334618;-4.026011654;4.999792188;-4.703064611;-5.782224933;-9.094381992;-0.316533013
-0.81295127;-3.032865643;-5.262642956;5.378486141;3.9079941;0.273604602;-17.37532666;8.819711811;-4.481085327;7.841933489;19.33983589;6.213236292;3.054251769;-3.645568926;3.089546447;-4.935080999;-5.962188298;-7.193800881;0.563763979
1.259880934;1.776785044;-2.733590232;-2.488220134;2.275091184;0.071067833;-25.95487527;3.381197361;-8.68121513;1.356447276;16.706071;2.225027041;2.368299962;-3.147744629;-1.379427723;-4.138888356;-5.203402247;-4.472955027;1.40664929
2.402742172;3.486023047;-2.462104799;-10.28441817;1.688844159;-0.027853633;-25.92762872;1.977491392;-11.86488429;-4.221499096;9.618219451;1.085512772;1.290341641;-3.37407368;-3.836772274;-2.481784053;-3.959436673;-2.350977977;1.720163722
2.158326101;0.597843381;-5.48557262;-15.75847721;2.388254618;0.042630349;-16.07081055;5.457274798;-12.31222971;-7.291635172;2.891620429;2.043136942;0.33811687;-4.499085518;-1.096580407;-0.151530444;-2.751894742;-1.891417725;1.284792432
0.651874966;-5.801649316;-10.42278498;-17.28343074;3.538688666;0.213956607;0.218805985;11.45916616;-9.951586755;-7.982286518;2.78266588;3.370198239;0.082118208;-5.676099019;6.355560187;2.59032025;-2.024542366;-3.386218219;0.182606207
-1.64368915;-12.972864;-14.72551247;-14.81039328;3.868386762;0.343037542;15.91813915;16.24921652;-6.014857103;-7.482667571;11.88455041;3.800768628;1.098631971;-5.449929562;15.09242559;5.351042261;-1.927938439;-6.327725131;-1.247760785
-4.138515769;-18.23760514;-16.60267785;-9.995151745;2.672834814;0.327918053;23.80029906;17.37400184;-2.069171912;-6.829992613;25.57972891;3.244685063;3.676603781;-2.758890805;21.48637568;7.647704063;-2.199652071;-9.6632285;-2.497771903
-6.221349183;-20.27534982;-16.08989644;-5.374213834;0.405276239;0.181585853;20.44607711;15.16850551;0.793903804;-6.289834288;33.45;2.333051659;7.412292538;2.127517043;24.04562853;9.040956087;-2.323051877;-12.20930607;-3.050377846
-7.312494954;-19.37959241;-14.61689448;-3.053686962;-1.609469394;0.007141166;8.264991435;12.13566408;2.219141276;-5.71481388;25.6745944;1.441754183;11.11165557;7.440078125;23.64877872;9.281696298;-1.934473574;-13.13708176;-2.624705511
-7.020779556;-16.87250094;-13.67250688;-3.660147389;-2.11917216;-0.096008115;-5.966026082;10.84866372;2.4372248;-5.276283043;0.412273814;0.243024649;13.29861003;10.74852348;21.97651384;8.401516059;-1.182356618;-12.38751078;-1.39409709
-5.387060222;-14.27392506;-13.74727005;-6.140403769;-0.827404063;-0.110370947;-15.24074841;12.0465969;2.030735467;-5.66915084;-33.2919928;-1.770700872;13.12298663;10.3513779;19.87805951;6.724356476;-0.701423837;-10.77803586;0.012378226
-3.005462526;-12.66894058;-14.29808029;-8.507243537;1.435017708;-0.10040151;-16.4497424;14.29013988;1.756034563;-7.50898475;-59.86979392;-4.356223457;11.0139651;6.333469853;17.12821502;4.79108174;-1.147773721;-9.606994468;0.822064377
-0.823828095;-12.38112038;-14.54533172;-9.093569549;3.339323554;-0.14538672;-11.76649444;15.26483141;2.337156147;-10.52415029;-66.49543146;-6.204026693;8.49535621;0.579233434;13.48233321;3.175639124;-2.633739296;-9.856906445;0.600259574
0.33267697;-12.91952763;-14.30878309;-7.587678295;3.980162054;-0.272468567;-6.47979408;13.61087311;4.17438209;-13.42500311;-51.06846037;-5.727937368;7.196121166;-4.290491953;9.660752262;2.200384705;-4.547730796;-11.47761947;-0.435717164
0.2071314;-13.24070686;-14.22670626;-5.241020941;3.406343481;-0.447276225;-4.964957482;9.902794287;7.112379868;-14.7349337;-23.31896435;-2.409719642;7.763598598;-6.376414457;7.064081982;1.661915608;-5.970610875;-13.33925358;-1.546919228
-0.809512432;-12.36929758;-15.31629111;-4.11969246;2.427213896;-0.618706562;-7.744233981;6.173288544;10.48614495;-13.95539913;1.756746627;2.449276059;9.51747563;-5.430588821;6.400708452;0.77832393;-6.402116856;-14.06012679;-2.007005189
-2.035360026;-10.17165287;-18.32533035;-5.852140163;1.921546997;-0.763404289;-11.6686629;4.479949247;13.45811606;-12.06471716;13.43648572;6.309039141;11.106837;-2.729653432;6.629291253;-1.475156338;-6.209776019;-13.22569612;-1.661000092
-3.016962868;-7.769578501;-23.33679808;-10.65060806;2.204672155;-0.882542673;-12.86530606;5.609330926;15.37927841;-10.87423964;11.09072574;6.963552419;11.61129105;-0.090119749;5.476413254;-5.71295185;-6.392357444;-12.0577046;-1.064892059
-3.808167147;-7.115380869;-29.75160046;-17.21446972;2.889027807;-0.95882164;-10.0459075;8.753592498;15.8859714;-11.72362957;2.574725109;3.943833462;11.16745548;1.246894232;1.360449295;-11.5327784;-7.792206321;-12.83288083;-1.063270424
-4.807087243;-9.780571577;-36.4850832;-23.53630783;3.254943416;-0.928471888;-5.600386687;12.20728833;14.75137797;-14.54288168;-2.890180019;-1.268548243;10.63180346;1.155710286;-4.865629632;-17.41741361;-10.35585368;-17.23772297;-2.108874352
-6.310883037;-15.69260168;-42.20493791;-28.01925259;2.78820562;-0.713116314;-3.689563027;14.46031582;11.82306406;-17.9794406;-1.562512315;-6.276277769;10.64505969;0.378841291;-10.00610994;-21.35401585;-13.03557942;-24.75746752;-3.854489071
-8.163234475;-22.77997174;-45.60037061;-30.13079343;1.494086188;-0.296552;-6.895002928;14.943427;7.304138443;-20.40231879;3.256173758;-9.169070499;10.98672231;-0.167738633;-10.65643167;-21.8981914;-14.43727347;-32.37983009;-5.350468351
-9.768625471;-27.94651005;-45.73733331;-30.22162719;-0.163834536;0.221455163;-14.07134265;14.072138;2.174087344;-20.93442999;5.401108255;-9.277702839;10.82526582;0.01145179;-5.82620166;-19.04080286;-13.74342497;-36.08520954;-5.705705109
-10.43744345;-28.82948613;-42.42349588;-28.82170401;-1.566653934;0.65504849;-21.06875143;12.75072545;-1.830092773;-19.76316733;1.711312544;-6.965950292;9.625248027;0.828378696;2.047996787;-14.28971526;-11.23872607;-33.30765128;-4.702414124
-9.781458243;-25.16600758;-36.35390128;-26.1276216;-2.240752215;0.839958406;-23.7474837;11.77182014;-3.038369802;-17.67138467;-5.377728238;-2.988429442;7.832616022;1.820950352;8.606606798;-9.867034515;-8.089327074;-24.73902725;-2.900440727
-7.892162433;-18.84118483;-28.86797187;-22.15981029;-2.00497226;0.743664922;-20.95207051;11.47630987;-1.0820638;-15.35375286;-10.31265094;1.846906491;6.626875167;2.455751939;10.51187413;-7.51391626;-5.594993588;-14.17847492;-1.186138436
-5.25241786;-12.65059217;-21.42690124;-17.37991174;-0.969622763;0.4924974;-15.19313409;11.77511568;2.490840841;-13.11172195;-9.409720125;6.517760295;6.882955461;2.319554904;7.612353793;-7.656958009;-4.485124688;-6.426937489;-0.160701925
-2.530288431;-8.713744259;-15.15589776;-13.03240128;0.53675384;0.290969185;-10.59629441;12.3986053;5.023160158;-11.02559493;-3.906911057;9.623585285;8.263027539;1.207622438;2.733178463;-9.426164653;-4.711876471;-4.570236936;0.143669584
-0.411051802;-7.610772021;-10.72516809;-10.63490181;2.072996066;0.290998341;-9.779093989;13.15248689;4.674317179;-9.226887225;1.383563888;9.80724351;9.326641583;-0.785778094;-0.633554579;-11.42306892;-5.754153537;-8.400100734;0.049707545
0.521375304;-8.627140335;-8.501946032;-10.82660556;3.231701295;0.504734374;-12.07569675;14.0146949;2.039642629;-7.895123531;2.372057732;6.709007216;8.681099379;-3.175621506;-0.881742577;-12.65639949;-7.075767755;-14.90065303;-0.206468984
-0.054115771;-10.61358715;-8.631129851;-12.52767836;3.810144372;0.816895481;-14.39324528;15.03832669;-0.014474097;-7.016970241;-0.926735656;1.651375724;6.235360886;-5.148583905;0.824718183;-13.02519074;-8.363594737;-20.30186377;-0.699802864
-1.972616835;-12.64261049;-10.80681605;-13.33571068;3.916219591;1.075266511;-13.88828502;16.16071504;1.512553811;-6.286376086;-4.751794391;-2.79128808;3.442200878;-5.910374109;1.824471399;-13.11693487;-9.457226487;-22.22044802;-1.616706799
-4.45644884;-14.06577055;-13.92232723;-11.16689591;3.902609019;1.18543048;-10.25929523;17.09402107;7.154333492;-5.399811014;-5.129219635;-4.333532467;2.229228164;-5.199402358;0.196938081;-13.57482595;-10.17050461;-20.54049948;-2.849498726
-6.306727802;-14.26020852;-16.10532679;-6.025370722;4.123748065;1.146024236;-5.838720673;17.43291874;14.05692536;-4.524489739;-1.326566035;-2.567253452;3.457291785;-3.592392842;-3.818245329;-14.52038687;-10.24250911;-16.7331496;-3.822632853
-6.450284275;-12.61675612;-15.45904376;-0.435915015;4.665167596;1.016733862;-3.491093656;16.95471542;17.74454871;-4.405126003;3.747467936;0.732447776;6.206379869;-2.256309644;-8.156501561;-15.38662159;-9.455558854;-12.42063161;-3.79420272
-4.559025698;-8.942925465;-11.20116777;2.061880319;5.257319501;0.861141114;-4.108226585;15.89851086;15.43555689;-5.818104529;6.344459727;3.006792076;8.530039063;-2.183338591;-10.49539503;-15.19620136;-7.758872796;-8.343364417;-2.433910928
-1.294702153;-3.865647233;-4.36307178;-0.546516159;5.469812625;0.712034653;-5.807357072;14.95277602;8.369329355;-8.720323425;5.244093131;3.022760614;9.071334231;-3.409247938;-9.694451053;-13.07188063;-5.247360352;-4.338048;-0.186364279
2.071728615;1.32968693;2.652529306;-7.037796836;5.059749069;0.573562343;-5.530207024;14.8557183;1.203067466;-11.86733974;2.725408745;1.981119163;8.171088034;-4.845300972;-6.115713614;-8.716420421;-2.037077731;-0.038365044;1.936984756
4.460550492;5.486925406;7.533481245;-13.47525521;4.204216711;0.440241179;-1.738415667;15.83410936;-1.218996767;-13.41049999;2.437792717;2.610048828;7.510746576;-4.961400081;-0.919559132;-2.676869956;1.774358339;4.481748531;3.028776508
5.641208185;8.374753056;9.537311169;-15.75946132;3.418207714;0.307890466;4.072582125;17.31846445;2.689212402;-12.16763925;6.192872655;6.866805548;8.590320929;-2.894475424;4.785720632;3.713023862;5.95543868;8.666650101;2.909601111
6.251587465;10.71841926;9.83862066;-12.42386267;3.203074085;0.172430595;8.432727181;18.24686177;10.2349811;-8.59426737;12.49402537;14.09934968;11.36826447;0.847414935;10.20347349;8.760473258;9.936287025;11.93708272;2.209312737
7.161776644;13.31953874;10.41693383;-5.630194897;3.690514806;0.030622906;8.822022589;17.83279046;16.59652019;-4.603332091;17.92783902;21.25349586;14.27242992;4.679603914;14.56804807;11.13833161;12.84152474;14.10536998;1.841471521
8.688851746;16.00095482;12.33923191;0.378239933;4.5569448;-0.108605824;6.099826118;16.2457341;18.40114827;-2.267874674;20.01081055;25.07800594;15.60214725;7.07757678;16.96841954;10.61485347;13.90085493;15.3326068;2.296511089
10.30120179;17.41211139;14.84191602;2.221451468;5.27;-0.21399774;4.257421092;14.61998071;15.93480491;-2.371501102;18.97620235;24.59751409;15.09836623;7.707201105;16.74213811;8.323426041;13.01449885;15.72465024;3.316417238
11.06117427;16.06042763;16.0076541;-0.425348772;5.4681419;-0.24297396;7.321168658;14.27230122;12.39427269;-3.93795009;17.14056331;21.81859918;14.25928016;7.644893203;14.17212181;6.221035994;11.00319956;15.04280102;4.185740538
10.44769738;11.80523626;14.50761136;-4.905276384;5.18045614;-0.175581655;15.59775646;15.65325872;11.01516762;-5.097320785;16.69120941;20.03045708;15.0368435;8.463101981;10.70843142;5.866489859;9.221086645;12.89032469;4.362386191
8.8754665;6.475452612;10.93765548;-7.685712468;4.738373506;-0.044606191;24.3;17.85301551;12.52360595;-4.56959311;17.95724418;21.04780624;17.98051526;10.86365029;8.225737497;7.23405104;8.698397571;9.246327252;3.908640036
7.462380506;2.86306889;7.55262351;-6.80281193;4.48392032;0.071819045;26.09490858;19.13155999;14.89394496;-2.574651955;19.50876768;23.66718189;21.45557532;13.94893112;7.713986152;8.474343062;9.419397353;4.828629442;3.380222507
7.208069688;2.701875825;6.522172499;-2.879978204;4.526581293;0.100323119;16.21755459;18.16418586;15.35992136;-0.500946311;19.65034639;24.65758838;22.726685;15.76703639;8.463191169;7.030614772;10.32333439;0.862118569;3.305241157
8.232783854;5.221681646;8.111348721;1.778352537;4.728839206;0.029044007;-3.38398111;15.09090591;12.80659481;0.286883369;17.77623654;21.52580033;20.13013386;14.77446291;8.555305138;1.540043945;10.0939701;-1.654274993;3.723572446
9.68542611;7.558947512;10.32987818;5.020706115;4.888077876;-0.078976247;-24.12099804;11.54405666;8.554052131;-0.544860338;14.53891601;14.79776991;14.57978436;11.10580547;6.429933391;-6.795087828;8.16924953;-2.609901471;4.178685645
10.39451758;6.859437606;10.42873364;6.086828307;4.92235224;-0.133517686;-35.52845019;9.578354741;5.082727978;-2.262353383;11.13535298;7.903871091;9.116925402;6.640700487;2.318437092;-14.51667249;5.187697578;-2.804772718;4.144093096
9.745814239;2.490039063;7.091959032;5.475141248;4.892789447;-0.090186197;-31.80609923;10.27;4.003226343;-3.879833572;8.746480083;4.692596387;6.77351754;3.764471296;-1.671577718;-17.93273384;2.506897574;-3.272448912;3.492484203
8.104533693;-3.400721484;1.555780394;3.919338298;4.867418395;0.013351408;-15.6895908;13.01493289;5.038633952;-4.994413543;8.574362759;6.541509497;8.393590227;3.732929888;-2.996278767;-15.56288764;1.170225703;-4.433035246;2.598546425
6.482035987;-7.459125464;-3.27579206;1.603857677;4.78393781;0.091088011;3.197455097;16.02062948;6.69924565;-5.899498987;11.80855131;11.37904067;12.10882874;5.872758329;-0.548773852;-9.232722416;1.156481079;-5.763503003;2.005364109
5.750570794;-7.61435029;-5.031789977;-1.689524681;4.463732195;0.08396304;14.59789799;17.57878802;7.790974512;-6.99243805;18.64856421;15.38373717;14.84579105;8.212773395;4.535434625;-2.893568028;1.52673774;-6.252042631;1.968093281
6.041421364;-4.521375392;-3.638011023;-5.823434524;3.778226267;0.009282529;14.26941562;17.1438277;8.301694121;-8.169205759;26.68990537;15.96012569;14.6386564;9.040144292;9.800931417;0.097205418;1.34309799;-5.255692583;2.27926031
6.770058594;-0.866427375;-1.253874481;-9.85815763;2.816570357;-0.061613515;6.404418201;15.4631124;8.981018432;-8.860353064;30.39848268;13.58469893;11.93842347;8.172518696;13.36042075;-0.724559725;0.579025118;-3.054752802;2.510109615
7.202670299;0.813170303;-0.478719231;-12.49457928;1.892565234;-0.077714055;0.103276945;13.79101788;10.22911865;-8.670432585;23.3111867;11.08734562;8.989329706;6.981585427;15.17659287;-2.79218957;0.225047231;-0.666349517;2.425685956
7.059389587;-0.026685859;-2.302774502;-13.06080105;1.368399206;-0.064525224;2.407348307;12.91403964;11.49546417;-7.929189729;2.507423645;11.06148122;7.919145553;7.1952822;16.67983703;-2.679661015;1.4520999;0.894628394;2.187859476
6.671032792;-1.883752042;-5.430871938;-12.09793577;1.435036847;-0.105196062;12.90548303;12.76549858;11.77881841;-7.50432799;-27.63635213;13.61376671;9.154004234;9.456322434;19.09553491;1.061013647;4.497195989;1.276059536;2.17128006
6.613175181;-2.842894315;-7.4469652;-10.91413495;2.02684112;-0.258333538;23.84317955;12.82548335;10.68572259;-7.950930048;-55.90858248;16.32999078;11.37078029;12.77792488;21.99536511;6.616347965;8.214136209;0.852125773;2.581156391
7.173127454;-2.379300322;-6.801959341;-10.42515513;2.928362359;-0.486928692;25.70450311;12.8179656;8.963043006;-8.793991829;-69.86104566;16.45097401;12.84743456;15.30096067;23.43767734;10.24744534;10.7334774;0.22345694;3.243015233
8.105963978;-1.739673403;-4.008592209;-10.30279014;3.963247081;-0.669692515;14.25464447;13.01548512;7.956735176;-8.73340985;-63.42795809;13.39924389;12.93897082;15.72109289;21.70106134;9.269371311;10.78514278;-0.320014648;3.768561694
8.85453306;-2.60138591;-1.150165126;-9.237384514;5.08977644;-0.695051008;-6.054808586;13.87988086;8.495182823;-6.761007069;-41.23961514;9.505511525;12.42093184;14.24517877;17.17105054;4.357966548;8.671824762;-0.854123481;3.943182826
9.011580374;-5.233460002;-0.196298105;-6.150594709;6.32174461;-0.560351512;-24.78670495;15.40434958;10.22541199;-3.283152098;-16.11155166;8.276906908;12.51788161;12.34301165;12.66281398;-0.680781416;6.111262371;-1.369424551;3.962034006
8.626728968;-7.829441554;-1.516772044;-1.33077613;7.560944132;-0.386230924;-32.37286953;16.8091041;11.96405268;-0.194504797;-1.025167989;11.57896072;13.59322851;11.53667965;11.66045172;-1.605592698;5.025718325;-1.317983258;4.270189041
8.12801748;-7.68430893;-3.717864777;3.510967919;8.517153333;-0.325085409;-26.21271162;16.93975695;12.66164447;0.340536454;-1.121012925;18.00245808;14.72017606;12.22426334;15.69079051;3.10527298;6.174500302;0.276925841;5.128565068
7.962585502;-3.313514187;-4.806570212;6.356851777;8.821438444;-0.43590461;-11.77452838;15.10262615;12.06888901;-2.472595755;-11.36833974;23.73875282;14.51431229;13.47225869;22.88948986;11.04667485;8.655423282;4.079764134;6.299284135
8.270129392;4.200651299;-3.68044365;6.266634877;8.26794268;-0.632483284;1.800847374;11.67912757;10.59330076;-7.314962808;-21.35637534;25.29021333;12.45977072;13.90328256;29.00982731;17.57193694;10.63992473;9.637025329;7.165013417
8.831572773;11.7368693;-0.818862792;3.916338187;6.995815883;-0.75355993;8.118655531;8.016997959;8.682603121;-11.56839364;-23.31635582;21.91909383;9.516790272;12.91762052;30.2563431;19.11545507;10.76999952;15.26687828;7.220981142
9.282252666;16.14237645;2.204315862;0.926293633;5.45479719;-0.699040961;7.245907382;5.653184566;6.484823857;-13.10777397;-17.24267815;16.00094478;7.431345704;11.23318964;25.87469724;15.66662725;9.157088549;18.92511207;6.532263965
9.379868339;16.19821706;3.857993166;-1.359079811;4.162097794;-0.516606815;4.313867674;5.417045084;4.116849718;-11.69758;-9.566377235;11.12538222;7.306884387;10.29964705;18.57244119;10.59115334;7.248364463;19.52636386;5.746631642
9.126498494;13.14617926;3.562771777;-2.582301808;3.42105908;-0.362272812;4.590620059;7.014960315;2.108090505;-8.942287252;-7.058777287;9.498046155;8.648607128;11.06545615;12.49258832;8.032512224;6.696897498;17.73941803;5.614960634
8.711531494;9.570786939;1.857745994;-3.076659342;3.201814704;-0.365847214;9.166887749;9.313429794;1.328172316;-6.907292043;-11.23393929;10.60998955;9.69870726;13.10604429;10.31552261;9.920708105;8.113305665;15.58352005;6.395315952
8.388822701;7.646773324;-0.05574205;-3.030867017;3.258117998;-0.51575747;14.61070717;11.05540588;2.275493842;-6.560185203;-17.6688543;12.02332638;8.797617181;14.83843511;11.66521448;14.80306874;10.63423644;15.03758998;7.635249088
8.399498543;8.047713976;-0.934130739;-2.05;3.373859622;-0.663898364;16.55661472;11.52210876;4.41203557;-7.241075786;-20.30642135;11.45673366;5.662422922;14.68721523;13.8971874;19.21953762;12.60109871;16.65154452;8.525712654
8.939199454;10.06705479;0.057612252;0.408607965;3.538544322;-0.649806062;13.97040413;10.78731194;6.368539703;-7.45693534;-16.72190545;8.472732717;1.570827521;12.31501375;14.46264403;20.39852802;12.80946256;19.18657859;8.545216429
10.09134551;12.48494503;3.09123276;4.178528593;3.912917695;-0.440679571;10.34767421;9.521333449;7.045576733;-6.217707709;-9.873171819;4.572301316;-1.636833139;8.974536403;12.88965909;18.16155726;11.3913093;20.55216852;7.865642693
11.70151836;14.30138955;7.533625486;8.061496981;4.613085318;-0.16811981;10.71239316;8.538128697;6.639750754;-3.786271575;-5.163692201;1.852800459;-2.876781709;6.708297218;10.87836148;14.70226677;9.699656597;19.3335524;7.185482265
13.29545524;14.88196698;11.98758969;10.54585246;5.486595677;-0.028263378;16.84777709;8.335966989;6.499614792;-1.321774662;-5.694348121;1.439375892;-2.414638347;6.984079911;10.62664355;12.62953735;9.315070983;15.77612618;7.132848723
14.19194598;13.78638788;14.7147699;11.05452434;6.070637789;-0.126616987;24.8152912;8.82461906;7.753695527;0.137398106;-9.889490778;2.87967557;-1.366117711;9.748182446;12.91956019;12.93765692;10.91711893;11.54115858;7.739007496
13.8425113;10.82971379;14.46623967;10.57722131;5.799578655;-0.395142224;27.1440092;9.354775317;9.944506091;0.422553571;-13.32177425;4.762698355;-0.662885956;13.53073609;16.58779599;14.45069712;13.8211622;8.501552005;8.420984244
12.22011401;6.524431284;11.33487721;10.95200575;4.352681396;-0.64848294;18.37531707;9.074989244;11.1237043;0.142489402;-12.80346216;5.849908728;-0.413688499;16.45063668;19.67915662;15.00114378;16.46934344;7.543602211;8.482041536
9.968689328;2.430419443;6.998445207;13.2371548;1.923016194;-0.730988853;-0.168241335;7.490941724;9.59942758;-0.028259605;-9.002475833;5.768432764;-0.139411754;17.35515734;21.20494467;13.25054592;17.48551672;8.244939716;7.704888468
8.142667437;0.784713939;3.988018116;16.53127074;-0.780652943;-0.633601364;-20.19964916;4.922683409;5.837325513;0.038668134;-5.426980343;4.879155485;0.465443987;16.32600097;21.8756142;9.691174123;16.54398183;9.530389179;6.53977119
7.648656753;3.327966226;4.293269794;18.3811627;-2.832449064;-0.488693256;-31.38083657;2.503797943;2.569736066;-0.063722701;-4.989560788;3.692456513;1.045603485;14.32897018;23.17474941;6.15811392;14.48380129;10.62637484;5.736019068
8.733476436;10.03097719;8.177991543;16.64555241;-3.537317653;-0.45381678;-28.03307895;1.587710851;2.630389375;-0.752792629;-7.418776043;2.484220944;0.870320354;12.41280598;25.61088788;4.387243322;12.65288518;11.4809597;5.734623761
10.85162013;18.71417749;14.01825609;11.39397001;-2.776790171;-0.584009201;-12.90088288;2.855503737;6.246766722;-1.972342958;-9.778625001;1.4047516;-0.367874807;11.09869751;27.75217143;4.799659076;11.98077658;12.37940976;6.333774193
12.98924094;26.0098874;19.27737256;5.244098315;-1.050227425;-0.794865483;4.744015269;5.744566413;10.39151321;-3.184096288;-9.371781775;0.80428739;-2.014726183;10.32705291;27.03497657;6.36196274;12.41409821;13.24271884;6.898436603
14.21568554;29.13534816;21.92989174;1.712163432;0.816045907;-0.938322026;15.35182245;8.707738728;11.22729688;-3.76376465;-6.160343087;1.288097544;-2.753703409;9.831914726;21.85212972;7.461776952;13.05170484;13.37561152;6.919152352
14.10823839;27.32040221;21.38162829;2.756784977;2.12222013;-0.921411813;15.31677196;10.24404155;7.818288364;-3.367142504;-2.463626016;3.332808924;-1.582884495;9.517178838;13.29865027;7.029834983;12.82777024;11.98962771;6.433178495
12.82951501;21.98110175;18.39696726;7.408618661;2.644952027;-0.770744766;8.867703568;10.00531522;3.712960303;-1.946695164;-0.390899641;6.793458797;1.320759336;9.513776587;5.111155801;5.123722279;11.25003906;9.06470626;5.949930778
10.90130468;15.64434517;14.31938207;12.56875241;2.685828333;-0.598759583;4.435726512;9.115786719;4.458443895;0.472833476;0.359280729;10.80081507;4.601133854;9.949016335;1.660087891;2.727346833;8.712715085;5.721478906;5.958220745
8.898207605;10.47291935;10.30241803;15.35333426;2.812409265;-0.510528565;8.185649088;9.366533857;12.67082488;3.884988737;2.101223357;14.21751594;6.648533431;10.71992547;5.300598379;1.082364286;6.220939017;3.634874312;6.458869552
7.260508932;7.378145413;7.047326278;15.14179112;3.476384106;-0.531564391;19.30552129;11.81814486;24.89393207;8.067961154;6.506802197;16.30603466;6.748547621;11.51612909;14.85742319;1.0391256;4.75368119;3.848109435;6.946719311
6.262525573;6.114277024;4.9588768;13.74884227;4.755256217;-0.608669136;30.32769767;15.87118814;33.51915535;12.27546091;12.32179731;17.05704103;5.555701068;12.06426745;26.21071334;2.710496943;4.693684076;5.93041113;6.87484575
6.038509516;5.980122412;4.270403689;13.67035197;6.359217612;-0.669755437;32.22563515;19.57012016;32.86541108;15.30933172;15.87507299;16.93411264;4.528854881;12.34183533;34.53325561;5.447617934;5.668866589;8.224255133;6.204456712
6.574436029;6.430938639;4.874540028;15.89782283;7.854397233;-0.684358217;20.77312063;20.96734307;24.52102818;16.13411689;14.21555948;16.32463329;4.788786116;12.54341561;36.74960206;8.073580693;6.859504097;9.067228214;5.547237395
7.681468352;7.19739893;6.085344665;19.10269116;8.918375262;-0.677398443;-0.152123168;19.52338876;16.92344238;14.63406272;8.122263493;15.24371102;6.296933719;12.83246313;32.84242812;9.354138354;7.536415792;8.052089211;5.735247223
9.04019673;8.054506982;6.795997128;20.83180575;9.457224872;-0.696508734;-20.54582317;16.46238906;18.56395061;11.8458692;2.097476069;13.57103918;7.966687603;13.13079578;25.50306764;8.636108989;7.482895187;6.310984984;7.139044395
10.35451844;8.665840422;6.177562778;19.69727431;9.549598427;-0.770977437;-30.25283932;13.81595659;29.81899856;9.353442692;1.024307477;11.55675134;8.562738801;13.17175579;18.58515416;6.376714157;7.063513942;5.577236348;9.290400273
11.52758942;8.745808141;4.45999948;16.73890698;9.321532232;-0.897438852;-25.0696031;12.92661427;40.40915096;8.247296878;6.195360654;10.0290716;7.643583849;12.78998595;15.27476093;4.137551683;6.940481556;6.777256176;11.14525005
12.70642706;8.381244162;3.061877322;14.81654786;8.882209702;-1.054346086;-9.075626284;13.5944122;35.67007813;8.484138171;14.14763359;9.980231688;5.824650468;12.17620641;16.76256937;3.812863604;7.643742766;9.303968572;11.81478639
14.12418798;8.148055602;3.752886612;16.4746578;8.355825859;-1.2203281;8.221297422;14.49703477;7.794551539;9.188656733;19.42018411;11.79645426;4.226431157;11.82565315;21.82;6.405150903;9.25758383;11.56979905;11.20775214
15.84336285;8.832601787;7.35734908;21.93020047;7.927232239;-1.375534361;17.99494763;14.45891352;-36.41214603;9.62679264;18.9687509;14.79289187;3.617103656;12.17108947;27.35326144;11.1533451;11.3838161;12.37318568;10.08097367
17.61152112;10.93049269;13.00919946;28.72948734;7.796570281;-1.490923109;17.4757916;13.47146371;-77.84521439;9.962554386;14.50770832;17.52641584;3.944489371;13.18917291;29.76740274;15.76332477;13.36478659;11.92151533;9.45146108
18.97082555;14.29796242;18.63273841;33.33197291;8.036761695;-1.527698707;11.13644878;12.62828531;-96.71182353;11.07573222;10.82554476;18.71808383;4.56748499;14.33003906;26.69459704;17.77640818;14.61213031;11.62711243;9.821410024
19.55791779;18.20286726;22.35600359;33.44901425;8.474143265;-1.458503473;7.00908967;13.09172796;-85.4353364;13.56513347;11.59580123;18.07625401;4.900655838;14.87185564;18.3394408;16.2157256;14.85905313;12.82368824;10.81289726
19.36474515;21.70869803;23.7696831;29.47694224;8.736430775;-1.294981038;10.68067273;15.0244305;-53.51298492;16.85056943;16.33161955;16.36124376;4.880513159;14.44483481;7.653612819;12.31154803;14.22873136;15.48607004;11.48893327
18.75299571;24.11372088;24.03563699;24.10865527;8.489517828;-1.092734708;21.07073727;17.40875965;-20.80422896;19.28125508;21.05416808;14.65481223;4.875260725;13.3126701;-0.969795344;8.69646576;13.12634642;18.08073394;11.10630542
18.2132896;25.20612691;24.79137072;20.53427814;7.709157749;-0.921503196;30.92076072;18.87355614;-4.265045688;19.30682587;21.94649252;13.46385729;5.175235399;12.18279366;-3.912798682;7.600458207;12.04617955;18.76091364;9.718471532
18.06591773;25.281362;26.79956502;20.53865313;6.763680648;-0.821362023;31.73750682;18.77084385;-7.783033003;16.78962602;18.6794249;12.41544603;5.565623603;11.69776962;-0.189333314;9.375422149;11.40019745;16.98318019;8.170911317
18.3337706;24.99399203;29.48145485;23.69583941;6.202090948;-0.782446728;19.84967285;17.56106692;-22.00112964;13.31205357;14.49210119;10.77100174;5.394678597;12.01301645;8.230991633;12.45707223;11.42917473;14.20633236;7.4990088
18.85274127;25.10473736;31.67144469;27.97255899;6.3708512;-0.767308348;-0.612486273;16.2158153;-33.2187145;11.11181501;13.07861253;8.261342186;4.101840658;12.77862025;17.82580142;14.75509966;12.19169237;13.01051522;8.183102737
19.47208649;26.14243054;32.83724335;31.1210698;7.138148651;-0.756283008;-19.95699123;15.23549806;-33.86704089;11.42945518;15.18480431;5.462266033;1.752976881;13.49190444;25.63397489;15.33;13.58433722;15.22509445;9.803989402
20.1325556;28.06397123;33.59988839;31.89580053;7.947657162;-0.773078172;-28.93790652;14.20909249;-26.68092462;13.58785861;18.0098065;3.347401115;-0.899699745;13.87913072;30.57135337;14.99747086;15.35151678;20.47707984;11.3278002
20.75354934;30.12679362;35.04226027;30.45962277;8.184565184;-0.863583602;-24.44557301;12.3258851;-20.36919505;15.55771277;17.90834;2.406372512;-2.930899636;13.96785526;33.11283575;15.3962852;17.08637831;26.29550281;11.78884983
21.07665236;31.19054967;37.43953083;27.96804386;7.59798626;-1.043491957;-11.02212859;9.357921763;-21.3873768;15.55367424;13.88046617;2.132148487;-3.944785023;13.82028618;33.85741657;17.33897884;18.26869271;29.73449359;10.87932619
20.68989048;30.40628709;39.64273143;25.76337181;6.47547576;-1.261564991;2.685376763;6.174399598;-28.87446729;13.37177099;8.637376773;1.379142836;-4.400441019;13.23331782;32.41872323;19.86992232;18.38889597;29.32619384;9.065298366
19.3033396;27.87648781;39.82098968;24.67549982;5.447344252;-1.415813837;9.844076419;4.245230779;-36.38490571;10.42193086;6.257311377;-0.674024225;-5.266383274;11.76311599;27.76822587;20.87176743;17.1526619;25.93988381;7.212163498
17.08645127;24.73358105;37.04390003;24.72434468;5.067931786;-1.416117697;9.467804664;4.496271904;-38.07215698;8.510300452;8.559224545;-3.780147543;-7.230078125;9.137571219;19.80573219;18.76274754;14.67656646;21.97118661;6.031322012
14.75192448;22.42447418;32.34408804;25.26951724;5.470058594;-1.246541364;5.888445048;6.489094411;-33.59071714;8.437698783;13.49259845;-6.76137503;-10.05213661;5.728203295;10.66991148;13.89456136;11.53819185;19.53627672;5.726893377
13.22359775;21.62738905;28.23032811;25.4740356;6.313256169;-0.979036497;4.498848142;8.662710374;-27.72059625;9.555484789;17.007642;-8.439102946;-12.5764407;2.619176184;4.274132342;8.474131415;8.590804403;19.03510561;6.020149622
13.05963699;21.64079449;26.89981286;24.83908666;7.021824339;-0.728696439;7.336243509;9.485077997;-25.63;10.53709665;16.69796381;-8.570722322;-13.4393992;1.085443665;3.925498726;5.021124229;6.589627721;19.08455681;6.447044537
14.04347523;20.83703583;28.54579291;23.52024225;7.119699993;-0.585961673;11.95370531;8.586474312;-28.33089076;10.58292845;13.88483661;-7.991212157;-12.00574009;1.775526143;9.6167468;4.556796247;5.821786157;17.74698759;6.673288587
15.28035554;17.95789657;31.16275627;22.21054873;6.445772552;-0.575195451;14.2072406;6.956195745;-32.263368;9.979700116;12.2289434;-7.848606458;-8.877228993;4.189886492;17.21078007;5.930019531;5.971954608;14.04884076;6.62882839
15.77489737;13.27784051;32.06277126;21.61605994;5.163347444;-0.662575856;12.35905326;6.068284947;-32.98150797;9.596932442;14.14346777;-8.621538498;-5.605194775;6.886942709;20.58705195;6.768271847;6.333569363;8.6771564;6.439310203
15.09012803;8.647601655;29.91239522;21.85496738;3.627191226;-0.795196309;8.870794064;6.684551137;-29.31424488;9.886873286;18.34325002;-9.803184383;-3.785257224;8.331198146;15.62396137;5.264936267;6.252013992;3.455242685;6.270804082
13.60671651;6.263214384;25.66523725;22.24518668;2.22484797;-0.933723802;8.260152978;8.315588411;-24.25693014;10.36798576;20.88702475;-10.53823731;-4.133654404;7.815696454;3.31;1.415962954;5.515439233;0.112997225;6.217319381
12.19418475;7.054518194;21.67580203;21.72535339;1.257802902;-1.056584439;12.77913322;9.728116451;-22.03939075;10.07015068;18.88166352;-10.62379279;-6.146465341;5.823480827;-10.3846227;-3.159633608;4.428759533;-0.715238169;6.279095811
11.55259205;9.967913797;19.77218514;19.67099759;0.860307653;-1.145356417;19.64566682;10.00285901;-24.2615899;8.495166625;13.48430355;-10.91504719;-8.533519816;3.598736263;-18.08768254;-6.526242508;3.523301688;0.353789096;6.398164351
11.73109686;12.75028952;19.8866052;16.48575993;0.948296885;-1.177272628;22.44333845;9.23067712;-28.61737527;6.162318741;9.307290359;-12.67213832;-10.0926084;2.267145645;-15.79776094;-7.755937525;3.119594353;2.065093323;6.500058594
12.1799481;13.62696818;20.32073539;13.42965254;1.235562944;-1.13778026;15.93336859;8.310559306;-31.17232454;4.206231952;10.49319284;-16.34163477;-10.4141998;2.144262369;-5.621015574;-7.298801725;3.072130365;3.327722044;6.523621447
12.26420039;12.51558554;19.32774018;11.71120789;1.366057126;-1.039858584;0.611006671;8.111801121;-29.91183701;3.394406549;16.82267933;-20.84569468;-9.963516595;2.686949947;5.466212825;-6.311675166;2.887129261;3.652464908;6.447491564
11.80466577;10.79471028;16.61921119;11.50532081;1.136340882;-0.925550827;-16.70988103;8.773375278;-26.28628822;3.491904023;23.43990821;-24.1066794;-9.54919826;3.040330626;10.07969336;-5.68421997;2.115375312;3.086447843;6.312367156
11.20460363;9.869299798;13.54157344;11.71856242;0.67165009;-0.84114062;-27.05149551;9.717656642;-23.50461663;3.590472838;24.77946763;-24.51021241;-9.619215787;2.708789067;5.159770143;-5.595741818;0.707298681;1.902768895;6.212764218
11.07066834;9.814993798;11.85022466;10.79982989;0.392660299;-0.804768977;-25.26796926;10.27594918;-23.3635957;3.112339566;19.55492956;-22.16503129;-9.920913196;1.845297263;-6.166478286;-5.814929351;-0.948794504;0.378126166;6.239380237
11.65588538;9.328314875;12.19746211;8.046940085;0.736108684;-0.796023258;-13.48798307;10.29275886;-24.6383682;2.529554253;12.46369263;-18.90239305;-9.765886715;0.999133444;-16.78394299;-6.249463318;-2.325326475;-1.226376324;6.399037073
12.59909137;7.070502017;13.63625529;4.375220179;1.797784305;-0.77887318;0.526231335;10.15645114;-24.46343642;3.045980831;10.75960683;-16.95046262;-8.677252642;0.589843827;-20.31138928;-7.105309693;-3.136717356;-2.607458852;6.580997547
13.19107613;3.230173543;14.51306657;1.844682517;3.176497396;-0.73846358;8.852168033;10.284157;-21.29217375;5.421957071;18.09068761;-17.31397791;-6.907772646;0.552444056;-15.16010293;-8.505398379;-3.48770188;-3.450118559;6.621201173
12.9621645;-0.148053496;13.92;2.192877495;4.187057415;-0.69821945;8.676181827;10.6105478;-16.59261953;8.959535872;30.49184487;-19.15921964;-5.41134258;0.41756876;-5.256055566;-10.02650889;-3.677485662;-3.559899243;6.437090669
12.1130304;-0.525139413;12.43671204;5.454840718;4.332592005;-0.700828799;3.616826916;10.61188801;-13.6781208;11.63751791;38.02688388;-20.69228812;-5.254833277;-0.272176439;2.962528395;-10.73683242;-3.846996537;-2.963963472;6.129239402
11.4221289;3.084980327;11.55343616;9.770611625;3.69565339;-0.769745422;0.399800352;9.868694611;-14.75570759;11.46207798;31.30717927;-20.78043167;-6.87389705;-1.556786693;5.156452978;-9.832649424;-3.793394224;-1.86649485;5.949377803
11.67247146;9.064981315;12.31469831;12.61157248;2.928361339;-0.886049813;3.568231279;8.632793296;-18.90017776;8.042955834;8.319709408;-19.93717525;-9.700968233;-2.972427237;2.128492895;-7.347935992;-3.130248469;-0.495679089;6.132384384
13.02407621;14.10295089;14.35702166;12.55223332;2.807676836;-1.001549221;12.12638246;7.821717479;-22.7767062;3.123045509;-23.36804342;-19.81713187;-12.4379674;-3.830674753;-0.810108247;-4.25761378;-1.665310349;1.009163349;6.70895794
14.81473334;15.46270114;16.13130285;10.252313;3.662336643;-1.075844267;20.33504487;8.363185264;-23.42314995;-0.448363527;-50.65778482;-21.62597146;-13.79864092;-3.647506636;2.232089182;-1.791941807;0.33437415;2.574924885;7.450954569
15.95714241;12.90184949;16.08271871;7.888698763;5.098805497;-1.103854617;21.78139725;10.40747477;-20.59432119;-0.603433489;-62.45924987;-24.79558178;-13.22870739;-2.429780246;13.15732624;-0.4928845;2.237933526;4.101931691;8.009668457
15.65799194;8.780245984;13.80377824;7.460312265;6.243742101;-1.110703441;13.70059904;13.08077031;-16.66773242;2.567097095;-55.71791398;-27.09927605;-11.1453324;-0.657569654;27.85993865;0.182917471;3.452472317;5.456431834;8.154207669
13.94945199;6.319780901;10.28393347;9.257531581;6.333641133;-1.122393859;-1.275817966;15.02403765;-14.36400198;6.933755063;-36.29321698;-26.20980653;-8.58179352;0.990251548;38.34263184;1.351798902;3.813580885;6.611811078;7.928799709
11.66529305;7.390019531;7.178636255;11.65727897;5.220426142;-1.142712581;-16.71568857;15.31874055;-14.43248057;9.811245192;-14.71177485;-21.49550924;-6.520666097;1.984057952;37.79325507;3.706010897;3.652125538;7.809300382;7.604533685
9.89523024;11.46670249;5.775980006;12.37904077;3.431217746;-1.158103962;-25.91471362;14.09116485;-15.30853938;9.706225765;-0.005304075;-14.61267895;-5.370582569;2.181004833;25.34514255;6.89227122;3.496927358;9.519821518;7.463197691
9.309715197;16.38037401;6.435616545;10.22348651;1.7634539;-1.161939967;-25.11810523;12.35919324;-14.82106532;7.136635753;4.507264278;-8.39541162;-4.88974115;1.858287034;7.258937377;9.808937357;3.676232822;12.12730186;7.586604941
9.809575579;20.05314074;8.735130249;5.977371837;0.739171731;-1.168444903;-14.91630611;11.28707488;-12.18656911;4.092175294;1.502920122;-4.901930662;-4.523239389;1.551374427;-6.496955113;11.55865171;4.150814362;15.52399344;7.819390009
10.69780086;21.78311163;11.95015692;1.842697553;0.319570718;-1.196844622;0.370538652;11.43546411;-8.451550282;2.668418244;-3.301615648;-4.139071414;-3.855687241;1.777796574;-8.237035923;12.20586774;4.688892534;18.96118328;7.928422426
11.20117981;22.2209251;15.35950653;-0.123099298;0.049530145;-1.23914036;14.60997241;12.51731117;-5.183340452;3.849688029;-5.000215219;-4.417918622;-2.859680177;2.765543957;2.720827575;12.64822067;5.179359342;21.35919725;7.817789636
10.95536179;22.3717324;18.23565372;0.630003662;-0.535476898;-1.247326103;22.22047483;13.71915244;-2.904614485;7.119987884;-1.993468626;-3.969820488;-1.821529435;4.313740888;19.70956192;13.69264041;5.75978297;21.92652571;7.613033292
10.14039522;22.68119673;19.80213541;2.930667341;-1.578713542;-1.162679554;20.30095576;14.23781506;-0.889552082;10.91659983;3.848801247;-2.460452256;-1.069966248;5.873705364;32.97474726;15.15220249;6.621150881;20.65681992;7.540753468
9.231726558;22.96113846;19.46169924;4.85392279;-2.874733188;-0.969678187;9.884547224;13.63390586;1.559398066;13.46600369;8.950416719;-1.177602245;-0.740495746;6.836579915;35.70595337;15.8037618;7.675214535;18.3202658;7.705093329
8.59806517;22.97856367;17.22111059;5.053481965;-4.099124618;-0.727248002;-4.347020033;11.87651531;3.821523443;13.52258803;10.49022561;-1.79465737;-0.728076735;6.88450834;27.86586227;14.32663685;8.431601146;15.93423924;7.952736794
8.250367861;22.90434572;13.89076577;3.493002043;-5.054802588;-0.541953746;-16.16017172;9.236856432;4.192240595;10.79748402;8.197213259;-4.78230434;-0.810713229;6.19301085;15.45179587;10.48452719;8.267512111;14.10216564;7.94699892
7.899564077;23.07145134;10.7303014;1.190158041;-5.727285542;-0.495780719;-20.9636217;6.221475044;1.630111727;6.07537245;4.515161864;-8.801512684;-0.810715975;5.338131225;6.015896132;5.554158814;6.914178753;12.71675793;7.399656416
7.242700424;23.32246968;8.704165167;-0.643958372;-6.144979275;-0.584278306;-18.37715134;3.547620978;-2.651712157;1.021379596;2.991027105;-11.57795221;-0.671638936;4.946815495;3.751765471;1.581723623;4.751273941;11.2354798;6.280397468
6.242463098;22.76338584;7.929817532;-1.344433171;-6.219116904;-0.718241388;-12.39024667;2.009706594;-5.504535047;-2.372307811;5.774729898;-11.5449569;-0.426701736;5.311363414;7.480505973;-0.006788664;2.619273327;9.278305584;4.843371299
5.190165632;20.4033496;7.799909048;-0.957653303;-5.738405983;-0.791652169;-8.656395977;2.163808115;-4.142913301;-2.636276948;11.86097887;-8.94581385;-0.121211178;6.225935647;12.53599589;0.61841557;1.251634725;7.041200978;3.457626454
4.511420543;16.23504955;7.677929771;0.068045341;-4.53309679;-0.761910242;-10.481334;3.994681505;1.440556422;0.374100485;17.50089221;-5.562962313;0.23654081;7.15140127;14.69444639;1.874801104;0.76418871;5.174293171;2.378401077
4.458961347;11.70561785;7.528996988;1.241843094;-2.659748786;-0.675734479;-16.25390725;6.857897478;8.137348245;5.243286498;18.85695312;-3.358303123;0.670007324;7.580039063;13.05381024;1.958450541;0.619507119;4.218396102;1.62874444
4.912816058;8.913194013;7.881453123;2.14835724;-0.438388584;-0.61922033;-20.32517959;9.826041201;11.95921899;9.636038838;15.19896572;-3.135786376;1.19807128;7.334023603;9.93904476;0.132324141;0.107236039;4.068767597;1.059277396
5.431066465;8.99210418;9.134204965;2.403658927;1.694839004;-0.636040919;-16.97840903;12.22431623;11.08869403;11.56547796;10.11783653;-4.230324064;1.800286623;6.598739509;8.391394047;-2.826677453;-1.043954312;3.935324159;0.511986404
5.523073772;11.0164528;10.87636617;1.724496374;3.401467657;-0.686431298;-4.816437571;13.93914129;7.207428;10.53111857;9.323945763;-5.33487776;2.396768345;5.708727404;9.562569777;-5.279494993;-2.420621777;2.885638059;-0.050858274
4.966466718;12.49208443;11.94230579;0.20637044;4.561642448;-0.684688621;11.58761137;15.24695272;4.01251788;7.754111736;16.1266956;-5.673971947;2.843983288;4.888831574;12.07469331;-5.91413802;-3.243120425;0.585571555;-0.538598843
3.956820294;11.22464781;11.28078119;-1.445376885;5.238970636;-0.583341378;24.10148749;16.32759367;4.235525002;5.3093183;27.82897478;-5.544456942;2.957744806;4.160459196;13.54307018;-4.585047272;-2.983157241;-2.339676636;-0.82191871
2.985322306;7.110563013;8.926025055;-2.110865557;5.558798619;-0.428546263;25.98106234;16.92552589;7.703349522;4.725474583;36.14708167;-5.863465352;2.581364297;3.454895068;12.67141241;-2.273193699;-1.776872269;-4.654325358;-0.831608229
2.516959495;2.323294436;6.159793588;-0.955558907;5.617053255;-0.333220149;16.0494851;16.50766645;11.9562003;6.011135617;32.09651171;-7.214364122;1.689929824;2.788412388;10.08405718;-0.326983177;-0.3127329;-5.382864724;-0.599946637
2.675461209;-0.371949351;4.58886168;1.788759237;5.470648784;-0.384780992;-0.614401639;14.81120806;14.63388929;7.756394468;12.35955141;-9.246899638;0.470474257;2.312481366;7.398578077;0.390780696;0.68648018;-4.599262996;-0.247093773
3.142259202;0.144960461;4.819096604;4.619393438;5.162842867;-0.563034482;-15.75470444;12.27955249;15.35954785;8.184788462;-17.37969189;-10.9113139;-0.704985909;2.187743732;5.64969042;-0.115137092;0.948621135;-3.526845985;0.047246209
3.340438218;2.428680436;5.839562832;5.47215174;4.711898677;-0.739364935;-22.59212683;9.927077315;15.49183806;6.371985426;-44.87399531;-11.26806858;-1.445359348;2.412246889;4.610597651;-1.186888019;0.728801123;-3.778359602;0.071765985
2.788521733;3.704261882;5.711039827;2.99664463;4.059644976;-0.763236395;-19.10035395;8.653177029;16.20882337;2.788275029;-58.28523306;-10.16246896;-1.570444431;2.789778106;3.530048828;-2.031722546;0.4749733;-6.16682111;-0.359290357
1.397885949;2.300419988;3.081838145;-2.458586896;3.057023442;-0.570490453;-8.233763041;8.538033388;16.9398287;-1.132452549;-53.16088162;-8.237114015;-1.251808112;3.09589558;2.367805028;-2.148444625;0.424059444;-9.8775502;-1.294812388
-0.471225345;-0.739112446;-1.664045357;-8.886570316;1.558625314;-0.229964985;4.415571834;8.732882582;15.74129194;-3.988911139;-34.78533367;-6.357892577;-0.943328702;3.301792901;2.147736491;-1.460664452;0.489351129;-12.64118288;-2.525498167
-2.214806729;-2.273466694;-6.555853882;-13.71623074;-0.403854655;0.105159459;13.65412927;8.100919936;11.26720205;-5.225415196;-14.48432864;-4.999954273;-1.120365211;3.635465989;3.975208864;-0.207261073;0.496821912;-11.93951863;-3.564177792
-3.29916;0.500714966;-9.369203331;-15.22659787;-2.504483644;0.299877814;16.67701838;6.138702652;4.397196678;-5.241858484;-2.597367218;-4.092555466;-1.993909511;4.384374691;7.667197848;1.253699806;0.492765291;-6.576384116;-3.817026325
-3.47637241;7.732685809;-9.087646533;-13.32989322;-4.193723133;0.314391104;13.45315588;3.446733036;-2.120637145;-4.842740337;-2.871398397;-3.352951513;-3.396323708;5.577676755;11.44240654;2.619851385;0.786713734;2.379698656;-2.905342576
-2.790458612;16.59421028;-6.382515791;-9.273506746;-4.956848437;0.203987105;6.027247658;1.359608221;-5.7611398;-4.518201759;-11.62604634;-2.704439067;-4.910387261;6.824145595;13.18259954;3.764015594;1.659621741;11.96106214;-0.951381461
-1.431501992;23.21539683;-2.854745256;-4.625486156;-4.60368708;0.055942617;-2.500523181;1.016466835;-6.120205962;-4.091085259;-21.47853528;-2.356061306;-6.126551851;7.488036067;12.24794;4.771632867;3.005073915;18.8466786;1.38842137
0.401091753;25.32391619;0.211213007;-0.383772892;-3.388620564;-0.075667544;-8.97647132;2.594063437;-4.855220364;-2.933037822;-26.45779812;-2.498347799;-6.819568038;7.118072022;10.16493522;5.851518346;4.262030054;21.1640526;3.217442886
2.507185679;23.51366335;2.530565196;3.176149695;-1.874117144;-0.185475318;-11.19630998;5.273819907;-3.772540968;-0.536225986;-25.00830635;-2.959759634;-6.919537597;5.818808235;9.412521748;7.126016236;4.750087891;19.39825647;3.866653888
4.594134943;20.26717908;4.502657591;6.002217895;-0.634705227;-0.282118286;-8.78786926;7.909297724;-2.958698374;2.986750236;-19.51726858;-3.201825583;-6.34678836;4.2635224;11.2583987;8.428459896;4.153991112;15.81937726;3.242278736
6.231449544;17.73384927;6.390942285;7.764153486;-0.001519824;-0.347671524;-3.480629368;9.816274;-0.823218364;6.815448196;-13.63007813;-2.688622675;-4.9142767;3.302634237;14.56786989;9.303563638;2.755971355;12.84843552;1.827741972
6.976481227;16.22607423;7.88725272;7.938403845;0.008101074;-0.335320715;1.706522089;11.06782691;3.946390134;9.805030029;-9.746213839;-1.286941984;-2.447235749;3.42961997;16.75616648;9.295465036;1.223168132;11.53397856;0.35235072
6.638809073;14.64561272;8.480188083;6.451978537;-0.413482481;-0.208422615;4.159697077;12.14125556;10.45175267;11.11082483;-8.225676284;0.691693888;0.939019314;4.485307628;16.16284634;8.35759169;0.137638606;11.22634259;-0.631376819
5.489696563;12.27512712;8.192196318;4.240029297;-1.016838544;0.017151509;3.229475443;13.30881866;15.70993162;10.68143562;-8.132865749;2.854186343;4.646969792;5.812745534;13.76482306;7.04183497;-0.332837073;10.62294395;-0.975924738
4.207608087;10.12856835;7.837394008;3.02641595;-1.584818866;0.269112212;0.494719312;14.32722043;16.95772545;9.310269865;-8.340759274;5.131641721;7.719278573;6.743437101;12.59324584;6.225542404;-0.374627174;9.273536536;-0.858375733
3.521458838;10.44159462;8.389711986;4.251532556;-1.95323554;0.45961926;-1.569075123;14.65784295;14.08847803;8.174557396;-8.104080312;7.786581211;9.275562006;7.052674954;15.17751864;6.490768016;-0.199922387;8.231059704;-0.520752055
3.753083775;14.5772614;9.941839888;7.856496805;-2.035171962;0.537149247;-1.544887833;13.96235926;9.871616469;8.099721594;-7.113141954;10.93758837;8.995848839;7.049756282;21.12538374;7.603596748;0.183266037;9.190583494;-0.076968335
4.578229839;21.15401573;11.23783292;11.9109354;-1.8888008;0.507591111;-0.086229323;12.40443719;7.573429655;8.997802969;-5.508893573;14.00816278;7.304198878;7.244871493;26.96027023;8.541595682;0.849097765;12.72432629;0.46627966
5.20856727;26.21284432;10.36536596;13.55158275;-1.766639337;0.412440998;0.87853735;10.5098577;8.070540632;9.881407218;-4.016307043;15.67720315;5.10163983;7.851614829;28.49579231;8.130078125;1.599412668;17.09834655;1.045100666
4.911362361;25.64820893;6.202726719;10.73537361;-2.036097147;0.289988379;0.098842333;8.757050458;9.164521603;9.516305942;-3.821283852;14.55919156;3.227369254;8.50967349;23.89037146;5.861063413;1.779325622;18.87231816;1.441372193
3.533375289;18.22197579;-0.502160066;3.644932862;-2.946142757;0.156349983;-1.605220462;7.291681079;7.85405499;7.323679951;-5.855774953;10.22414447;2.029531667;8.457026259;14.94321897;2.289886883;0.571108085;15.14901144;1.400169846
1.671913871;6.849496728;-7.331060563;-5.244568464;-4.375879177;0.018721615;-1.861990194;5.997486197;3.515366439;3.897883102;-9.837501748;3.792382941;1.333930687;7.057065008;5.676357825;-1.290690396;-2.349142246;5.945727914;0.894494161
0.366268714;-2.944965608;-11.59003906;-12.51866338;-5.782790919;-0.101228184;1.065153706;4.793346685;-1.074073273;0.706041306;-13.97977546;-2.446239125;0.781830133;4.321276606;-0.498273054;-3.645973729;-6.299002151;-5.158074644;0.296716705
0.505495643;-6.394674051;-11.87701862;-15.69948279;-6.461847076;-0.166055496;6.201937801;3.822419612;-2.061268255;-0.890504709;-15.96489029;-6.255308864;0.224587133;1.046772174;-2.662865141;-4.262120935;-9.720488629;-12.82314434;0.248530546
2.333216137;-2.319116655;-8.704165606;-14.42093787;-5.985871035;-0.15133833;9.808137262;3.341052105;1.7807855;-0.604397835;-14.65861546;-6.740520797;-0.154384917;-1.570435196;-1.979205605;-3.422078214;-11.0029632;-13.14187559;1.252238525
5.349892433;6.494933848;-3.859098723;-10.22782691;-4.516618604;-0.077751013;7.753773325;3.446659137;7.468395584;0.578625028;-11.14898835;-4.825761961;-0.0612821;-2.635210185;0.248187173;-1.749952842;-9.494736221;-6.060197229;3.254214515
8.63580427;15.42252341;0.826378945;-5.308687478;-2.728183057;-0.00930668;-1.25342619;3.963418034;10.12211413;1.191328529;-8.014130139;-2.574970376;0.581095988;-2.124229198;3.960225855;0.296252517;-5.996708119;4.65114138;5.545956034
11.34833267;20.93180578;4.298261184;-1.154814038;-1.36079915;-0.007844499;-14.03463067;4.643195998;7.396219174;0.50609719;-7.187322372;-1.809465756;1.528881212;-0.934365859;9.80738183;2.53087142;-2.362357653;13.82031199;7.105512021
13.06948509;22.24707602;6.230618842;1.952888835;-0.717933647;-0.075837581;-24.321315;5.490019531;2.043703076;-0.784850585;-8.158013436;-2.946880311;2.450990148;-0.33010405;17.32195653;4.731366613;-0.451900473;17.94949368;7.184281058
13.82638843;20.86741957;6.491393166;4.455175939;-0.488616017;-0.137764334;-26.39646462;6.834911309;-0.00037009;-1.051101295;-8.189596163;-4.819489483;3.287433403;-1.107896037;23.84805178;6.334317109;-1.129285656;16.83887456;5.752040674
13.85051548;18.74898095;4.871803507;6.614819182;-0.044110537;-0.085001053;-18.57989536;8.98648496;5.296631907;0.913781204;-4.603992171;-5.554776492;4.368953888;-3.016103987;25.72239302;6.574926352;-3.923895439;12.86457739;3.497887876
13.30138713;16.78910164;1.404971689;8.024109533;1.007963868;0.141367984;-4.256741051;11.70899303;16.17132827;4.694328192;2.691124521;-3.900242041;6.11901053;-4.846561826;21.09823964;5.075959664;-7.482322359;8.797331605;1.389312489
12.16099815;14.69438862;-3.140087891;7.909076268;2.440373676;0.489836413;10.09801512;14.03349237;25.99612502;8.242296354;10.66746666;-0.113456044;8.539499204;-5.193078459;12.05845976;2.400092773;-10.40805281;5.994768145;0.093641473
10.34862067;11.99638676;-7.293221826;5.926791585;3.503931487;0.808601306;18.43190153;14.709767;28.56890879;9.212228184;15.29474505;4.144367669;10.93153375;-3.410874208;3.941420568;-0.002475073;-11.91305133;4.227053455;-0.352247898
7.94061392;9.059852067;-9.669614716;2.752433377;3.452236417;0.925737553;17.9040906;13.07408561;23.33273096;6.730416856;14.67348618;6.821940602;12.17905284;-0.128992268;2.004700942;-0.572686211;-11.95756197;2.880738918;-0.428306043
5.316810474;7.110363034;-9.925805429;-0.067352862;2.110692728;0.748819134;9.544193441;9.686410345;15.89555076;2.254988231;10.54264098;6.751352037;11.48647258;3.073581455;7.831168719;1.348654477;-10.97204988;2.150468486;-0.693714748
3.115651314;7.303139125;-8.980914019;-0.938261048;0.067578632;0.320457299;-2.995150389;6.173578027;13.19156705;-1.213065623;6.81620537;4.394966274;9.050699695;4.657268241;18.24569901;5.032108984;-9.493909389;3.009522453;-1.357156999
2.004762572;9.727993408;-8.152385885;0.850119023;-1.657509329;-0.202570651;-15.2967019;4.286296372;17.4144821;-1.092384876;6.366801348;1.608556111;6.114808858;4.122570447;27.58147486;8.787381226;-7.972128905;6.01790888;-2.153036251
2.380651658;13.25938239;-7.847529191;4.722890807;-2.234750335;-0.629322103;-23.52115143;4.797570009;24.16193507;3.02285205;8.864021428;0.546755407;4.266278749;2.324238703;31.50989173;11.01467898;-6.742789462;10.20832043;-2.582949318
4.150939815;16.37910712;-6.97189353;9.194847275;-1.50823691;-0.824168633;-25.06108539;7.030469719;26.66512945;9.077238144;11.59395166;2.342037446;4.415034065;0.865507802;29.52044442;11.12334951;-6.019128901;13.30512649;-2.319568816
6.718832207;18.25892381;-3.710510019;12.7357415;-0.037827239;-0.7588462;-19.02309722;9.355912998;22.47918745;13.93756833;12.49701087;6.340643701;6.173322202;0.99965405;24.39556632;9.697929779;-5.800204127;13.34157433;-1.469264703
9.201546633;19.214479;2.834650506;14.55119576;1.284165941;-0.508624827;-6.841058538;10.29027126;16.45278767;15.43877535;12.52402807;10.3876477;8.11430994;2.834787649;19.51510618;7.897309093;-5.778305856;10.3928935;-0.509256967
10.80233836;20.22596953;11.50007813;14.82721574;1.751337952;-0.20475838;7.452016324;9.404387168;16.7131191;13.64907604;14.84269262;12.05726631;8.765282843;5.416374598;16.40441614;6.634510732;-5.407322215;6.862258861;0.042938633
11.16280734;22.00626576;19.4687273;14.38242223;1.168261157;0.028959281;18.15097805;7.443381111;26.56851798;10.54604449;21.23935076;10.14150778;7.648695162;7.59417553;14.36975747;6.155363729;-4.180685659;5.864370695;-0.018670629
10.5030603;24.40643199;24.04774105;14.04114866;-0.160922487;0.128154987;20.23878954;5.674280847;39.35569185;8.479199257;28.86836544;5.491090441;5.630739078;8.97065817;12.03714264;6.208158182;-1.962457382;8.854962459;-0.468640552
9.449398085;26.57400139;24.46596942;14.15057305;-1.686395205;0.109440113;12.15412162;5.022703522;41.49112592;8.614094308;30.71169988;0.629186134;4.323663995;10.16220081;9.029296524;6.486471137;0.8772045;14.38624302;-0.842785504
8.627822848;27.61478136;22.26264348;14.49524928;-2.901505951;0.053636066;-2.850386033;5.622531429;22.39451086;10.42766966;20.24495037;-1.70718477;4.962242726;12.15583733;6.227443925;6.879126737;3.646076228;19.05565413;-0.798274921
8.265833247;27.15012001;19.96324042;14.57449763;-3.514160439;0.056703875;-18.01965288;6.991490378;-16.12667451;12.43443397;-2.909850262;-0.233439478;7.543990619;15.28943278;4.678572197;7.357490928;5.713314209;19.97940841;-0.375956806
8.070155691;25.36990722;19.13649618;14.00275086;-3.479059815;0.170860042;-26.62724822;8.54264607;-58.78168246;13.41353308;-30.9505132;4.075794133;10.82292993;18.71990313;4.557593941;7.742078512;6.820247967;16.88135401;0.029856957
7.483808167;22.69257971;19.41454408;12.77406426;-2.950767019;0.368819754;-25.63321675;9.957154455;-85.69483781;13.16472835;-51.7140925;8.604365988;13.1344005;20.87679239;5.369349186;7.705636152;7.116463335;12.17547003;-0.023858763
6.16047987;19.45822161;19.21415447;11.26631729;-2.206932529;0.556503039;-17.11452235;11.17569794;-85.2341372;12.34478275;-56.1241155;10.77295801;13.45498568;20.59824124;7.078393697;7.086045891;6.943822472;9.015391272;-0.673051018
4.31517201;15.94015096;17.44102174;10.03282487;-1.545131776;0.631473312;-6.554446476;12.15378786;-61.45328936;11.71543869;-44.02650803;9.676718214;11.97285339;18.05571657;10.67778177;6.197795663;6.572594518;8.88842046;-1.611294989
2.669254306;12.5583573;14.64046969;9.531252137;-1.154441675;0.551559108;0.777042068;12.70989693;-30.78065854;11.52167252;-24.1296002;6.575198093;9.826861591;14.69306566;17.15405292;5.751336536;6.086185165;10.64599415;-2.293303754
1.990109376;9.941210556;12.57719244;9.932126235;-1.014440777;0.366004613;2.850347046;12.63906432;-10.64627426;11.46300288;-8.069284145;3.905128327;8.265483043;12.17094436;25.55212053;6.329770183;5.446096087;11.65848695;-2.342692265
2.534943878;8.645093247;12.62578796;11.06640896;-0.910441369;0.184184578;1.358925236;11.95435555;-8.549718336;11.12830236;-2.945044179;3.524228677;7.847825339;11.11883988;32.16669435;7.828365235;4.613558623;10.07041835;-1.861006503
3.806161446;8.729937043;14.41223656;12.48566493;-0.602602917;0.101578965;-0.360304374;10.96795446;-19.19855831;10.38585391;-7.642492682;5.44414666;8.21685964;10.68951957;32.29344972;9.386743216;3.596222354;6.307423268;-1.386870721
4.819004531;9.600186285;15.94140047;13.57737219;-0.060928353;0.136013855;-0.147406869;10.07708084;-30.78011884;9.35864866;-15.1831212;7.951583045;8.524977316;9.302150648;23.73076254;9.971190712;2.409847914;2.677158289;-1.505615675
4.712618028;10.32562441;15.15526045;13.70765281;0.417493666;0.221328544;1.610484667;9.425285372;-34.5952201;8.088047053;-18.74121583;8.992752062;8.132693379;6.016855442;9.28957269;9.193098368;1.053550676;1.488937528;-2.38356712
3.282131649;10.22582536;11.61476021;12.40521886;0.350743292;0.262732452;2.935452044;8.767725178;-30.49180109;6.326441043;-16.47836539;7.76118444;7.054875409;1.458508679;-4.125552909;7.691206246;-0.425158573;3.274012408;-3.5851082
1.070590503;9.247705495;6.875261044;9.590058594;-0.566734939;0.210893929;2.50245371;7.714638465;-24.74050416;3.778823146;-11.77202037;5.287957607;5.865894106;-2.465640282;-9.707983895;6.722910458;-1.825948423;6.512344617;-4.341097944
-1.009760931;7.843846315;3.23976768;5.771224691;-2.120380447;0.097945498;1.134109523;6.184998973;-23.3111421;0.64530698;-9.356634653;3.600940945;5.190295821;-3.87683501;-5.251142973;7.258562662;-2.790469127;8.981405059;-4.098831705
-2.217260041;6.514821432;1.958535944;2.052874252;-3.529577324;0.009467301;1.194066559;4.678054438;-26.70828811;-2.059712508;-11.03677182;4.116478496;5.190513009;-2.281804341;5.536962326;9.295908233;-2.973521765;9.543470085;-2.950749148
-2.28960504;5.480292389;2.399821787;-0.19454212;-3.806740412;0.017102897;4.31994594;4.078370475;-30.37549869;-2.849005489;-14.52741101;6.514552554;5.431845024;1.047223256;16.00688716;11.93060844;-2.297491506;8.922496705;-1.604337004
-1.359567574;4.790947238;2.855680939;0.034718229;-2.342388855;0.125831223;9.397650044;5.078901066;-29.5184832;-0.681136731;-15.99376937;8.973338101;5.208985209;3.942748409;21.48050936;14.07954294;-1.081315496;8.929496903;-0.89010902
0.345433348;4.716872433;2.223812848;2.73830929;0.654349043;0.275217632;12.62423631;7.634897894;-23.61187213;4.161736242;-13.6982952;9.587518937;4.085189544;4.793374743;22.16954584;15.21276746;0.096840864;10.86384804;-1.161998279
2.686201745;5.908125501;1.059007718;6.68053533;4.171763734;0.389022647;9.93492336;10.87185789;-16.66984168;9.940780521;-9.463485416;7.876306152;2.255183378;3.507873682;21.86281933;15.48520395;0.732165636;14.40987957;-2.043259435
5.499532941;8.984736247;1.05968324;9.866613454;6.893963726;0.430306331;0.168723008;13.54436811;-13.43884377;14.29710161;-6.82141616;5.209765426;0.47597411;1.352246873;23.7413713;15.23735141;0.678650965;17.8536236;-2.718797308
8.337470657;13.77994402;3.441479177;10.57592316;7.887507128;0.419227607;-13.40806165;14.73521248;-15.21433424;15.57900008;-7.698684943;3.805048102;-0.390869759;-0.098664602;27.10580294;14.42979144;0.175762578;19.35389046;-2.555711032
10.39753989;18.92187617;7.641348634;8.376747402;7.054445224;0.405131468;-24.5712434;14.31437707;-18.99354679;13.78710387;-10.67031187;5.034491675;0.077849394;-0.029251973;27.93972118;12.63564403;-0.380537088;18.22616942;-1.574851784
10.85197355;22.31585524;11.52898247;4.438175085;5.086524253;0.422077653;-27.83257811;12.87034083;-20.45108973;10.49416376;-12.28866253;8.312242997;1.595923297;1.299512014;22.8031657;9.663017768;-0.711141856;15.30090095;-0.409310799
9.419238739;22.39297538;13.00597582;0.839126482;2.985493941;0.466344557;-21.91628542;11.21935468;-17.83464124;7.794802747;-10.21834203;11.39299683;3.346267564;3.076885747;12.53013983;6.208263261;-0.749009384;12.21025443;0.209850237
6.735546825;19.27025142;11.66449372;-0.751242693;1.486426591;0.510613904;-10.60003906;9.883780348;-13.29381695;7.002739462;-5.355611494;11.86682769;4.493413802;4.736834581;2.267433651;3.787200107;-0.527729616;10.24386467;0.024092922
4.15010749;14.87151114;9.097340268;-0.154536845;0.750533817;0.536087461;-0.263438421;8.901413068;-10.67212997;7.963372718;-1.081878374;8.766825225;4.694887502;6.314727837;-2.44996628;3.760272099;-0.045426968;9.60922943;-0.585238828
2.975857914;11.76080615;7.572708205;1.248259454;0.475234698;0.550432313;4.234031839;8.033124064;-11.97203407;9.392133887;-0.355309468;3.159907852;4.272147947;8.124132288;-0.348739034;6.1135737;0.698555352;9.501057429;-0.961365246
3.670760963;11.43980434;8.158415071;1.554006302;0.27155976;0.575882943;2.540809707;7.124917069;-15.70471234;9.926845619;-3.207384188;-2.632574274;3.921329217;10.13080448;4.264279878;9.03777578;1.503125096;8.768480454;-0.758347675
5.538514892;13.35184504;9.844995381;-0.233119401;-0.002673936;0.620867066;-1.365487704;6.293938924;-18.43525451;9.114537848;-6.790888276;-6.549796626;4.152713806;11.64736193;4.869082981;9.858904154;1.839590231;6.650581476;-0.2526416
7.199559234;15.3709693;10.39157628;-3.419635685;-0.187838334;0.663314974;-2.355464063;5.793801555;-17.91386217;7.655226312;-7.863629338;-7.943458321;4.844419844;11.66714469;-1.834515212;6.83646793;1.045059655;3.165785948;-0.107746054
7.529284372;15.44602504;8.203235024;-6.086639964;-0.039794694;0.662240357;1.934580025;5.704004685;-14.8987941;6.793487691;-5.504556818;-7.631702803;5.238673068;9.591917278;-12.90018191;0.572407031;-1.190665554;-0.935718331;-0.776498015
6.409863429;13.17275112;3.719540434;-6.480039063;0.497074774;0.588394339;9.213572466;5.741965473;-12.15414381;7.355822375;-1.739422913;-6.979874577;4.417996553;5.77066827;-21.09784326;-6.072472338;-4.397453944;-4.51517815;-2.039388796
4.769745004;10.10097506;-0.78595822;-4.295664263;1.202123119;0.448511789;14.01472175;5.394705545;-11.7410146;9.147482591;0.366149928;-6.814789518;1.958669208;1.418414566;-20.3716001;-9.632512415;-7.376816189;-6.50331295;-3.083687516
3.900574371;8.544995768;-2.807485815;-0.88122878;1.747868556;0.284241315;11.52035908;4.297921876;-13.17989752;11.11905182;-0.601051787;-6.99440027;-1.692189853;-2.032414961;-10.44385682;-8.193643403;-8.839686025;-6.334141304;-3.094816499
4.557812518;9.810378218;-1.337598688;1.813704327;1.97810694;0.148428162;1.071824554;2.571219609;-14.1111779;12.13881632;-3.274621991;-6.855083043;-5.40656104;-3.689247069;3.046195483;-2.588289909;-8.254750348;-4.214328083;-1.907876003
6.48488349;13.18608784;2.57266055;2.747868952;2.052332505;0.078015615;-13.07279897;0.826586697;-12.7149855;11.78708518;-4.854037091;-6.054760358;-8.038372085;-3.581152133;12.81641057;4.172487262;-6.283776261;-1.071531846;-0.200521495
8.665390776;16.44504491;6.737822662;2.591896439;2.321004317;0.081359087;-24.26075802;-0.197183573;-9.577273537;10.61108375;-3.659250911;-5.067304833;-9.122468622;-2.50163314;15.06979379;8.800679406;-4.415435159;1.878583298;0.942026477
10.07188262;17.43807499;9.415001517;3.177536761;3.017672481;0.142803776;-27.5289312;-0.134489787;-7.282445601;9.696690118;-0.626758803;-4.924642822;-9.126836378;-1.517161478;11.44503101;9.645420609;-3.990694859;3.768000497;0.771441155
10.3464852;15.56559772;10.31036872;5.974008861;4.011612955;0.234638686;-22.51060144;0.731253245;-8.134868254;9.899166221;1.533743431;-6.433844392;-9.077587328;-1.482908133;6.574902487;7.370458833;-5.297360838;4.523821926;-0.624905644
9.946092791;12.06918609;10.38312882;10.73126353;4.828886389;0.326623177;-13.29800911;1.628367299;-12.08704864;11.27810807;0.741981375;-9.505866539;-9.820560579;-2.77620362;3.672823078;4.079860172;-7.398871737;4.7872168;-2.428219849
9.705736557;9.03033331;10.81362104;15.33543657;4.944007818;0.392313548;-5.502242815;1.796101185;-16.70510979;13.08476808;-2.599717708;-13.12020854;-11.4444861;-5.247355594;1.986701677;1.656050566;-8.832995475;5.322922126;-3.687551429
10.18377469;7.921690305;12.06930318;17.0416902;4.129315284;0.416929655;-2.606076671;0.97716218;-19.14478521;14.23706247;-5.891095824;-15.94052464;-13.26765603;-8.296209384;-1.879224098;0.532443375;-8.665608971;6.3538492;-3.946453347
11.25991143;8.79090368;13.74744493;14.24457901;2.597031689;0.406675585;-4.053700091;-0.438332298;-18.36803885;13.91169587;-6.47924889;-17.11029403;-14.36846955;-11.03726503;-10.15615264;-0.303464603;-7.118755433;7.36;-3.449678563
12.22421959;10.55197321;15.12363857;7.560208915;0.825947425;0.39063858;-6.206799169;-1.704176856;-15.72708747;11.88775148;-3.81089814;-16.66289637;-14.23802182;-12.5791106;-21.03334354;-2.212631175;-5.321232706;7.532069696;-2.840736061
12.23515737;11.9669265;15.7811743;-0.505645347;-0.790100061;0.406196131;-5.307549394;-2.21465226;-13.56658462;8.53175898;0.21752258;-15.31393567;-13.05971425;-12.3895786;-29.22065764;-5.597185629;-4.3984011;6.521774238;-2.649952411
10.80825575;12.45288678;15.76985332;-7.035779931;-2.19577929;0.471641964;-0.31083019;-1.840148652;-13.20483271;4.573931861;2.947235055;-13.87184044;-11.43311575;-10.58131518;-29.53941187;-9.343425689;-4.606991388;4.851091148;-2.983571647
8.045487036;12.1508717;15.28144248;-10.30192227;-3.634060273;0.56506441;6.313444053;-0.884859301;-14.05051452;0.8804081;3.19635531;-12.73800291;-9.808735091;-7.898891312;-20.70619218;-11.39523009;-5.160525649;3.600615876;-3.598505939
4.536792189;11.40601005;14.28597887;-10.45951543;-5.354223616;0.63;10.22892146;0.237264408;-14.46035778;-1.717352027;2.152596349;-11.82007813;-8.126267927;-5.33525523;-6.450915047;-10.04977685;-4.846632833;3.605390048;-4.205958409
1.066808969;10.28681707;12.54114939;-9.003558622;-7.314415095;0.610311317;8.116615168;1.292982516;-13.38774206;-2.62215612;2.215480709;-10.81482215;-5.967507996;-3.575984494;6.710378012;-5.101224924;-2.943789834;4.825920848;-4.687331533
-1.685665031;8.625457125;9.949413935;-7.505025522;-9.12933081;0.491926189;-0.133684218;2.232130865;-11.30652594;-1.752668855;4.826167023;-9.546258258;-3.093064936;-2.638297964;13.26866028;1.917478215;0.246930261;6.435079173;-5.044578296
-3.341997359;6.478097427;6.85091912;-6.562215212;-10.31225347;0.319368772;-11.27076744;2.939405559;-9.707304712;0.234724791;9.138616564;-8.072797591;0.107026307;-1.965262444;11.46310751;8.550944445;3.611000705;7.552729897;-5.193311344
-3.893123692;4.4505731;3.886316487;-5.644968997;-10.61721068;0.171319647;-20.54426918;3.039749167;-9.78605142;2.061539379;12.6330163;-6.537694935;2.669202784;-0.908440377;3.498450331;12.78184554;5.961445517;7.98826406;-4.868330559
-3.661598786;3.437490547;1.495085454;-3.828234861;-10.20236828;0.110738859;-24.33825497;2.048617042;-11.54968701;2.422243963;13.1355214;-4.978099574;3.631912188;0.760450479;-6.32102421;14.08531141;6.741673381;8.326231051;-3.800078125
-3.164407709;3.891319851;-0.488557565;-0.803111516;-9.482273842;0.145880758;-21.98534906;-0.156458554;-14.00460856;0.82047088;10.56958407;-3.316797015;2.708241275;2.685013456;-13.9675484;13.5230217;6.211465763;9.257139586;-2.041782372
-2.89387196;5.246925646;-2.712688118;2.593064839;-8.795225711;0.230943231;-15.79190267;-2.926673189;-16.03400339;-1.917205227;7.032575119;-1.547448373;0.530327498;4.208356869;-17.22554841;12.83363528;5.066703148;10.73529939;-0.140266468
-3.089206377;6.088677959;-5.687327745;4.722904598;-8.167824381;0.30453616;-9.413775959;-4.946193446;-17.05038921;-3.945798459;5.184861082;0.098949321;-1.73589699;4.868498646;-15.99630351;13.13088573;3.855908722;11.73937327;1.068926454
-3.622477953;5.053420196;-9.177460742;4.165610617;-7.378449791;0.335378687;-5.639993536;-4.953179588;-16.93989619;-3.501318127;6.278371923;1.231809198;-3.114378214;4.735692121;-11.71097844;14.09875432;2.650436016;10.92457262;0.959547021
-4.093025122;1.808663946;-12.17693897;0.744669162;-6.267124471;0.340743778;-4.894382391;-2.653976613;-15.6417042;-0.139243365;9.367854372;1.624553456;-3.330087891;4.381835932;-6.320058594;14.26228503;1.170972645;7.683378768;-0.441914371
-4.099541226;-2.689073051;-13.57829004;-4.130131726;-5.020989008;0.36621024;-5.286072603;0.862740843;-13.03945374;4.777924045;12.23279863;1.521232723;-2.744312462;4.560207137;-1.210148356;12.1761271;-0.797264433;2.734174706;-2.412093858
-3.522261179;-6.908958442;-13.05561281;-8.103811621;-4.168103584;0.445320175;-4.128361663;3.636767881;-9.367064037;8.803112361;13.17125093;1.609594858;-1.830674311;5.842653162;3.538536582;7.692333993;-3.067562988;-2.304375942;-3.948860394
-2.617408345;-9.890455878;-11.44362029;-9.187830441;-4.243229796;0.570663304;0.011305318;4.032496649;-5.605133168;9.945214121;12.21007813;2.582729318;-0.682227949;8.403629436;9.014098921;2.346019624;-5.063950446;-6.076080847;-4.372585927
-1.847724849;-11.88791546;-10.24632927;-6.966246733;-5.364546417;0.695683659;6.013866639;1.816711965;-3.195807556;7.986719538;10.84529502;4.567023792;1.006966439;11.96734207;16.22507385;-1.516693191;-6.168026415;-8.479024364;-3.697930086
-1.565643092;-13.95815448;-10.58342985;-2.908992517;-7.055266206;0.762139279;10.56101845;-1.677289251;-3.063589788;4.620569283;10.65126489;6.866776302;3.470631904;15.84142705;24.40057661;-2.317222029;-6.136786337;-10.66524218;-2.538373492
-1.779214283;-16.79472096;-12.34676591;0.489318365;-8.475796364;0.73224603;10.06716821;-4.464773449;-4.757356943;2.26109662;11.97003906;8.291524393;6.343731981;19.02135533;30.28873978;-0.386466656;-5.285719153;-13.98280296;-1.64568249
-2.169824296;-19.76954906;-14.21761131;1.267843725;-8.927489498;0.60696197;3.088786204;-5.27025014;-6.633795038;2.349227302;13.74137459;7.903348769;8.598539272;20.44468004;29.61270447;2.236186601;-4.303704054;-18.63092819;-1.428495178
-2.338760097;-21.04270565;-14.57039384;-0.747184577;-8.283603421;0.425385666;-8.336367446;-4.351564483;-7.151760111;4.360319923;14.53952684;5.67529047;9.094575517;19.4298402;20.24591187;3.290945612;-3.818654339;-23.06264616;-1.767969129
-2.088443052;-18.78723564;-12.63334437;-3.879078436;-7.053145173;0.250557891;-19.441068;-3.198890142;-6.266480204;6.221072011;13.88014862;2.574485061;7.371467355;16.13093614;4.869095385;2.016851723;-3.996816629;-24.65782965;-2.200949862
-1.529194278;-12.67161926;-9.082984501;-5.842190225;-6.045673501;0.147691918;-25.30515492;-3.366946561;-5.646667019;5.814011281;12.65320752;-0.017861233;4.071260839;11.67003906;-9.423661111;-0.208497036;-4.437437379;-21.28943964;-2.280365921
-0.951254095;-4.464017394;-5.654157268;-5.462018907;-5.878185687;0.158149289;-23.72745061;-5.341913233;-7.348805674;2.46635045;12.28718906;-1.154840574;0.62801277;7.704073436;-15.14992859;-0.869384617;-4.438700804;-12.77518935;-1.840193059
-0.588913336;2.786448496;-4.042695345;-3.624161894;-6.651190733;0.275345891;-16.51937682;-8.28129027;-11.94182827;-2.631962092;13.34334227;-0.84850154;-1.582561817;5.561065637;-9.681783504;1.723314782;-3.474956081;-1.274378187;-1.018469493
-0.476402829;6.50433111;-4.857406303;-2.6849235;-7.975069708;0.436458488;-8.277669508;-10.75509369;-17.66892928;-7.31430145;14.7919562;0.077720372;-2.025379424;5.472051875;2.280192008;6.961943437;-1.581941908;9.630804765;-0.094358559
-0.5004245;6.092127288;-7.313778663;-4.693808531;-9.277353913;0.544651616;-3.368387928;-11.83635809;-21.46388113;-9.907528329;14.74911544;0.659084455;-1.170928282;6.463268354;11.45639898;12.11703139;0.610093994;16.62543404;0.692594147
-0.578848562;3.156141482;-9.827210307;-9.722256039;-10.153172;0.520996681;-3.132286472;-11.6609307;-21.10804335;-10.19956111;12.25964141;0.462909479;0.023293278;7.052854098;10.54393828;14.10068671;2.238421161;18.16102323;1.215495201
-0.789343651;0.322418202;-11.05497188;-15.60253045;-10.53630305;0.359860542;-5.243107206;-11.06335012;-16.82933613;-9.276334491;8.704566929;-0.216820933;0.865228604;6.292556288;-0.11693765;11.5614861;2.743415871;14.97518531;1.425963155
-1.322045617;-0.516047173;-10.67351361;-19.36574942;-10.62367145;0.14789584;-5.68184948;-10.67430455;-11.07265237;-8.483426418;7.438712355;-0.727328523;1.327509295;4.39748613;-12.3059802;5.787766169;2.220430567;9.438070405;1.298957329
-2.289867381;0.670954096;-9.413736255;-19.35531177;-10.65151772;0.023052165;-1.929451894;-10.28770645;-6.662120003;-8.380512827;11.46026773;-0.638075968;1.841090801;2.494605315;-15.78788396;-0.221899685;1.335277087;4.171311165;0.825431719
-3.561554019;2.244025611;-8.413453625;-16.40968024;-10.6902752;0.091062954;4.924330375;-9.038789738;-4.860175468;-8.463351938;20.51395381;-0.057869198;2.744077739;1.700170424;-6.171285964;-3.809150882;0.847932704;0.730568477;0.043430804
-4.774842173;2.170122148;-8.396582881;-13.17039371;-10.58155701;0.352959409;10.70880575;-6.227333167;-4.828931689;-7.765825486;29.8355731;0.530677039;3.908143493;2.266484749;11.22301675;-4.327651031;1.078720507;-0.951400001;-0.950336553
-5.54545621;-0.560285896;-9.253129033;-12.01567003;-10.04178043;0.696601397;10.99772464;-2.076927085;-4.761087198;-5.779718888;31.98448833;0.726822556;4.868566564;3.472750283;24.71502775;-3.293535904;1.711856454;-2.121525629;-2.038495621
-5.726727306;-5.314242094;-10.25775261;-13.22184599;-8.868258931;0.962732015;4.233117728;2.213240799;-3.570273682;-2.951059936;21.18407005;0.545753051;5.314276678;4.312455835;24.61147843;-3.051085844;2.093085736;-4.10046761;-3.133978569
-5.52328155;-10.29982997;-10.68975816;-14.80992424;-7.135497385;1.041465059;-7.058594346;5.173785961;-1.681949868;-0.406505783;-2.38728651;0.359543134;5.463893002;4.364298518;10.36392913;-5.052055646;1.800974424;-7.238066828;-4.180142985
-5.361747287;-13.69476539;-10.34838897;-14.2147988;-5.264976048;0.931529621;-17.77736012;5.970923009;-0.371441547;0.831410577;-31.35448286;0.532285602;5.949301996;4.089846184;-8.912675309;-8.998981983;1.043818807;-10.61405261;-5.085138316
-5.596603838;-14.61180336;-9.577990817;-10.45433326;-3.894460288;0.722677525;-23.3695189;4.834577792;-0.393317469;0.537885153;-54.29851257;1.094907118;7.267070533;4.308989483;-21.05279013;-13.31346383;0.551252797;-12.68612122;-5.656518597
-6.250321997;-13.33655089;-8.824252744;-5.056190735;-3.567868052;0.520406973;-22.38269832;2.758230597;-1.194656197;-0.584241226;-61.81067634;1.744693027;9.259020175;5.333609711;-19.68105605;-16.3613097;1.022174907;-12.43664579;-5.630208889
-6.967856922;-10.85427866;-8.121975492;-0.982509563;-4.388879135;0.374539071;-16.83158351;0.798984866;-1.389781537;-1.373915497;-51.8334507;2.142701679;11.09314998;6.558502005;-8.712028323;-17.41625623;2.557021056;-10.18594302;-4.82048425
-7.223159743;-8.142800836;-6.973288092;-0.396290041;-5.856819474;0.264988488;-10.40687131;-0.452832247;-0.017961005;-0.926684716;-30.85555803;2.206809944;11.81261517;6.926338146;0.744383915;-16.74348363;4.539617906;-7.435670771;-3.30136629
-6.65012495;-5.746515877;-4.760694263;-3.039266759;-7.048045535;0.14716625;-6.027492544;-0.920070801;2.550150019;0.893649137;-10.07860603;2.110148418;11.03704229;5.913913794;-1.363349005;-14.9920557;6.089921011;-5.799120927;-1.467373991
-5.291587664;-3.812685228;-1.38958783;-6.485938503;-7.107970602;0.009607763;-4.457742246;-0.753079121;4.824296814;3.404389427;1.055658618;1.984586265;9.248267769;4.190600648;-16.75156388;-12.58549273;6.744702659;-5.785201208;0.117303987
-3.613470899;-2.379897314;2.373086741;-8.02228001;-5.786171335;-0.11001709;-4.660690694;-0.102565378;5.3065991;5.485621157;-0.138162189;1.632192015;7.412873677;3.320203939;-37.66140762;-9.627383983;6.815543535;-6.374838714;1.017725134
-2.276571607;-1.567567066;5.202248815;-6.618254641;-3.65602487;-0.16305083;-5.185489952;0.834591983;3.576538778;6.164796855;-9.11562434;0.577594671;6.232749805;4.652347759;-52.32990896;-6.250712222;7.108288228;-5.776014973;1.180026855
-1.802508408;-1.492232273;6.00638225;-3.458540634;-1.819899632;-0.143175809;-5.286665395;1.653864193;0.545952044;5.119326754;-18.07039934;-1.49916059;5.628259426;8.23825273;-52.83643239;-2.921856828;8.195685447;-2.846520794;0.944873442
-2.327259836;-2.038634832;4.641697441;-0.733419498;-1.239485558;-0.100778879;-5.007177697;1.792865012;-2.181824702;2.866856957;-21.31098589;-4.282954614;4.879616635;12.62771708;-39.78830164;-0.32553343;9.813029683;1.876403571;0.786430869
-3.576025431;-2.769011247;1.993017935;0.188821089;-2.116861467;-0.099716533;-4.51876137;0.902357229;-3.265985689;0.537265868;-18.33605022;-6.748558715;3.316705812;15.73111826;-21.04416775;1.063456243;10.88204409;6.343217791;0.944012409
-5.056629938;-3.135887042;-0.675892156;-0.33318327;-3.757206759;-0.152830072;-3.621362112;-0.744458151;-2.251630544;-0.700218356;-12.88238429;-7.668196131;0.989284449;16.11091055;-6.058185833;1.272638392;10.19614323;8.264289303;1.212882363
-6.339103993;-2.881987482;-2.629595439;-0.886605008;-5.031659618;-0.197101328;-1.969123186;-2.247218913;0.361414067;-0.28693568;-9.267489176;-6.411136655;-1.252664272;13.76386506;-0.153522967;0.671772896;7.284669952;6.556102887;1.069525017
-7.2454499;-2.310575277;-4.124015041;-0.523383308;-5.136663727;-0.138988743;0.286002022;-2.637948467;3.422006387;1.368160041;-9.131203385;-3.460753826;-2.371766793;9.892540841;-2.411949157;-0.489303095;2.819894496;1.915912712;0.074446078
-7.842956645;-2.167098406;-6.044418009;0.290242038;-4.125070194;0.060958248;2.270388242;-1.650732605;5.564136392;3.085646187;-10.94749776;-0.226784792;-1.9856823;5.956453812;-7.840358947;-2.364721751;-1.738812019;-3.821135907;-1.718297538
-8.272101386;-3.154909357;-8.984338478;0.132254112;-2.839447512;0.334725026;3.054339962;-0.069240294;5.707179412;3.608567069;-12.19388012;1.773020015;-0.765289203;2.788101242;-11.53726051;-5.286573097;-5.010230695;-8.948476501;-3.651596258
-8.553650073;-5.397770123;-12.50087639;-1.959874919;-2.303776529;0.536332594;2.726756532;0.723470893;3.594234417;2.385242383;-11.93147446;1.820806204;-0.038639683;0.390073242;-11.72550001;-9.197992464;-6.453336835;-12.76696729;-4.777806706
-8.528238333;-8.231204235;-15.18402295;-5.420039063;-3.011889262;0.540675772;2.78051308;-0.260332499;0.140986266;-0.073883105;-11.46360422;0.378768271;-0.862068527;-1.599101273;-9.913937906;-13.29024979;-6.516402929;-15.4844016;-4.423935998
-7.975530436;-10.49119088;-15.55982421;-8.410391312;-4.607492196;0.339199934;5.111727884;-2.812729821;-2.792776563;-2.523581225;-12.63883639;-1.300166248;-3.241969989;-3.308409477;-8.703749544;-16.26159104;-6.129565132;-17.40903075;-2.642991726
-6.814654502;-11.12598188;-13.17857977;-9.19918247;-6.149177332;0.056716781;10.14550895;-5.573375611;-3.352707581;-3.779643638;-15.53121185;-2.030866125;-6.092339089;-4.447769324;-9.210722504;-17.07555315;-5.96131455;-18.27211466;-0.231604453
