Channel 1 - P4;Channel 2 - O2;Channel 3 - P8;Channel 4 - T8;Channel 5 - C4;Channel 6 - Cz;Channel 7 - Fz;Channel 8 - F4;Channel 9 - Fp2;Channel 10 - F8;Channel 11 - Fp1;Channel 12 - F7;Channel 13 - F3;Channel 14 - C3;Channel 15 - T7;Channel 16 - P7;Channel 17 - P3;Channel 18 - O1;Channel 19 - Pz
-154.3295308;-71.03473331;-143.5868921;137.8042348;-2.46932508;-36.41412111;137.7727959;-90.67278601;-123.4808854;-118.4516849;-156.3166207;-69.32111164;-100.1155671;-75.65932246;146.8231938;-45.54489277;-84.39880341;-123.6474387;-53.00509915
-136.5628779;-62.68545999;-120.9970726;128.9930914;-0.959575891;-27.8070552;128.2630446;-64.43789422;-80.17336841;-102.1053127;-130.7754561;-54.80869772;-71.90513381;-58.92894647;128.6443895;-20.91356124;-99.38964374;-101.6725072;-42.19778479
-83.08306015;-37.31189086;-61.73328675;74.10727166;-2.463926461;-11.74689993;78.31275643;-19.93658295;-24.70581677;-61.81814508;-74.26547162;-18.87939241;-26.35434365;-27.39586119;74.27667886;11.28202196;-89.06458173;-54.92788752;-20.38774322
-24.61779692;-9.95919514;1.01948919;10.16759379;-6.557877414;2.791949089;17.41482613;20.22991534;19.86075861;-21.4464497;-18.79193979;15.21114244;13.99954685;1.383788585;13.75045412;34.93113574;-65.97474758;-10.68182495;0.082667412
10.30342192;5.737631289;36.38539519;-25.04728857;-11.19697703;8.978829796;-22.29658301;37.80096205;39.00618449;-1.814570439;8.519009132;28.45728596;32.56020647;14.1041643;-23.97683998;40.5371127;-47.22268779;9.65802038;9.490058594
12.50672297;5.525783452;34.89154775;-19.14997666;-13.89729911;6.18180284;-26.30854053;29.97645867;33.8537923;-8.175573179;2.077776732;18.16187019;27.75990977;9.510058594;-28.26398659;30.32126581;-43.51882306;3.522322099;6.528769384
-5.62045086;-4.535469834;11.32540812;9.716728671;-13.24389549;-0.596792507;-4.382976438;9.334836765;17.66371987;-29.04111294;-21.64592191;-2.384878523;11.22909188;-2.911062552;-10.03418513;14.81014708;-54.09339917;-14.42280891;-2.18371296
-22.70223942;-14.0076229;-9.264925529;31.13368535;-9.737351768;-5.064780996;19.8909923;-6.568628678;5.289798132;-46.28108035;-38.84471932;-15.52586493;-2.352302615;-11.46048241;9.524494062;4.272154776;-70.36774139;-25.8452046;-7.939520025
-24.90309724;-15.87426109;-10.68576893;27.65148638;-5.437217752;-4.230194448;27.50772468;-7.644612349;3.739512678;-48.31514728;-36.27910519;-12.65702945;-5.447287498;-10.91944592;15.00173535;1.912838445;-84.48663782;-22.90088135;-6.345267555
-13.97979227;-10.49677688;4.61768909;6.215259971;-2.680488042;0.126104587;16.33676655;3.279818639;10.07861347;-36.7198499;-18.96874463;0.753047003;-0.686932812;-4.954878158;5.652765151;3.628679382;-95.48753498;-12.23081518;0.40229153
-2.298871436;-3.562789322;21.11472495;-11.96981699;-2.742269589;3.755480402;-0.791767801;15.02473438;16.65200555;-22.4056133;-3.222496661;11.51048938;4.137260151;-1.307896653;-7.857396678;3.436596382;-108.4428044;-6.977562731;6.460523834
-0.685991238;-0.594334918;24.81052305;-12.14670247;-5.261548401;3.741622114;-8.772968008;17.94744538;18.25519886;-15.70310352;-2.130805836;10.31089079;3.794117835;-4.533260002;-14.1698095;-0.71295998;-127.9769111;-14.56338413;7.5206112
-9.634189864;-2.762840814;14.40890014;1.784744697;-8.666335813;0.642797305;-2.525189104;11.06902942;15.47844231;-18.7393159;-15.60158102;-1.092261881;-0.499151342;-12.4193732;-9.99907755;-5.681705153;-152.0805091;-30.54044836;3.909685018
-20.28624795;-6.997228502;0.663708765;13.58467944;-11.17415461;-2.483150506;10.54545263;1.44923182;12.56977598;-25.60211332;-32.060379;-12.49609095;-3.457204688;-18.54120685;-0.734147973;-6.95915369;-171.5965837;-42.91564061;-0.502579451
-22.95196386;-9.510078125;-4.058237539;12.100383;-11.68139943;-2.965848001;18.46627527;-2.607750856;12.85305407;-28.91584877;-38.92681131;-14.6230924;-1.309105494;-18.11146525;5.861903813;-3.581720151;-175.901294;-42.43507661;-2.091539236
-15.15166794;-9.225907997;3.71093571;2.4788953;-10.09618187;-0.714498664;15.2353725;1.641656308;16.10480491;-26.47151132;-32.40842598;-6.966451039;4.720019531;-11.86444015;6.37825007;0.521581959;-160.3137334;-29.86823156;-0.468966448
-2.623673528;-8.174468985;16.6728987;0.258860722;-7.133868262;2.019045666;5.048394257;9.933967403;19.73716262;-22.3291875;-18.9354165;2.312838718;9.830981799;-4.885200658;3.349165761;-0.004621129;-129.6265764;-14.59483166;1.721744463
6.601312037;-8.882885156;24.17193586;14.03239735;-3.894453917;2.831353381;-2.501567369;15.34062632;21.93036592;-22.14493502;-8.328460199;3.827327917;10.17610777;-1.868043658;1.49376167;-6.817956968;-95.44448779;-6.428729983;1.646449468
9.156348965;-11.43741538;21.65423552;33.70954434;-1.505200219;1.24916016;-1.20176705;14.1415738;23.38555691;-27.48288242;-5.507906764;-4.920690077;6.137853244;-3.204276109;2.987955514;-15.73198999;-69.74694242;-7.962063207;-0.986525804
8.241316005;-12.98552314;13.88486242;36.82734228;-0.883618847;-1.061559074;6.844090513;8.285701321;26.12383532;-34.33294865;-7.77997619;-17.55030747;1.524405057;-5.214700261;6.182476251;-19.56230639;-59.41328448;-13.58427788;-3.690988313
9.406422589;-10.12815063;9.706116444;8.701387538;-2.527510175;-1.957542244;13.89840015;2.913591625;30.76566672;-36.92616476;-9.041005998;-24.23607354;-0.250900383;-3.982821017;8.259958984;-13.64846341;-64.8761144;-15.25588807;-3.491763176
14.59411303;-2.069653974;13.61832626;-41.37745497;-6.301845764;-0.744134502;13.83953787;1.677743928;35.11114255;-33.12715349;-6.139561113;-19.64982693;0.718053674;0.871577771;8.509711078;0.526721526;-82.42959218;-9.587239885;0.424483482
19.98158877;8.223365181;21.84700038;-83.50538469;-11.35216377;1.331140822;7.325619989;4.069561963;35.48523826;-26.43785862;-1.416831011;-6.783203553;1.279636013;5.860477434;8.714852691;16.52007813;-107.2527371;-0.305111608;6.014676598
19.40444426;15.84571626;26.11616653;-89.01960068;-16.31129614;2.332076799;0.614053668;6.71992255;29.67815229;-22.87101472;0.366190943;6.087078041;-1.326854615;6.88958206;10.43686155;27.75473791;-134.695056;5.360253509;10.10964842
10.09065544;17.25;21.36334596;-53.16392405;-19.79248139;1.402082147;-0.384707404;6.977476683;18.89203974;-25.59192725;-2.825197129;12.19024746;-6.352773546;3.064538424;12.32304721;31.91820227;-159.8188839;2.702219678;10.92910769
-4.440029297;12.40500551;10.34396684;0.709770578;-20.91922812;-0.544816192;4.747424316;5.274340039;7.086194585;-32.1278684;-8.204203105;10.93654371;-9.731478196;-2.384472076;10.64318985;31.49015237;-177.0543231;-7.158462198;9.208155716
-16.75551849;4.311753151;1.156404508;39.34907858;-19.56976657;-1.746097624;11.01036046;4.245931274;-1.579333297;-36.53533193;-10.95755842;6.963585122;-7.505293331;-4.836952101;3.006934644;30.41941778;-181.4473407;-18.87448743;7.140352567
-20.98093336;-3.414297945;0.146218391;45.05680443;-16.21090393;-1.207329182;12.80471386;5.719007138;-5.024216395;-34.4804168;-8.990657917;5.111079803;0.534365981;-2.22186756;-8.208086578;30.18625901;-171.0019887;-27.24267445;6.286359903
-16.71495458;-8.800587997;6.616165224;27.11886628;-11.51;0.459344576;8.910287649;8.591195939;-3.628289571;-26.70845487;-4.930573073;6.137616851;10.23145088;3.266114618;-16.385901;28.74815905;-148.1354687;-30.36680365;6.372835572
-8.405275403;-11.99877385;13.90319688;10.29589734;-6.066744364;1.671118928;3.236351432;9.659883213;1.067812261;-17.97137162;-3.456541459;6.820455151;16.06324215;7.075027256;-15.4052909;23.11440479;-118.7562659;-29.45713594;5.930819277
-1.220522283;-14.08728872;15.58407045;11.49415653;-0.450558396;1.337432907;0.985070577;6.636764681;7.790479841;-12.5987565;-6.548451584;3.864983149;15.22306981;6.084373173;-4.814105037;13.03456539;-89.43902027;-26.42922534;3.994037703
2.780048828;-15.63013468;11.11075665;25.71706238;4.600988792;-0.192609335;3.937195589;0.535982879;15.82874556;-10.81851903;-11.23909368;-2.302390769;9.40289214;1.025867967;9.17405211;2.336781411;-64.7166885;-22.09063115;1.185713901
5.112576083;-16.30637569;5.926348495;33.48762939;8.165726532;-1.511140949;9.096998706;-4.820926145;24.323844;-9.108383081;-12.10755438;-7.414401107;2.959720825;-4.37467275;18.17586583;-3.462764241;-46.22957202;-16.43767795;-0.795958464
8.163795172;-15.67300966;6.194406825;22.10695655;9.500171451;-1.454311371;11.68298496;-5.841480382;31.68314781;-4.130179897;-6.305879366;-6.969312756;-0.759153903;-6.576571912;18.21097548;-1.416258884;-33.73952037;-10.085687;-0.745688339
12.22363606;-14.03603511;13.03093325;0.235903197;8.591281864;-0.125699318;9.528776761;-2.121680849;35.950709;3.447324193;3.488668904;-0.265959973;-1.749604572;-4.914047159;12.91166731;6.224766928;-26.54601078;-4.765810905;0.92777836
15.01911872;-12.46912417;21.37607583;-8.819998483;6.414815575;1.251403411;4.879058935;3.230206003;35.83412092;8.817583429;10.96124429;8.697402476;-2.553692386;-1.655970672;10.51324611;13.21007813;-23.95977056;-2.11046114;2.560746102
13.92219369;-12.03293507;24.346728;9.949793654;4.52725578;1.462655438;2.121840613;6.169619461;31.37764868;6.861714185;11.28684082;14.16925768;-5.369213257;0.282817846;16.89625557;13.49086184;-24.88115392;-2.077303882;2.714122411
8.512208079;-13.10688882;19.05041809;45.01782856;4.105192752;0.36518953;3.712726134;4.983526008;23.69456876;-3.345522551;4.999887405;12.85198632;-9.822652318;-0.248110287;30.31826594;5.308824629;-27.6236138;-2.964320166;1.400916118
1.027445381;-15.57177995;8.733404619;62.98383202;5.048150771;-1.048487902;8.046492437;1.535368129;14.19425949;-17.27260422;-2.726495678;5.928444381;-13.34664658;-2.154958784;42.20718185;-7.719617634;-30.73336463;-3.318832947;-0.038683144
-5.608996926;-19.58211296;-0.3975229;34.65487041;5.84869098;-1.584321013;11.09318186;-0.413487244;4.204138221;-28.06583119;-6.618115213;-2.420871127;-13.62874925;-3.652654061;43.50628406;-19.07182928;-34.12688674;-3.829661055;-0.254320827
-10.19671732;-25.90678564;-4.568292989;-38.67844178;4.468219416;-0.895893029;10.1463114;1.763457089;-4.729920992;-31.50807534;-5.574892623;-8.341059105;-10.75960788;-4.117089294;31.5989453;-23.37767636;-39.04405131;-6.929289856;0.837328417
-13.79792213;-35.14816901;-5.154694054;-122.0026147;-0.265453102;0.283514722;6.210262345;7.720962708;-10.58451081;-28.75909399;-3.023267125;-10.57298413;-7.114974337;-4.429129274;12.43960918;-19.28785019;-46.23588879;-13.96924076;1.970345395
-17.99328207;-46.33633821;-6.503038351;-171.1735013;-7.670206947;0.877436503;2.936239131;14.80783887;-11.55614787;-24.80270543;-3.327578875;-10.16657327;-5.179996618;-5.626678031;-3.596795458;-9.576819923;-53.79620988;-22.52639035;1.686686673
-22.66315144;-56.28855822;-11.17650773;-166.4391261;-15.3687598;0.451039584;3.215063035;20.31189286;-7.622192566;-24.13225312;-7.730552337;-8.5846274;-5.416993893;-7.381306191;-8.743038683;1.066381288;-57.08555254;-26.88395182;-0.328987666
-25.56056608;-60.74992036;-17.19721097;-127.4175447;-20.58894037;-0.454775547;6.597960118;23.15719557;-1.601061734;-27.34342003;-13.50506026;-6.332823427;-6.169890938;-7.974187512;-2.400890237;8.809231296;-51.8601637;-22.14842814;-2.911619129
-24.22056629;-56.86719924;-19.84821771;-96.5569536;-21.81107964;-0.900725256;9.838723954;23.7197016;1.761806504;-31.27240388;-16.87721744;-3.267494966;-5.641609442;-5.943456725;9.743456378;12.36896142;-38.77482771;-8.926195368;-4.319453711
-18.47886185;-45.24833406;-16.28812568;-104.0206108;-19.69402759;-0.458593742;9.944312416;22.34034147;-1.334289325;-32.19221062;-16.7882169;0.20820035;-4.011649942;-1.863258829;20.57613758;13.02525756;-25.44559079;5.686538044;-3.535518635
-11.18238278;-29.946878;-8.604143058;-142.5981733;-16.65755831;0.400524746;6.883016049;18.3133659;-10.84954158;-29.12387594;-15.90265536;2.731740862;-3.600403767;1.561188896;26.12117198;13.36315986;-23.38104235;12.4040387;-0.855822037
-6.232392248;-16.23285434;-2.364202795;-173.3188435;-15.3698648;0.777699026;3.51712986;10.53022084;-22.42981315;-24.52301664;-17.96200524;3.030214822;-6.785992127;1.432627891;26.51010072;15.58760808;-40.91124263;6.477224309;2.612863157
-5.512273348;-7.729892261;-1.866991112;-157.3340702;-17.09510043;0.212544502;2.921142803;-0.800545681;-30.1492495;-22.05088348;-24.04989832;1.356830855;-13.4991689;-2.903858171;23.56675978;20.18673442;-76.81010011;-8.445659047;5.924439267
-7.336651331;-4.948416983;-6.335947441;-88.16243513;-20.92892992;-0.87014222;5.598084875;-13.14454666;-30.64506965;-23.56439714;-31.34526924;-0.388793588;-20.62418501;-9.046447419;18.06138086;25.49621947;-119.4858086;-22.66039385;8.78175939
-7.81997351;-6.038228006;-10.49812959;1.730029297;-24.36062755;-1.541417624;9.107304318;-22.60633347;-25.47959251;-27.83687775;-35.58151949;-0.331801459;-24.03039243;-13.15317829;9.472490668;28.43984401;-152.8610583;-27.35582648;11.18277484
-4.073260507;-8.774859071;-9.082485301;64.95889841;-24.7615641;-1.215833638;10.35332003;-26.3256715;-19.81266419;-31.77763732;-34.92951273;1.353661993;-21.65127819;-12.73648946;-1.732108082;26.26117591;-165.1395008;-20.7701613;12.75918334
3.427819075;-11.95276269;-1.300229169;74.17376228;-20.86712586;-0.18408805;8.379611998;-24.35;-18.40566554;-32.79564372;-31.65355217;2.146154862;-15.05609104;-8.369480836;-11.99186551;18.43448193;-154.4853758;-8.75794468;12.65184596
11.24852118;-15.17140818;8.568121878;40.22863277;-13.40910158;0.650140263;5.135492892;-19.35340884;-22.16200915;-30.29951625;-29.94356655;-0.753094898;-8.196325433;-2.963108304;-15.49431448;7.556030341;-128.0503243;0.450459966;10.19669963
15.76579854;-17.65885209;14.86983829;0.39450438;-4.65254188;0.579797524;3.603016446;-14.4047469;-27.94887414;-25.47;-31.91810718;-7.62880492;-4.390078125;0.676395701;-8.066120091;-1.62;-95.86542593;2.811839784;5.809685323
15.9373078;-17.71615391;15.20832251;-12.19438528;2.741036916;-0.286358975;5.071661442;-10.70756627;-31.69413417;-20.07701818;-35.58922053;-15.34789828;-4.069811333;1.907006098;8.803219586;-4.701039911;-64.76709541;1.000911004;1.139274501
13.78979206;-13.69877663;11.97290336;7.358342071;6.798618078;-1.143243214;8.049549529;-7.266058333;-32.04664234;-15.67833904;-36.86504472;-19.51281917;-5.108690898;2.263172021;27.37767417;-0.240032349;-36.84332085;1.165722301;-1.849547886
12.34766978;-5.799088309;9.641148686;36.24;6.744015117;-1.220269664;9.730365806;-2.711450054;-31.5244904;-13.68941413;-33.93461434;-18.13666866;-5.292287825;3.589382306;37.67303925;9.368389008;-12.61400347;7.066339869;-2.2101987
12.884356;3.161152514;10.51053858;46.19809429;2.889490777;-0.455366969;8.593048946;2.450880297;-34.31184526;-15.62148618;-30.01393535;-13.7475928;-4.669333069;6.063558424;33.58076061;19.37936715;4.975996538;16.74022163;-0.661928134
13.87763262;9.087362724;12.78194277;27.59350082;-3.74761818;0.481584214;5.739373147;5.364364998;-42.71574111;-22.57049913;-31.64959625;-11.92873703;-5.667954902;7.879965915;16.82974049;25.59433598;10.15135869;24.34395838;1.027875989
12.52724553;9.403647582;12.61675088;-4.254763978;-11.73895695;0.808237412;3.802870648;2.783802495;-55.30355961;-34.01889709;-43.60402078;-17.22753698;-10.84505209;6.831508826;-4.052818874;26.66206189;-1.602519385;25.21026976;1.433961408
7.495221516;5.101163222;8.111603255;-23.74289727;-19.36875779;0.314105237;4.503667943;-6.053020132;-68.13402195;-47.11532672;-64.45263839;-29.62140316;-20.22416592;2.35771237;-19.02124241;24.27063798;-28.38639799;19.52776392;0.48348751
0.511997748;0.209611119;1.444901767;-16.61019177;-24.79889834;-0.498507391;7.114601923;-18.12685132;-77.79253607;-57.56043733;-86.65498263;-44.3311784;-30.58143503;-3.741126449;-22.3215381;21.34229057;-60.47506751;11.58330594;-0.721890606
-4.54486556;-1.134179149;-2.780116015;9.774282702;-26.50613293;-0.910571774;9.201313248;-28.21942609;-83.54132845;-61.90651975;-101.275737;-55.05018744;-37.42552214;-8.523602472;-15.01253781;19.79736849;-84.60427136;5.628256634;-1.038009042
-4.408626227;2.179542089;-1.445401728;34.60204957;-23.93482533;-0.638855588;8.890288855;-32.33391034;-86.92072102;-59.66220619;-103.7668538;-57.94939116;-38.16171919;-9.999364908;-3.007426319;19.58228711;-91.2515242;2.349314149;-0.320515764
1.144723992;7.386293753;4.492207764;41.54954086;-17.96892953;-0.049589624;6.555451213;-30.3561347;-89.51851959;-53.48963321;-96.44242332;-53.41770379;-33.92573445;-8.355116253;7.361647049;19.43789657;-79.66721433;-0.903008635;0.531036322
9.060225965;10.00404837;11.01685991;30.70167062;-10.76903615;0.234125665;4.408850578;-25.91185431;-91.16346151;-47.23930395;-86.05284371;-44.62479025;-28.63564655;-5.405965911;12.9009142;18.42612818;-57.11586355;-6.61860886;0.501434548
15.09094831;7.306994425;14.61990668;15.53743341;-4.869611497;-0.061265183;4.432525004;-23.57489745;-90.19697327;-43.36071819;-78.75561694;-34.6703409;-26.0343798;-2.902455107;14.13072286;16.7755237;-33.26872248;-13.87430403;-0.539899915
16.5824443;0.391379594;15.08139386;9.504983234;-1.96989913;-0.609921514;6.58258421;-25.60970503;-85.43937038;-41.74159591;-76.53112086;-24.95379642;-27.05065574;-1.214290935;13.32801804;15.44167839;-14.22465039;-18.48430771;-1.69615682
13.91558879;-6.706251661;14.98740729;14.82666421;-2.160534627;-0.812719531;8.890179304;-30.66192126;-77.93377153;-40.76404145;-77.4330777;-15.84804463;-29.46901477;0.558053003;12.20797934;15.04048257;-0.431829471;-16.4337857;-1.869687486
9.715632109;-9.981714298;16.63684571;22.6655485;-4.115644454;-0.378841961;9.310290707;-35.14883264;-70.85993111;-39.43342224;-78.67323601;-8.395467058;-30.01439071;3.319527002;11.1240958;15.31547639;10.74243256;-7.380285525;-0.772099532
6.653229321;-8.073399449;19.44141422;22.91754431;-6.141877879;0.385884879;7.584307834;-35.9963201;-67.72072956;-38.56703096;-79.41687593;-4.831625947;-27.0849268;6.819328005;9.932919861;15.63908203;20.77831604;5.024587063;0.821584819
5.611055378;-2.549047367;20.39577797;13.79295985;-7.359525101;0.849647649;5.421424347;-32.53146101;-70.34266549;-39.99284636;-80.96144694;-7.085638026;-21.97396017;9.660383985;9.157145582;15.93397211;27.97616807;16.23716668;1.797386689
5.521317244;4.021055211;17.19814522;2.718988853;-8.173123178;0.629513689;4.883423152;-26.31384062;-78.14356232;-44.59744196;-84.66605554;-14.63329413;-17.72521585;10.44153419;10.04114065;16.95354034;29.09585359;24.40396862;1.715743287
4.769631788;10.27072032;10.97159536;-1.268798406;-9.696634798;-0.059655524;6.49546886;-19.48688316;-88.80795558;-51.12830487;-90.01087715;-23.97416468;-16.64615461;8.991388505;13.37282682;19.52065506;22.76127906;31.0987073;1.162206724
2.853744567;16.55288536;5.793073897;4.094372744;-12.58014431;-0.597425269;8.809927963;-13.28282031;-99.39672298;-56.9248716;-94.75600358;-30.63221833;-18.47843175;6.611334203;18.25873305;23.43445526;11.35103541;38.64832578;1.109810179
0.888140014;23.47997207;5.211109718;12.81221127;-16.15578333;-0.509565885;9.776686011;-7.840772466;-107.0426253;-59.92430772;-96.94160991;-32.19459874;-20.61457693;5.1335834;22.17439173;27.19893695;-0.306491393;46.76752029;1.896664121
0.568302025;30.06674832;8.877809175;16.75583026;-18.6067416;0.121818862;8.618415524;-3.102503091;-109.3707658;-60.0829664;-96.65437826;-29.78146132;-20.13424536;5.594958973;22.48403373;29.01784687;-8.189439637;51.91896192;2.792216585
2.509667653;33.4324176;12.53275272;13.18674323;-18.10491004;0.749331658;6.488635786;0.417726269;-105.3162264;-58.90723625;-95.77951794;-26.62292894;-16.09177719;7.584044556;18.28130523;28.27756419;-11.44413866;50.23688559;2.591111161
5.425497515;30.60898481;11.62469528;6.719081155;-14.1236551;0.852126537;5.352047038;1.892095741;-96.32231527;-57.58226874;-95.98199232;-24.99432487;-10.37805232;9.693659629;11.05807609;26.18062367;-12.00765309;41.39266417;0.723529518
6.961476126;21.07251056;5.474222148;4.390441815;-7.973407892;0.376358132;6.165554676;1.184790621;-86.71401462;-55.5331107;-96.90268433;-24.2546787;-6.57348817;10.60948816;3.664535286;24.88312828;-12.15648822;29.70765431;-2.122285828
5.642497051;7.863017371;-1.799210158;8.889557111;-2.153345218;-0.259178426;8.044682463;-0.552997746;-81.90698362;-50.86645121;-96.33549372;-21.72359738;-7.62480927;9.952808477;-1.565777242;25.83053862;-12.34340794;21.21183097;-4.450227567
2.371290091;-3.767767629;-4.595741007;16.28371092;1.048170815;-0.566814093;9.148260425;-1.548990693;-84.72742201;-42.36080524;-92.21473857;-15.51199005;-13.91490565;8.330019531;-4.017448077;28.72743199;-11.15787651;19.05687107;-5.109360374
0.106667172;-9.281166973;-0.60581578;20.01443285;0.76487551;-0.414219237;8.417513823;-0.957228509;-92.30055032;-31.16137133;-84.48973725;-6.616031601;-22.93751737;6.731071934;-4.484529463;31.997079;-7.165249095;21.29317128;-4.154010716
1.70860734;-7.261015837;7.158424068;17.08339495;-2.180063477;-0.088845138;6.543635293;0.092261104;-96.50921512;-20.53132108;-75.10464571;1.705488102;-30.69701296;5.847510946;-3.872639861;34.20809247;-0.729088488;22.97822542;-2.681216699
7.484037547;0.261842331;12.91049954;10.64247889;-6.006553979;0.02386669;5.288505565;-0.902551271;-88.81356845;-13.765986;-66.1977858;6.663833621;-33.90301835;5.769719212;-2.260419716;35.07133459;5.876547072;20.71225731;-1.826799425
14.44393271;9.462204532;12.9913278;6.880776391;-9.098583138;-0.181790067;5.821280825;-5.760804658;-66.63075488;-12.06726855;-58.41784645;8.14898814;-31.65;6.101998146;0.767562337;35.09140715;10.06370586;15.52604279;-1.830852425
18.14557725;16.87236177;8.773880967;9.417749016;-10.74776774;-0.458667234;7.6282897;-13.67503015;-36.51870597;-14.21016476;-51.1269326;8.271908304;-25.69442661;6.241757439;4.904078953;34.34779112;10.71644309;11.58142293;-1.980947417
15.96280263;20.55864448;4.997942508;16.40117243;-11.15822901;-0.489450216;8.996405256;-21.08449347;-11.1664772;-18.15716615;-44.27373843;8.704418459;-19.31430321;5.608411625;8.374599861;31.82120431;8.654195386;11.99918255;-1.418911115
9.27604694;20.00852715;5.100480823;22.61851435;-10.93523108;-0.231582981;8.602363332;-23.7640336;-1.717769515;-22.95837748;-39.80936189;8.531918539;-15.51862487;3.812295894;8.721520894;26.19160452;5.622848382;15.76586784;-0.016569897
2.643204259;15.54097903;7.872444927;24.19773248;-10.57447253;0.02190835;6.728983898;-19.75702678;-10.73037078;-29.05445628;-40.68868873;4.98439924;-15.63851916;0.832113987;4.786012042;17.50991382;2.976580293;18.65082013;1.503336497
0.30350649;8.136584437;8.602366586;21.39567629;-10.30285787;-0.070466795;4.994902625;-10.97603931;-30.8715284;-36.727495;-47.82871686;-3.37129624;-19.00133729;-2.85694672;-1.726461152;8.058274353;1.256565242;17.30837929;2.292181236
2.681912541;-0.291850194;3.742461775;17.24199768;-10.22088168;-0.542319931;4.866509988;-2.157139687;-50.18452803;-44.39056322;-57.77363896;-14.03816939;-23.69578433;-6.389260986;-6.682841889;1.233845455;0.749126695;12.71235858;2.232076479
5.916872122;-6.981651531;-5.221487888;13.93474405;-10.44641897;-1.046432411;6.332695037;2.220389882;-59.7878162;-48.75346804;-63.81058681;-21.50650353;-27.81476641;-8.930982108;-6.066105395;-0.904247231;2.048268783;9.599668093;2.08152968
5.223131237;-9.379617721;-12.46467998;10.8182839;-11.05373607;-1.151863247;7.949912062;0.89712516;-58.25166459;-47.18053649;-60.48400974;-21.4890479;-30.37703936;-10.20196675;1.071750123;0.66184654;5.741009271;12.25338394;2.737137564
-0.361247669;-6.749051889;-12.74850613;5.828223048;-11.89371771;-0.74354352;8.189381865;-3.45392848;-49.94256944;-40.28741504;-48.13769301;-14.92303528;-31.46493766;-10.68690859;11.54371239;2.652222973;11.43920766;20.39433419;4.286616872
-5.942835524;-1.010128325;-6.235787265;-1.391175884;-12.55325172;-0.150030518;6.829451881;-6.314669209;-39.69224635;-32.19580799;-33.37608745;-7.820078125;-31.71360126;-11.29471609;19.90355857;2.295614595;17.30162405;28.98136415;5.764860682
-3.895435456;4.218085182;1.332520777;-8.183176875;-12.58655749;0.130322395;5.12142798;-4.756550821;-28.89443129;-27.68619496;-24.29638405;-6.405234245;-31.70776458;-12.67403446;22.09453247;-0.158387017;20.89526557;32.25047394;5.913149653
9.501121747;6.011700556;3.61045097;-10.95602893;-11.85814592;-0.135840141;4.606764469;0.213504117;-16.28960918;-28.30600478;-23.83796299;-11.35393862;-31.78147953;-14.72439684;18.23355193;-1.551378329;20.93793097;28.48611755;4.322418073
28.93927519;4.263744158;-0.476242934;-8.670782557;-10.67885484;-0.713707694;5.700639357;4.108010407;-2.057949189;-30.76817263;-26.77130717;-16.33230882;-32.24896657;-16.71465342;12.4120792;1.332284808;18.42268546;21.32458241;1.946906334
41.22954021;1.789156128;-5.352345184;-4.18157255;-9.571025151;-1.112782872;7.345754592;2.010014648;9.341203101;-29.36177707;-23.44497008;-12.80719606;-33.63513504;-17.90101686;9.590913428;8.59864488;15.96090204;16.49524455;0.477691818
33.16752442;2.142971052;-3.569757102;-1.859719847;-8.839382836;-1.02165413;8.028648718;-7.777344042;10.96559216;-20.76121718;-7.960260824;2.359550928;-36.44641911;-18.08393422;11.87562791;16.69847934;15.70850901;16.9826209;1.040391518
1.225502591;6.734050988;7.163811306;-3.586540416;-8.329605369;-0.572481826;7.191604909;-21.95022831;-1.256339049;-7.376858463;15.67233692;22.98692978;-40.48890583;-17.59242901;16.95774437;21.25037599;17.58162962;20.91320193;3.278272357
-44.02444284;13.49584948;21.0304483;-6.933285153;-7.614282444;-0.202623686;5.72852025;-33.60490791;-24.31718671;3.711656821;34.92882389;37.31339196;-44.3090086;-16.72442481;19.88434839;20.88416843;19.32833946;23.84965288;5.579562071
-82.7545959;18.24003906;28.39574428;-7.394675383;-6.463231186;-0.249638886;5.123003066;-36.10603673;-49.1296752;5.726837616;37.55246619;37.10721723;-45.45855282;-15.21627747;16.81984094;18.56799289;18.44532645;23.07866592;6.267628845
-97.4937615;17.72732848;24.20387999;-2.700318038;-5.175608396;-0.653398162;6.049003959;-27.10259683;-66.32117966;-2.672307902;21.38308207;24.89298658;-41.75289083;-12.33709665;8.005451023;18.90566886;14.30930642;19.74848;4.800563865
-83.85577041;12.1195641;13.25961671;4.836433731;-4.444208063;-1.03054192;7.739004436;-10.20063048;-72.10195997;-16.10855674;-2.646658174;12.84910099;-32.84885759;-7.638054056;-2.213939614;23.56105023;8.711825191;16.96658311;2.063209989
-52.96630723;4.942188379;7.185028061;10.22783654;-4.826236845;-1.038659941;8.697459078;6.815506006;-69.32306479;-26.1023653;-17.4775756;13.35592963;-21.00653147;-1.726672528;-8.217992769;29.02114532;4.416754138;16.04035972;-0.388993662
-23.87729543;0.607280894;14.65951004;10.29920068;-6.257341005;-0.685094515;8.086302109;16.22647909;-63.11740858;-26.82798894;-12.30690371;28.2270234;-10.28111515;3.696014718;-6.691361377;29.24173499;3.089543678;14.96822366;-1.446596582
-11.31547117;1.390128916;32.64;6.601293283;-8.034432556;-0.298105006;6.495668853;14.58298385;-55.43363478;-18.70465926;8.78396502;45.44577;-4.436184291;6.727156426;1.504624239;21.43232075;4.39396933;11.06410038;-1.040720794
-17.26270384;6.077578697;46.30237379;3.991347889;-9.301216961;-0.200887849;5.393943173;4.38565676;-43.78615255;-7.39557074;28.83187706;46.87732393;-4.829107226;6.468070791;12.20755105;9.970278204;6.848541523;5.215330796;0.128795615
-31.78573979;11.13605717;38.93156867;6.134720901;-9.635989657;-0.406160513;5.776152194;-7.688901217;-25.54602457;0.579741078;29.72695604;21.85650796;-9.64467662;3.601918518;20.64326326;4.316465978;9.370958971;3.012084981;1.333550946
-41.65176079;13.33676391;4.904220478;12.06721288;-9.251492309;-0.62232179;7.262080795;-14.81652942;-3.597254326;2.040419745;5.365229404;-23.46962613;-14.99679658;-0.129088952;23.97024377;11.58197545;11.91947762;10.40404149;2.32782018
-39.85416723;11.82296993;-44.18975521;17.01156526;-8.658725469;-0.56056047;8.467042252;-13.76904711;12.69637643;-1.766609349;-33.41327032;-68.46157012;-17.17876379;-3.131133742;22.22052464;29.30908297;14.73259858;26.84130169;3.273219079
-29.20442844;8.244045903;-85.56147448;16.7181402;-8.12087727;-0.242420934;8.287942032;-6.14442584;13.44193914;-7.254320154;-65.80566489;-90.82446019;-14.61555664;-4.891756671;17.54465347;44.78204264;17.23859925;42.21085177;4.311601269
-18.24899103;5.161085597;-99.61127101;11.34082901;-7.405024326;-0.003800299;6.910750318;3.413251562;-3.148373845;-11.39649606;-74.90805301;-80.94037759;-8.361563561;-5.950348689;12.71696951;42.63379487;18.11912171;41.72758723;5.299847894
-13.68893358;4.147773732;-82.51324177;5.29391932;-6.05996633;-0.179043478;5.617953113;10.53843539;-27.00713708;-13.01517349;-58.47123039;-47.54803925;-1.034173405;-7.058945633;9.918450189;15.93609585;16.76757045;16.47184195;5.968079493
-15.5982303;5.000674628;-48.04288095;3.254245155;-3.955665106;-0.757948906;5.590873792;13.68952794;-41.72139216;-12.03411073;-29.09594003;-11.06010284;4.917587592;-8.352815605;10.17242531;-27.385273;14.69407442;-28.19708647;6.280684494
-18.74286334;6.421783887;-17.61942841;6.013923239;-1.56087575;-1.346504776;6.823712074;14.37204886;-36.15832154;-8.255351785;-4.369040683;10.20680403;8.438599326;-9.2655147;13.24770025;-68.09810969;15.09338582;-73.57972212;6.563069493
-18.03294573;7.392912744;-6.047056798;9.972680013;0.343521944;-1.487709768;8.147709563;15.27044058;-13.43812376;-1.321849117;5.311357391;10.90175684;9.97109982;-9.190415832;17.82282682;-87.27030374;20.39080907;-98.4260837;7.210443015
-13.02778757;8.091490226;-13.11596408;10.64024741;1.302666991;-1.062875588;8.327517783;17.95111974;10.21813147;8.131570783;2.345071621;-0.523514104;10.67917185;-8.192940907;21.97974363;-77.97334648;29.73847515;-92.31669375;8.247821189
-7.788930999;9.731884205;-26.32187902;6.810773799;1.615746245;-0.408685961;7.203864579;21.87397692;16.62552912;17.72216825;-2.361979646;-10.32614292;11.54003906;-7.050967441;24.10628715;-48.92876497;38.98416727;-61.96179328;9.198059696
-6.701408952;13.58893208;-31.57260282;1.52561759;2.137093633;-0.035018016;5.826914005;25.22793855;-1.317015858;24.3355501;0.723994902;-10.0545167;12.91261177;-6.556060135;23.8631735;-17.82644961;43.71611145;-25.8846838;9.438731972
-10.29267701;19.97939381;-23.35902859;-0.972474838;3.565096723;-0.188675005;5.46930567;26.63415288;-34.49121532;26.42087462;12.41862774;-1.350097656;14.66982084;-6.727470305;22.47838467;0.5130228;43.08915151;-1.681931229;8.751361777
-14.76139317;27.87143214;-7.236026796;0.695472375;5.79404008;-0.650154881;6.444246052;26.20650377;-64.15191508;25.4268998;25.40660697;7.598152468;16.56059128;-6.700553502;21.8858102;2.613978336;40.95516887;4.586802352;7.55537214
-15.42759461;35.29849674;6.066497795;3.868361118;7.883405356;-0.943003586;7.824548555;25.1817238;-75.06329988;24.64511645;31.45809952;9.957432273;18.43933875;-5.444007622;23.14590587;-3.964578636;42.78571011;-0.469611843;6.59161014
-10.85790747;40.2874725;9.366666926;4.666748123;8.700744743;-0.765264305;8.314311673;24.63113815;-65.20186924;26.07246673;28.78920832;5.790594489;20.26948238;-2.694260225;25.40375771;-8.313925893;50.60058922;-5.510165627;6.328183573
-3.996264709;41.80786697;3.732895164;2.064007329;7.738883818;-0.255272998;7.455376906;24.51367158;-45.17708895;28.07687815;23.43064192;1.2334438;22.04597272;0.721127717;26.45042588;-4.668732229;60.34211897;-4.186783824;6.623007304
0.560100517;40.29095043;-3.699880835;-0.793771693;5.469809429;0.142752038;6.046503737;23.92649433;-28.80585962;26.4096305;23.75007813;2.758819599;23.78087712;3.462109013;24.66707929;4.575097536;64.55774589;1.155769581;6.938184301
0.578061559;37.45322293;-6.061304599;0.551197767;2.989479176;0.085249457;5.390151142;22.26856676;-22.89790627;18.2928048;32.97631874;11.62812854;25.52848964;4.647773004;20.76046648;12.61872633;58.7971915;3.836232409;6.881889963
-2.072727679;35.44642799;-1.760378099;7.399789919;1.28576038;-0.362454965;6.071531137;20.18508818;-24.09388193;6.23025923;46.06170839;22.88981532;27.32703012;4.381425611;17.5684943;14.74413344;46.48186655;0.396221371;6.546464611
-3.359385457;35.71356634;5.419039674;16.05315241;0.729566203;-0.791331879;7.406788211;19.34823331;-24.18641643;-2.261490649;53.46827954;29.26893078;29.03126426;3.426184118;17.7106542;11.96095144;37.57347213;-5.678642062;6.31443006
-0.799689585;38.19665851;10.37826095;20.52626562;1.134754067;-0.820450212;8.074195411;21.16855774;-18.39362502;0.206139083;48.72861094;26.51587596;30.19278552;2.417478235;20.86941241;9.32856338;41.17799766;-7.130928387;6.330698525
4.428699322;41.45858893;11.04520188;17.56141152;2.206315488;-0.433485486;7.343476586;25.49846334;-9.276670262;14.34454379;33.65106091;16.11349517;30.18612497;1.399727497;23.21068242;11.12631849;57.53299303;0.261051872;6.186897078
8.781282564;43.74403772;9.527435573;9.485592384;3.878423045;0.022233392;5.761220594;30.44054198;-3.456888506;31.57929408;17.11621104;3.753037568;28.58707118;0.111562022;19.9767785;17.32932407;76.07364396;13.54808505;5.187209435
9.720747576;44.29511827;9.685381103;2.315716796;6.208414718;0.163464728;4.650219401;33.47537516;-4.769614214;38.30803425;8.652912778;-4.707154241;25.54219319;-1.334366182;9.593095271;24.16357825;81.97269431;24.80182271;3.011256281
8.021350919;43.91887288;13.63695619;0.766197328;8.966719015;-0.081654914;4.876805944;33.05734304;-10.3441929;24.77976705;12.00424445;-6.614501767;21.79419397;-2.169968729;-4.035370047;27.72280256;66.83225305;27.57044482;0.173242323
6.904262129;44.26132394;20.14137257;4.571778919;11.39151969;-0.424493493;6.022452278;29.49036713;-13.11200812;-7.558814165;23.51214122;-3.174219711;18.26205912;-1.529157599;-13.3552175;27.155857;35.48231461;21.90480109;-2.195284962
8.820579138;46.25142309;25.81979228;9.287095095;12.4456736;-0.502543133;6.734251731;24.52706175;-8.33356617;-45.79363406;35.93986762;2.304949718;15.44751414;0.564348088;-12.27383778;24.7344491;3.373967374;13.76709587;-3.128478336
12.83283126;48.95703716;27.7553982;10.63450503;11.43845578;-0.22947578;5.952387949;20.14568739;1.815915003;-72.98089671;44.00535465;6.710490934;13.12748514;2.734512739;-0.838491019;23.14929407;-13.88351289;9.67702593;-2.544825937
15.00942153;49.91444164;25.20744972;8.311542541;8.499273384;0.118840126;3.905833535;17.48967277;9.756192256;-78.35349613;47.01429121;8.360340256;10.60821778;2.945838894;14.29534545;22.79278011;-11.20249826;11.4374061;-1.294210653
11.56202444;46.85975925;19.35330648;5.817807667;4.476732727;0.16273609;1.968093205;16.63123512;8.853351999;-63.36580342;47.05;6.932543475;7.386061408;-0.005994187;24.33644193;21.51396188;2.973667486;15.31810653;-0.488068015
2.034329654;39.56904856;11.80380424;6.658263369;0.326040466;-0.217666162;1.490773152;17.03718612;-0.851053001;-39.71513619;45.29023116;2.918047274;3.726534401;-5.362694968;24.60487292;16.86069761;13.37036814;15.88115622;-0.675085645
-10.18316642;30.26891257;3.461785726;10.66378655;-3.496021782;-0.751149683;2.651970086;18.11219153;-12.41826988;-21.20831191;40.48716356;-2.631231366;0.71099306;-10.64814166;17.79904491;8.546986139;8.994081896;10.65182079;-1.539512465
-20.4058584;22.14391499;-5.404740744;13.99761088;-7.108997521;-1.002102768;4.338449027;19.36322493;-17.45496239;-15.40655;31.23763738;-8.084088338;-0.316132077;-13.26237551;11.67778397;-1.161050883;-9.707461052;1.562203928;-2.324267047
-26.06098558;17.04985894;-14.32713143;12.87919237;-10.71374457;-0.754320181;5.14909995;20.28666586;-12.64616276;-20.52654212;19.65283759;-11.50409137;1.464593206;-12.2854442;12.86166278;-9.373187488;-32.54736181;-7.551318065;-2.549502873
-28.1129366;14.30858634;-22.13388364;7.48652789;-14.00965133;-0.20749158;4.610235268;20.40176484;-2.048545184;-28.80994206;12.19550998;-11.48666695;5.844388224;-9.1121089;21.52343635;-14.88533928;-48.06628017;-14.46548015;-2.374969436
-29.49864059;11.66382378;-27.35584548;2.25292535;-16.11199174;0.189822232;3.526439624;19.61251975;6.5110105;-32.97698816;15.6756262;-8.074375307;11.67467039;-6.408148291;31.08157164;-18.68499209;-51.75873667;-19.60612747;-2.325025774
-32.15154302;7.678521647;-29.09575211;2.107742191;-16.11897575;0.122106049;3.187763542;18.56328222;7.745955225;-30.82367799;30.93940887;-2.903332898;17.45504173;-6.171370589;33.12726604;-22.27257678;-47.94324023;-23.93690256;-2.698860092
-35.277184;3.5396432;-27.46256403;8.028654208;-13.87443806;-0.332393629;4.179546236;18.4630969;2.779459667;-25.22552329;49.64343917;1.773951573;22.03574546;-8.353703076;23.79045664;-25.5363186;-44.7157845;-26.35038755;-3.261798573
-36.27274457;2.589202351;-23.17713781;16.00787255;-10.24555496;-0.783615475;5.870251891;20.27553936;-2.261509677;-20.59821851;57.85587945;4.590682137;25.03449379;-11.02682014;6.750107305;-26.35575899;-46.87142306;-23.73734459;-3.512851393
-33.29410516;7.739128088;-16.84298248;20.46433872;-6.611203877;-0.869098175;7.009272301;23.84625397;-1.3737676;-19.18708961;45.00191724;5.95336698;26.78795455;-11.86521387;-9.195124525;-22.47562938;-52.68203468;-14.13101483;-3.247149294
-27.10738709;18.76970045;-8.715935146;19.06611169;-3.930234228;-0.54582879;6.857132731;27.78164348;6.771551339;-19.94369755;11.99190943;7.580873792;27.93704686;-9.76263319;-15.93615267;-14.01381155;-56.58391602;0.041892563;-2.835211673
-20.64191675;31.7773815;0.745185848;14.61195611;-2.146636203;-0.088347027;5.814399317;30.35953846;18.22439928;-20.20640637;-27.77526591;11.01188342;28.92192248;-5.419234753;-10.89968848;-4.259282487;-54.7377464;12.16914599;-2.911603392
-16.76705557;41.41041539;10.14718771;12.2857708;-0.43626562;0.180395429;5.006082377;30.84282441;27.0184217;-18.24027366;-55.96747223;16.22451054;29.67796484;-0.63383255;2.227341647;2.161208201;-48.38771788;15.73768177;-3.748887922
-16.31312823;44.29070223;17.16339493;14.80852265;1.898834756;0.166347755;5.241059547;30.10524672;29.31520417;-14.49320894;-60.55796536;21.43404582;29.70330656;2.981887725;16.66630917;2.386747023;-42.37356012;9.435063555;-4.928285798
-17.97235474;41.02066032;19.56995633;19.91431113;4.639927213;0.044597455;6.313485009;29.96170944;25.30706223;-10.9237858;-43.00905084;24.22814567;28.46819638;4.857171556;26.67899707;-2.77819161;-40.58528319;-1.364299907;-5.668949708
-19.92414492;35.27954258;16.63227209;22.43744469;6.651462751;0.051101524;7.262583192;31.68182249;18.05526293;-9.392611812;-16.52568939;23.19947004;25.93088613;5.399766331;29.73526484;-9.628613959;-42.64207671;-8.352111776;-5.55736347
-21.52759073;30.83976797;9.720590645;19.08849883;6.711599923;0.242871382;7.308384449;34.91932233;10.91;-10.54817779;3.069590002;18.90873101;22.81588629;5.328623441;26.05119674;-14.24186915;-44.64164443;-6.463355293;-5.00568685
-23.53990323;28.95715946;1.590087891;11.56972377;4.519661829;0.456730355;6.573158449;38.00203973;5.769494514;-13.82433939;7.190676074;13.54838793;20.39960557;5.089712414;17.0890206;-14.87294714;-43.0110531;2.49003418;-4.969447089
-26.83492347;28.16235629;-5.162873964;5.224761905;1.062690041;0.493235083;5.929195424;39.38337287;3.077545872;-18.10578821;-1.599231268;9.608422208;19.84354331;4.769760804;4.906683877;-12.34190668;-37.79796416;11.60700251;-6.114770473
-31.02886421;26.38129599;-9.312928176;4.47923038;-1.975329631;0.33284795;6.145113548;39.02578798;2.727828449;-22.2846008;-13.49754099;8.470656312;21.4591167;4.362542718;-7.364625365;-8.556485685;-32.46679773;14.44757056;-8.150173358
-34.44280578;23.33300509;-11.08046719;9.18;-3.325222565;0.165025307;7.150495347;38.48967391;4.556673807;-25.40909212;-19.38161629;9.79239064;24.41967931;3.952572502;-15.31943592;-4.820039063;-30.56507786;9.660891378;-9.935226167
-35.48330533;20.98018467;-11.26747094;15.02075638;-2.935342591;0.198396715;8.107500362;39.58057582;8.042495906;-26.7165161;-16.62806544;11.93704951;27.18939326;3.586930626;-14.73495288;-1.434796777;-32.4331967;1.078291137;-10.31624295
-34.12210329;21.58293198;-10.39643397;17.47506935;-1.900111422;0.438408624;8.207893291;42.6585006;11.96924588;-25.88586372;-9.174012025;13.05163423;28.43170457;3.03157658;-4.312837955;1.389361308;-34.96603876;-6.246373361;-8.999993419
-32.03326693;25.09583541;-8.628306074;15.549662;-1.629844419;0.656717969;7.434409985;46.05099511;14.89837345;-23.38780421;-2.949796798;12.0938102;27.76407805;1.788761947;12.42211765;2.652140016;-34.56575569;-10.16242284;-6.735914839
-31.20266483;28.35175428;-6.363160888;12.03189711;-2.91490034;0.596008086;6.568784075;47.12461448;16.29010695;-20.45837861;-0.998581306;9.270481525;25.79315193;-0.501607371;28.11478543;0.93786711;-30.51472384;-12.08947144;-4.678696065
-32.26380985;27.04652984;-4.699819553;10.29740758;-5.53;0.225271985;6.444391913;44.20060908;17.1613442;-18.45605249;-1.975279623;5.766947542;23.40775453;-3.581622297;35.42276176;-4.119637067;-25.65564207;-14.11053298;-3.510438739
-34.07938864;19.14992722;-5.048078965;10.9354522;-8.539799804;-0.197901698;7.152674717;37.80935875;19.36762936;-17.98805728;-2.366476912;3.033879431;20.9242758;-6.482951312;31.28628237;-10.74597874;-23.73924273;-15.78073392;-3.081572191
-34.93163053;7.027352958;-8.047249958;11.47470503;-10.94264757;-0.330216436;7.95388162;30.33533958;23.86772524;-18.54733749;0.19954751;2.066698464;17.84500123;-8.000612031;18.62366088;-15.65069034;-25.82892685;-14.08049487;-2.827366615
-34.19;-3.580556467;-12.73444371;9.395233347;-12.1397248;-0.038108639;7.979483864;24.41007813;29.45116809;-19.04601264;5.438406613;3.025966199;13.50747376;-7.423317903;4.269842575;-16.20231746;-29.03267905;-6.747632453;-2.49836903
-32.88800559;-7.172053015;-16.85109666;5.368818381;-11.99373622;0.477806351;7.068803064;21.34986391;33.21395691;-18.83582075;11.38755839;5.301558236;8.120711498;-4.971918264;-5.269455931;-12.47065877;-28.80812592;4.249909236;-2.470185324
-32.6704234;-2.128801624;-18.26212678;3.370820663;-10.63697198;0.843308758;5.952290659;20.75621882;32.60711062;-18.32250932;16.25772639;7.872085408;3.255799399;-1.628868526;-7.226689059;-7.369511922;-22.95772015;12.76479145;-3.320332789
-34.11212517;8.207882637;-16.46945347;7.25907399;-8.341659049;0.815694878;5.599836458;21.34039849;27.44073558;-18.61064747;19.18394056;9.698298441;1.199673972;1.466792751;-3.065837746;-4.650282777;-13.92471654;12.59241126;-5.08199086
-36.02251718;17.70410299;-13.0191817;16.85561278;-5.582505699;0.46603875;6.330448924;22.0639096;20.14514727;-20.49243706;19.52666662;9.971081229;3.479690495;3.572008501;3.630101551;-6.308830328;-7.388307834;2.378672398;-6.927033324
-36.45512093;21.1930552;-10.4321615;27.24533238;-3.128952541;0.086604223;7.506458206;22.61445137;14.01250025;-23.70759958;16.12057174;8.228233476;9.60880443;4.477664068;9.787992743;-11.46390768;-8.209861882;-12.96051845;-7.659159524
-34.54933801;17.22646725;-10.45468367;32.22086072;-1.911147205;-0.079072253;8.099989372;23.01319921;10.84411005;-27.15865499;7.913574759;4.478387706;17.04738874;4.280527341;14.06260398;-17.48973776;-16.90884561;-25.71133031;-6.641152912
-31.50834127;8.223923456;-12.95466254;29.06832444;-2.605082972;-0.032168595;7.616885978;22.98374328;9.914426566;-29.87260019;-4.243141684;-0.609642414;22.51698912;3.134468471;16.36066187;-22.26226252;-29.3332955;-30.91015856;-4.338902132
-29.73905097;-1.581262406;-16.2442514;20.61692634;-5.183071536;0.030177683;6.534570699;21.83947965;9.011457362;-31.78905907;-16.54176355;-5.620058594;23.79633405;1.247142751;16.84983032;-25.5094343;-39.58897953;-29.36717185;-1.967334569
-30.81803038;-8.630688574;-18.46305811;12.83631297;-8.782660942;-0.055666669;5.857253069;19.02392027;6.550444807;-33.60893164;-23.59524467;-8.702985578;20.78457008;-0.95025687;15.65772916;-28.18978665;-43.82814743;-25.8286815;-0.518934986
-34.03037541;-11.35373275;-18.86515169;10.12308309;-12.04577293;-0.2413788;6.200539252;14.73556604;2.922357152;-35.83357293;-21.84991654;-8.394514318;15.20354617;-2.766164838;13.3096229;-30.68746369;-42.11714109;-24.22048772;-0.025438595
-36.77475795;-9.962364524;-18.04216509;12.30594978;-13.73671745;-0.315577676;7.24341148;9.983172679;0.012207671;-37.92906436;-12.50415646;-4.596279312;9.337066234;-3.532853407;10.97476931;-31.70405198;-37.39429624;-24.35913402;0.288022404
-36.52853148;-5.546875696;-17.06537396;15.69290518;-13.25364973;-0.132594232;8.04089423;6.000651244;-0.545240599;-38.4901034;-1.313447349;0.987989133;4.829874603;-3.046027442;9.829651008;-29.05663548;-32.83178476;-22.96121964;1.101113105
-32.73390569;0.549097647;-16.40604101;16.83496763;-10.75577073;0.205508304;7.898364894;3.586613343;1.224688681;-36.37351858;5.037910861;5.506638042;2.321252074;-1.767909904;9.987321891;-21.7720069;-29.84843785;-17.70439288;2.191779525
-27.06489675;6.815682559;-15.57860107;15.43349637;-6.926384924;0.403228382;6.99936962;2.968738544;3.732011182;-31.83923518;3.465124982;6.544227831;1.856826562;-0.554243375;10.18310777;-11.56371075;-28.05164768;-10.26745538;2.512683726
-21.95204223;11.59751138;-13.74084069;13.91521976;-2.619106855;0.229959167;6.216651449;4.198334844;5.188994958;-26.64756086;-3.55312365;3.680686869;3.380009766;-0.078955818;8.832083234;-2.202417202;-26.59693412;-5.302364133;1.149346314
-18.70930676;13.53709355;-10.64151559;14.4590293;1.3789731;-0.249969389;6.293750945;7.482914504;4.940672663;-22.93260602;-10.12701592;-1.130120146;6.706898814;-0.419023788;5.655349686;2.899885813;-25.43232528;-6.205041809;-1.671528419
-16.84900049;12.31037692;-7.05102391;16.57092106;4.426792559;-0.696105998;7.159842041;12.91519262;3.632134664;-21.74096943;-11.52890935;-4.813578729;11.07929011;-1.139448326;2.265964952;2.972579076;-25.34411028;-11.69907459;-4.469173795
-15.02936008;8.986702747;-4.311426336;17.57046399;6.072779494;-0.760930142;8.006856533;19.7523189;2.257502454;-22.43543969;-7.599619453;-5.315630809;14.9605354;-1.779101256;0.89144796;0.159737632;-26.99810398;-16.6407655;-5.496900348
-12.62139351;5.500743709;-3.411688692;15.40290947;6.162192331;-0.381481029;8.047003557;26.04283742;1.154907512;-23.43043697;-2.429816524;-3.112781261;16.59687485;-2.282585331;2.20746426;-2.419842792;-30.03834268;-16.56538367;-4.069342376
-10.40781196;3.470484734;-4.359319524;10.91207945;4.951939467;0.162517594;7.242117797;29.27230796;-0.051626641;-23.5955521;-0.816772521;-0.9079177;15.10934896;-2.984610633;4.348589818;-3.176838214;-33.08602746;-11.88206432;-1.124725563
-9.809411601;3.225472325;-6.309652346;7.267717989;3.072350055;0.478238663;6.330636608;27.80633937;-1.584884703;-23.12919641;-4.510984125;-1.631967644;11.22697407;-4.180078125;4.319306208;-3.04208966;-34.56;-7.704315401;1.474680786
-11.41949153;3.79969186;-8.25588585;7.046947687;1.256221319;0.378895043;6.134671453;22.05173475;-2.709724335;-23.21551545;-11.20165435;-6.182226465;6.900928758;-5.708568242;0.817515744;-4.214217925;-33.55422514;-9.168685032;2.348816845
-14.24515051;3.856590269;-9.666785096;9.784747243;-0.037059218;0.017857685;6.796079135;14.30259729;-1.960229255;-24.85225595;-16.74582471;-12.60066954;3.933454981;-6.972976823;-4.087108742;-7.865452476;-30.11955771;-16.32145009;1.565079839
-16.3747906;2.748153296;-10.60587209;12.38995438;-0.838748224;-0.269948025;7.65074403;7.266679364;1.617424379;-27.91728185;-18.49735894;-17.3568034;2.657526053;-7.402540694;-6.270019531;-12.84594297;-24.94922986;-23.33656499;0.396406887
-16.47365847;0.850210457;-11.37789399;12.07015531;-1.550073242;-0.268591926;7.853652037;2.407147952;7.248152742;-31.25983362;-16.94733697;-17.81986819;1.773125099;-6.942814933;-3.108138386;-16.48547303;-18.94215924;-23.15455002;0.133377234
-14.76864796;-0.998840539;-12.13399712;8.973145034;-2.559320836;-0.054684991;7.170398045;-0.573731345;12.38308214;-33.66694707;-14.61279728;-14.11117051;-0.464011424;-6.115995981;3.727979038;-16.74106204;-13.01233247;-13.74245299;0.996832256
-12.67404237;-2.334370418;-12.80472817;5.9946545;-3.885675658;0.101056291;6.198963624;-2.782153361;14.04075765;-34.82679654;-13.53570483;-9.015843225;-4.659173754;-5.587899295;8.960612084;-13.80857777;-8.062435432;-0.454312688;2.068219758
-11.45083334;-3.369148118;-13.33748041;5.918289501;-5.123591683;0.000789771;5.816413178;-4.705416796;10.6009885;-35.50300631;-13.74584238;-6.102880903;-9.646215826;-5.637614691;7.730342321;-9.853553015;-4.814189368;7.875748714;2.238931962
-11.13850364;-4.5208879;-13.90054761;8.650582256;-5.724229228;-0.294685541;6.364326055;-5.717763468;2.750216347;-36.88330981;-13.88363656;-7.485919343;-13.38277091;-6.01664478;-0.234593343;-7.186768244;-3.438099658;6.054930979;1.288045339
-10.69739067;-5.687109091;-14.77729374;11.27564605;-5.388079765;-0.52709581;7.328422573;-5.002504122;-7.025982676;-39.74036073;-13.09252214;-12.78128964;-14.6437434;-6.313800757;-9.972699106;-6.518353002;-3.333431255;-3.147265782;0.108799886
-9.16236056;-6.040820815;-16.02771053;10.96301029;-4.269627733;-0.483690732;7.810151401;-2.938414922;-15.8884121;-44.05752077;-12.21517802;-19.78084946;-14.06381389;-6.456364304;-15.05079918;-6.754059392;-3.448827089;-11.29100326;-0.116612472
-6.693820747;-4.628942936;-17.27593157;7.960019531;-2.859883525;-0.193414778;7.355761861;-1.42932327;-21.92438329;-49.21802368;-13.14617972;-26.06966476;-13.60141199;-6.841424974;-12.80400072;-6.370058594;-3.064549205;-11.38364133;0.955285262
-4.543950999;-1.287053298;-17.90303055;5.695574017;-1.665766643;0.102196136;6.378082771;-2.582220332;-24.51685628;-54.34871883;-17.01285702;-30.30653986;-14.84613537;-7.945402299;-6.616953572;-5.025911954;-2.418636329;-3.831808528;2.427035975
-3.981180296;2.947466279;-17.54748547;7.69570527;-0.936895872;0.170414332;5.781352306;-6.775407738;-23.92722991;-58.44662297;-22.93552969;-32.43251543;-17.61278452;-9.777788554;-3.111794457;-3.950039063;-2.54633452;3.886845848;2.874351308
-5.172366654;6.333470564;-16.49368831;14.09066549;-0.611618226;-0.006493764;6.132682855;-11.95076553;-20.78;-60.38141226;-28.5093885;-33.06021393;-20.0544163;-11.72943845;-6.429440115;-4.80595474;-4.337138303;3.650354813;1.577302171
-7.03901014;7.47135627;-15.57364137;21.04026531;-0.459343141;-0.226986963;7.139774042;-15.03519877;-15.9563172;-59.17591568;-31.51985515;-32.82788164;-20.23541812;-13.01887909;-14.43821712;-8.1195335;-7.558428685;-6.189119539;-0.802453338
-8.193107827;6.087100876;-15.59924347;23.80766702;-0.261647941;-0.26363981;7.912546009;-14.45776378;-10.77019793;-54.70093643;-31.32486442;-32.2135331;-17.83464603;-13.36746604;-20.25873694;-12.69940651;-10.72773372;-19.07128307;-2.707213035
-8.07888594;3.006378187;-16.74629603;20.82057438;0.102352547;-0.069562879;7.768263283;-11.54731023;-6.90316636;-48.30337932;-28.77920144;-31.6348796;-14.50595467;-13.27532198;-18.01931349;-16.54652035;-12.03804349;-25.45354789;-2.943722349
-7.295632522;-0.53366227;-18.3739562;15.04058378;0.674192471;0.191163037;6.845431466;-9.394320037;-5.795062278;-42.60163721;-25.0251482;-31.35667242;-12.55447207;-13.59537516;-8.025331173;-18.41413133;-10.61851077;-20.69733753;-1.661584379
-6.866645431;-3.593119858;-19.42698102;11.33486001;1.450159824;0.308165739;5.971484279;-9.995155116;-7.797117443;-40.18181799;-20.49168463;-31.08955171;-13.03121788;-14.74266466;3.17404398;-18.64390327;-7.087825957;-9.036395954;-0.224991863
-7.195147552;-5.735233132;-19.11584797;12.17841963;2.36125943;0.222388145;5.91287087;-12.19891896;-11.76381994;-41.90418714;-15.07678011;-29.75782241;-14.86090383;-16.24662336;8.104631524;-18.60563773;-2.958979178;-0.282841986;-0.083203323
-7.703913176;-6.761629408;-17.37463911;15.56397528;3.220680901;0.070401158;6.694634956;-12.48242599;-15.51820186;-46.10455554;-9.163802381;-26.01644263;-15.74793419;-17.08985399;4.708633922;-19.32887308;0.539958706;-1.941222431;-1.577490904
-7.473336118;-6.440925548;-14.80242689;17.00030189;3.720640198;0.040043182;7.602361197;-8.127589025;-16.97197624;-49.50044663;-4.201718331;-19.45893581;-14.09556275;-16.58380711;-1.711419321;-20.59168093;3.170957244;-13.16555029;-3.659590606
-6.230416456;-4.606037642;-12.20729925;13.74929665;3.527851953;0.181488885;7.849009052;-0.068579042;-15.19057382;-49.33486494;-1.9968361;-11.61727731;-10.31854402;-15.02403566;-2.806097069;-21.25284489;5.340329066;-25.42904065;-4.727943521
-4.706673225;-1.520185764;-10.14506706;7.415645022;2.439509208;0.356376214;7.285974141;7.316349333;-10.76461353;-45.23887065;-3.212963511;-5.681418578;-6.45923047;-13.52007813;5.658214143;-20.4573003;7.140250395;-29.27229616;-3.876467287
-3.986722659;1.943082212;-8.77478525;2.538461944;0.508119871;0.371893164;6.511459387;9.648420858;-5.369960527;-39.40755361;-6.500983192;-4.716295439;-4.465155477;-13.10109147;19.72985032;-18.56885819;7.810306496;-21.64331922;-1.552228143
-4.440271265;4.625379699;-8.038683164;2.518529366;-1.931073144;0.168654146;6.293648283;6.434536339;-0.896512657;-34.95321981;-9.211673623;-9.438170307;-4.60328548;-13.84490734;29.8313964;-16.96113839;6.249657474;-8.047736089;0.853719312
-5.253346089;5.741502533;-7.903907897;6.638824632;-4.330317936;-0.1191207;6.85445604;1.903981606;1.363160164;-33.71091886;-9.18587475;-17.22571969;-5.325924927;-14.78459661;28.07061732;-16.83821394;2.169175637;1.957322568;2.083424672
-5.044281897;5.343828692;-8.398309983;10.8703577;-6.060667391;-0.288506888;7.675349275;1.733184444;1.201561479;-35.15285113;-6.073775178;-23.32989931;-4.634100485;-14.68928585;14.48676391;-18.11330647;-3.225139797;2.131158404;1.870487931
-3.04935616;4.215680006;-9.407725071;11.62034373;-6.580400693;-0.256721787;7.993059118;8.218508472;-0.368926514;-37.10983058;-1.062885385;-23.65;-1.72291816;-13.0638056;-2.776782805;-19.30908377;-7.787439343;-6.005032263;0.955726905
0.181832439;3.328698031;-10.45303645;8.885760377;-5.62975289;-0.131395621;7.514141674;18.07817662;-1.342832765;-37.53219824;4.576652343;-17.20714401;2.481119548;-10.52596248;-13.5024486;-18.56187162;-9.886120226;-14.80116598;0.367503225
3.217406879;3.367859342;-10.71325112;5.923658945;-3.403655628;-0.094729844;6.683378885;25.04093609;0.606914898;-35.79599077;10.57654;-6.598938464;6.260488167;-8.265612004;-12.83013142;-14.91584669;-9.547294426;-16.49608874;0.634220262
4.922500697;4.682624398;-9.372766902;5.892969545;-0.589827157;-0.215304366;6.263519398;25.24109699;7.045009577;-32.63828655;17.24411966;3.811937227;8.608698357;-7.083065226;-4.306954093;-8.932766309;-8.280564491;-8.7931267;1.548101917
5.329917693;7.515606336;-6.107479388;8.781784515;1.838715907;-0.373954893;6.624088364;20.75904862;17.68239398;-29.09257423;24.01528058;10.59141613;9.953635921;-6.844204822;3.581687882;-2.273403602;-7.716912209;4.018384462;2.554509828
5.428173731;12.03122326;-1.392690355;11.59923342;3.057358107;-0.381617002;7.401215843;17.96652388;29.99632713;-25.60020538;28.71572805;12.90748896;11.5309411;-6.783367594;4.350975792;3.290472103;-8.245719155;14.69458844;3.313516571
6.085888033;17.9025765;3.592832824;11.60804504;2.835547959;-0.178595652;7.839753117;21.79085327;40.10154167;-22.10668499;28.7607949;12.23022304;14.06984542;-6.309849796;-1.644277905;6.680861665;-8.840784281;18.25598181;3.91193003
7.129496281;23.82275714;7.452698706;9.369778706;1.689880246;0.082363608;7.494890927;30.83522922;44.66198198;-18.83876315;23.59124046;10.6743366;17.03810221;-5.534826273;-8.041507398;7.736884193;-8.186715232;14.95250189;4.595921609
7.458956945;27.65074809;9.209200363;8.477477663;0.582710504;0.163600286;6.641912521;37.97040897;42.79078346;-16.71929173;16.09313132;9.494133433;19.12875189;-5.026924043;-7.892460344;7.011683656;-6.030248305;9.313759444;5.351587429
6.131449532;27.51389219;8.768346226;12.02702374;0.32228958;-0.026894765;6.019264216;36.46290547;36.66290464;-16.75076852;11.24850867;8.812619015;19.5047348;-5.052605012;0.857823945;5.508800671;-3.481444897;6.586886988;5.772467922
3.427439998;23.2876292;6.980980714;19.13410163;1.07585519;-0.319657676;6.14926839;26.62710989;30.28542443;-18.8290547;12.63694924;8.42340819;18.62327278;-5.067867918;14.01378593;4.48804873;-1.979500575;9.346170003;5.352439669
0.876797544;17.26038302;5.266990036;24.98539924;2.366330551;-0.407828649;6.866937766;16.88953008;27.11598483;-21.20768833;19.59264615;8.59737384;17.86607861;-4.019115121;24.53247884;5.167237197;-1.913814118;16.34517321;3.933614413
0.12171967;13.15075308;4.980275497;24.72121544;3.572538035;-0.1176152;7.486997378;17.41657874;28.08366168;-21.39857015;27.65633922;10.01388779;18.31966444;-1.258868908;27.66682986;8.190359592;-2.25653535;23.80474056;1.897213916
1.54102104;13.85595638;6.819261488;17.79979658;4.547376593;0.41354753;7.444804389;30.86597727;31.35569024;-17.9769466;32.27529456;12.94236056;19.84756258;2.730807529;23.88503712;13.11099955;-1.638807386;27.86269049;-0.079217221
3.82260688;19.4397626;10.56886492;8.840703934;5.843704419;0.821895824;6.812422744;47.98936076;34.00078158;-11.77308048;32.71828018;16.61920859;21.33399682;6.512207696;17.75962747;18.40464121;0.088735571;26.64960959;-1.493192409
4.89786244;26.91156998;15.29143416;4.011081524;8.325100279;0.807616421;6.215963526;52.67673688;34.36510242;-5.286365532;32.65985611;19.61310276;21.88807969;8.710438669;14.21341267;22.26866166;1.330149389;21.08802445;-2.326206836
3.503281489;32.12707535;19.8417151;6.050354448;12.43131802;0.386308884;6.241554675;33.65806112;33.46081167;-0.660591262;36.61622729;20.99805779;21.87546716;9.06661806;15.17730654;23.80180137;-0.08255295;14.28591754;-2.955244538
0.10193863;32.54188289;23.40095211;12.30016049;17.67048937;-0.116793351;6.889614654;-5.728349364;34.3380153;2.089962604;45.20334616;21.29085172;22.75011735;8.63642595;18.87505075;23.67335975;-4.909330747;9.902934354;-3.771221755
-3.564464924;28.84690206;25.72907123;17.39619448;22.76197481;-0.328287003;7.58374291;-47.60990097;39.79710079;4.989255446;53.62803863;22.19811655;25.72928211;8.935506883;21.69933508;23.63743355;-11.46030345;10.18579664;-4.832087888
-5.883780312;24.3139511;27.03238661;18.05735404;26.35794034;-0.121392496;7.717326361;-70.34818285;49.9555769;10.08557046;55.3109388;25.22778425;30.44447703;10.71174008;20.91621225;25.13943017;-16.5509922;14.60708836;-5.815097787
-6.568377287;22.38359137;27.60631626;15.57673848;27.8216113;0.304087824;7.219582163;-62.71114686;61.35851775;17.19309495;47.94686884;30.26099646;34.81838099;13.33750108;16.32850947;28.08062329;-17.81688864;19.98356412;-6.269744058
-6.702521101;24.30073177;27.54746397;13.87405034;27.49869459;0.613836585;6.610058594;-31.30497887;68.41721502;23.42332491;36.62418842;35.30736199;36.41531354;15.29634117;10.16050771;30.7935759;-15.51461101;22.28703529;-5.947831059
-7.705274892;28.46749959;26.73563869;15.1862958;26.31656198;0.624225946;6.49464452;4.084544622;66.53321384;25.10479753;30.54007813;37.7302698;34.23799652;15.33717835;5.633662623;31.34751125;-12.28572682;19.24339214;-4.969122374
-10.15144968;31.80493694;25.04409627;17.67448215;25.05750853;0.430325965;6.981674703;23.758791;55.1487247;20.63240875;35.18714159;36.02223896;29.50584107;13.35258869;5.197834459;29.18;-11.04472081;12.01997501;-3.742164509
-13.42360744;31.93674178;22.55037878;17.31557258;23.86899054;0.278435661;7.571861832;20.38191033;38.81026464;11.89450987;46.27165195;30.76816226;24.75212049;10.32417672;9.232905842;25.70419809;-12.7371647;4.652937412;-2.737077829
-16.38312137;28.57208808;19.54750696;12.23408399;22.34154612;0.317613555;7.630560451;1.838794367;25.29441562;3.034221728;51.05831907;24.12394614;21.95425633;7.486437738;15.7208228;23.32212376;-15.81732129;1.380592094;-2.266735709
-18.37533506;23.28895435;16.36328767;5.145741367;20.01992615;0.466100936;7.001740125;-16.43525985;21.494672;-2.48132298;37.24949804;18.34617358;21.19948803;5.47821058;21.11237081;23.57969433;-17.81357613;3.680417251;-2.374516516
-19.67690448;18.20003906;13.18536864;1.289176663;16.90135639;0.510805624;6.183967151;-23.11334163;29.24267299;-4.078623837;3.165745032;14.5955268;20.92436949;4.166538284;22.18731474;25.93836985;-17.56702699;9.201062474;-2.843865472
-21.07712311;14.65655816;10.07642234;3.582549498;13.5444169;0.335254101;5.892154929;-17.8715671;43.61391177;-3.791646015;-38.81839006;12.85305053;19.45157109;3.165977257;18.04797789;28.17293046;-16.19236735;13.45953373;-3.307534601
-23.08382301;12.79944969;7.154419051;9.606759872;10.75862181;0.05181585;6.401658818;-9.24579294;55.10064492;-3.843808097;-69.02435562;12.73551497;16.49329033;2.457539818;10.93485059;28.09463434;-15.97647489;13.07956604;-3.427935376
-25.53093443;11.90514492;4.71201751;13.52272839;9.154119688;-0.092841684;7.280729153;-6.377170163;54.77869547;-4.320841022;-73.13283864;14.23840194;13.36852021;2.4815921;4.975612009;25.2254233;-18.26052722;8.148090993;-3.092948233
-27.91518129;10.93794574;3.072187516;11.41442812;8.867103258;0.04686351;7.76581819;-11.75212509;39.55327588;-3.073901321;-51.7046657;17.62697798;11.7951417;3.628958007;3.362832427;21.09751648;-22.23107784;1.960087891;-2.523659347
-30.05970167;8.894742822;2.235174892;5.126611638;9.570859325;0.36229863;7.443737653;-20.30832101;14.18222428;1.986251392;-19.5745809;22.61276383;12.31183269;5.652257572;5.879719528;17.97229728;-25.70756034;-1.545243338;-2.190497065
-32.38732931;5.031604613;1.634534777;0.810696886;10.6639122;0.571069047;6.619818172;-24.62584439;-11.41604616;10.22057056;4.396406639;27.72060162;13.67017205;7.609850515;8.830560083;17.02831469;-27.21164562;-0.637606467;-2.537719431
-35.47723568;-0.762320708;0.313363318;3.25134677;11.48213831;0.466720002;6.03603032;-21.22015639;-28.02685038;17.70539447;9.621415194;30.65137195;13.71284607;8.462930233;7.79969493;17.44118951;-27.43932016;3.133291191;-3.674555381
-39.30356599;-7.544773719;-2.495155887;11.15583202;11.48599394;0.112972768;6.196707451;-12.79820921;-32.40227805;19.57407892;-0.690487883;29.55949075;11.03586416;7.833473585;1.336785621;17.01111222;-28.76213006;6.191797465;-5.264793728
-42.92580948;-13.39421832;-6.789923367;17.96953634;10.45007813;-0.197830182;6.916856917;-5.300407947;-28.43093215;13.5707441;-14.16782318;24.29243816;6.120783758;6.262870798;-7.39838994;13.76845069;-33.11622937;5.320584376;-6.732013792
-45.04688042;-16.37789488;-11.72562816;17.76613028;8.616314898;-0.191544726;7.501758691;-2.92419309;-23.52258098;1.979409065;-19.71408951;16.57486369;1.071916799;4.742231445;-12.64568263;7.310264805;-40.07521784;-0.570778694;-7.651911725
-45.06712367;-16.01487364;-16.18805554;10.89360377;6.652651507;0.152082038;7.387785495;-5.489310001;-22.92427626;-9.731213352;-15.44817465;8.940659937;-1.814034739;3.923889227;-10.40461991;-1.02973223;-46.78737237;-10.17602994;-8.026773418
-43.74293101;-14.07833222;-19.62706656;3.981614156;5.288850496;0.582793465;6.655213654;-9.895357193;-26.17027395;-16.6341133;-8.508772964;3.221698708;-1.569629099;3.693960708;-1.725685867;-9.094306844;-49.89195138;-20.6345599;-8.205896981
-42.79863714;-13.74362795;-22.47269656;3.96783856;4.7526725;0.795024302;5.946889438;-13.68512207;-28.22268071;-17.65019955;-7.856172647;-0.266599811;0.895340437;3.450256523;7.867728485;-15.06422579;-47.86949715;-28.59756869;-8.505096814
-43.67697906;-17.30899239;-25.7266279;11.46786819;4.416899473;0.682679132;5.874755212;-17.17399156;-24.25178015;-15.96930513;-16.50295136;-2.31312327;3.513844428;2.797067137;12.56583213;-18.07048387;-41.94371634;-31.11394607;-8.853845956
-46.35548194;-24.08237908;-29.97225218;19.75440696;3.070678988;0.410885745;6.463385551;-22.34022515;-14.19273254;-16.35698185;-29.3825721;-3.656167263;4.461947089;2.007263789;10.76328927;-18.10641417;-34.89236759;-26.56617596;-8.806249077
-49.17028124;-30.27045653;-34.56845289;20.66815273;-0.182093907;0.250736202;7.13857509;-29.85049239;-3.416478513;-21.45657344;-37.9563876;-4.126542146;3.285759325;1.828079048;6.152663822;-15.67637899;-28.84922565;-15.77021727;-7.952833025
-49.83978826;-31.35858821;-37.73385902;12.29389104;-4.965451208;0.334861878;7.262858165;-37.27968123;1.059357009;-29.8286126;-37.16218075;-2.792353672;1.102190761;2.805521298;4.453686625;-11.63813309;-23.92833773;-2.562509018;-6.401515247
-46.96454153;-25.45320195;-37.5889936;1.240887108;-9.422098813;0.555020818;6.71837217;-40.37965799;-4.143883043;-37.02098052;-28.87734273;1.086884547;-0.141798582;4.733133975;8.467827224;-7.244223584;-18.70390586;7.223174678;-4.884728919
-40.92809065;-15.03974957;-33.48149015;-2.987990618;-11.1528726;0.684819191;6.001259726;-36.40846497;-16.11392711;-38.68647508;-19.50328047;7.161481787;1.148983071;6.716434184;15.61385788;-4.008385941;-11.99010239;8.642612453;-4.323958543
-33.6020724;-5.602144654;-26.65749076;3.252461426;-8.852637094;0.602578622;5.748768115;-26.66035916;-27.64068135;-33.42664475;-14.33074976;13.91850588;5.248319495;7.801293232;20.04751555;-3.144179036;-4.350698244;0.920612272;-5.139253289
-27.16177986;-1.929607373;-19.77614711;13.92970227;-3.525578578;0.403106968;6.144144714;-16.03323871;-32.20793194;-23.50741909;-13.70785394;19.48170224;10.83657434;7.633977489;17.57888172;-4.833398098;1.888142277;-11.38588229;-6.847264179
-22.92219174;-4.827394004;-15.56514966;18.40560061;1.724437255;0.298297515;6.751826728;-9.989233849;-28.11033947;-13.27425383;-13.97784121;22.63232527;15.58;6.619869517;9.194405018;-7.944812587;4.057328474;-20.85431163;-8.308991778
-20.96290931;-10.74081417;-15.4779415;11.29384154;3.4108736;0.407226559;6.931487672;-11.33367315;-18.76417357;-6.603142337;-11.78919006;23.29889483;17.33424243;5.503338681;0.170734864;-10.61145924;0.841196889;-22.12273817;-8.490512394
-20.60121088;-14.56128256;-19.14154845;-1.770576848;-0.134807573;0.638320796;6.441976377;-19.14198926;-9.480039063;-5.050259196;-7.596774163;22.28124604;15.4;4.778078938;-4.440048828;-11.40331276;-6.952006464;-15.81699058;-7.183748001
-21.11591717;-13.3869393;-24.78912542;-8.154697341;-7.554173662;0.775862614;5.67274579;-30.19074832;-3.685349179;-7.561901315;-5.231305304;20.6026953;11.10670624;4.426612542;-4.03082158;-10.28276287;-16.88650351;-8.278760919;-5.145125584
-22.05090911;-8.312866042;-30.24493927;0.899046063;-15.12254691;0.687648537;5.288405292;-41.26934475;-1.607690448;-11.51499264;-8.132353138;19.07534314;7.226433368;4.131057714;-2.685841453;-8.621619564;-26.09157688;-6.911216086;-3.548960464
-22.94317112;-3.017343602;-33.8196227;21.96620207;-18.90167534;0.454579277;5.616185757;-50.44182929;-1.929815023;-14.26252369;-15.82031818;18.30770856;6.361467933;3.652128244;-5.223286192;-8.259098728;-32.34630178;-14.50361391;-3.170586739
-22.93156409;-0.573898728;-34.73717634;41.35;-16.996052;0.295601164;6.342448576;-56.71942538;-4.234158875;-14.41310037;-23.86037119;18.87193619;9.186645306;2.958672194;-12.48483141;-10.31542534;-34.67408417;-26.98751815;-3.900443653
-20.8517867;-1.300460073;-33.13198441;46.03212082;-10.48961396;0.35496307;6.796902417;-59.20123644;-9.573207717;-12.41522291;-27.38028509;21.18734512;13.72357591;1.996987003;-20.03577893;-14.62753747;-33.53257365;-36.54875603;-4.909350285
-15.9689573;-3.390338845;-29.85547645;34.31074828;-2.580191483;0.551835498;6.560882214;-57.02861223;-18.57435968;-10.29334068;-25.05110472;25.02406594;16.3143306;0.404344502;-21.53980165;-20.12556299;-30.71411721;-37.73;-5.280633685
-8.836308679;-5.501204904;-26.22843787;16.73031275;3.369541338;0.639126066;5.840695305;-50.34464496;-29.12582785;-10.59154195;-20.07654687;29.05174098;13.85460611;-2.422369742;-14.04564504;-25.70439418;-28.8050286;-31.62447086;-4.60489097
-1.49256092;-8.675896013;-23.68872682;6.382308798;5.546461718;0.426038028;5.268386379;-41.13172989;-36.37817784;-14.89800168;-17.38829663;31.03398321;5.889178126;-6.818928138;-0.733340452;-30.81434692;-30.04048342;-24.71871245;-3.129930996
3.387877299;-15.55882533;-23.28426576;7.277993708;4.206648708;-0.035278758;5.321251871;-32.70281714;-35.78765873;-22.70204235;-19.51702003;28.8626552;-4.870039063;-12.29090056;11.23496228;-35.34707514;-34.9051061;-23.33310911;-1.450870584
3.973949296;-27.38851111;-25.17336848;11.47681787;0.979487092;-0.471367723;5.897580075;-27.88371763;-26.97;-31.40054788;-24.66051342;21.91326663;-14.03099107;-17.44151952;16.03082585;-39.07463342;-41.43507758;-28.31462483;-0.067144787
0.399798067;-41.48327671;-28.47246002;7.825587342;-2.295957727;-0.604227772;6.432935343;-27.30791053;-14.95050894;-37.69776974;-28.47429763;11.76910835;-18.05763066;-20.6021391;13.31900709;-41.29202684;-46.09763354;-34.48198708;0.841181444
-5.300137559;-51.83888868;-31.67513656;-5.73583367;-4.371527319;-0.374982731;6.436759964;-29.34324499;-7.239285981;-39.64374759;-27.88832753;1.629029694;-16.17348192;-20.80169746;7.986513498;-41.08722817;-46.07667682;-35.33037321;1.327485672
-10.45607444;-52.94631274;-33.47201498;-18.35143003;-4.716062164;0.019055397;5.943839614;-31.780374;-8.614979178;-37.89121912;-23.61071204;-5.42131151;-10.44268868;-18.38343139;5.884977584;-38.05223943;-41.47878707;-28.98715991;1.475315431
-13.3633551;-44.07026386;-33.44694197;-15.84205083;-3.248673531;0.299341412;5.463930163;-33.78333865;-17.61436665;-35.11976249;-19.25833814;-8.224988649;-4.170187682;-14.79515913;9.226166103;-32.81714882;-35.61017387;-20.23401767;1.323130767
-14.09307022;-30.49117347;-32.15446526;3.845844118;-0.143692554;0.331368488;5.486921363;-36.28876534;-27.58545571;-33.89867953;-18.04115522;-8.197301546;0.101222474;-11.68753109;15.31455275;-26.91311033;-32.68691505;-16.67133641;0.971443308
-13.9697371;-20.3837011;-30.52877645;23.63950824;4.108586128;0.202119309;6.01494552;-40.43124871;-31.58053053;-34.56392858;-19.98917666;-8.231298788;1.627881253;-9.967105272;19.32449849;-22.01872615;-34.40299907;-22.11265903;0.703312756
-14.17577931;-19.41782846;-29.09172907;17.30691384;8.591220548;0.095119201;6.561700553;-45.4647396;-27.2867404;-34.83606036;-22.10967482;-10.49134437;1.101091827;-9.459427248;18.48589302;-19.12446501;-38.02275792;-32.80401489;0.918347295
-14.60197266;-27.04651611;-27.57962828;-29.4016114;12.11249354;0.095883502;6.615951973;-48.293861;-18.19192694;-31.62267632;-21.21272343;-14.59576236;-0.436597102;-9.34708432;14.13158861;-18.16353306;-37.84016908;-39.85660293;1.869214045
-13.86041538;-37.20953011;-25.25385542;-103.1038204;13.67878198;0.117734982;6.128393639;-45.42836973;-10.27559126;-23.6710524;-16.80943573;-17.56886991;-2.335179152;-8.963285866;10.1552916;-18.24335404;-29.33340482;-36.13105384;3.410009766
-10.45376594;-42.79817252;-21.59389503;-166.8312843;13.00428176;0.014665655;5.559471479;-35.97967342;-7.12026694;-12.93549888;-11.49089433;-15.79451985;-4.259225953;-8.302681764;9.535327768;-18.17161912;-13.04;-22.0251208;4.998337115
-4.163461216;-40.4129498;-16.77561614;-183.136387;10.67992438;-0.236853357;5.440317746;-23.16016725;-7.471204683;-3.457992787;-8.482731052;-7.747039934;-5.706742917;-7.900609198;12.00900643;-16.87785555;4.952192877;-5.409734261;5.994956203
3.481430067;-31.93729907;-11.55921296;-140.0489181;7.865219193;-0.475248375;5.860490001;-12.73872535;-7.05911184;1.448060254;-8.603213691;4.447670638;-5.897496203;-8.261707449;14.68964719;-13.5960547;16.62252791;4.28473469;6.051489955
10.08480521;-22.1536859;-6.741335259;-60.27214577;5.717158829;-0.485813771;6.37045728;-9.324709776;-2.881463527;1.498297143;-9.405272961;15.92454187;-4.311464091;-9.353928595;14.76112184;-7.971993742;17.30023536;3.061208563;5.29544004
13.96806365;-14.75084652;-2.688416453;13.85226692;4.922600204;-0.211992203;6.400789672;-13.20375767;3.828410113;-0.621111686;-7.365748546;22.06872583;-1.351717332;-10.58123041;11.75390317;-0.273011565;8.73550943;-5.159240409;4.187875996
15.2252802;-10.06983347;0.652022822;48.71689051;5.552665546;0.157042955;5.812231465;-20.1540286;8.453350976;-1.604596727;-1.258080947;21.58604272;1.671802682;-11.23051081;7.576754698;8.387858772;-2.367948635;-12.36524368;3.193789355
15.40742575;-6.132003248;3.340137141;40.23647959;7.185486371;0.322237972;5.058390892;-24.4220932;6.869857875;-0.223633032;6.313409707;17.39705301;3.456411116;-11.01166423;4.611914238;16.13423588;-9.254996271;-13.21437208;2.537125711
16.08151334;-1.56314502;5.090891093;12.36609664;9.107429424;0.128934636;4.794814625;-22.64129758;-0.944568143;1.849421492;10.77080693;14.53605846;3.814321441;-10.26091887;3.767433668;20.93369074;-9.719105665;-9.070508005;2.204906111
17.43325306;2.488565918;5.369150653;-3.98318529;10.4904406;-0.28398732;5.282524805;-15.84360575;-10.52218766;1.725685974;9.453254477;16.44941043;3.921580522;-9.661310688;4.115696672;21.53519289;-6.936690514;-6.124308773;2.127712288
18.07928873;3.230116993;3.872974415;5.591690649;10.60031715;-0.582190198;6.133415175;-8.288094058;-15.93210344;-1.981850265;4.284249484;22.4187114;5.314202954;-9.70390854;4.112704131;18.17170553;-6.062690302;-9.431912211;2.317412434
16.29270546;-0.965987436;0.943438151;30.85604074;9.101185417;-0.508653795;6.639609591;-4.263844104;-13.7;-7.738421363;0.74862905;28.13433157;8.385207429;-10.28998206;3.026597935;12.50193504;-9.451129709;-18.06252589;2.815040708
11.67436446;-8.487349874;-2.526433257;48.64250799;6.347613389;-0.101084761;6.395618749;-5.371987731;-4.649936926;-12.18696317;3.658708288;29.07478365;11.72375842;-10.75437035;1.291999184;6.745475893;-14.3912221;-25.48299488;3.514231134
5.877535761;-15.18978275;-5.658546205;43.19854523;3.394162982;0.333851246;5.651103733;-10.10585079;7.307939709;-12.85852893;12.93535196;24.07684761;13.03697943;-10.29102413;-0.252601616;2.532294564;-15.17073745;-24.83329116;4.071671019
1.697067562;-17.45890752;-8.153181376;18.35141944;1.537716975;0.469653686;5.07500054;-15.57834855;17.89842613;-10.24112231;22.88896064;16.19109302;11.03403765;-8.500740123;-1.23503467;0.19261656;-7.791072729;-14.6715638;4.052589767
1.138738882;-15.06216583;-10.34646057;-7.220078125;1.553243088;0.221579199;5.148008025;-19.68519863;24.32070578;-7.508587431;25.91630483;10.0353596;6.708313217;-5.714951526;-1.84543726;-1.105763196;6.439061474;-0.451262045;3.238768777
3.946975314;-11.31792496;-12.707727;-16.04703709;3.117153006;-0.197497652;5.738339118;-22.01411115;25.18157511;-8.155165074;18.07225467;7.819339838;2.827291377;-2.891792745;-2.290981428;-2.555057667;21.27821444;9.424916297;1.849748692
7.769101566;-10.35868759;-15.24050332;-5.235597294;4.900444772;-0.464832457;6.244766145;-23.16302775;19.58146882;-13.4547448;2.355761765;7.552116969;1.906932581;-1.129526701;-2.466797238;-4.833439354;29.60512931;9.725842301;0.462977661
9.875524403;-13.73736184;-17.35474732;13.26026419;5.379940164;-0.410032959;6.168505155;-23.50614777;7.149630925;-21.69464521;-12.88077637;5.309706666;4.280462811;-1.059559597;-2.341965578;-7.711156008;28.05277233;1.837641161;-0.350408868
9.128552721;-19.19370025;-18.35442535;24.18122473;3.858606636;-0.129359839;5.582052903;-22.69301704;-10.47941333;-29.58795071;-19.36055024;-0.092556378;7.881477718;-2.459080857;-2.543080518;-10.28833403;18.82853998;-7.949278172;-0.41942244
6.687297279;-22.58097061;-18.10785901;21.59719592;0.961064543;0.129788951;5.060592878;-20.24291963;-28.29;-34.52872473;-14.20123598;-4.221421793;9.965557252;-4.319953821;-4.138789859;-11.59746048;7.638494785;-13.58708;-0.096963173
4.931827178;-21.30914119;-17.27089163;12.2120989;-1.794237868;0.193468825;5.139812464;-16.47963471;-38.81563365;-35.87585889;-1.257890364;0.726920257;9.350721747;-5.365990525;-7.370913636;-11.15225512;-0.399592608;-13.57548167;-0.00486452
5.49525149;-16.43214819;-16.81464656;7.759916223;-3.069457025;0.09023525;5.803507902;-12.76873182;-35.95362647;-34.51421366;12.32715184;19.27520763;7.29237151;-4.745630422;-10.40597089;-9.167539511;-3.692048735;-11.19036269;-0.571311307
7.978694765;-11.7002578;-17.24086831;14.12913616;-2.65363996;-0.017726111;6.47953486;-10.74159;-19.54073178;-31.4863999;21.51931718;46.52479686;6.265422221;-2.498956967;-9.675114178;-6.425503933;-4.048232274;-10.93038812;-1.685837876
10.34310478;-10.45652317;-18.17536816;26.73373732;-1.586039942;-0.017114813;6.555247734;-11.16484335;2.840153185;-27.12855831;26.46987304;68.13968806;7.73393979;0.489693169;-2.248875405;-3.928834154;-4.16791548;-14.45813551;-2.715166843
10.60533096;-12.99995374;-18.71763298;35.35739406;-1.371328452;0.042716804;5.943118596;-13.42727952;18.95520366;-21.41007813;30.98402717;68.08175278;10.87416744;3.030897725;11.25995056;-2.5113333;-5.13571061;-19.39319382;-2.874848586
8.43028575;-16.53892353;-18.25486043;33.34565889;-2.873803686;0.011610704;5.176215809;-16.03192235;18.64075247;-14.87807303;37.89785826;39.66;13.38170945;4.319980629;25.7632582;-2.542735878;-5.934045185;-21.67994917;-1.719224159
5.33964703;-17.62186343;-17.02047065;22.87264082;-5.698132756;-0.189510989;4.94015785;-17.59753879;-0.003547382;-9.014166015;45.48534869;-7.983119093;13.64381066;4.336523104;34.09432069;-3.827975845;-5.02554236;-19.26834936;0.552394457
3.420333882;-14.90426448;-15.88815703;12.2151306;-8.478443749;-0.458428352;5.462707657;-17.51311893;-29.1348362;-5.460392328;48.24505313;-53.49327094;12.3177941;3.718811478;31.50226082;-5.745193669;-2.292930495;-13.95236184;3.15022803
3.638816737;-9.978895128;-15.57037925;8.208031577;-9.821511548;-0.576966623;6.313279531;-15.82868071;-55.57;-4.78281068;41.76948208;-75.63982791;11.84826625;3.251750803;19.07746268;-7.556559084;0.501646044;-9.940638629;5.070576164
5.147953851;-5.77;-15.9336635;10.83260578;-9.202978353;-0.400056152;6.792358578;-12.72555715;-68.29877957;-6.000030518;27.7545117;-66.39487963;14.28273199;3.369533198;3.424187616;-8.707437682;1.116631268;-10.46122913;5.583970129
6.108590495;-4.067019873;-16.05706387;14.3071569;-7.209139557;0.002072556;6.555660946;-8.248584555;-64.29831875;-7.425743379;14.59935913;-35.68814207;19.30560499;4.024808014;-7.398760596;-8.921751131;-1.204900237;-15.16445099;4.57970824
5.285444536;-4.366123379;-15.00673237;12.97374433;-5.03205058;0.381249026;5.908043265;-2.607799945;-49.13161345;-8.087933265;12.22502163;-4.359683067;24.29398065;4.95769163;-8.830161146;-8.065242068;-4.951870409;-20.26340866;2.597197675
3.070397924;-4.875755173;-12.65409857;6.31623148;-3.644388354;0.501648631;5.506932044;3.326687553;-32.41195074;-8.35199195;24.409971;9.799285318;26.45438517;6.073098874;-2.16309337;-5.972483182;-7.414833814;-21.13082765;0.536411206
1.114433416;-4.563384795;-9.807791176;-1.167141212;-3.233108422;0.321165297;5.753271434;8.015175418;-21.53764702;-9.073783308;44.43565019;3.097133104;25.23710835;7.571286424;7.142375334;-2.495636148;-6.693092609;-15.31846207;-0.798733504
0.932435954;-4.245615314;-7.523430044;-4.52955993;-3.206459036;0.011850054;6.427784514;10.00880843;-17.89050398;-10.059957;57.95666353;-13.46414018;22.90652302;9.720730214;13.59645356;2.182459754;-2.988662358;-3.928168149;-1.08300561
2.675041139;-5.683942793;-6.182546501;-2.829419841;-2.664800752;-0.189936218;6.89955727;9.025535947;-17.61526963;-9.442686599;51.88364076;-23.80794489;22.70574688;12.49751626;15.07057929;7.265014936;1.788106495;9.304825572;-0.573314783
5.06273014;-9.536999376;-5.14833509;0.498967677;-0.964282562;-0.16835337;6.708355605;6.483681632;-15.80458967;-4.89592283;23.43670871;-18.97069615;26.15816508;15.44616443;13.22628677;11.50166841;5.647890932;20.25634195;0.117948331
6.460810228;-14.12395133;-3.314641518;1.269165431;1.959370743;0.006606396;5.9841528;4.951199526;-10.73640636;4.088045383;-17.03173745;-2.779076018;31.83821956;17.9268646;11.29397263;13.90281222;7.983073971;26.41915292;0.434239231
6.128977241;-16.28089167;-0.092453535;-1.513939053;5.609863316;0.171958328;5.323101843;6.754953156;-5.115671524;14.86350134;-51.71505989;12.61929786;36.683084;19.56944621;11.39706355;14.57418007;9.722088602;27.65920056;0.208076299
4.597846481;-13.73533888;4.00113517;-5.004618406;9.184432312;0.221956689;5.240473251;12.60984739;-3.638625375;22.75255606;-65.89474413;17.09955046;38.68208933;20.5590267;13.44926623;14.94047414;12.19908426;25.71152445;-0.29536047
2.935133102;-7.024864447;7.647210781;-5.449329645;11.89060203;0.177864504;5.705801297;21.10640318;-8.866012021;24.17436296;-56.33782401;10.32095628;38.54880657;21.50651349;15.92285779;16.94924771;15.79003906;23.03915595;-0.635580613
1.634362594;0.712378824;9.664579087;-1.700893895;13.20707276;0.12961559;6.183531504;29.31437594;-18.53877888;19.49128618;-32.15273363;1.06049822;38.87991472;22.99910624;17.23968402;21.64924059;19.44843615;21.69648715;-0.552780977
0.148989472;5.985544954;9.814697363;3.950131413;13.03961131;0.126095039;6.134661452;34.1058617;-26.40055408;13.2;-8.050511795;-0.698720747;41.57456544;25.18482206;16.47968172;28.18696098;21.44225726;22.55606649;-0.153537257
-2.521080245;7.435814364;8.85782798;8.136184854;11.74778676;0.130583373;5.514035624;33.51250952;-26.10823256;11.0147543;4.936967232;7.935949656;45.90420744;27.70019105;13.26661654;34.13251595;20.61675896;25.05818855;0.20490352
-6.742035115;6.561315429;7.900597406;9.479262917;10.02362238;0.081193653;4.808565187;27.56546693;-15.62049741;15.84561726;5.003571451;20.82489663;49.08743134;29.95114196;7.671103551;37.09442507;17.17372433;27.57448183;0.223563746
-11.66511483;6.167481153;7.637293164;9.434326363;8.639641178;-0.015964994;4.588278535;18.36914065;0.967149854;25.66569107;-1.647138396;28.41507679;48.94525166;31.47442968;0.71618928;36.50686666;12.44615231;28.32466533;-0.094560746
-15.72072667;7.914366587;8.084023918;10.32228417;8.152096264;-0.068043259;4.988404069;9.396458131;15.52570837;34.91087223;-6.808662865;25.90167519;46.21335048;32.08612574;-5.057166607;34.18355268;7.958682838;26.45550585;-0.462772818
-17.81244706;11.02332526;8.892695324;12.70811866;8.688240628;0.018432241;5.597331304;4.16662519;20.68899285;38.39060869;-6.136328223;17.08013386;44.2382951;31.76464386;-6.142090691;33.08024193;4.527787091;22.62706906;-0.565024231
-18.20671667;13.14417892;9.814733947;14.79865526;9.913325576;0.227941559;5.845663803;4.702560849;14.25693861;34.80902776;-0.919870828;10.8894846;46.08138472;30.47920126;-0.134839138;35.10373549;1.986535816;18.61679202;-0.324111557
-18.34210251;12.51497447;10.83152589;14.43433016;11.17899333;0.418532465;5.530147482;10.43490874;0.350621941;27.37527746;4.516461707;13.79573619;51.51512386;28.20763251;11.9030764;39.63156394;-0.427027851;16.0940181;0.042953603
-19.6735101;9.482707364;11.88508412;11.63769544;11.77022355;0.430398074;4.988217806;18.25012919;-13.35319403;21.26371705;6.844048856;24.47173463;56.7516916;25.16076685;24.87467904;43.9315753;-3.416476241;15.39662969;0.220850799
-22.46978284;6.086087948;12.58974174;9.089540454;11.14865006;0.231093046;4.768454217;23.91490155;-20.34543224;20.01464048;5.846579334;35.09323301;57.48497912;21.96758202;31.95995834;45.20543914;-7.15672103;15.25723242;0.066185943
-25.53023965;4.147739437;12.33564662;9.884932423;9.125539841;-0.037781124;5.110279078;24.2726176;-18.77899533;23.53702496;3.533596681;37.9578402;52.80790158;19.54417129;28.65159775;42.68413337;-11.20813057;13.77518172;-0.280760629
-27.04767691;3.647014125;10.78182829;14.57501373;5.934065716;-0.166568875;5.719391733;18.96268643;-11.59973506;28.87972503;1.813518397;31.79520441;46.48673656;18.62763538;15.74608551;38.14834609;-14.75124779;9.961733295;-0.528434113
-25.93706298;2.888416606;8.296419154;20.29941822;2.17845858;-0.052388028;6.046534294;10.55095111;-3.695030279;32.73267575;1.098758478;22.59461558;44.10651624;19.2843175;-0.935359711;34.50617693;-16.96974075;4.6767526;-0.482313044
-22.60416178;0.362564202;5.883742438;22.97920107;-1.353532471;0.209217844;5.807734678;2.93981724;1.501455476;33.51309425;0.823748233;18.47047076;48.20458716;20.79509917;-13.94150628;33.61403861;-17.42183531;0.181474502;-0.191327711
-18.59904199;-3.376001317;4.583517515;20.74657544;-3.974619799;0.399999293;5.259698563;-0.897898557;3.457751875;31.63237871;0.853266112;22.99382497;55.58391364;22.06572199;-18.27487236;35.0932895;-16.26191822;-1.425606131;0.11795858
-15.47732761;-5.625641567;4.819396869;15.597583;-5.354026077;0.360279057;4.971067445;-0.350827013;3.43960017;28.2846747;2.059700974;32.50019574;59.52182715;22.3006446;-13.45036405;37.0116351;-14.18855997;0.248915089;0.234012499
-13.77022016;-3.581448923;6.234072366;11.76304801;-5.592019652;0.120510964;5.297381248;3.093049348;2.43146917;24.2528421;5.442682838;39.40745878;55.51026774;21.45628135;-2.645127877;37.72064536;-12.08804329;3.527634445;0.095279983
-12.81542694;3.044972126;8.103760086;12.15583885;-5.057640581;-0.128517117;6.042805903;7.377682575;0.274519038;19.86563512;10.80237224;38.58230502;45.82136101;20.14843863;9.696548777;37.20846203;-10.54176307;5.776358736;-0.233810449
-11.49258935;11.06616812;9.894452978;15.92787845;-4.118338992;-0.196912492;6.621724156;11.35966892;-3.223843105;15.85731154;16.47971546;31.43238894;38.60718394;19.1060427;19.7224263;36.82104087;-9.531138007;5.232783456;-0.674206575
-9.223463291;15.58956564;11.42274965;19.2066356;-3.002495374;-0.04611973;6.575648123;15.12675323;-6.595074652;13.86377848;20.57027936;24.48479613;41.4603136;18.60074333;24.63277913;37.67904915;-8.598707229;2.285655917;-1.176571284
-6.453915664;13.43374559;12.52481578;18.36348429;-1.936363597;0.197559382;5.97662875;19.14025853;-6.625718549;15.6199024;22.45249966;23.83448645;54.15809068;18.27361163;22.58975808;39.28203428;-7.377648449;-0.665637715;-1.638899086
-4.290068359;5.675160286;12.6908404;13.06652564;-1.422522492;0.366424888;5.353631633;23.20686627;-0.670975785;21.29131333;23.05976727;30.12689928;66.67147914;17.45096383;13.30698705;39.63157407;-6.042387264;-0.682694613;-1.812769314
-3.619095182;-2.710415481;11.21855703;6.635754695;-2.308919978;0.392661478;5.213908033;26.34307132;10.31801293;28.47489626;23.5441663;38.08770188;64.95580885;15.67247912;-0.754186036;36.85985554;-5.221265588;3.844755704;-1.376400392
-4.402077795;-6.057106298;7.925991044;3.510654067;-5.381495059;0.342595061;5.596774405;27.67249976;20.96800679;33.12680763;23.66373334;40.77110883;41.03292371;13.03527485;-14.15581668;30.99237395;-5.353492113;12.08693145;-0.208185851
-5.654107694;-1.880989199;3.798624979;5.948788977;-10.61343978;0.326264253;6.060350655;27.45464611;24.37337814;32.13773644;21.66987166;34.94327047;0.087355831;10.14719613;-20.63082761;24.29098754;-6.035567162;21.08629582;1.342483419
-6.102172168;7.326560495;0.803301025;12.52175948;-16.62551379;0.38062754;6.10193728;27.1547041;17.09641865;25.75058777;16.10464733;23.34938953;-41.08358485;7.787860859;-16.93147006;19.78727816;-6.051373083;27.3243141;2.482968213
-5.03849913;15.67154451;0.724984224;19.36719374;-20.95520973;0.441329856;5.619803505;28.32456953;2.461584408;17.86083741;7.943604044;12.34928948;-63.84363826;6.542726547;-5.548553005;19.13287124;-4.269426201;28.65489958;2.411954422
-2.781939002;17.70116063;3.795244365;22.97896163;-21.2459689;0.423940349;4.996058845;31.20226204;-10.84674066;13.70619196;0.862989045;7.114200727;-59.23267496;6.609479069;6.428290702;21.46866632;-0.773174673;25.48515021;0.918717797
-0.453716298;11.86303218;8.25411161;22.34290045;-16.7423255;0.324919045;4.735654204;34.2961289;-14.35984727;16.43440996;-1.113052748;8.243579734;-33.31240603;7.795341152;12.21051454;24.17064176;2.804925883;20.46528354;-1.309902881
0.764674713;1.284386092;11.38361501;19.03851214;-9.077806811;0.23342998;5.003229679;35.42651234;-5.610328871;24.96422173;3.099142868;12.1581189;-2.777188719;9.613823581;10.48655342;24.80357069;4.274200194;16.7914556;-2.986883015
0.400623783;-8.479139128;11.37984998;15.62636244;-1.665011092;0.236166574;5.484498065;33.42254773;10.25985569;34.66897244;10.26507244;14.45336746;15.85723248;11.41758471;6.5518875;22.7025038;2.61915323;16.11154841;-3.001653981
-1.002797004;-13.00672515;8.658821197;13.7881881;2.097249191;0.309685226;5.690899354;29.05309797;24.30633926;40.38523929;14.86610816;13.23495246;15.87812884;12.57620046;7.976442197;19.03572561;-0.913614232;17.40874638;-1.156302116
-2.229367524;-11.44122424;5.529397746;13.53678259;0.726362067;0.316696401;5.416053942;24.39054859;29.98926979;39.62240264;13.17982392;9.890831886;2.547454187;12.69612036;17.94065036;15.53855256;-3.466041841;17.74800321;1.67574214
-2.159868108;-6.357222522;4.416583726;13.75889625;-4.556775617;0.127705124;4.919302632;21.14655956;26.93813387;33.81288822;6.126296115;7.127743066;-12.73090016;11.78088418;31.70649852;13.15512116;-2.714164907;14.55288608;4.101102494
-0.48022516;-1.540048828;5.98587827;13.37311657;-10.66255495;-0.235924572;4.67271126;19.40292434;19.60595575;26.9356018;-1.565266179;6.27853081;-21.17532851;10.17722331;39.51888437;11.71268203;1.088409037;7.879819906;5.077613514
2.125570672;0.500063477;8.630101139;12.14702688;-14.50714611;-0.576317803;4.915097288;17.79977756;12.49736379;22.68170205;-5.288292176;6.164749389;-21.82642105;8.269201612;34.03909487;10.67309189;4.948869406;0.908408915;4.486561013
4.424872623;-0.447504571;9.712977475;10.67486824;-14.67640745;-0.653798437;5.430978137;14.95371314;6.44557658;22.17984874;-4.337494768;4.217158162;-20.12978506;6.116160454;16.454619;9.999923813;5.308579229;-2.028914453;3.034702676
5.436387097;-3.135907569;7.578413998;9.668951653;-11.86036724;-0.379886626;5.756282591;10.80980672;-0.795581885;23.67714201;-2.329329365;-1.34748292;-22.10836284;3.362933652;-3.831421065;10.16873315;1.0943487;1.287204439;1.633503042
5.050601034;-6.5286008;2.760194609;9.131388444;-7.963105044;0.095645205;5.612513835;6.73761692;-10.52477613;24.10486415;-3.882099657;-10.14162647;-29.26358112;-0.402443868;-15.94424299;11.30179421;-4.759498959;8.790166615;0.772873203
4.055803298;-10.77029838;-2.484451396;8.019522507;-4.69149726;0.485737894;5.160971503;4.354100851;-19.8679338;21.26836202;-10.39081981;-19.93046213;-37.99467346;-5.048318077;-15.4461327;12.39070788;-6.80246139;14.93506091;0.34280914
3.562262558;-16.69582936;-5.840704771;4.757068978;-2.646955241;0.578611295;4.84164306;4.217322628;-23.01978968;15.2288164;-18.54747945;-28.09173661;-43.24382029;-9.560405704;-7.112696564;11.61318903;-0.815423201;14.27831084;-0.05775255
4.23739366;-24.42154765;-6.434203985;-1.544481659;-1.400923633;0.389295651;4.952230241;5.613678758;-16.44151831;8.196275603;-22.9174672;-32.91035717;-42.77759116;-12.37796694;-0.45639269;7.758551408;12.80862057;5.403807769;-0.681303935
5.890199644;-32.36;-5.062482732;-9.850573825;-0.234173381;0.128842801;5.365112171;7.583293501;-3.401976455;3.241600351;-20.38581134;-33.89064414;-38.5182134;-12.32686137;-1.809110463;1.635870271;28.63681833;-7.778283827;-1.465746559
7.673574277;-37.66620125;-3.18577764;-16.94356914;1.189879445;0.023945577;5.648730511;10.10101628;6.894259805;2.700645304;-12.67184136;-31.30637187;-34.24711633;-9.533226385;-9.492106474;-3.872931213;39.26559645;-18.56599508;-2.236349023
8.709622636;-37.94955917;-1.685706833;-18.75619048;2.709253075;0.141630427;5.479419767;14.12984477;5.978732704;7.095130411;-4.795989865;-25.77059874;-32.11356032;-5.582190876;-15.85154569;-5.450462591;39.8690474;-22.13953816;-3.005648185
8.645096129;-33.01117379;-0.432674972;-12.85746224;4.012221498;0.359581606;4.956293406;20.33429684;-6.373401085;14.97557194;-0.897685017;-18.27108817;-31.10107153;-2.660729872;-14.11966926;-1.590447276;31.08267959;-18.89012109;-4.019379646
7.742589983;-25.24172629;1.1498184;-0.540910954;4.977808127;0.490671276;4.52074455;27.62552471;-20.33198173;23.64181411;-1.064518137;-10.37155542;-28.57657212;-2.183908611;-4.147371739;6.245513068;18.27339194;-13.78012175;-5.464701632
6.516704768;-18.26030828;3.245165627;13.21033395;5.65915023;0.440918564;4.55065477;33.08706328;-22.38338386;30.37989352;-1.858803827;-3.958583307;-23.24769571;-3.861454689;7.702084928;14.50565112;7.861700016;-12.12602429;-7.117372892
5.28874459;-14.67691355;5.399104376;22.36735704;6.003779294;0.265443169;5.004476348;33.73623866;-5.679660544;33.67122772;0.099536312;-0.363011915;-16.74081058;-5.915717062;14.04166342;19.85715743;3.408184499;-15.06669065;-8.31157061
4.052373591;-14.53595433;7.057344963;23.61830065;5.703525389;0.09116829;5.447819995;28.89521247;23.64772625;33.79633324;4.842371439;0.555142014;-12.41250193;-6.348167624;12.35407097;21.23470713;4.136990106;-18.37362005;-8.352879977
2.714071098;-15.52738459;8.251114846;18.58876386;4.428482083;-0.004085865;5.44343194;21.18255237;49.65914465;32.46795471;9.070714141;0.489315945;-12.53427656;-4.370137687;6.300894283;20.17852774;6.575694939;-15.72577518;-7.084938926
1.403637222;-14.7809261;9.637267525;12.67253511;2.26994181;-0.039369511;4.949463162;15.07862523;57.46065237;31.62205001;9.424042485;1.62077558;-16.3809594;-0.970831265;1.761740899;19.3582037;7.667611627;-4.019203304;-5.13228835
0.485703352;-10.93213365;11.75359799;11.08313085;-0.068219508;-0.072460262;4.361199502;13.97286972;43.71920535;32.05808247;5.910797164;5.041481305;-20.8649237;1.780560081;1.566404765;20.52061331;6.847452901;13.46419933;-3.562632406
0.209501913;-4.997385858;14.18515965;14.99601288;-1.625567004;-0.110823672;4.157126864;17.92587296;18.77828569;32.84137042;2.186681216;9.820418317;-23.08411213;2.176580969;3.73981673;23.39408434;5.704882624;28.6722373;-3.173586751
0.327918052;0.48840898;15.53351802;20.78083086;-1.890721173;-0.0929144;4.471589056;23.89088911;-1.292402147;31.97175497;2.223161559;13.46719522;-22.53522511;0.008078349;4.532228751;26.18972239;5.930748153;34.14390808;-3.928745584
0.114940432;3.338127329;14.40373872;23.00142413;-1.284130231;0.03693128;4.981793851;28.17789319;-6.552713116;27.95056528;6.308760931;13.52121344;-21.1512366;-3.393433648;2.941300993;27.08024853;7.52684972;28.13394489;-4.97347506
-1.113882765;3.167224724;10.66273799;18.84422645;-0.956756199;0.23907489;5.208125569;29.13364874;0.203768713;21.14933686;10.16378436;9.163437328;-21.2975187;-6.169073108;2.095438031;25.42876059;8.803695632;15.65728998;-5.223565272
-3.352873142;1.420217026;5.865945464;10.41688592;-1.981569799;0.376674533;4.95022214;27.89039102;7.007000152;13.9124029;8.34;1.757294207;-23.60980173;-7.209473889;5.977437708;21.96218087;8.018043796;4.740799224;-4.092492035
-5.698092586;0.083867288;2.370910878;3.053292769;-4.531362637;0.320892903;4.461634651;26.71780779;3.273764976;9.195459898;-0.775782486;-5.970123798;-26.57133511;-6.778564019;14.60122627;18.03631246;5.093570878;0.816216575;-1.841819904
-6.840553124;0.175618569;1.753844434;1.044366365;-7.682463085;0.073076253;4.209288793;26.56517775;-11.18951746;8.651067405;-12.71770672;-11.45300099;-28.08096922;-6.119769165;22.52790358;14.76858865;1.878643242;3.48495593;0.650874057
-5.941020631;1.177021439;3.766547556;4.344858612;-10.00628581;-0.21481049;4.443662514;26.04129189;-25.81979828;11.55191453;-19.71553152;-13.48530527;-27.48063863;-6.444971637;22.72428481;12.67750098;0.721201976;7.87207557;2.478860992
-3.210682248;1.756220467;6.658010619;8.952237913;-10.50224184;-0.353889071;4.973491504;22.77946791;-27.61909692;15.36172452;-16.53412472;-12.44259266;-26.16697111;-8.098615254;12.74665818;11.84730162;2.586503576;9.148680698;3.205708004
0.275107563;1.082584767;8.574364345;10.51636149;-9.185942197;-0.273916145;5.345434865;15.99798499;-11.41406667;17.52560565;-4.688111996;-9.628784581;-26.25497428;-10.45803899;-2.303805064;12.1846026;6.286502075;6.459680023;2.974334292
3.382425145;-0.38907216;8.888007679;8.006774215;-6.954445794;-0.082673069;5.25717103;7.947893989;15.91744038;17.12035759;8.500617905;-6.37456796;-28.54155195;-12.52022929;-13.13947559;13.42915729;9.404937445;3.231443357;2.256114606
5.677865786;-1.289145686;8.419255115;4.298806491;-4.923055272;0.028013785;4.824171145;2.823929019;40.17736764;15.13775006;15.36815711;-3.493410226;-31.63625827;-13.63651687;-13.55135419;15.01698586;10.08968924;3.909727738;1.508886608
7.514769507;-0.502848195;8.481396698;3.296735291;-3.783712068;-0.050368199;4.462148603;3.857828336;49.47989128;13.28292862;13.55598541;-1.278438235;-33.06197031;-13.83851352;-5.49854586;16.14825803;8.244830623;10.02054509;0.991326478
9.402815362;1.866961613;9.653170537;6.259739737;-3.612084004;-0.250359141;4.501919908;10.88556965;41.41263827;12.3645045;7.365842768;0.200671205;-31.36051693;-13.59743414;2.504311159;16.20092742;5.264830854;18.80126911;0.777503275
11.25088996;4.551130068;11.33603949;10.64695696;-4.113815069;-0.392796362;4.892886423;20.33766352;22.9892611;11.65260468;3.88796562;0.865674198;-27.3505191;-13.31183247;2.589078911;15.18851819;2.711300666;25.3790007;0.844369527
12.20364775;6.128634213;12.4;12.49155837;-4.962004448;-0.348491408;5.260412494;27.64035112;4.607499094;9.732027915;7.203409118;0.646762553;-23.44908912;-12.97352947;-5.676601837;13.78605677;1.14;26.55921598;1.107736999
11.28767882;6.155309955;12.26003906;10.12190988;-5.913183792;-0.149702587;5.253082503;30.10256565;-6.55203844;6.08090941;15.37611494;-0.336568867;-21.68212867;-12.24677843;-14.73270837;12.78315439;0.008518009;23.11313311;1.410250032
8.363118153;5.474002931;11.39942241;5.829934052;-6.703670504;0.048779237;4.855449447;28.09474347;-8.905984335;1.950570174;22.46358512;-1.65470394;-22.14;-10.83496631;-15.2963577;12.38239729;-1.433784382;18.85089495;1.554178023
4.561368201;5.456899275;10.91271778;3.932852045;-6.978522739;0.119020398;4.385775641;23.86463485;-4.203159623;-0.320593256;23.58503367;-2.670576164;-23.1961637;-8.802863602;-4.223863153;11.99106171;-3.207549115;17.44266412;1.420987058
1.766891141;6.809016103;11.53868032;6.92620221;-6.442625923;0.076834256;4.195977922;19.30753385;5.876207511;0.900387704;18.72643158;-2.848945753;-23.21019203;-6.603340864;12.66337826;10.77570709;-4.491266817;19.66044114;1.09066578
1.469863342;8.916642068;13.07739659;13.16283539;-5.130658895;0.054115665;4.360938185;14.72092747;20.55979171;5.092013215;12.29012761;-2.087508771;-22.11986405;-4.815835806;25.15049262;8.559000648;-4.381919005;23.15634291;0.821612052
3.836938899;10.27903807;14.68731878;18.15393834;-3.492305397;0.152450047;4.63985914;9.482273816;37.85432804;9.723273479;9.105748972;-0.832463853;-21.45669805;-3.814295471;26.69704104;6.26356949;-2.767128518;24.69424166;0.857376105
7.683830225;9.690078125;15.73333278;18.37344733;-2.115838341;0.320449618;4.728159643;3.736142556;52.45576835;11.97955235;10.48282041;0.155727786;-22.77524139;-3.597901666;19.22765214;5.428958962;-0.475754695;22.81574013;1.202591912
11.32451658;7.241649072;16.37025971;14.23289462;-1.269869933;0.381053575;4.548905644;-0.758531946;56.96948957;10.7528693;13.57003906;0.297978078;-25.95919835;-3.866389203;10.81255878;7.104607842;1.438678486;18.78397543;1.578614228
13.60900715;4.361391665;17.3205042;9.646684131;-0.679691134;0.196192525;4.308544583;-1.661944515;46.57221897;7.323499192;14.26854236;-0.355196303;-29.0336897;-4.247240961;8.536711641;10.98432491;2.630442562;15.2554672;1.637061142
14.38327717;2.840438178;19.06173815;8.629696726;0.195549987;-0.179033656;4.276271627;1.803321375;23.61639713;4.192690445;10.94713505;-1.079693666;-29.79765805;-4.51;12.83713335;15.49129476;3.766484188;14.01502368;1.275034267
14.14492337;3.559640913;21.17992206;11.94752495;1.563340906;-0.50406328;4.5104008;7.546239106;-2.038494011;3.022589687;5.755022666;-0.968605567;-27.93286631;-4.652719292;18.03517076;18.76613617;5.921168086;14.71471943;0.772883304
13.34225769;5.826529009;22.48934452;16.700397;2.898344505;-0.53496737;4.798349589;11.53793332;-18.13728606;3.370810343;2.610425256;0.31678695;-25.70889339;-4.847195126;18.19506497;19.79787021;9.574776484;15.52063428;0.597243238
11.99947035;7.777440584;21.84029473;19.05572628;3.16362881;-0.233047659;4.864342801;10.52936789;-17.41058593;3.254451024;3.824527963;2.099565819;-26.49880167;-5.304530287;12.79144851;18.86767515;14.06400282;14.9069212;0.996033084
9.974510275;7.559629935;18.95243516;17.58725709;1.565762698;0.183707698;4.639314314;4.525580642;-2.04957745;1.05903379;8.3;2.987955765;-32.15359651;-6.14093768;7.029648688;17.07736292;17.94046934;12.97594338;1.716734741
7.531172687;4.519531227;14.62914447;14.27882352;-1.734578057;0.402518264;4.330078125;-2.963544732;17.87937142;-2.831619919;12.64861861;1.831828855;-41.31022574;-7.30451589;6.618727494;15.46125978;19.94302612;11.25003906;2.112900481
5.596622506;-0.326361242;10.26172046;12.4717321;-5.56491635;0.263927318;4.221626707;-7.201371653;30.82501534;-6.111486277;13.98842646;-1.340009766;-50.04401154;-8.591302753;11.87833138;14.41320479;19.82426159;11.25776708;1.601052288
5.351562197;-4.784645703;7.091487907;13.78332629;-8.447610897;-0.109743409;4.404828397;-5.399103867;30.41017324;-6.359763058;11.91616974;-5.192103701;-54.44694308;-9.742016482;16.72949662;13.7582752;18.44366043;13.20289386;0.134605189
7.413020839;-6.637623598;5.779288822;16.81208329;-9.55583969;-0.414214826;4.69246482;1.49068254;18.10111517;-3.133892541;8.169546022;-7.996623953;-53.20733628;-10.57198314;13.77892273;13.19027217;17.14338921;15.80676964;-1.676971556
11.27656981;-4.833786538;6.43544823;18.65443086;-9.180996248;-0.408826737;4.801896921;9.528789852;0.920667159;1.415386797;4.681808805;-8.956617789;-48.29352112;-11.06273791;1.201302068;12.5511465;16.92710815;17.34465857;-2.915323866
15.52412115;-0.112140999;8.828551933;17.64124799;-8.359398283;-0.104719237;4.623479423;14.35374726;-13.29750342;4.030719992;2.036209278;-8.851923566;-43.34703771;-11.3597221;-14.66630485;11.72477167;17.99430177;16.9332623;-2.925152118
18.702723;5.265865284;12.44219114;14.69333031;-7.988132069;0.255161951;4.311889572;13.63884338;-19.60516403;2.849975227;-0.336313559;-9.362031641;-41.12809897;-11.67896238;-23.5622755;10.4004635;19.81291197;15.04324949;-1.704918142
20.23894414;8.596050247;16.38142455;12.15085714;-8.165294276;0.397822702;4.113807017;7.892779467;-16.83543495;-1.061460773;-2.720316675;-11.50654438;-41.95281419;-12.18874762;-19.08898301;8.11829089;21.52071781;12.96021631;0.141552015
20.71742727;8.138915524;19.44126527;11.38593262;-8.276536055;0.229623853;4.108519701;-0.513075482;-6.515311151;-4.454377596;-4.154277145;-14.50127923;-44.12382996;-12.94640475;-3.694182377;4.679949454;22.33750723;11.77402914;1.8198099
21.34304444;4.130532038;20.5627855;11.60624613;-7.702801493;-0.115106509;4.128884321;-8.970340288;8.295353941;-4.456110254;-3.109233945;-16.14824641;-45.73264416;-13.91708815;13.20550773;0.545956547;21.82882272;11.73020212;2.806071744
23.01980214;-1.230112909;19.47029198;10.99439858;-6.498866956;-0.408576467;3.953572602;-15.67089251;23.31924721;-1.012274913;0.751170315;-14.66482254;-46.23442804;-15.02494628;22.33063431;-3.252760734;20.03879258;12.32452866;3.050448907
25.73234358;-4.944193272;16.95154787;8.967767947;-5.436330839;-0.516001903;3.58439464;-19.68058309;33.29839302;2.729143576;5.498245992;-10.54429437;-46.57640608;-16.16040914;21.0494167;-5.739597649;17.51990074;12.86310844;2.850289816
28.63555057;-4.947751243;14.40983861;7.194009858;-5.372997497;-0.473914975;3.317976087;-20.59690204;33.41423717;2.516395175;7.833049295;-6.780649437;-47.96724539;-17.12400876;14.23357468;-6.655902693;15.19430378;12.92862152;2.563282325
30.69958195;-1.371617305;12.90837767;8.190418311;-6.50695828;-0.411140038;3.50457631;-18.49479764;21.90290815;-3.888624858;5.456751773;-6.959616246;-50.47465461;-17.57985026;9.299417318;-6.549156483;13.98596727;12.44393966;2.395348895
31.37047301;3.538147347;12.42341451;12.73983339;-8.181248189;-0.406049198;4.195295852;-14.2534375;2.144241038;-14.85445214;-1.005503088;-12.48111889;-52.67074118;-17.12675142;10.01284903;-6.159878384;14.34279961;11.46698523;2.373593534
30.7659194;6.865488797;11.92892945;18.64343215;-9.431412451;-0.419391778;5.016042735;-9.70226525;-17.87799003;-25.67929736;-8.209776136;-21.08475742;-52.58939166;-15.51787721;14.24542758;-5.655343477;15.95586983;10.04098665;2.441518336
29.3389004;6.890172281;10.27331342;22.20034692;-9.822050427;-0.357164431;5.424111808;-7.033359597;-29.22994806;-31.51736876;-12.37533157;-28.03141816;-49.18159669;-12.9168534;17.07582334;-4.467076824;17.93252718;8.23835871;2.5452103
27.35750181;4.063174755;7.135925818;21.25440264;-9.854499711;-0.189524464;5.152765997;-7.612710528;-26.86703912;-30.38794809;-11.87136951;-29.27270834;-43.12525504;-9.990676924;15.93385611;-1.972954516;19.3531804;6.242519966;2.645543945
24.65541389;0.388443274;3.276789141;17.07640508;-10.57307877;-0.001494573;4.453856233;-11.01829372;-12.54321104;-24.21815218;-8.113568764;-24.30109268;-36.44157619;-7.70234999;12.97258056;1.554832153;19.80273821;4.255506365;2.69552156
20.85953613;-2.290645588;-0.093320082;13.29790341;-12.66174086;0.07749505;3.904082912;-15.13819584;6.20460807;-17.32583836;-4.2004083;-16.49691253;-31.30960947;-6.858571991;12.65733012;4.677884569;19.45797328;2.260626552;2.651073802
15.9187382;-3.725492414;-2.228606475;12.77491487;-15.75200069;-0.002612279;3.923310586;-17.40721482;20.36395896;-13.54056888;-2.52566838;-10.66684429;-28.97726037;-7.656508891;17.0051676;5.641538291;18.69678074;-0.069540649;2.521235603
10.52818783;-5.239388593;-3.228677748;15.18738878;-18.50586305;-0.157061775;4.420650266;-16.37115303;24.27496744;-13.98113256;-3.26973666;-9.639980678;-29.42140244;-9.51221173;23.00513192;3.803277431;17.64798655;-3.071064645;2.393492319
6.10906071;-8.258192217;-3.586589548;17.54745542;-19.43184451;-0.237005332;4.88427458;-12.49877556;18.09584087;-16.84929374;-4.746305346;-12.49962907;-31.73993505;-11.2998628;24.72531011;0.473726915;16.17641958;-6.511332878;2.379709593
4.290197438;-12.65471558;-3.404763461;17.12960562;-17.83365103;-0.163985756;4.841221042;-7.728836349;6.829717185;-19.07080055;-4.992702042;-15.692932;-34.77289954;-11.8852558;18.37172418;-1.650656056;14.37042621;-9.221689753;2.51328174
6.14535415;-16.41364837;-2.105914975;14.09079693;-14.21486218;-0.003430436;4.280087891;-4.157264147;-2.945599944;-18.40107347;-3.138421353;-15.96850563;-37.48783192;-10.6647469;5.895360916;-0.191765737;13.03363105;-9.408615654;2.69686519
11.58747693;-17.07585379;1.000217983;11.31977528;-9.898084134;0.09282493;3.657650803;-2.802327458;-6.44926052;-14.54228284;0.420673895;-12.72340972;-39.05957989;-7.830411907;-6.0448772;5.287236937;13.54099483;-5.644580612;2.769525477
19.24746692;-13.88082682;5.77876479;11.63057047;-6.192277659;0.023890006;3.481938956;-3.182804755;-2.511479127;-8.781079765;4.802514867;-7.989448729;-38.88685781;-4.25058784;-10.99187805;12.95016208;16.92450609;2.036325299;2.649811573
26.92711335;-8.791120666;10.87837885;14.9251054;-3.713009498;-0.16844049;3.848360965;-3.783417151;6.517040979;-2.791078019;9.37863609;-4.347777792;-36.74192685;-1.060317572;-7.454212905;19.87561909;22.8193065;11.71882838;2.425147128
32.43804995;-5.3611298;14.38651966;18.04256851;-2.264708945;-0.33734426;4.351197985;-2.94615731;16.15033505;2.319902445;13.78976645;-2.751067128;-32.96369941;0.823289825;0.286409212;23.84110407;29.21896841;20.27035564;2.291521886
34.44949577;-6.16139213;15.09832098;17.5529217;-1.243377864;-0.362644482;4.455438765;0.336492443;21.68062063;6.112418942;17.47173304;-2.135442297;-28.42518983;1.05097377;5.776887543;24.39780156;33.4696685;24.78849987;2.381948873
32.95503586;-10.7630803;13.3560781;12.98573401;-0.182618577;-0.254996638;3.994366793;5.97443725;20.09225451;8.317474031;19.46561929;-0.976650495;-24.1469687;-0.06483015;5.296333222;22.59391431;33.92247457;24.001353;2.634946367
29.1461465;-15.98116975;10.71456027;7.490843839;0.937469379;-0.137600623;3.338839146;12.69217186;11.49734578;8.464146259;18.92626619;0.839524188;-20.7630153;-1.72781433;0.148334614;19.80881433;31.0126011;18.8115962;2.832278014
24.77018279;-18.31189806;8.675541257;5.216924229;1.745589382;-0.124620699;3.077051651;18.31266891;-0.564540348;6.108809757;15.90945629;1.707620964;-18.24116663;-3.03434899;-5.150516514;16.76895811;26.87415374;11.71540404;2.786872958
21.30773229;-16.67752593;7.555742768;7.702403244;1.764489282;-0.211279279;3.486951454;20.48864298;-10.50330606;1.469243085;11.61139437;-0.071395324;-16.10426768;-3.406000827;-6.873567418;13.47529528;23.73596696;5.496665182;2.51855767
19.38651588;-13.24530882;6.462069368;12.53035371;0.707980623;-0.279265021;4.275634929;17.80048972;-13.46604249;-4.191088766;7.705926704;-4.230448528;-14.00268459;-2.891654161;-4.852949573;9.869854058;22.35723047;1.960791865;2.25338857
18.70505349;-11.5901816;4.392352687;15.48601451;-1.345501551;-0.213247869;4.824150942;10.75623174;-8.144163702;-8.922160873;5.317472449;-8.074392597;-12.19055882;-2.171505702;-2.013466369;6.443862023;21.76325214;1.350323701;2.233759157
18.45;-13.64845995;1.479098964;14.28175688;-3.927827151;-0.019799248;4.722756393;1.981910906;2.252858278;-11.05839213;4.567881899;-8.295295105;-11.51419116;-2.210783646;-1.537857141;4.160058594;20.47069207;2.625170848;2.499656938
17.92523446;-17.96270091;-0.767118668;10.48155294;-6.293116456;0.164285404;4.120009766;-4.821088008;11.8075853;-10.12998266;5.094556639;-3.675356292;-12.88644895;-3.699550201;-4.304995462;3.790216814;18.12180921;4.3110624;2.837480467
17.01891511;-20.71784714;-0.513361657;7.895955125;-7.664279906;0.186777472;3.576288555;-6.781246077;15.56670965;-7.046607455;6.948126739;3.645625878;-16.600385;-6.574005142;-8.597880939;5.330978514;16.07121189;5.379193266;2.951875323
16.25748332;-18.78396825;2.877661593;8.946831883;-7.574700473;0.016919428;3.55729748;-3.511783632;12.67996444;-3.422256225;10.82685848;9.563679201;-21.94256745;-9.920700333;-11.885462;8.044472134;16.34773162;5.692523312;2.719149674
16.445827;-12.28983686;8.148785357;12.36410256;-6.162480553;-0.219244866;4.024739325;2.624685877;6.805555957;-0.535182834;17.20876285;11.05234426;-27.35355221;-12.37369333;-12.81414631;11.03712144;19.82862807;5.848142475;2.304115444
18.12482889;-4.59117021;12.90815731;14.35610938;-4.206520708;-0.339585398;4.488466635;7.930145161;3.474284775;1.359226655;25.09873705;8.393649403;-31.04250531;-12.8199998;-11.74424053;13.78806311;25.2;6.591740981;2.037341304
21.17065877;0.367724485;15.29276975;12.19758114;-2.784456938;-0.256462893;4.465111418;9.588645813;6.317761844;2.959868127;31.71297418;4.770972782;-31.73729642;-11.01821882;-9.765432071;16.15381032;29.67312343;8.210575261;2.156624251
24.77772235;1.126549493;15.23860471;6.933790575;-2.678823235;-0.047202195;3.922066411;7.226047393;14.86672868;5.254080393;33.79936212;3.597176648;-29.23843035;-7.761253844;-7.482945086;17.9656271;30.96136388;10.30798315;2.631524807
27.85548501;-0.338631959;14.38264117;2.67463293;-3.887116124;0.114270201;3.304186412;2.825161716;25.3548865;8.775136236;29.87603543;5.835259219;-24.57137723;-4.47686191;-4.786070027;18.78147939;28.93989815;12.11084867;3.2118365
29.63096774;-0.573465514;14.72104549;3.051660934;-5.591653911;0.102275842;3.123284318;-0.805052376;33.62955419;13.23921308;21.68522206;9.511094549;-19.67813934;-2.496103647;-1.583695813;18.18330675;25.63623926;13.08983861;3.642459403
30.10543675;2.152944697;17.10390454;8.005308561;-6.661819925;-0.064626934;3.487686367;-1.825713651;37.75117009;17.666061;13.54497324;11.68265029;-16.71479569;-2.41224179;1.539453453;16.37965167;23.56613521;13.41962248;3.84802808
30.06099341;6.151160152;20.70026195;13.78782787;-6.37864496;-0.253601483;4.000787572;-0.204557314;38.35900422;20.78078184;9.824818073;11.02057666;-17.15917131;-3.880434069;3.611735819;14.43214114;23.77714426;13.8807903;3.933363644
30.56036802;7.633943913;23.7370415;16.16957516;-4.885693374;-0.338189881;4.120019531;2.77742289;36.91064074;21.44793058;12.24448359;8.716695395;-21.07745447;-5.928332071;4.255363868;13.67382986;25.16342824;15.20662205;4.024741434
32.21425578;4.026257717;24.83038883;13.96929579;-3.047279399;-0.299705932;3.650295246;5.707746639;33.7143933;19.03802607;18.8880828;7.027049146;-26.94504248;-7.547754089;4.261961695;14.65769151;25.52170164;17.33990936;4.122591193
34.69355336;-3.498356051;23.87265699;9.795636828;-1.820666144;-0.225507595;2.926794048;7.901096653;27.72460379;13.73681346;25.57559365;6.927034814;-32.23685555;-8.204478049;5.001421995;16.53807012;23.38326624;19.21687251;4.113676219
36.8612677;-10.45533064;21.91030302;7.464845011;-1.603885551;-0.217385235;2.525718129;9.393525567;18.34021519;6.737789184;28.54412831;7.144575175;-34.60528262;-8.000142269;7.103039579;17.54429189;19.09433957;19.35800837;3.925236019
37.50183113;-12.24502018;20.26601144;8.558854303;-2.031143129;-0.300204098;2.765446635;10.33636211;7.462160507;0.110301382;26.57262124;5.525174423;-33.06774778;-7.459896671;9.693613021;16.28651426;14.35421781;16.92434653;3.655945962
36.18132532;-7.614223866;19.64247485;11.26767253;-2.34452979;-0.410686062;3.442050141;10.48474838;-0.401974563;-3.850029297;21.27252394;1.457169661;-28.52971967;-7.138136782;11.05868483;12.84545674;10.76044198;12.47;3.533420881
33.61971956;0.359446592;19.79712053;12.44790566;-2.03855897;-0.465272751;4.022988842;9.240487623;-0.650808135;-3.685420914;15.66596153;-3.009413459;-23.30772341;-7.305183184;10.23833864;8.69896246;8.676478732;7.76909405;3.715583681
31.26256318;6.521540292;19.85342027;10.82214441;-1.281449594;-0.434197477;4.109585977;6.128642818;7.934365899;0.257656439;12.24859836;-4.622678397;-19.9110413;-7.881780436;8.071470889;5.511011369;7.317529834;4.760632021;4.115546739
30.32365406;7.324304618;18.90341001;8.239870149;-0.800948713;-0.352017067;3.749363807;1.229552363;21.52232173;5.63557991;11.78512856;-1.874922287;-19.79536764;-8.609474908;6.589381717;3.815954389;5.79944121;4.34228959;4.427487318
30.99490387;3.076734993;16.51789489;7.820039063;-1.330376439;-0.264170265;3.334464868;-4.775320065;33.01440517;9.040656773;13.31519225;3.169455956;-22.79700842;-9.302220693;7.168157204;2.748284097;4.080383575;5.892202967;4.3559895
32.42328372;-2.830643545;12.98675593;10.78362444;-3.030518519;-0.173376826;3.208311377;-10.88182419;36.32195218;7.724152666;15.01759727;5.987728955;-27.49718603;-9.996996139;9.105197853;1.043970731;2.94220859;7.854844487;3.859952679
33.46962643;-6.847187573;9.277287127;15.04278019;-5.306783494;-0.045802898;3.359992491;-16.07153132;30.16379824;1.173906524;15.26645336;2.979869039;-32.1810722;-10.90918216;10.05613154;-1.621767527;3.131932982;8.904289872;3.194491165
33.63604087;-7.847996703;6.715480926;16.96079593;-7.146512096;0.129291475;3.483618887;-19.48236521;18.6190437;-8.435421248;13.39220867;-5.618046382;-35.74468466;-12.23520045;8.145780689;-4.230184023;4.566482745;8.760198129;2.705363681
33.39869126;-7.421444809;6.405698596;14.68850382;-7.738136788;0.293459497;3.324501955;-20.53581333;8.026870751;-17.28623744;9.941746211;-15.78310132;-38.03926928;-13.94283548;3.960853387;-5.380493172;6.379485752;8.044769203;2.551509007
33.66548649;-7.962095598;8.563617898;9.954829741;-6.958393648;0.346004767;2.96354701;-19.15948835;2.537957343;-21.91103578;6.369912622;-22.77726142;-39.57418752;-15.6923186;0.536684769;-4.76624891;7.726207152;7.380663038;2.600495945
34.81811889;-10.4541644;12.15865152;6.593673031;-5.426427929;0.231739513;2.757425137;-16.00056194;1.594097644;-20.98399273;4.208598035;-24.72305957;-40.89832744;-16.9437482;1.073456111;-3.762524364;8.522390888;6.56497138;2.589420444
36.17457317;-13.85263121;15.25513687;7.128909868;-4.119890056;0.010276038;2.987476873;-12.3053728;1.094283041;-15.87684906;4.045571528;-23.69368125;-42.10413765;-17.18912179;6.122835162;-4.45122129;9.38885909;4.578596606;2.40164998
36.37969718;-16.35763836;16.03977076;10.56843419;-3.817125918;-0.166957168;3.555248849;-9.296142256;-2.81722142;-9.712281158;4.97711597;-23.43349378;-42.73757678;-16.17619939;12.61929192;-7.819599079;10.89155976;0.467771051;2.197121917
34.4493288;-17.16664546;13.95208139;13.44764602;-4.707176809;-0.166855567;4.026522154;-7.371457829;-10.34858084;-5.558001701;5.139193819;-25.73256398;-42.11838355;-14.00849656;15.75673754;-12.68943344;12.8843012;-5.621975539;2.259743126
30.615886;-17.00574113;10.0971271;13.13204347;-6.37315406;0.015538353;4.000627968;-5.817972409;-17.6466169;-4.867532291;3.221984896;-28.66874536;-39.85544424;-11.09124099;12.41121588;-16.38902013;14.65508008;-12.12984682;2.685116993
26.25853832;-17.05236927;6.536402886;10.26991131;-8.112761882;0.243437822;3.472006827;-3.473307444;-19.59749342;-7.021051891;-0.07032947;-28.32976895;-36.25797236;-7.981855506;3.491863651;-16.70124944;15.73770825;-16.77952543;3.194349441
22.95520888;-17.47171535;4.891568843;8.079359187;-9.365459394;0.33912034;2.848274027;0.016297755;-13.60991377;-10.0690495;-1.965983285;-22.57866566;-32.38626672;-5.234637617;-6.615453057;-13.50454035;16.51361433;-17.79488424;3.272008039
21.43;-17.16272894;5.283283718;9.138937837;-9.975254544;0.219831474;2.599949458;3.38583621;-1.50536197;-12.05635963;0.53983051;-13.56364084;-29.63554377;-3.292875193;-13.08598466;-8.77394291;17.86647439;-14.78179648;2.553165888
21.25122144;-15.09163085;6.417233377;12.73632134;-10.14178953;-0.041632273;2.855218772;4.292258607;11.76901658;-12.06053087;8.06627379;-6.648561865;-28.98535488;-2.423177709;-13.84783561;-5.019249928;20.09542731;-8.779406819;1.157498934
21.48272348;-11.93533484;6.727288284;15.35435521;-10.11981953;-0.278742489;3.305051116;1.082957192;21.40424006;-10.40770339;17.54151346;-6.46294452;-30.30048348;-2.664454407;-10.57519222;-3.550949866;22.14526177;-1.671269678;-0.313188251
21.67335802;-10.26687193;5.624746972;13.94192725;-9.89327368;-0.360306466;3.500254055;-5.471017092;25.38007813;-8.136161009;23.63940551;-13.26151121;-32.1710647;-3.794494887;-6.938253614;-4.010048828;22.08602905;4.468900536;-1.140728928
22.29237459;-12.74522478;3.830818251;8.953715462;-9.071276901;-0.279555891;3.263868098;-11.97410464;24.65708571;-6.224247765;22.31182784;-22.59155103;-32.5674627;-5.359716552;-5.686820947;-5.357113623;18.67388815;7.745639975;-0.95986242
24.23126337;-19.67037731;2.573191749;4.265072033;-7.108683086;-0.136987357;2.840048828;-14.20815261;21.22588683;-5.118653368;13.89030937;-28.53660232;-30.08106602;-6.809198133;-6.885220237;-7.155781551;12.720394;6.695790514;0.011358856
27.82991326;-28.08036668;2.417070365;3.915694299;-3.726780938;-0.044554399;2.647904919;-9.839711382;16.06275643;-4.756369145;3.237876527;-27.86680918;-25.0197104;-7.706083121;-8.486082981;-9.786247448;6.965452511;0.807662027;1.138449693
32.3092944;-33.44293048;2.801242169;8.587063337;0.750572668;-0.041002795;2.875620467;-0.098393389;8.911280946;-4.876038071;-3.426503143;-21.78204274;-19.53802814;-7.908858073;-8.469915578;-13.37644437;4.341715356;-8.716476899;1.797355694
36.13427992;-32.80383158;2.687506393;15.01342327;5.404281797;-0.08677975;3.29718238;10.85621791;-0.018866911;-5.260058594;-2.745446578;-14.09174209;-16.5051129;-7.600773918;-6.617336668;-16.63924642;5.939370157;-18.61506074;1.75150446
38.02142129;-26.89765135;1.701163889;18.85306231;9.116673154;-0.127708102;3.484415348;18.47012289;-8.255783093;-5.710735277;3.749811969;-7.718391121;-17.68274998;-7.130971227;-4.48507406;-17.06407162;10.33767547;-24.43795436;1.239615316
37.7703313;-19.46430137;0.679278726;18.37092575;11.13757456;-0.155576843;3.217000982;20.42679927;-11.27560983;-5.86263001;11.3374292;-2.685093282;-22.39335991;-6.762858575;-3.780711575;-12.68425807;14.86399143;-22.68784418;0.766117613
36.28847545;-14.30303649;1.078998418;15.56986077;11.4669583;-0.205561144;2.705679242;17.58264809;-5.146363256;-5.103148502;16.03429966;2.808546976;-27.67462946;-6.500501061;-4.667104045;-4.018053383;17.69505833;-13.11467641;0.782278235
34.88318927;-12.49769576;3.743974498;13.83846178;10.80460144;-0.298908013;2.414440731;12.79164308;10.2294161;-2.777773277;17.45622516;9.545806108;-29.96762384;-6.114361286;-5.505003481;5.66866729;18.99406981;0.529081321;1.469470531
34.45270949;-12.09574324;8.120433249;14.48214004;10.09491478;-0.395995384;2.639041269;8.785782058;29.98449112;1.409230463;18.31983247;15.63992934;-27.29804685;-5.344049647;-4.265079812;12.3346259;20.16265876;12.21998062;2.708820667
35.14703631;-10.40538915;12.60701461;15.54208359;9.957753686;-0.414906218;3.227925228;6.784417792;46.57947956;7.089061442;21.29257828;17.86194818;-20.49587545;-4.126764363;-0.416952543;13.94245698;22.01283222;17.09528877;4.179624581
36.53503104;-6.80267062;15.69669615;14.06050522;10.36280457;-0.304578933;3.704964336;6.629586621;54.16642195;13.26884005;26.24147273;14.8428684;-12.61650134;-2.68482871;4.306583781;11.75141793;23.66268583;14.35772037;5.485517226
37.89059539;-3.501394602;16.88693776;9.528016719;10.73547219;-0.104007383;3.686646904;7.860832052;51.91408815;18.71931825;30.48822166;9.079725233;-6.966805839;-1.411677371;6.97451384;8.990844359;23.2832309;7.538372652;6.259593283
38.31107553;-3.548798909;16.62901765;4.95882853;10.4009306;0.073574221;3.216678753;10.48338399;43.86236942;22.45646249;31.78526742;5.54304097;-5.100611886;-0.635990407;5.598109815;8.051401525;20.05071811;1.800004883;6.257693774
36.81915089;-7.810215891;15.5538694;4.246192085;9.072287917;0.125380515;2.716376897;14.73346986;35.54080379;24.01384349;31.01166155;7.733034926;-6.120603523;-0.414137748;0.721509412;8.686367468;15.42126609;0.183686019;5.443395778
32.79206374;-13.69424456;13.88947714;8.168567181;7.088108517;0.041761617;2.600029297;20.2622515;30.1051051;23.39199504;31.65923137;14.55095465;-7.643901173;-0.465558863;-4.791569416;8.839212922;12.34839151;1.595865903;4.02109796
26.6787188;-16.92734784;11.69268899;13.05832421;5.27807532;-0.085577148;2.908041115;25.73833228;27.01795119;20.83048668;36.18173476;20.94949554;-7.608105804;-0.273946342;-7.705025369;7.281763737;12.93668986;2.077694882;2.36454751
20.3608338;-15.01938173;9.546804508;13.90039913;4.553293215;-0.138264852;3.289078797;29.39570975;24.05983548;16.65382123;42.56318595;22.1418575;-5.590078125;0.695334221;-6.724523476;5.445299977;16.58023647;-1.635027654;0.855846202
16.4415109;-9.488476704;8.741537773;9.345972602;5.450713393;-0.065504858;3.339001027;30.06677031;20.57089093;11.31003906;44.84230546;17.88259859;-2.803668873;2.73591998;-3.483055705;6.42038005;20.37903706;-9.089450664;-0.262173419
16.55216761;-4.854021285;10.39542941;3.81061179;7.860132708;0.080704691;2.977686211;27.75755786;18.77697918;5.484651919;38.04781771;12.96094236;-0.983304272;5.680585131;-1.392784736;11.74003906;21.66888438;-16.08354087;-0.908949589
