Channel 1 - P4;Channel 2 - O2;Channel 3 - P8;Channel 4 - T8;Channel 5 - C4;Channel 6 - Cz;Channel 7 - Fz;Channel 8 - F4;Channel 9 - Fp2;Channel 10 - F8;Channel 11 - Fp1;Channel 12 - F7;Channel 13 - F3;Channel 14 - C3;Channel 15 - T7;Channel 16 - P7;Channel 17 - P3;Channel 18 - O1;Channel 19 - Pz
-47.85378867;-57.62972792;-44.07658876;17.8983497;-5.287915691;-14.61064314;4.77522241;-48.9481885;-61.37781862;-46.425417;-51.48591679;-57.96471755;-58.68042301;-47.70241775;-12.99443905;-72.48322123;-27.59177652;-68.60486775;-25.54772492
-64.1627466;-55.45282968;-42.81202687;37.55843122;-1.44548999;-14.73867246;27.03270255;-51.30057927;-64.56155191;-35.85270182;-47.74700973;-65.74064294;-58.26257292;-45.3104085;10.10471261;-50.6724192;-44.3073736;-80.59400638;-27.39977832
-56.16495857;-34.77632552;-26.90417323;45.00826202;7.178456679;-8.484493191;38.46530026;-38.96188812;-49.97487122;-9.69481353;-21.93855994;-52.32486431;-36.41704449;-26.58346823;24.93225892;-13.34884712;-44.3933264;-68.13720224;-18.59974843
-32.74273614;-9.842167059;-6.082466629;39.84423924;15.41759373;-0.045316084;36.24056962;-25.52324307;-26.82321004;17.32093621;13.19021539;-29.57965842;-8.191946039;-2.98670695;20.00648555;20.71395456;-33.97129021;-41.3996211;-5.60802938
-10.46437003;3.758531187;7.216442974;30.58960244;18.80464951;5.374661793;26.23278826;-24.62762853;-9.010489616;31.07633303;38.79126578;-12.94890265;9.811148914;12.35460247;-2.772089843;35.88156579;-24.74821598;-19.3502875;3.062565898
-1.467920365;-0.139495482;6.713233331;27.23744001;16.86710524;5.246463363;17.91728817;-39.31444844;-5.520902863;27.02079681;42.35565516;-11.50067604;10.73591206;13.46662465;-29.39944359;29.75709558;-25.58738636;-16.696017;2.895586086
-5.80278262;-15.00513789;-3.751656394;33.04321559;13.07099532;1.159235157;17.28362708;-59.79968326;-14.69037098;12.08546734;25.8827158;-23.29558497;0.520759921;4.421445432;-43.62961907;13.1883953;-37.10316407;-33.93396411;-3.875795346
-13.5625713;-27.81100699;-13.9560089;42.26316167;11.69892087;-2.887324221;23.22368855;-71.24929556;-26.5592531;-1.290578565;3.772658516;-38.50038508;-8.72733425;-5.238118808;-38.029552;1.060019531;-52.63431239;-57.55;-10.61316823
-14.21650985;-29.35135236;-15.50817547;45.44066749;14.36292972;-3.762738631;29.70214496;-65.20021522;-31.11904547;-4.199849305;-7.895100214;-47.02250858;-8.885093737;-8.318601898;-18.21839364;1.517861827;-64.02277556;-69.8922221;-11.5537828
-5.183581218;-20.54190128;-8.014249779;37.5875079;18.93485022;-1.397214239;31.32645989;-45.64911228;-25.72841154;3.251596876;-2.587163479;-44.81216042;-1.228250262;-4.774858986;2.299132745;11.63754091;-67.43280172;-61.3490934;-5.836849055
6.990637796;-10.27963406;1.390004883;22.42133312;21.52480705;1.676575119;27.54934821;-25.40617193;-16.00006104;13.48768939;13.21361254;-34.90928315;6.497241044;-0.242428135;12.21769764;21.79517772;-65.10426175;-36.23592379;2.562121393
13.00551419;-7.35369542;4.324391677;9.368479111;19.66034626;2.750285056;22.37062109;-16.15162485;-10.0799946;18.07653364;26.33286625;-23.72509581;7.836011473;-0.324907969;9.68719484;24.18311535;-62.46142323;-8.816017798;8.419144402
8.810474618;-13.34413549;-2.016890634;6.132030787;14.04147161;1.164386266;20.37957187;-20.31228148;-11.62463877;13.98272332;27.50284517;-16.270291;3.150193975;-5.772738442;1.802799223;18.42363914;-63.43683313;6.9011772;9.196779911
-1.438484372;-22.06128104;-12.8644289;13.0806511;7.649464444;-1.435024328;22.84654665;-30.82188231;-17.42003906;4.927133115;17.81379263;-13.86826015;-1.508369966;-12.35666547;-2.304002263;10.49240136;-67.73549614;5.951317326;6.3145103
-9.417033236;-25.38254565;-19.92587451;23.80910744;3.230583739;-2.771916398;27.09311531;-38.1055192;-21.16323965;-2.475506128;6.461717525;-15.10970164;-0.496091922;-14.972933;1.267626211;6.904672506;-71.79885006;-6.017069529;3.237826126
-9.694526124;-20.21220444;-17.92748958;30.86413999;1.355335546;-1.92712115;29.27054798;-37.96526034;-19.49639617;-4.141294165;2.440784742;-18.12588303;6.161828829;-12.08884336;9.164771007;9.504333939;-72.25497133;-18.4653255;2.429886497
-3.718100673;-10.80482498;-8.411415231;31.5084656;0.516841179;0.06236442;27.79854315;-33.95;-14.72147281;-1.111712096;7.40357556;-21.82334045;12.94404685;-6.777300016;14.8463526;14.87022743;-68.93679382;-23.93744896;3.767290844
2.276975704;-4.892603879;1.910391434;28.86136494;-1.11622463;1.336815257;24.45710995;-32.92475877;-12.00210052;2.30081882;15.32171559;-25.42055499;13.93904281;-3.820310345;14.65434945;18.03633545;-65.15848362;-22.37104482;5.388252067
3.099657723;-7.189320538;6.522159381;28.06012326;-3.993112047;0.91707952;22.44978626;-38.29592195;-14.03484976;2.682463039;18.52652505;-27.52973417;8.091839788;-5.685588248;10.65604151;16.8097151;-65.14431867;-19.29554019;5.765680488
-1.069978052;-15.69021029;3.771296071;31.2892061;-6.970838827;-0.552222091;23.43541807;-46.90628886;-18.39089023;0.229596802;14.47751115;-26.32990172;-0.021495263;-10.81443736;8.237321377;13.09152578;-70.59415991;-20.20099292;4.980811259
-5.370287813;-23.52360948;-2.604379182;36.06668144;-8.606280447;-1.565583592;26.22285404;-51.99758965;-20.05214798;-2.147075724;7.480454427;-20.99390781;-4.309646083;-15.35212172;11.00830764;10.63639592;-78.93010331;-25.78925215;4.226634373
-4.930117971;-24.46332809;-6.994888049;37.91400856;-8.654398792;-1.205466405;28.11405355;-49.2687845;-16.66555477;-2.178416184;4.310941577;-12.98267022;-2.302999972;-16.45656974;17.64173152;11.69560303;-84.54887088;-31.52037349;4.326465859
0.797285631;-17.49193846;-6.312833151;34.61041532;-8.402156959;0.071813316;27.46430922;-40.58525284;-11.39007813;-0.800105279;7.973306074;-5.683410547;3.185732904;-14.24322519;23.27514355;15.49189565;-82.32062611;-31.30477926;4.859034481
7.711219477;-7.011018665;-1.828180411;28.11288921;-9.572389255;0.960411787;25.07830457;-32.22928102;-10.390293;-1.482316605;15.12877848;-2.301239383;7.033318838;-10.96688088;24.00932756;19.4391258;-71.02792218;-22.23151825;4.710565608
10.7144556;0.939931234;2.567184104;22.64645385;-12.78321377;0.56821725;23.29266762;-29.44097933;-17.04767965;-6.825377619;19.20762709;-3.568399929;6.444796182;-8.589979403;20.41131979;21.56060626;-54.43414086;-6.862052902;3.393532684
7.932118349;3.057813521;3.779292845;21.00048969;-16.88672971;-0.772681953;23.74885149;-32.09589825;-28.18420024;-15.4320858;16.20271944;-7.161147644;3.064473504;-7.126616197;16.93266674;21.83539512;-39.22169297;8.289670381;1.732106932
1.898999181;0.376442792;1.699404842;22.47814266;-19.73041433;-1.854708706;25.95487704;-35.16471103;-35.99022971;-21.99390777;8.031775283;-9.38;0.91680588;-5.145523119;17.78115917;21.55804715;-31.14209912;16.74426947;1.177580716
-3.004771955;-3.592537278;-1.350189679;24.14691753;-19.71633193;-1.724069145;27.87417122;-33.35971618;-34.28316481;-20.90284282;0.777074708;-7.812006611;2.359944969;-1.690734742;22.87055965;21.71946515;-31.94575285;15.73194948;2.390226544
-4.352119638;-6.049842325;-3.012934254;23.90329463;-16.946699;-0.532559152;27.87088653;-25.85362862;-23.74633072;-10.69341622;-0.333217844;-2.928764223;5.853841744;2.358826288;27.4218954;22.11;-39.09714368;7.347269717;4.470493275
-3.378021217;-6.652134045;-2.888572483;22.34187868;-13.13988599;0.639002194;26.16425952;-17.0888246;-11.53686042;4.265330375;5.260181254;2.511578718;7.459202007;4.79125041;25.71289419;21.86829938;-48.24942027;-3.175157291;5.634502057
-3.371600867;-6.752258992;-2.523724591;21.7886682;-10.46438583;0.77621757;24.50769644;-13.15627424;-5.512359987;16.38739157;13.83474345;5.630798639;4.501975104;3.909685604;15.99007813;20.68341461;-56.40904968;-10.67030642;4.770367692
-6.466671918;-7.376979809;-3.676615399;23.65952242;-10.17938941;-0.182443869;24.49391663;-16.91547825;-8.008214023;20.00796762;21.05160212;5.40983416;-2.019277876;-0.005448767;2.547484924;19.30236647;-63.26742672;-12.70619073;2.463617291
-11.7406015;-8.030513101;-6.536267115;26.83912983;-11.98831833;-1.346240343;26.10719907;-25.8665428;-14.44855998;15.23770899;25.25822072;3.068082191;-8.370430907;-4.912528851;-6.793327434;18.82149897;-69.77410527;-10.29200759;0.536328003
-16.12227302;-7.301614051;-9.430982312;28.6657195;-14.41803026;-1.704961061;27.82429725;-34.28493042;-17.80801656;7.652914135;27.59468765;0.809735633;-11.32094134;-8.620847191;-5.966575429;19.53563181;-75.47124188;-6.524271342;0.485953322
-17.06036829;-4.436987906;-10.17065433;27.51929815;-15.84876269;-1.00653387;28.0852847;-37.60556966;-14.86911852;4.086638976;29.37869073;0.109440286;-10.65394128;-10.31370478;5.206968313;20.57344906;-77.34911056;-4.236261689;2.205402563
-14.51555885;-0.23256949;-7.811619;24.4620218;-15.49747631;0.093876414;26.72055253;-35.45998877;-8.813506645;7.698316726;29.80800502;0.836231195;-8.797605898;-10.72071522;20.97034888;20.75489929;-71.79861911;-4.164747829;4.112075479
-10.68421717;3.603589439;-3.402633645;22.32101583;-13.80283689;0.686158872;25.03666261;-31.22100137;-6.088868793;15.94664515;26.4714285;1.654764203;-8.2;-11.00651693;33.46666135;19.87640029;-58.42249732;-4.713973353;4.551699366
-7.967745506;5.951529255;0.78816371;23.08605158;-12.06786537;0.415642643;24.55328995;-28.8903075;-10.57242417;22.79822396;18.17258013;1.147067912;-9.081618341;-11.57698581;37.52341477;19.16780857;-42.3772378;-3.364657708;3.22053098
-7.111908981;7.206072603;2.849145804;26.11830858;-11.61454169;-0.281232958;25.61243127;-30.08981207;-20.27286073;23.31479621;7.119305218;-1.252691089;-9.643607608;-11.92332412;33.10526646;20.41;-32.55809314;1.26515247;1.365966522
-7.019847962;8.80250264;2.384577473;28.88446016;-12.93003906;-0.673543122;27.13449624;-33.38328599;-29.31887555;17.13016196;-1.984773154;-5.0327201;-8.343559558;-11.5070503;24.21485385;24.43915128;-36.12456407;8.128141969;0.636463985
-6.087659891;11.83539669;0.52650634;29.50255292;-15.28557064;-0.446740451;27.68460203;-35.95865906;-33.17377023;8.397085729;-5.441539199;-9.001080913;-5.871564697;-10.66323088;15.66120877;30.33317879;-53.11949781;14.1573204;1.637249641
-3.635039163;16.04449768;-0.992482189;28.63704273;-17.08400046;0.045989881;26.80738897;-35.88853118;-32.27350767;2.56828721;-3.550409791;-11.91718264;-4.815261887;-10.53326594;10.29511489;35.96666875;-75.43308673;16.16866254;3.456411404
-0.185318118;20.02117147;-0.900650448;28.88372259;-16.79963241;0.19192014;25.39449821;-33.16146799;-30.97781786;2.642930603;-0.296230765;-13.05487322;-7.281081381;-12.04397139;8.378968527;39.42053903;-91.37582835;12.99319943;4.513742088
3.375927041;22.34742093;1.103160676;32.17858135;-13.98191099;-0.243562076;24.79480801;-29.10905823;-33.1344248;7.594560608;0.068712936;-12.57344573;-12.73641891;-14.92050903;8.787278014;40.04837876;-92.85319437;6.358176387;3.911594697
6.688109685;22.60095673;4.503598832;37.68227468;-9.670679955;-0.874801028;25.54485493;-25.23321183;-38.56830353;13.75082512;-3.531078785;-11.59378059;-18.16618106;-17.72277395;10.44734419;38.41926749;-80.03225918;-0.133470582;2.085379411
9.914052313;21.40393829;8.425737903;42.20559723;-5.878804327;-1.073270901;26.90597814;-22.58344288;-43.7208041;17.6272731;-8.627132614;-11.82267047;-20.48566841;-18.94313705;12.73527236;35.42969513;-60.27031193;-3.251171336;0.255769917
12.97665093;19.6385455;11.99611931;42.88846718;-4.412133422;-0.590708703;27.60012305;-21.89510583;-45.62195996;17.91152085;-12.11455329;-14.7028826;-19.05989846;-18.21310351;14.89486069;31.57891141;-42.48136734;-2.070837876;-0.717252602
15.00843382;17.67776596;14.49519261;39.71977077;-5.797624799;0.174247116;27.01527002;-23.81112008;-45.22361915;15.38602528;-13.52412017;-20.44586041;-16.09400353;-16.56379495;15.58094913;27.10086076;-31.46011349;1.708808058;-0.995649591
14.77302788;15.35193712;15.44100494;35.58425411;-9.063005817;0.523911871;25.74828114;-28.57161313;-46.78540444;11.43403796;-15.4194906;-27.61195315;-14.62298695;-15.54325974;13.41622605;22.6774936;-26.26895308;5.198860148;-1.387693826
11.78479664;12.5936522;14.73259521;33.77058701;-12.51251073;0.100759325;25.00920029;-35.38091131;-53.81583661;6.771731518;-20.51118658;-33.73149497;-15.98508248;-15.99678901;8.275204724;19.78487481;-23.13070966;6.400474923;-2.382808163
7.058982071;10.05104103;12.7882929;35.19035429;-14.90327796;-0.776495376;25.48024956;-42.26758772;-65.41756042;1.475013133;-28.40228596;-36.77055536;-19.02631052;-17.55135528;2.042313384;20.01835367;-19.6045674;5.448638059;-3.567313087
2.678640856;9.019336094;10.49621797;37.79557592;-16.13671342;-1.390156408;26.70370948;-46.92697482;-76.60790932;-4.066589252;-35.43913342;-36.52269041;-21.58678573;-19.14673752;-2.191163527;23.75706425;-16.26872204;4.245218899;-3.978361135
0.441779248;10.69468956;8.900667785;38.63471758;-16.99226169;-1.258245063;27.54452609;-48.06905504;-82.51490022;-8.538702706;-38.21786373;-34.89282698;-22.70908027;-20.01837166;-2.224292962;29.3157477;-14.92963059;4.918524335;-3.03336065
0.721956411;15.35673158;8.776569814;36.57213227;-18.21818343;-0.549304055;27.260938;-46.18033097;-82.68910724;-10.27739492;-37.55112568;-34.74129057;-23.45499373;-20.22425421;1.407605789;33.51868291;-15.75721161;8.326821979;-1.130322324
2.501595852;22.10813329;10.36018554;33.1574847;-19.7971675;0.088409689;26.17206705;-43.02178402;-81.54333118;-8.604739843;-38.78689385;-38.00052416;-25.66261574;-20.34493311;5.466595496;33.52723301;-16.53759836;13.6357286;0.650982101
4.477044507;29.29651109;13.38367442;30.9404676;-20.99984353;0.111835938;25.32111526;-40.28480128;-84.39758679;-4.640557636;-47.47219555;-44.35448228;-29.97220515;-20.7929404;6.224263265;28.67625409;-14.82234607;19.08625132;1.45020896
6.183659641;35.23293268;17.31407433;30.94929451;-21.115349;-0.454019525;25.48381743;-38.5689033;-92.61694424;-0.699200797;-63.84209412;-51.40550013;-35.08282589;-21.46356702;2.388855739;20.95386447;-10.62145159;23.19721364;1.272845522
8.131967455;38.73935323;21.55845461;31.79529689;-20.1498711;-1.079036789;26.4651439;-37.50425008;-102.2106085;1.332646932;-81.27611477;-56.20862963;-38.92091574;-22.01260692;-3.488048178;13.73069374;-6.620172967;25.45914262;0.799442284
10.92262775;39.36481983;25.49570514;31.2437423;-18.84137213;-1.230504672;27.3255208;-36.73547278;-107.1853615;1.271910738;-90.79749356;-57.11554167;-40.50869575;-22.3644943;-6.419401553;9.638560848;-5.450650676;26.11999295;0.604385376
14.2833357;37.40531633;28.42763785;28.67107395;-17.98857768;-0.840202129;27.29088251;-36.67837087;-104.6925198;0.482039474;-88.30310054;-54.71123105;-40.67518896;-22.84;-2.447752821;9.090361396;-6.804670435;25.42070778;0.601611308
17.02471529;33.84468004;29.66696552;25.94363915;-17.73338323;-0.321073345;26.47176019;-38.23971556;-97.41826349;0.488835736;-78.31855847;-51.29795746;-40.96279124;-23.7417436;8.230275017;10.3883261;-7.720589037;23.00981681;0.286742624
18.00436503;30.11777653;28.8514279;25.77181964;-17.47631742;-0.150869283;25.72304987;-41.77824752;-91.1555232;1.683238681;-70.59596509;-49.34082241;-41.92145774;-24.85596225;20.81615128;11.16523532;-6.325647251;18.03618682;-0.484375086
17.18678131;27.54952565;26.29263446;29.07256479;-16.5082223;-0.432021473;25.80149667;-46.40319047;-89.7854162;3.29635136;-71.97818429;-49.88156901;-42.60109996;-25.46099391;28.65980265;9.999181835;-5.448203621;9.854090373;-1.034942446
15.74629662;26.61737475;23.00791141;33.91288246;-14.76496743;-0.832156666;26.63480212;-50.42246454;-92.12448139;4.565113006;-80.37820765;-51.85533873;-41.8064686;-24.91729055;27.4407175;7.083442885;-11.83489555;-1.168646518;-0.323030242
15.02621832;26.55229615;20.24342269;37.15144909;-12.99187549;-0.933100181;27.39425114;-52.6138032;-93.32031487;5.798816016;-86.33137707;-52.6763359;-39.79323005;-23.27911137;17.93035596;3.678276367;-30.48579335;-13.29714302;1.994411372
15.24385674;25.76868558;18.70150577;37.2897507;-12.15893457;-0.634820743;27.29297692;-53.11662613;-89.39245209;8.10151045;-81.20979978;-49.77442915;-38.48141149;-21.28075319;5.438797156;0.983721058;-58.72833783;-23.79488199;4.898395192
15.1210461;23.04423767;18.01160377;35.79831856;-12.67705123;-0.22935904;26.34794534;-53.03854516;-80.82597222;11.84220491;-65.21906564;-42.27601019;-39.65741769;-19.64642076;-3.632059508;-0.641147733;-86.08789569;-29.87823157;6.526622294
12.84349966;18.66857045;16.91818106;35.57309979;-14.1525562;-0.091923783;25.38466004;-53.11454656;-72.16288746;15.36432217;-48.08103009;-31.88770811;-42.75205876;-18.37885999;-5.706321477;-1.641938357;-101.6272875;-29.84374492;5.620135772
7.597008279;14.6067119;14.17703919;37.95311431;-15.89074327;-0.304553084;25.28020648;-52.75288114;-68.20157034;15.48647932;-41.36713209;-22.33641868;-44.5091553;-16.76939257;-1.773164806;-2.665868603;-103.4745038;-23.85470417;2.712240455
0.414774785;13.3670421;9.585692039;41.22850849;-17.61336649;-0.582059681;26.15342974;-50.51558615;-70.30250542;9.836719056;-48.74388158;-17.43068349;-41.30458361;-14.19431955;4.026734281;-4.018801322;-102.0388347;-13.9756503;-0.059669529
-6.365360241;16.28676747;4.379251813;42.24;-19.61846651;-0.56776914;27.25538511;-45.68953885;-75.88158723;-0.748209459;-62.52673297;-18.69422254;-32.3444254;-10.94695448;7.649544227;-5.601560878;-112.6615267;-3.342685146;-0.5341512
-10.60538087;22.5020996;0.612203185;39.65867576;-22.150793;-0.204632145;27.65615669;-39.41306488;-81.06;-11.93581474;-69.78084119;-24.05285999;-20.85581539;-8.223703213;7.72691279;-7.225083734;-142.399586;5.208204282;1.71849174
-11.6806967;29.4275734;-0.121044465;35.71107693;-24.58566618;0.18635219;27.08588528;-34.06561196;-83.66899427;-18.34419779;-62.98867308;-28.68940773;-11.91691597;-7.139772244;5.725587748;-8.867430119;-181.7442476;10.36228578;4.943270453
-10.69319199;34.42876276;2.255760095;34.38845396;-25.34575303;0.205415315;26.15456258;-31.22914462;-83.90405531;-17.03417545;-46.14951459;-27.87876487;-8.541979471;-7.623529753;3.957520556;-10.56;-209.35;12.6825973;6.521836005
-9.587422314;36.45156314;6.235345654;37.54564324;-22.88976381;-0.231214156;25.76112824;-30.05239053;-82.57091435;-9.320399035;-30.91427901;-20.12549613;-9.364759643;-8.277123003;3.354507524;-12.02088281;-207.570812;13.85475578;5.065200594
-9.94122937;36.43037112;9.71326892;42.61411729;-17.09223574;-0.782831236;26.25358739;-27.76458771;-79.2969889;0.559683798;-25.99687335;-8.40308896;-10.04022943;-7.480959341;2.905722205;-12.46665176;-176.978637;15.30697813;1.582401508
-12.24597002;36.28186114;11.29983686;44.50972234;-9.805263021;-0.978562185;27.12050667;-22.25603876;-72.88502239;8.785732461;-29.19056262;1.615146355;-7.2457608;-4.846615849;1.072558616;-10.92578347;-137.6053681;17.17050354;-1.260264057
-15.93368215;37.37352974;10.99584112;40.45693443;-3.921238757;-0.649685869;27.48753824;-14.60573445;-63.4179111;14.48422867;-29.3526955;5.314568021;-1.772936624;-1.687652713;-2.277970362;-6.920126235;-114.6802998;18.33127047;-1.224440989
-19.84935799;39.65466497;9.792163361;33.346617;-1.478740867;-0.097667423;26.94231301;-9.114577691;-53.5042407;19.39127044;-17.09247899;2.267307449;2.104509144;0.031823587;-5.324719996;-0.984651541;-119.4055882;17.48908125;1.739391175
-22.76176966;41.96852264;8.623801772;30.01170722;-2.239666965;0.166032012;25.91568351;-10.32546929;-46.62600583;25.19573481;5.054904064;-3.588453458;0.518763358;-0.564063448;-5.76627143;5.462713045;-140.1013969;14.31378169;5.458760512
-23.77205302;43.0674158;7.608529995;35.18957337;-3.900255344;-0.122406127;25.27206799;-19.17432118;-43.58164427;31.23660263;22.3816753;-6.879162018;-6.290406357;-2.386625363;-3.070891768;10.88728289;-151.2831943;9.686357153;7.228151971
-22.68094136;42.38968938;6.19689907;46.21070925;-3.830508831;-0.739702873;25.50082471;-31.4739673;-40.54674624;34.88628746;18.96233612;-4.602192139;-13.84089919;-3.254355035;0.583588265;14.46223986;-133.8038209;4.801928786;5.839174131
-20.25374074;40.05076666;4.003965835;53.56590351;-0.999293825;-1.172967506;26.26475926;-40.27129436;-31.50642947;34.34971405;-8.696802047;2.097096959;-17.07761751;-1.869011993;1.753900568;16.257795;-89.97394191;-0.031512848;2.357390029
-18.08378998;36.29166635;1.441449056;47.84364851;3.414168601;-1.07553431;26.72043747;-40.4683624;-13.9642165;31.10610953;-46.80821202;9.394377444;-14.6353079;0.798192868;-1.444364922;16.61084346;-41.49;-5.690592435;-0.866860988
-17.82391707;31.05767553;-0.559557203;27.81956687;7.145407499;-0.569793038;26.30527438;-32.11301831;6.752974863;29.26166909;-73.02665049;14.0283886;-9.874796878;1.994404385;-7.502715951;15.2602173;-12.07695345;-13.17046729;-2.032745181
-20.05062424;24.10654483;-1.552347367;2.783643162;8.717122747;-0.128585673;25.25941395;-19.74689146;19.042984;31.88173575;-72.41091424;15.44224794;-7.733707082;-0.743826588;-12.43;11.18507032;-9.315408749;-22.01;-1.05611393
-23.5384331;15.43138379;-2.30706735;-13.55847376;8.506293889;-0.150290056;24.40513377;-8.447361554;12.45361362;37.49954115;-48.06279611;15.08759843;-10.22876681;-7.6094839;-12.93580705;3.592692768;-20.56135176;-29.76825248;0.758064031
-25.66865003;5.489164911;-4.358332221;-13.27927968;8.193803812;-0.614271452;24.39622359;0.012762548;-14.13355271;40.42084283;-17.93490977;13.85555704;-14.71310175;-16.27;-9.384503716;-6.565233077;-25.75316245;-33.42257808;2.06076684
-23.93516986;-4.966761844;-8.498273567;-0.342376258;9.168427876;-1.119250128;25.13189716;7.587914632;-50.04571697;35.35062577;-0.464900682;10.41938866;-16.50100915;-23.52695376;-5.953002125;-15.94066503;-15.54486395;-31.88167353;2.555711217
-17.58968299;-15.12051404;-13.47970486;12.66028372;11.29397699;-1.253115907;25.86564101;16.69341905;-78.62022523;22.71816928;-0.751577936;2.458420431;-13.4348097;-27.48099829;-7.539604651;-20.05642203;1.097356806;-27.53643421;2.938459989
-8.20838722;-23.94885396;-16.31063122;14.86396211;13.05409266;-0.948113426;25.89363635;26.34023488;-87.48486499;9.69;-8.36732492;-10.11265144;-8.092959775;-28.44124524;-15.64874182;-16.10596388;6.251998552;-25.17304214;3.88084938
1.30544603;-29.76462666;-14.29826408;6.230669983;12.86173661;-0.505566883;25.1830229;31.47242321;-75.97313283;5.005061938;-8.093661486;-23.07701689;-5.443884522;-27.99160795;-26.51679617;-5.375395014;-9.215930072;-28.57688963;5.113826423
8.573977904;-30.15237106;-7.349409909;-2.266019138;10.35692926;-0.289796418;24.37397528;26.59703095;-54.46668734;11.22879789;5.916284533;-29.61933589;-8.006261027;-27.25048206;-33.18989383;6.869457231;-35.54291568;-37.24311578;5.514571048
13.07504368;-22.99226894;1.547523812;2.140087891;6.628504076;-0.392214368;24.176862;10.89129559;-36.56858734;21.10677257;24.75426212;-25.17321371;-13.06998463;-25.96969084;-30.24574876;14.60220007;-50.93640605;-45.9489642;4.135349072
16.01519813;-8.373641593;8.47237129;22.7507314;3.309782009;-0.57768142;24.73371947;-9.707219855;-30.16122136;22.18824394;32.7346713;-11.61491371;-14.82785106;-23.20428988;-17.73751239;15.44616513;-39.76662867;-47.9820793;1.218296063
18.99980237;9.923274596;11.87610104;49.43188326;1.454963049;-0.547012827;25.52201566;-25.72129657;-33.61422391;7.173160248;21.81113716;3.101010915;-9.750175284;-18.7383064;-1.431391962;12.91158462;-6.234563643;-39.92938984;-1.774223407
22.67640959;24.96388413;14.16722943;65.5;1.155036717;-0.250802178;25.85961369;-30.54061753;-38.90461488;-18.12753848;-0.14021371;10.30550535;-0.301489387;-13.7366913;10.84658582;14.15708628;28.62447004;-24.44589446;-3.215126639
26.41409058;29.67838262;19.69499044;60.18312831;2.027706209;0.050107217;25.51929001;-24.96333129;-38.18575624;-36.64911999;-14.71916289;7.103128201;6.71969346;-9.881335036;14.08971575;24.18582387;44.23828144;-8.727085638;-2.583012445
29.09193696;20.95423227;30.17734314;36.70463718;3.857292576;0.033336965;24.88687469;-16.03300985;-28.56578396;-31.94803111;-8.095042439;-1.28093395;6.151231476;-7.784342237;8.792647094;40.5020305;37.12958789;0.33861235;-0.863853458
30.13071934;2.201186233;41.23618293;9.473677666;6.605663323;-0.367575076;24.54827516;-10.91025751;-12.39594863;-1.833752198;16.5838098;-5.503081177;-0.478628763;-6.272237307;-0.161847478;52.68213599;22.4159079;0.709731301;0.26501653
29.84130201;-17.62261568;43.58614959;-7.366677906;9.794818752;-0.880974093;24.72722506;-10.75739819;5.588818637;37.17433325;40.03354444;0.541447467;-5.641218224;-3.3858408;-7.155316121;48.23075839;19.05686111;-4.026048099;-0.221079789
28.95233681;-28.36943659;29.14535415;-10.83764165;12.06872903;-1.129236325;25.11334229;-9.883468776;21.03488482;59.44821013;40.89572412;14.9661845;-2.137619886;1.705215267;-9.150626433;21.40316459;32.21833678;-8.080605728;-1.95220453
27.98787203;-24.01679781;-1.852474814;-10.81292832;11.71042422;-0.957768085;25.22366774;-1.229003612;30.80956288;48.06855013;12.25494585;29.71280691;10.27856585;7.664027287;-6.533161935;-21.13375333;48.80928725;-8.130399805;-3.620899036
27.18649063;-5.775724282;-38.35433636;-21.33835238;7.959012214;-0.555602096;24.92181852;16.08740566;32.75602411;7.90878686;-32.26697082;37.41968785;24.074057;11.93829365;-1.567898126;-62.4093944;50.46268252;-5.2634186;-4.198726609
26.90590298;18.80071653;-63.56175334;-48.70566676;2.003684087;-0.262738455;24.57466005;33.57228893;26.17956843;-36.39588125;-67.59707296;37.44936119;30.18880137;13.00054841;3.68022628;-84.45510677;32.23834841;-2.654983212;-3.831289349
27.77458762;39.99181234;-65.08799894;-85.78998557;-3.462368268;-0.254345584;24.68784108;37.86728023;13.30248726;-57.04439166;-74.51052325;35.81750102;26.25075796;11.87046197;8.194778591;-78.99177251;9.491565068;-1.26491206;-3.633529549
30.04492655;50.74561691;-43.4387513;-116.9260509;-6.095488991;-0.401431857;25.37517381;20.28468446;-0.207673816;-42.49639631;-52.18216618;39.06465039;19.3339394;11.40397481;11.42139969;-52.32278508;5.404455059;2.175826074;-4.585495272
32.58634928;49.4735926;-12.50984887;-129.2095834;-5.770798852;-0.430936221;26.18709424;-15.6086945;-7.526510372;-5.339515889;-17.20254389;47.58907296;20.0778031;13.80317633;12.48541295;-21.03079908;29.24572311;12.41774644;-6.533953166
32.73606391;39.68511567;8.907621916;-121.3617912;-4.781122436;-0.21759414;26.48552849;-54.38179021;-5.057378067;27.46519108;9.16783697;54.72388247;32.513236;18.52086863;10.44096265;-1.407320506;64.95933351;30.00605971;-8.23740033
27.82269118;27.32630442;9.159276243;-103.72;-5.900131183;0.085148681;26.02768315;-77.46330955;4.553958207;34.8012975;15.3238682;52.92300608;48.32547553;22.57933296;5.451612498;0.16640059;82.03513664;47.66383362;-8.496122453
17.68061064;17.73030907;-8.951854201;-90.12429826;-9.688494871;0.207513478;25.21032979;-74.42625401;14.03500922;16.91461016;5.019192996;41.86758865;51.37806615;23.27875746;-0.433261605;-10.42926042;61.48774611;52.85215989;-7.437316562
6.14495839;13.74382169;-30.646232;-88.44750923;-13.31760647;0.059697882;24.73368508;-49.10540615;17.33141425;-5.452628397;-8.204853298;30.90627904;30.04570631;21.05353155;-4.085217638;-20.91868477;15.40609567;35.89712195;-6.806673167
-0.246812725;15.4595151;-39.61184191;-96.72476671;-12.21656922;-0.138099573;24.98398267;-16.50674528;15.15477133;-7.580724337;-12.01198176;32.51315474;-12.0410427;19.8444796;-3.385423922;-21.88956554;-18.04686717;-1.85652708;-8.865408817
3.85478388;21.02846654;-28.96843877;-106.7292215;-3.628233019;-0.041108221;25.69901087;7.016817706;15.10535214;19.64224251;-2.976389324;51.18495007;-55.85577661;24.29115599;1.105987869;-12.68385437;-2.840848767;-46.38545181;-14.62243207
18.61389717;27.79324514;-5.173499904;-111.0345658;10.56080029;0.475532705;26.22077642;13.35900919;25.35603965;61.88733636;13.56720117;76.90512912;-78.60193338;35.77391326;6.497232078;-0.263770183;64.67918976;-78.11222191;-22.73679467
38.00254588;33.29669315;17.3676151;-107.7346979;24.08895223;1.139678247;26.0964213;5.758317446;46.59119885;91.11365698;29.32159713;89.60671593;-69.01074859;50.52592914;9.856929985;7.128588681;148.0840089;-83.59417027;-30.00353286
53.01191797;36.05432871;26.51656699;-99.94398823;29.86280377;1.463626069;25.47013413;-5.804419642;69.17068165;85.44172337;38.66679926;72.62747161;-35.02244671;61.57378596;10.59217644;6.140486374;193.5518227;-63.7801939;-33.19029157
57.18295584;36.01743859;19.90744613;-91.83914255;24.44942421;1.149359425;24.91131839;-12.68093867;78.85127555;44.41529238;40.19706494;25.60076073;1.859542032;63.25841766;10.82682762;-0.206677873;166.9854399;-32.94396142;-30.9911428
50.61054367;34.5371046;4.84455795;-85.27072105;10.34486774;0.364824685;24.85528988;-13.03046117;67.4177716;-11.20129054;34.86316515;-33.1569661;21.22449958;54.98930831;13.36434005;-6.053994626;77.80308025;-9.027403221;-24.76296129
39.49181227;33.69802976;-8.325071744;-79.42637291;-5.632327182;-0.364300111;25.19289628;-11.3434563;40.01911641;-54.16386866;24.21593549;-77.22906565;16.52250912;41.43973444;18.97930787;-7.700968396;-28.38032068;-2.306786144;-17.57578084
31.52525953;35.23089252;-13.69680128;-72.72199357;-16.70137852;-0.569263258;25.39764508;-13.452908;12.97548481;-68.63506244;10.9139562;-88.45298268;-3.018585766;29.15897004;25.47752065;-5.902695718;-102.1201664;-10.29569303;-12.28727834
30.56498588;39.57209525;-12.62;-64.31467017;-20.17822621;-0.20881579;25.0645396;-21.54256812;3.076346341;-58.41090535;0.136809731;-67.52837281;-21.62905465;22.29642284;29.47038722;-4.105141926;-122.769543;-21.88818501;-9.979109368
34.45044034;45.65322391;-10.59164855;-53.77412904;-18.51076339;0.319552936;24.34007813;-32.9237593;16.14345092;-40.77946805;-1.229496871;-31.74697537;-29.34361019;20.61849171;29.36994359;-4.779766239;-107.5846322;-26.79428947;-9.744063071
37.43334003;51.57586727;-11.68388679;-39.94916039;-16.84460243;0.529853476;23.82181602;-42.84388868;43.33089392;-32.16177005;11.21838384;-2.292160245;-27.8716046;20.95748831;26.90851029;-7.290462256;-92.78808692;-22.73782983;-9.793637563
35.07736511;55.7552874;-15.35729894;-21.15314512;-19.12659955;0.250054321;24.00700679;-48.37130714;67.65366783;-36.9597086;34.58554174;9.15581248;-26.41278237;20.45019064;25.69489483;-8.942279251;-103.6506644;-15.30744083;-8.940058594
27.71010976;57.82602052;-17.87096024;2.705886361;-25.57968542;-0.266385686;24.80449556;-49.97725167;75.45298068;-47.27384552;57.84042431;5.203083238;-32.10350247;18.7098762;27.96731538;-7.874743014;-137.4774065;-11.57796957;-7.345917632
19.83097001;58.78569582;-16.40216413;27.95454534;-33.11050421;-0.595964111;25.57702628;-49.83670862;64.19907226;-52.06289597;67.12271987;-3.087324206;-43.54781959;17.31366586;32.44539275;-4.970454701;-171.0240846;-13.49298103;-6.087221029
16.18153978;60.33351188;-11.93625113;47.67888128;-37.96112209;-0.521289149;25.69413437;-48.84585657;41.62330461;-47.33361792;54.35394852;-6.597824367;-52.50396981;17.46242706;35.36130666;-3.105420473;-183.4768022;-16.65216026;-6.005704494
17.78247091;63.78926211;-8.472599246;55.64073103;-38.42557499;-0.192175437;25.09642547;-45.36587558;18.32319463;-39.19405315;23.02480372;-4.567317629;-51.58592872;18.19880603;33.94886841;-4.607335448;-174.5892504;-15.12990294;-6.825106015
21.10556392;69.14072478;-9.521122374;51.02302741;-35.71481079;0.051053976;24.35092832;-37.00633954;0.621686996;-38.12868132;-13.42262996;-2.833334046;-41.00084964;16.89847905;29.32201225;-9.331220475;-163.4939273;-7.662978585;-7.235957434
20.91656631;74.68523347;-15.14615865;40.02518654;-32.65298285;0.00433917;24.13887329;-23.91029235;-10.9792569;-49.94624776;-39.78399564;-6.815639591;-28.66839544;11.58638145;25.96556099;-15.00492547;-170.9261797;0.520399596;-5.861504045
14.40627441;77.52576054;-22.09251845;32.37680846;-31.4740927;-0.233620222;24.63848474;-10.46984181;-18.09375134;-70.93023188;-48.05439994;-15.9797218;-23.98486405;2.940733417;27.92951238;-19.30488448;-201.1728569;1.992215429;-2.331947479
3.347630574;74.88981474;-26.66071971;34.88814579;-32.40837193;-0.39729454;25.36482902;-3.513273249;-20.41998059;-90.6890869;-40.89865662;-24.36096619;-30.74435654;-5.891192704;34.86323539;-21.60554987;-239.0713497;-6.19059338;2.370531987
-7.259697849;65.83324224;-27.63084585;46.80084135;-33.8854379;-0.343328077;25.61289232;-7.882088206;-15.80424385;-99.85450862;-27.74273384;-26.03524753;-44.99658512;-11.60715911;41.51183188;-22.85995283;-263.6880505;-19.3618956;6.55417383
-12.80339324;52.47318652;-26.69720605;60.55018719;-33.88817938;-0.203931624;25.10015206;-22.61773359;-4.091318414;-96.32259497;-17.19415549;-20.31349225;-59.07017164;-13.2576482;41.57690596;-24.00409985;-266.1450271;-28.64244361;8.947831509
-12.08131367;39.79329713;-26.26262396;67.39073006;-31.29152991;-0.254445668;24.22512782;-40.80197714;9.7984288;-85.55357481;-11.81694726;-12.19931947;-67.80825944;-12.82835142;33.07278988;-24.71355919;-256.272012;-28.16392384;9.467100636
-7.615867937;33.61138341;-26.81518274;63.55463126;-26.30551281;-0.624082737;23.71140343;-53.49857502;17.73945738;-75.51561454;-8.706503565;-8.13197817;-71.652101;-13.42467836;20.71870736;-23.89729793;-252.9687061;-20.00875947;9.072977
-3.399100767;37.41954738;-26.3692412;52.31891591;-19.98882585;-1.13257021;23.96584633;-55.1927768;14.62493903;-70.83321424;-4.290265497;-11.04173854;-74.45178337;-16.61619591;13.03910852;-21.45260735;-267.0972396;-12.577541;8.890624605
-2.070192769;49.84023256;-22.46699688;40.74359192;-13.45103541;-1.419193889;24.73291702;-46.95485777;3.643956046;-70.61824584;1.399940697;-18.88534365;-78.64314338;-21.17708416;16.11341157;-19.36911828;-291.5944511;-13.67014825;9.310290742
-3.61052867;64.51286665;-14.86937387;34.04468526;-7.380692872;-1.255286236;25.34767103;-35.16658179;-4.751549342;-70.92514228;4.644860473;-27.37497164;-82.49697129;-24.24348524;28.81742702;-20.71786148;-306.9080047;-24.1235858;9.768493003
-6.138670987;72.97361998;-6.439487456;32.14447534;-2.077851137;-0.755714032;25.34184858;-26.83918114;-0.498782593;-69.03523965;1.754276628;-33.93393878;-81.91763049;-23.87241973;43.42169963;-27.05570665;-296.9610999;-37.4254135;9.343150978
-7.718854315;69.15211048;-1.339899106;30.78125303;2.277549207;-0.293452542;24.84524591;-24.94377684;17.44754524;-65.81404959;-7.122408922;-39.25606561;-74.96194325;-20.85088721;51.21750432;-36.45958107;-262.5365395;-45.60090564;7.648114427
-7.598955733;52.82604775;-2.028970594;25.70090574;5.474061492;-0.19087671;24.42787187;-27.0291226;38.7125233;-64.54985561;-17.60400785;-45.48459584;-64.7641306;-18.27058433;48.80689912;-44.12548086;-221.6396239;-46.21694181;5.289918249
-6.143160272;29.81668353;-7.55306678;16.19648155;7.350611743;-0.461841342;24.54896134;-27.89160842;48.00860012;-67.76895659;-24.35862768;-53.25482454;-57.99982123;-19.22801203;40.14421793;-45.34988505;-197.1020972;-44.29529964;3.514434189
-3.96410501;8.746216576;-14.45842518;5.311369337;7.973870342;-0.826983058;25.13207809;-24.09654052;36.15579909;-74.91067998;-25.04598979;-60.64943399;-59.98940572;-24.47864923;32.84062838;-38.60958921;-201.3169986;-47.29895342;3.319259757
-1.277051737;-3.564640514;-19.40125174;-2.855429409;7.729556559;-0.973536363;25.6518072;-16.90609177;7.377909199;-82.58940246;-21.48983218;-64.94970097;-70.48836547;-31.81696845;31.84897878;-26.28872403;-229.1719165;-57.47513022;4.721182513
1.999110157;-5.152352735;-21.21213741;-5.993561467;7.281428174;-0.815400602;25.63336962;-11.48436336;-22.74708133;-86.83771162;-17.27378453;-65.20032432;-83.62977895;-37.53016853;35.66364789;-12.58299825;-263.0367358;-68.41422316;6.730630634
5.73018103;1.26029684;-20.85856123;-4.232519781;7.467373537;-0.525204442;25.08837025;-13.05722885;-37.30107909;-85.32798578;-14.14922398;-62.85967421;-92.00070109;-38.71563273;37.98224463;-0.508202022;-284.6404614;-69.33839245;8.026263149
9.333840296;10.99775506;-19.71544971;1.305563461;9.174017561;-0.333662257;24.48497108;-22.89773048;-28.80013365;-78.08051489;-10.57432942;-59.85610031;-91.51923206;-34.77802558;33.24773899;9.389167391;-284.8874877;-54.04403938;7.79912111
12.10312649;20.39986868;-17.98367377;9.957941901;13.13490968;-0.306496867;24.29726366;-37.02934681;-3.323540411;-66.76123165;-3.66050723;-56.14795787;-83.39220674;-27.26165416;21.38567667;17.68555155;-266.004698;-27.15412587;6.153376664
13.70672212;27.93808914;-14.75371537;21.20500908;19.60138045;-0.314511184;24.57076442;-48.49;24.1848092;-53.72622821;7.296895728;-49.5916741;-72.09480998;-18.49991274;7.885121091;23.66152292;-236.9441465;-2.147462916;3.843808044
14.29664043;33.21256225;-9.513496167;33.01381677;27.99306732;-0.210926456;24.9129209;-51.47288896;39.36077308;-41.63301751;18.94073705;-38.73128982;-61.57100412;-10.28558185;-0.657621766;24.42345957;-207.0894405;7.789752517;1.652841103
14.11096987;35.37184662;-3.470019531;41.07062583;36.80110939;-0.021928482;24.90442229;-44.49133916;35.97277298;-33.322765;25.43810654;-26.03263771;-52.94389565;-3.437051866;-1.685284397;16.7846655;-182.5661863;-0.907774253;-0.062512599
13.05635075;32.78783329;0.785424192;40.61440822;43.98034249;0.05524769;24.52565216;-30.63132481;17.4393102;-31.11809665;22.4061738;-18.10447856;-45.24983451;1.78375004;1.736694248;0.501571638;-165.8615885;-20.00736809;-1.345127813
10.83331623;24.42974549;1.160805954;30.0603135;47.77511274;-0.143618236;24.18304369;-15.12182417;-7.001082374;-35.35538574;10.14001953;-21.76851811;-37.87624795;5.104651676;4.012928595;-20.02696529;-156.8329863;-36.12;-2.270741155
7.598207035;11.60959139;-2.134879485;13.41113344;47.57100576;-0.545404792;24.30791568;-2.211808005;-27.64467627;-43.21212441;-6.276332499;-38.6037625;-32.05211488;6.146385859;1.959808032;-37.43805894;-153.4272401;-40.78684115;-2.654515963
4.491235229;-1.768275851;-6.554190889;-1.168710347;44.24733551;-0.853508507;24.91423798;6.51461046;-37.84847176;-49.32596587;-19.93331461;-62.44403906;-29.94326985;4.810156287;-2.652157941;-45.54562412;-152.2497674;-36.0051055;-2.13595262
3.307924096;-11.11011165;-9.126237122;-6.291057896;39.76171076;-0.795068786;25.54677521;11.63128233;-35.04581528;-48.6062425;-25.90214228;-82.38767833;-32.35028898;1.662350177;-5.003138804;-42.92756753;-149.9650922;-31.10338474;-0.572859324
5.304010771;-13.92421168;-8.791545951;-0.337494037;36.17362253;-0.383363643;25.68267198;14.12022769;-20.55269269;-39.73379708;-23.38754242;-89.5696033;-37.37690032;-2.144077537;-1.777198434;-33.31427719;-145.4118297;-34.02216763;1.62157171
10.00192227;-11.30821058;-7.205191581;11.46792386;34.67047815;0.059091222;25.2158525;14.05696188;0.783012297;-26.7798568;-15.27928782;-82.7969122;-41.51678051;-5.418648269;5.633128609;-22.66047447;-140.7474423;-44.49462629;3.530641123
15.07614763;-6.877828889;-7.317872962;21.07274925;35.14172074;0.163404711;24.56655985;10.74977525;21.51456225;-17.29652304;-6.008515598;-68.85329502;-42.31926801;-7.537044914;12.01830021;-15.31275528;-140.0330882;-54.72809913;4.187021546
17.64372924;-3.947854292;-10.89818003;23.83195946;36.47967434;-0.15713867;24.30426013;3.990223081;34.07696558;-17.69159376;0.666855145;-57.34326455;-40.28013628;-8.652842479;12.54904348;-12.12498831;-145.7848234;-56.6853373;3.116098976
16.14141805;-3.224517106;-17.02156214;22.12614469;37.34232824;-0.609616916;24.62844391;-4.84759086;34.45300189;-28.87848959;2.924937726;-54.08399412;-38.24764896;-9.404275264;6.710078125;-11.48984936;-156.2042292;-49.49287511;0.598249403
11.40163903;-2.846426359;-22.71946506;23.33988612;36.89196369;-0.757090216;25.1892653;-12.92555681;24.78451998;-45.30983181;1.144727398;-57.940332;-38.83956376;-10.37525785;-1.31030581;-11.79810555;-165.7162617;-40.521264;-2.496766119
6.075379765;-0.646644059;-25.20444832;33.49365196;35.12977965;-0.392363267;25.41634716;-17.30015866;12.48262804;-58.28750396;-2.479832021;-63.04521812;-42.13519512;-11.68650837;-6.038340799;-12.93046627;-168.7907347;-39.16862134;-5.150589892
2.799963921;3.351148479;-23.86957874;51.30367274;32.74821676;0.2752063;25.05057275;-16.54952274;5.64538617;-61.4301652;-4.866234009;-64.09580252;-45.65489305;-12.92760428;-5.062627111;-15.6564695;-164.0597221;-48.61770501;-6.624768436
2.469822093;6.375549005;-20.56058197;67.36120819;30.68882702;0.785854867;24.38333338;-11.51950981;7.649103981;-54.59027305;-3.551366119;-60.32104629;-46.6042122;-13.39153902;-0.775926282;-19.93138245;-155.2431405;-62.56099522;-6.681500415
3.863191799;4.822658716;-18.08048939;69.48758976;29.67888108;0.805364451;23.98023763;-4.732848513;14.90010193;-43.55813509;1.629619916;-55.26769297;-44.3597421;-12.4354225;1.766252374;-24.05972448;-148.0045564;-69.72132657;-5.582716122
4.805807344;-2.898741666;-18.2316319;50.83674112;29.94074178;0.385260821;24.1482632;1.043120045;19.63011042;-35.84071152;7.778193465;-53.17678868;-40.97609136;-9.797932825;-1.035602182;-25.7146075;-145.3607494;-62.52774335;-3.950087891
3.890554517;-14.90248796;-20.8688439;15.25918105;31.13655322;-0.11091997;24.64596424;4.091715608;15.78779787;-35.52637859;10.11960435;-55.30761169;-39.26013453;-5.764964269;-8.593199197;-23.89750039;-145.5337371;-42.96759071;-2.540771344
1.433352684;-26.89550031;-24.44449221;-23.78088666;32.51734787;-0.335374447;24.90936686;4.186293374;3.637728587;-40.79580716;4.976702833;-59.14254095;-40.1241971;-1.120046387;-16.80849412;-19.94107031;-143.9892183;-21.09756616;-1.95059255
-0.960913177;-34.87162753;-27.32837518;-50.19544009;33.20236825;-0.239137984;24.58282981;2.142046528;-10.3183823;-45.67118095;-7.242020539;-60.67677325;-41.59308896;3.130986545;-21.33;-16.51743883;-137.7430728;-7.719634313;-2.307349143
-1.743593832;-37.28899941;-28.77307158;-53.88;32.49068053;-0.066828653;23.85685181;-0.99991468;-17.84666972;-44.58212968;-21.36612218;-57.48763423;-40.4218423;6.166741261;-20.61743416;-15.47650915;-128.100446;-7.210273612;-3.126744891
-0.574402623;-35.18479152;-28.95545961;-35.79843716;30.09371061;-0.090519407;23.29397782;-4.564410137;-14.38068707;-36.43306039;-30.10208229;-50.03541345;-35.01010619;7.680039063;-16.50600829;-16.43404677;-119.4969731;-15.85407703;-3.513927098
1.542924284;-30.50193052;-28.4007346;-6.756196177;26.20039608;-0.34490959;23.30355946;-8.344171832;-1.455748518;-25.36679652;-28.54743073;-40.55744501;-27.13134747;7.921245847;-12.21740939;-17.3330302;-115.6267437;-26.14864491;-2.700580532
3.106419152;-24.33708414;-27.48033608;19.07905981;21.36299391;-0.610550147;23.7572946;-12.33129882;15.02745949;-17.85922939;-17.4811821;-31.04232754;-20.93122324;7.421833729;-9.784406934;-16.38537282;-116.3827233;-32.77948796;-0.614577344
3.205412674;-16.65974941;-26.34826691;31.92086712;16.28528197;-0.647886611;24.10812176;-16.37140773;28.70062148;-18.3381816;-2.952290268;-22.23369612;-19.89976333;6.613047352;-9.019826895;-13.57689524;-118.2531711;-35.27551407;1.951118818
2.071524729;-7.528548464;-25.11210375;30.93360531;11.6350923;-0.445436442;23.90359866;-19.97382079;35.65870061;-26.40078865;7.691773497;-14.24086376;-24.2020393;5.652379404;-8.548111327;-10.41753371;-117.6201915;-35.95048875;3.786208692
0.831325497;1.631865689;-23.8426254;23.2659546;7.9523323;-0.235858268;23.21206799;-22.36412656;34.87754574;-37.39485743;10.54478853;-7.636864171;-30.48042312;4.595395362;-7.599164504;-8.331678876;-113.8564679;-36.09780109;4.082727247
0.781149925;8.197899215;-22.35197169;18.46996458;5.624890279;-0.261094582;22.55744445;-22.75334355;27.06567104;-45.69029859;7.282307569;-3.557646366;-34.27164025;3.723038941;-6.810636448;-7.357305544;-109.4827039;-34.58239555;3.0373338
2.704722225;10.0799965;-20.08683772;21.88581785;4.850549077;-0.515191115;22.41808918;-20.72548488;13.92578477;-48.18518949;3.319492735;-2.531588008;-33.14342423;3.653089023;-7.429027251;-6.439781066;-107.4670701;-30.10855236;1.742926152
6.547817359;7.574602983;-16.47643133;31.13948813;5.547711471;-0.723694776;22.75877531;-16.57416579;-1.391094161;-45.67106072;3.583669068;-3.270641737;-28.17648259;5.029409835;-9.859348633;-4.9507937;-108.3381767;-24.43087627;1.39650452
11.45684985;3.586791723;-11.5980751;37.99307714;7.278592598;-0.598006893;23.04217398;-11.3797572;-13.811728;-41.42084707;9.136672276;-2.908165704;-22.80708781;7.983708175;-13.05003906;-3.762223383;-109.781602;-22.52843155;2.402799638
16.06112082;1.77858431;-6.561565182;34.39608106;9.299008654;-0.135756399;22.72215984;-6.702880443;-17.57659689;-38.38432802;16.97273376;1.122672575;-20.1122921;11.84311988;-15.31220556;-4.573439843;-108.9182386;-28.58035848;4.073579149
18.92961923;4.003128447;-3.09636642;18.71955433;10.780798;0.322388649;21.76610668;-3.997799611;-9.346333268;-37.19796098;22.73023013;9.002449832;-20.70765261;15.42296933;-15.77124617;-7.941334737;-104.9335773;-40.92236225;5.17472781
19.15320793;9.099160657;-2.472584923;-2.226905281;11.11120404;0.357384097;20.71443719;-4.075627234;8.901902967;-36.33982285;23.93112076;18.06411609;-22.76115108;17.76489318;-15.05984914;-11.9254627;-99.52592938;-50.90952194;4.896622422
16.86595772;14.0623383;-4.538617047;-17.13240379;10.08608063;-0.160373218;20.20733537;-6.952789146;29.89637177;-33.98019168;21.30541464;24.5214563;-23.86344346;18.75910395;-14.5933487;-12.94402019;-94.88573614;-47.82882809;3.472988171
13.3621914;16.63521522;-7.684654025;-17.64277598;7.875198473;-0.927088628;20.40519355;-12.13395991;44.80718289;-29.81483697;17.5798741;26.10798264;-23.09569328;19.12093263;-15.11284082;-8.48361519;-91.38872554;-26.8263378;1.954172548
10.5536822;17.14716929;-9.84717527;-4.127476288;4.812721926;-1.427109676;20.83901553;-19.0085931;48.46685402;-25.35845047;15.13688393;23.55769985;-21.65440637;19.69499915;-15.88051947;0.542716128;-87.46790419;6.292743586;1.333627535
9.922003829;18.05169096;-9.823920741;14.57597651;1.206348625;-1.342273547;20.84020294;-26.93462982;42.31764796;-22.57490001;14.53911911;19.81697237;-21.68112313;20.62918962;-15.33057911;9.963404483;-81.92559169;37.64299087;1.756844561
11.58123916;21.56045981;-7.910492543;27.50350308;-2.668397298;-0.802784242;20.16581227;-34.9041444;32.79263693;-22.14054977;14.8109155;17.73054863;-24.38202911;21.10142183;-12.64720187;15.17152128;-76.37684946;53.85223269;2.462203599
14.1455672;27.41257639;-5.437479106;29.39459419;-6.408545621;-0.267771261;19.24654389;-41.19631857;26.26944687;-22.91552743;14.75112422;18.09228491;-28.98058787;19.85131313;-8.858213271;14.40661069;-75.11504915;50.48997616;2.478737127
15.61037912;32.73561972;-3.69065934;24.03019662;-9.366653778;-0.142937716;18.82016252;-43.63419452;24.38588365;-23.13150254;13.87236508;19.47214038;-33.26898232;16.11548806;-6.390671605;9.787149278;-81.98121299;34.14549203;1.467317122
14.70393925;34.1982192;-3.148979569;20.4035237;-10.7952339;-0.464445961;19.27172998;-40.66732651;23.20710264;-22.29729726;12.25003906;19.6578823;-35.23470379;10.2387579;-7.330848361;5.240434043;-96.74596668;16.85979037;-0.016423608
11.74474726;30.69959488;-3.596013749;24.74411921;-10.26510924;-0.909558214;20.27447542;-32.72538364;16.72483258;-22.14181494;9.781372002;17.31378161;-34.47438237;3.506508451;-11.75396711;3.134323319;-114.3070846;7.453294281;-1.048050517
8.346886702;24.35307651;-4.817317351;34.98188769;-8.097303401;-1.102998277;21.05958281;-22.77841339;1.879876361;-25.64588054;5.888545791;12.56944795;-32.38613387;-2.624996665;-17.48685383;2.534469561;-127.7712085;6.381429254;-1.174343696
6.176133075;18.92727009;-7.065961264;42.50800794;-5.440803716;-0.93625771;21.07788333;-15.34669723;-18.6937687;-34.78174778;0.115722817;6.436014549;-31.12018975;-7.274060805;-21.54516352;0.561006883;-133.1131956;7.540654069;-0.826896402
5.712657225;17.02803683;-10.74460771;40.08104175;-3.810955693;-0.624467341;20.46376188;-14.24578028;-38.07023495;-48.70024406;-6.96053837;-0.004602187;-32.14287722;-10.32402556;-22.17192415;-4.455068313;-131.6119944;4.742486853;-0.950285876
5.996743788;18.33871851;-15.56647353;29.208261;-4.276210568;-0.473748365;19.89097174;-20.38362956;-49.29118465;-63.84495899;-13.5063728;-5.742323444;-35.40978633;-12.04695542;-19.94747151;-10.95533306;-128.0664959;-2.898795413;-2.177286274
5.563758927;20.30278455;-20.06336129;20.12179297;-6.779801631;-0.589477456;19.95734331;-31.09264868;-49.32888319;-76.01311825;-17.29097021;-9.400328602;-39.56810131;-12.61264302;-17.17070099;-15.22959295;-126.3835494;-10.97;-4.278530872
3.806782318;20.52948385;-22.12299562;23.29527581;-10.07014336;-0.792713709;20.65394263;-41.54;-40.25870456;-82.88439388;-17.01484562;-9.13377579;-42.85690745;-11.94907399;-16.01937038;-14.75238247;-126.3638326;-14.57959407;-6.367365898
1.625653615;18.73952201;-20.37652796;38.90163463;-12.36171696;-0.806529042;21.38824893;-47.35541185;-27.46248494;-85.19579208;-13.04042339;-3.552605543;-44.01549297;-10.01826266;-16.87475032;-10.82525284;-124.4160882;-13.35860965;-7.671113019
0.766631925;16.52211473;-15.44561486;53.41434691;-12.37339275;-0.524165185;21.52532606;-46.79919981;-16.63744354;-85.80811491;-6.992461699;6.77695718;-42.70453865;-7.157444699;-18.02846795;-8.028030123;-117.464092;-12.11544009;-8.178254181
2.319622933;15.17738706;-10.00795883;47.74132683;-10.11207335;-0.106191968;20.94894932;-41.19023698;-11.59821517;-87.50754299;-0.676187866;18.62012422;-39.40749345;-4.093927914;-16.96798734;-10.69048138;-106.5162347;-16.59303481;-8.581162773
5.573651265;13.73254099;-7.439583722;12.07109545;-6.888985277;0.175268482;20.14192508;-33.59352127;-13.60987356;-91.23797194;4.743907747;27.22209189;-35.09281549;-1.583419427;-12.3325648;-19.22611259;-96.67725041;-28.08610002;-9.562206005
8.224870167;9.2118477;-9.834232651;-43.72344921;-4.518627348;0.188379794;19.73294451;-26.92110858;-21.68740443;-95.94292133;8.77271332;28.95676975;-30.89526323;0.004245882;-5.191121688;-29.42152524;-93.4857613;-41.65212965;-11.06566074
7.909978554;-0.693941361;-16.6851785;-93.15695171;-4.171690661;0.04973994;19.93908081;-22.76081278;-33.06066226;-99.82471065;11.13229896;23.72518262;-27.86112803;0.783510658;1.249094171;-35.38779591;-98.62334982;-49.5777595;-12.23103052
3.98249633;-14.68254171;-25.08760133;-109.0487319;-5.598465773;-0.006572849;20.41047417;-21.40697142;-43.70467019;-101.7787385;11.5497223;15.26474956;-26.67635787;1.079748585;3.389916607;-33.86866652;-108.5386893;-47.33799217;-12.0942138
-1.808488814;-27.35198909;-31.31839658;-81.61429118;-7.237476823;0.134516893;20.59796431;-22.53520146;-49.41862198;-101.8558453;10.09418802;8.951863113;-27.38521958;1.078085033;-0.58055998;-26.50683569;-117.0235671;-37.22704021;-10.47836707
-6.310263975;-32.15192546;-32.79916369;-25.62619594;-7.182978688;0.356751101;20.28132776;-25.63061;-47.59756354;-100.6427669;7.615532067;8.533488707;-29.27990967;0.731580918;-9.401017648;-18.37985972;-119.5198959;-26.75881594;-8.292512673
-6.974128779;-25.93147545;-29.29500794;28.93076344;-4.433989694;0.429997388;19.76144706;-29.83766843;-38.86680451;-98.43220303;5.576798613;14.03007813;-31.16;-0.026048779;-19.17659841;-14.13639304;-115.7164489;-23.12391286;-6.923793686
-3.462394432;-11.64549731;-22.76033926;56.24486708;0.36022572;0.240856659;19.54870149;-33.7073679;-27.23394859;-95.10345889;5.149981048;22.16852474;-31.93171321;-1.037197816;-25.383568;-14.85327883;-108.6992559;-27.99756393;-7.166405575
2.275634732;3.132509376;-16.0722056;50.28715672;5.155542526;-0.088191649;19.856206;-35.5277245;-18.13729551;-90.77529176;6.303929922;28.84647167;-31.20486797;-1.936714992;-25.31722549;-17.8989399;-101.8812868;-36.52336577;-8.54288365
7.466933958;11.14310201;-11.46892389;25.87974743;7.643567681;-0.307898098;20.38409776;-34.3025336;-15.34282084;-86.399834;7.834781524;31.75652052;-29.44976483;-2.416887498;-19.51839119;-19.49950546;-96.54090359;-40.96013586;-9.590368639
10.40865845;10.32650743;-9.565731029;5.525598692;6.564476463;-0.27688596;20.59936874;-30.60690001;-18.75100612;-83.44150185;8.518064503;31.40609924;-27.53858821;-2.434915094;-11.26785687;-17.63241547;-91.82459742;-36.06263259;-8.929371461
11.40541712;5.003026479;-9.412556517;2.742352978;2.376628723;-0.097428232;20.2447751;-26.38908497;-24.73810918;-82.69928001;8.443699395;30.13;-25.97209674;-2.099798674;-4.43419177;-12.97333228;-86.64889803;-22.34177253;-6.313940889
12.11940695;2.374566661;-9.457970312;14.42095903;-3.130591571;-0.020246082;19.59369468;-23.60016086;-28.85119952;-83.32767781;9.22711107;30.14246334;-24.39888204;-1.343168544;-1.065114044;-7.572511566;-81.35916723;-5.297474136;-2.870520017
13.91396386;6.917805164;-8.788235676;26.81280844;-7.994920142;-0.205517196;19.20703782;-22.65608205;-28.88654789;-83.17697258;12.66189259;32.12355273;-21.88502329;0.20734481;-0.340188743;-2.870241273;-77.5781993;8.286220247;-0.349161971
16.5211712;16.89634775;-7.853569962;28.80386129;-11.20986382;-0.565811807;19.41687468;-22.10046901;-26.07298346;-80.50013424;18.81740992;35.1261796;-17.83502094;2.850466367;0.407084862;1.084376061;-76.63322269;14.16543227;0.058414846
18.09382731;25.64569924;-8.177569072;20.99383878;-13.06082012;-0.84207162;20.01915411;-19.95317303;-23.56033101;-75.7355244;25.28011298;37.47539265;-12.89855265;6.145011156;3.374103712;4.788953975;-78.3089123;12.27480267;-1.509105808
16.62445099;26.64396776;-11.17134578;13.5647797;-14.48541671;-0.844516673;20.46345641;-15.73813361;-23.52796323;-71.7117433;28.44191058;37.76146151;-9.08204137;8.615080877;8.440866681;8.030564034;-81.18421848;5.778227318;-3.724973076
11.64906256;18.47772261;-16.8108177;15.82628769;-15.99227034;-0.632421126;20.36349063;-11.38850484;-25.29325181;-71.727344;26.02683935;35.30496037;-8.776063337;8.358913151;13.23012201;9.711608403;-84.08306499;-1.225480354;-4.968363897
4.90862304;5.909158933;-23.1481582;27.19983989;-17.0030317;-0.460253631;19.85243526;-9.966360026;-25.96018928;-76.74769248;18.88927651;30.14581868;-13.20341866;4.374295194;15.0534858;9.01827233;-86.99572778;-5.736528713;-4.321062084
-0.5956688;-3.719281201;-27.16965109;37.63462085;-16.1674962;-0.535373478;19.45235782;-12.95616851;-23.07481974;-83.94084356;10.5884969;22.97522271;-21.31281654;-2.331381776;13.20485185;6.718907028;-90.39775001;-6.740384533;-2.030494601
-2.51688012;-5.906265519;-26.58920261;36.87068354;-12.45656857;-0.812000791;19.58121041;-18.3112457;-17.10003906;-87.99199852;5.019610775;15.21198943;-29.96601508;-8.847886665;9.716880278;5.131825647;-93.63537433;-4.970048828;0.767069824
-0.674053636;-2.041684798;-21.40383098;24.13507548;-6.213267506;-1.018343633;20.15981442;-21.14279284;-11.60626562;-84.55706471;3.959552823;8.96529916;-35.45713536;-11.88627929;7.87210914;6.526656382;-94.19717915;-2.02741352;2.78094813
2.930514744;2.186160965;-14.05925522;9.514931869;0.681674614;-0.900964997;20.68784636;-16.97784473;-10.84194154;-73.4410145;6.4;6.487194115;-35.50111175;-9.810591893;9.575851611;11.24967261;-89.02396293;0.633926692;3.259747007
5.590927411;1.625758531;-7.981816282;5.595633916;5.754470925;-0.467659335;20.71862562;-5.352981266;-16.43297706;-59.08751212;9.978934312;9.114226349;-30.47168262;-3.752682822;13.69033736;17.23140245;-77.05779796;2.447032965;2.277697247
5.791902375;-4.176228209;-5.42550621;16.54774017;7.402011753;-0.00521405;20.28727503;9.060130778;-25.73805682;-47.8568326;13.06957399;16.28383568;-23.12709062;3.043957318;16.7412534;21.3752509;-60.83310904;3.842154448;0.555874203
4.158078933;-10.79358184;-6.14911788;34.2099465;5.875669766;0.1515556;19.88690619;18.96817845;-33.24338737;-43.94791822;15.68027108;25.41221477;-17.02694372;7.234006374;15.5365971;21.69761737;-45.47860164;5.6146149;-0.986474355
2.821639944;-12.80440616;-7.87754846;44.76143012;3.096977646;-0.100629422;20.00785332;19.08552987;-34.14472769;-46.84980612;18.57343499;32.96647052;-14.65034638;7.326973978;9.680740664;18.47878474;-35.64439373;7.932737982;-1.6790523
3.738330024;-8.566579237;-8.181354914;40.41256958;1.424229651;-0.549724877;20.66556193;9.666723461;-27.6034266;-52.07502444;21.72938907;36.24659379;-16.33165336;4.262285728;2.006669064;13.61948278;-32.70546259;9.80174981;-1.347780432
7.21947942;-1.994383869;-6.336844581;26.08157495;2.205022122;-0.850223005;21.36029573;-3.595288206;-17.32387416;-54.50191704;23.85668762;34.83062283;-20.50636516;0.350907112;-3.420431296;8.982982236;-34.43869238;9.637239954;-0.294347798
11.72782906;0.179945427;-3.761978266;15.18063085;5.063803795;-0.80664854;21.51655535;-13.25321598;-8.994195673;-51.79837377;23.55574107;30.77185523;-24.88917476;-2.464229237;-4.169655259;5.274719061;-37.30799304;6.72669375;0.939077671
15.01218227;-6.395688017;-2.752768721;17.93122114;8.328340816;-0.512136106;21.00565579;-14.75737263;-6.392696319;-45.5015421;21.02675751;27.39518351;-27.70686333;-3.692185681;-0.984387921;2.313506798;-39.32340355;2.404377532;1.881864617
15.68678005;-20.04734526;-4.57361282;32.13011162;10.21471602;-0.234046913;20.27265383;-8.849109968;-8.934340985;-39.22289445;18.53574916;27.40481325;-28.2734742;-4.064797405;3.080930166;0.117412965;-41.0731549;-0.318862591;2.355469356
14.10973846;-33.82449384;-8.418976487;44.37603394;9.931013291;-0.166453034;19.94709152;-0.225226952;-12.38197615;-35.60279899;18.92270306;31.42232782;-26.80460914;-4.448761179;5.084016117;-0.534931119;-44.25420176;1.19578958;2.486102551
12.014217;-40.14372565;-12.0099228;40.9687487;8.01230328;-0.278188283;20.28786129;6.256196186;-12.12335737;-34.40478526;23.30652534;37.78813747;-23.90486977;-4.960009766;4.196048439;1.221201438;-49.27;6.904159145;2.522836337
11.2826401;-35.91705506;-13.26479;19.43146222;5.790324307;-0.382115244;20.9636987;8.904096802;-6.527930634;-33.04178826;30.04656631;43.68934247;-20.2389571;-4.997449458;1.815660414;5.091019462;-54.21772316;13.50903515;2.610837042
12.80423557;-24.48158016;-11.68444665;-9.077556596;4.469518047;-0.340297877;21.3640685;9.724087214;2.127497934;-28.86109309;36.02223334;46.89778635;-16.54169683;-4.008666605;-0.031282929;9.207407284;-56.22050303;16.50312714;2.704705473
16.15652668;-13.11368454;-8.437370739;-28.64538621;4.445902478;-0.199989775;21.15278024;12.06883184;9.783695109;-21.26790854;39.21252675;47.05954275;-13.71237475;-2.168108884;-0.497329783;11.27013245;-53.87135724;13.56452259;2.691539628
20.14831935;-8.136922932;-5.257641993;-31.48055632;5.227928652;-0.133859841;20.560472;17.45789657;14.00405965;-12.12520612;40.29254724;45.75765404;-12.65219327;-0.313746062;-0.450072021;10.44084349;-48.53461463;6.671715192;2.604620608
23.65749448;-11.17551637;-3.187224516;-24.06630489;5.873978934;-0.252885695;20.15714361;24.06192231;15.86247044;-4.374044427;41.75388133;45.31978497;-13.79733174;0.766954433;-1.500113444;8.298759918;-43.30599866;1.025482357;2.708112895
26.13520972;-18.95152281;-2.156069818;-21.42139528;5.581230216;-0.482811542;20.32312343;27.91947719;18.71974127;-0.159537187;45.28381041;47.13980453;-16.68071912;1.00522195;-4.546553029;7.817734702;-40.55113201;1.312518813;3.328224947
27.5760679;-26.26160279;-1.528507007;-34.20487127;4.081514893;-0.629328649;20.90696508;25.86149451;24.84977991;0.113844603;49.80883788;50.63884398;-19.95320994;1.053759197;-9.086213603;11.03963453;-40.19049752;8.092151118;4.53691404
28.22684213;-29.59542545;-0.891649385;-59.39073182;1.710853355;-0.569356122;21.37769694;17.93818975;32.75641723;-2.618950127;52.13278987;53.62879016;-21.99313292;1.652392992;-13.66030433;17.3608876;-40.17196746;17.1963297;5.963026993
28.41264853;-28.80730223;-0.283120803;-82.31091335;-0.785363012;-0.378905348;21.31968219;7.636945068;37.62473683;-7.090208391;49.79403415;53.91397689;-21.77175138;2.973392096;-16.78077709;23.94015557;-38.58280818;22.75669326;6.944441886
28.57569438;-26.09293499;0.249612281;-88.45587464;-2.581497645;-0.266088906;20.80725858;-0.172241785;34.8543479;-12.27054569;43.65560759;51.05209143;-19.40868249;4.547000792;-17.46053714;27.95732627;-35.43174064;21.58223203;6.965810067
29.29337904;-23.61928049;1.124692994;-75.3380959;-3.123557311;-0.366942467;20.31712626;-2.0951417;23.97401072;-17.16977925;37.78159853;46.96327409;-16.04895997;5.787419938;-15.15611009;28.84448379;-32.53479045;15.4830821;6.065726871
31.02895711;-21.88807331;3.058760153;-54.63078852;-2.40221093;-0.600345811;20.27074401;1.983100893;9.66409822;-20.47202912;36.43102218;44.79807737;-13.17017207;6.563474978;-9.692604954;28.60097405;-31.72855542;9.74608108;4.877623795
33.69145829;-19.93167888;6.280717123;-42.72729107;-1.02599109;-0.730108102;20.64042996;9.148513193;-1.233557937;-20.83390371;40.5712055;46.72976449;-11.80853205;7.235291314;-1.707594294;29.93319943;-33.13407274;9.024018527;4.232295044
36.40607306;-16.77566723;9.896209926;-47.29242041;9.09956E-05;-0.587691735;20.98627143;15.3882228;-4.567044129;-17.94500234;46.87900959;52.22212567;-12.19214258;8.12119482;6.679080206;33.8142819;-35.05692264;13.9008109;4.595170445
37.85335081;-12.67703297;12.18631916;-60.64624281;-0.252259748;-0.25034437;20.8832343;17.8754892;-1.731644831;-13.46210299;50.17541804;58.10643563;-13.92034664;8.939921836;11.97274196;38.52806781;-35.53451879;20.72955566;5.754330531
37.09268582;-9.087280716;11.80926065;-65.40298011;-2.146218967;-2.08159E-05;20.33216225;16.26280833;1.892621556;-10.68503618;47.33841313;60.5361528;-16.4321999;8.82804061;10.85433334;40.96030908;-34.03596693;24.63563073;6.9909944
34.30851955;-7.529947416;8.952905928;-48.16492538;-5.298247905;-0.086465991;19.76547488;12.39007813;1.768375547;-12.72225987;39.49424256;57.4773647;-19.37092214;6.997231298;2.520958311;38.99230094;-31.76384771;23.12180698;7.59760244
30.85678586;-8.482535164;5.355492682;-10.90091287;-8.873391557;-0.502303528;19.64024726;8.785483079;-1.699466307;-20.24567237;30.80109094;49.94025661;-22.63588394;3.471129606;-9.977955973;32.99955599;-30.38643465;17.48415905;7.353999617
28.46415225;-11.20890435;2.996261702;28.46036448;-12.19420914;-0.975647805;19.99998878;6.965399286;-3.402951882;-30.5769318;25.07288841;41.07886597;-26.2123904;-0.776576884;-20.92166712;25.34366581;-30.49626396;11.26399155;6.626057321
28.09423505;-14.5566414;2.443318316;46.59900833;-15.22566057;-1.193555428;20.41866912;6.553751095;1.787423342;-39.08596213;23.2389024;33.91185079;-30.01301706;-4.442884424;-25.32912472;18.50764044;-31.26616173;7.372396623;6.052837374
29.30092416;-17.8984665;2.273851727;29.0886396;-18.52914104;-1.06091927;20.38602067;5.703616065;13.65664474;-42.17044374;23.66505727;29.4642671;-33.86092726;-6.749488102;-22.34357109;13.57932784;-31.53797949;6.304950106;6.084636731
30.56409472;-21.35565254;0.19376464;-20.93425433;-22.64839911;-0.765820102;19.78169339;2.525181831;25.29046966;-39.74486985;24.61594344;26.73489228;-37.54285548;-7.789418728;-15.94463483;10.26387358;-31.15643413;6.560797579;6.700833494
30.38338182;-25.14930385;-4.924976016;-84.3839761;-27.35196507;-0.596537868;19;-3.38921507;27.42725407;-35.34323243;26.18281157;24.35169197;-40.78321509;-8.093248742;-12.12846168;8.090756093;-31.13179107;6.375403151;7.458174355
28.35122594;-28.71915306;-11.72111638;-135.8546694;-31.34963927;-0.679256076;18.60726071;-10.3535343;15.5304695;-33.62528952;29.68266129;22.35217567;-43.12093179;-7.870523375;-14.42216629;7.417395427;-32.40087065;5.008914521;7.775678637
25.46108375;-30.46490503;-16.900404;-154.9720033;-32.8305613;-0.874507221;18.84182371;-15.38421376;-5.941074016;-37.03884119;35.21583396;22.42135083;-43.86290579;-6.695226231;-21.08071347;9.168998533;-34.4089043;2.702802983;7.246189209
23.47977937;-28.47033467;-17.38560056;-134.0189607;-30.58696823;-0.921947972;19.41195924;-16.01316668;-25.73075127;-44.09484789;40.16766106;26.26404203;-42.31512245;-3.993939864;-26.22176328;13.59936993;-35.03381753;-0.059215503;5.82157801
23.86203948;-21.79832056;-12.50297724;-79.97708614;-25.00153613;-0.694256945;19.76876186;-12.00305825;-33.15916891;-50.54633052;40.79226242;33.47830704;-38.27301703;0.080812537;-24.20291191;19.38864138;-32.18068462;-2.782358248;3.839154899
26.93057977;-11.4829107;-4.584179042;-11.92100662;-18.16479635;-0.32248643;19.59822353;-5.798676865;-25.25448667;-52.570472;35.9953969;40.89105438;-32.45358613;4.24050668;-14.0168317;24.12354218;-25.77085893;-4.38541113;1.916702116
31.76658188;-0.485479821;2.45252372;44.86293962;-12.90865043;-0.07700177;19.08078715;-1.287319426;-8.291516457;-49.52109709;29.78874653;44.24484891;-26.45852085;6.626755087;-0.396028298;25.89825356;-18.34312277;-2.82602986;0.732903943
36.74056294;7.513302084;5.500624158;67.2335857;-11.26457367;-0.116544555;18.69;-1.542066064;7.296557586;-44.15762624;29.33081163;41.20030868;-22.11740768;6.027547398;9.218125797;24.67615361;-13.59317053;3.911829442;0.718995992
40.26982679;9.931113535;3.976810984;43.59288078;-13.28660906;-0.340969633;18.73124139;-6.946652654;14.55111782;-40.2291466;39.08254424;33.40447787;-20.52245589;2.804300054;9.600974772;22.21;-13.93774805;15.69819774;1.773199394
41.40091991;6.756813046;-0.191143057;-19.18731351;-17.00452045;-0.486692515;19.05643311;-14.91496373;14.2613744;-39.3660788;55.47172669;25.90658607;-21.37472206;-1.243640689;1.005592681;20.59283431;-19.0271822;28.86733209;3.197965378
40.04935615;0.798873479;-4.04820386;-95.9974301;-19.58144371;-0.377259056;19.21885087;-21.40529329;12.86562784;-39.77187876;67.02352076;24.12257117;-23.13592988;-4.022495812;-11.40880563;20.71753825;-26.30316987;37.47;4.006473083
36.92619672;-3.617093252;-5.397746215;-153.2368907;-18.98578734;-0.095081269;18.9135538;-23.26719496;16.1455436;-37.77403527;61.14891083;30.38383085;-23.96026083;-4.44367688;-21.25449649;21.94906084;-32.96863081;37.05757263;3.505112277
33.224968;-2.987425655;-3.772245802;-164.7964896;-15.15059072;0.089063157;18.28240608;-19.94447201;24.10018364;-31.01062234;33.37774205;42.44114646;-22.82664399;-2.927959834;-24.8646278;23.14710428;-37.6541177;28.36495619;1.790914028
30.12868712;3.239571674;-0.260596837;-125.7951257;-9.911465891;-0.031467668;17.7916625;-13.53112116;31.11456024;-20.70478713;-7.80921691;54.89661221;-20.12057983;-0.827661376;-22.85834787;23.93376322;-40.54607426;17.64033674;-0.235994686
28.26607565;12.11398275;3.354901998;-55.36614917;-5.787027176;-0.395640466;17.79493649;-7.280242394;30.98704247;-11.17243819;-44.76777584;62.49647443;-17.27528113;0.667733826;-18.72694289;24.93989367;-42.25170947;12.63970879;-1.442237989
27.37908233;18.82218556;5.481002787;14.11958759;-4.396857868;-0.710594939;18.19344419;-3.623624887;22.41167577;-6.8745304;-61.11555844;63.05216976;-15.72993711;1.247425963;-15.99440083;26.82490689;-42.76858775;16.8986024;-1.253949257
26.47502547;19.74160425;5.249525182;55.24338317;-5.53;-0.700989368;18.51778396;-2.950226806;10.35190279;-9.248100057;-51.74883363;58.2242362;-15.93230877;1.345787632;-16.13208548;29.11945676;-41.61811442;26.75965895;-0.078258952
24.48709535;15.00729085;2.714781228;59.82986681;-7.440882352;-0.351032923;18.36173031;-3.769314936;2.333428034;-15.7120028;-25.48972493;51.9986093;-17.06392525;1.448059881;-18.33902331;30.17305082;-38.87215286;33.8812695;1.00759476
21.07332818;8.724562078;-1.187866532;40.54557297;-8.141662552;0.077086835;17.76613655;-3.951478106;2.870270626;-21.53904975;1.314015963;48.15044415;-17.64012251;1.547147957;-20.71566189;28.4466109;-35.80251815;31.67209987;1.0951656
16.97904061;6.406891746;-4.945689066;19.67118598;-6.809350846;0.264797593;17.19187848;-2.13786283;10.53858865;-23.09502859;15.44878283;48.34950223;-16.52367092;1.221759636;-21.59824814;24.04066976;-34.22160504;20.71527651;0.159300198
13.62500038;11.21218209;-7.078190949;13.50507003;-4.358291359;0.101776125;17.09970928;1.53929545;19.74498905;-20.00243461;14.22028234;51.79395189;-13.63372574;0.175580254;-20.23767736;18.98668945;-34.94360472;8.72346413;-0.936935702
12.15573954;21.61551903;-6.865215089;23.17308912;-2.795290181;-0.237621061;17.52129213;5.7236529;25.30827891;-14.7807258;4.922689717;56.14518746;-9.899421025;-1.344998795;-16.86694377;15.85467647;-36.83282578;4.783477866;-1.165823572
12.64523744;32.31534152;-4.748030159;37.2151614;-3.797368383;-0.464502469;18.01855614;8.761078591;25.94935602;-10.55739509;-2.195854758;58.90694264;-6.575651627;-2.683353445;-12.57288229;15.75217803;-37.53513404;12.298181;-0.195424266
14.08995217;37.85710594;-2.033517049;42.52735583;-7.47943502;-0.430527739;18.07355146;9.645915231;24.17022411;-8.84295738;-1.600029297;58.49626759;-4.472726513;-3.331888935;-9.07419163;17.41771101;-35.46347311;26.25618249;1.334525768
15.21818644;36.36822546;-0.010848121;34.70078492;-12.19018279;-0.238597794;17.55479647;8.462289246;23.30036732;-9.039020381;4.765685509;54.7271471;-3.641008987;-3.376674287;-8.125236591;18.23429733;-31.33477943;37.09993752;2.35670018
15.47871971;30.62467934;0.900689833;20.31873859;-15.47507204;-0.120937573;16.83446919;6.178419213;24.69918568;-9.705836995;10.74380437;48.77096034;-3.639852773;-3.389281006;-10.46318981;16.35253909;-27.79119179;38.15586427;2.272789701
15.4077336;25.68353601;1.311581637;10.59517357;-15.55672886;-0.211301845;16.45023599;4.037942726;27.4419087;-10.13982833;11.73530124;42.70758269;-4.05593976;-3.846430143;-14.89393639;12.16231632;-27.27803132;30.67323726;1.42341037
16.07861425;24.99864044;2.209861412;12.26146242;-12.35135578;-0.427966327;16.62187626;2.972512516;30.18478656;-10.75864499;8.123027133;38.74476409;-4.789634481;-4.606440323;-18.4694676;7.927973848;-29.95332174;22.43819846;0.719035343
18.10587445;28.11720803;4.063575343;22.96074788;-7.388839588;-0.570456272;17.06324678;3.364761559;32.89260924;-12.10621996;4.100920951;38.29716999;-5.896556221;-4.936369197;-18.10598589;5.982085166;-33.47973492;21.15673722;0.761575885
21.04861666;31.70459138;6.451049118;34.11286045;-2.773528545;-0.527162378;17.2561957;5.199456102;36.54074061;-13.69343903;3.62796997;41.32891275;-7.208111165;-4.097484796;-12.74095383;7.052051618;-34.94975161;28.05151776;1.253440523
23.70984195;32.82928639;8.500078125;38.1547591;0.044677001;-0.387871207;16.92899822;8.343347946;41.19994741;-14.0519607;7.222837609;46.38656089;-8.175086635;-1.99740087;-4.357818326;10.05567605;-33.30287271;36.89475747;1.254441031
25.05187692;31.52576556;9.662672489;34.07827796;0.867365004;-0.350238065;16.29835279;12.6037297;44.74353571;-12.1386167;12.03295885;51.40389521;-8.182591267;0.652580648;3.174964978;13.32334777;-30.1139712;39.20259165;0.092287505
24.92307943;30.32441372;10.04758683;27.22771066;0.425172161;-0.510503795;15.85724168;17.43138692;43.9462537;-8.759646687;14.57306495;54.83261849;-7.131048008;2.821171974;6.79346555;15.97269551;-28.04155715;31.27307064;-1.881179633
23.98078922;31.19184948;9.99382681;24.23480457;-0.460578746;-0.744599892;15.9114388;21.52871505;37.37676061;-6.43479678;13.47842428;56.37904622;-5.762212829;3.894754627;6.40537339;18.17893348;-28.30523897;17.30814299;-3.407581771
22.93108561;32.79048374;9.370582241;27.62162444;-1.50690733;-0.804845949;16.29593065;22.87721395;27.48816276;-7.454390603;10.08938897;56.88392751;-5.33575626;4.084184905;4.731647045;20.26741353;-29.46007813;6.150612624;-3.288012832
21.82590901;30.89668997;7.442630255;34.30937537;-2.929450747;-0.553423541;16.53070541;19.51927568;19.68217132;-11.6622908;6.871921282;57.5025395;-6.773026818;4.201491866;4.879353064;21.74255926;-28.62234073;4.407493194;-1.406828593
20.09752263;22.0965278;3.633728661;38.72804533;-4.878265452;-0.117392359;16.26644577;10.8380264;18.68242267;-16.04910448;5.44620939;58.82930725;-9.878499409;5.011944298;7.659316749;21.42025218;-24.1325184;11.58738095;1.080126535
17.31486548;7.765727;-1.426373304;37.56326179;-6.930390768;0.188497751;15.60502132;-1.507253109;25.04047591;-16.87977221;5.898823974;60.57665599;-13.29361341;6.668249135;10.96949954;18.69792144;-17.33064573;21.07223789;2.60453758
13.94369421;-5.37786;-5.661853167;32.24802517;-8.142794295;0.117561536;15.0011227;-13.86841464;34.70753898;-12.8459188;7.51401267;61.92438744;-15.33560887;8.615753841;11.8273919;14.76007813;-11.83581959;25.88049888;2.406400274
11.3333101;-9.312727139;-6.65659747;27.49198179;-7.662918237;-0.293547943;14.8428272;-22.27868817;42.11206511;-6.585337878;9.733474185;62.14854976;-15.18011538;9.966425543;9.279824624;12.38041659;-10.85716446;24.32858111;1.0980385
10.81797042;-0.640315528;-3.448753685;27.37976;-5.396693737;-0.74072568;15.10432358;-24.61462082;44.21574842;-3.017929918;12.25814482;61.0306501;-13.51224373;10.01674857;5.532136995;14.14184062;-14.75530794;20.97633457;0.092163609
12.63261812;16.23101309;2.425713999;32.26225826;-2.166186311;-0.891228544;15.39038631;-21.79355272;42.19348295;-5.554777161;14.42472455;58.85675157;-12.10426651;8.560565038;4.114726569;20.34506586;-20.85703041;22.27905036;0.378480475
15.57021299;31.45546347;7.65481341;38.72499079;0.795257557;-0.644766423;15.32221021;-17.05003906;39.46095643;-13.17916228;14.93011247;56.188787;-12.5671872;5.873199513;6.556542036;28.30542401;-25.6096318;30.73106808;1.692338084
17.72547486;36.20443917;9.262871987;42.37995251;2.616684999;-0.200251254;14.89594913;-13.67531343;37.95883831;-20.91560615;12.62425363;53.67522427;-15.17144092;2.485238061;10.53530557;33.72809647;-27.2235274;42.40016843;2.782373317
17.7687216;28.44332702;6.539540833;41.16503434;3.222718353;0.117558703;14.47579257;-12.80876159;36.10268011;-23.52930254;7.819095288;51.95447353;-18.61637563;-1.060333574;11.3864697;33.24393701;-26.64678785;49.83148612;2.535132659
15.7546558;13.71620754;1.281263378;36.6829025;3.111362165;0.114601398;14.43169526;-12.93679465;30.29830381;-19.59142779;2.729811597;51.49895346;-20.93043656;-4.358278379;5.977318922;26.3303586;-26.23855532;47.87345376;0.973344743
12.87288757;0.530303447;-3.803800013;32.73924011;2.715797581;-0.146909017;14.76926161;-11.49988544;18.72063667;-12.61970479;0.241414579;52.3225825;-20.83007813;-7.19627216;-4.258967548;15.39894024;-27.47279722;37.68923627;-0.74356119
10.43055346;-5.870388591;-7.162291012;32.30221601;1.935081125;-0.438932628;15.10785243;-7.345836909;3.966033335;-8.324170518;1.748119787;53.75725945;-18.52388482;-9.541964549;-13.87161623;4.246181219;-29.70652257;25.81728767;-1.317900361
8.950167632;-6.490443529;-9.212242692;35.15376787;0.262912402;-0.569438095;15.0337031;-2.028972095;-7.945828365;-10.18137476;5.874736926;54.64082087;-15.39355333;-11.46540473;-17.36589736;-3.879876128;-30.96190727;19.17424502;-0.440913985
8.073046644;-6.357243681;-11.32421507;37.94362452;-2.584624444;-0.511620475;14.49680162;1.18077712;-11.65029968;-16.93816787;9.347869554;53.99982022;-12.86634608;-13.01032234;-13.49901853;-7.416501749;-29.85264012;20.02601701;0.934416965
7.195935473;-9.452941069;-14.02477593;36.66909615;-6.099121361;-0.36734187;13.87183219;-0.133654767;-6.354644797;-24.00352515;9.494298179;51.82177528;-11.40602296;-14.09078841;-6.34926657;-6.553215412;-26.86019182;24.76490696;1.414280133
6.147221386;-15.31189754;-16.16866495;29.90279844;-9.022395115;-0.234040521;13.61463714;-5.451296515;3.615895977;-27.39047131;6.370700075;49.27025518;-10.40679964;-14.52323054;-2.156616295;-2.740634816;-23.88034607;27.17328681;0.367463291
5.27666195;-20.021623;-15.92262195;20.44356186;-10.08119769;-0.121902606;13.82842386;-11.46802815;12.14271959;-26.74236526;2.737397349;48.02829824;-9.002271619;-14.22242716;-4.413125632;1.834207382;-22.56950942;23.3869884;-1.528607713
4.976356694;-20.35499949;-12.69686729;13.93157802;-8.920473989;0.004343976;14.14884969;-14.46889709;15.8908321;-24.87333337;1.867628451;49.16211981;-7.04339493;-13.42847516;-11.17755306;4.802700188;-23.03683276;14.69739446;-2.863491103
5.222765588;-17.06155927;-8.192352368;14.93698431;-6.52922122;0.124571145;14.06899801;-13.06744743;16.54998218;-24.41171551;5.001168175;52.36717512;-5.381679426;-12.74194442;-16.80264026;4.472730609;-23.99;6.278467012;-2.683033984
5.671120578;-14.27736309;-5.423943122;22.94867831;-4.77910867;0.132284112;13.41584607;-9.110741501;19.05431985;-24.78565534;10.5149897;56.2162955;-5.204407581;-12.85083286;-16.6486427;0.866814792;-24.0475538;3.139606842;-1.264347821
6.212166356;-15.65791459;-6.372974739;31.22527702;-5.321335805;-0.073756894;12.53869737;-6.010078125;27.25255144;-22.54119903;15.37461147;59.21574234;-6.986085752;-14.08491603;-10.91563641;-3.823905172;-22.90519747;6.532824469;0.174352793
7.349687017;-20.88474224;-10.23384347;29.96416155;-8.549752012;-0.460043945;12.02329471;-5.852568173;40.38818086;-14.96184251;17.49779767;60.78208765;-9.95289971;-16.11897701;-4.484782181;-6.157628556;-21.30223245;13.37304341;0.548465187
9.862507934;-25.89300871;-13.83740814;12.36872946;-13.3085744;-0.832422913;12.17688908;-7.641603189;53.00224699;-3.786030439;17.005562;61.3204462;-12.52808387;-18.07910499;-2.961550325;-3.581889179;-19.94838296;18.75931606;-0.179478219
13.92910475;-26.77562325;-14.02522403;-20.19738697;-17.53812689;-0.966954459;12.74537962;-8.072463425;58.25456569;4.624054338;15.47439568;61.39173909;-13.40662725;-19.01187099;-8.19942888;3.568802844;-18.5648161;19.45750791;-1.020014648
18.54014975;-23.88496574;-10.06489032;-57.78553457;-19.46123426;-0.79684672;13.12268305;-4.158192717;52.26614501;3.441034792;14.13900635;60.79406345;-12.39608078;-18.39454403;-16.91752718;11.88324217;-16.03441923;15.81369549;-0.845101259
21.92268251;-22.29549883;-4.124206421;-87.1460137;-18.60471989;-0.48511941;12.87284504;4.461005152;36.59412849;-9.196706254;12.84106507;58.47602205;-10.38305996;-16.34136139;-23.41096499;16.99529586;-11.54408534;11.02481255;0.671382535
22.83788123;-27.90452954;0.545168201;-99.69297974;-16.08611206;-0.302783581;12.10395823;15.33567668;17.44244202;-27.99363232;10.65363204;53.43265402;-8.533746986;-13.41803885;-24.02666764;16.66578915;-5.619203156;8.663641275;2.881854047
21.73099124;-42.31903281;2.133631402;-96.82734428;-14.03921532;-0.406440617;11.36446396;25.11281182;2.377803337;-43.69448283;7.412680974;45.7957354;-7.454790657;-10.28260633;-19.77743285;12.49142832;-0.032041551;10.36184548;4.859761107
20.65831471;-60.86791412;1.384192501;-88.70459622;-14.51105292;-0.706836829;11.1580275;31.7635213;-3.342409525;-49.44976808;4.490920788;37.1020788;-7.000243631;-7.451801789;-15.14970571;8.795958619;3.380874675;15.08335851;6.271394527
21.85601997;-75.49341165;0.471922434;-87.01301116;-18.39668758;-0.945846762;11.50930835;35.24807086;1.151683192;-45.39272753;3.905510988;29.45396543;-6.772376823;-5.292537677;-14.29603716;9.450524126;3.941944423;20.10553975;7.593880836
26.00219549;-80.15457941;0.824828577;-96.75425864;-24.91894618;-0.916108901;11.95986017;36.27874456;12.66986226;-37.77007813;6.529634627;24.31762356;-6.721575561;-4.074718371;-17.77298143;15.08609627;2.328923346;22.74933857;9.472295311
31.60675898;-74.332315;1.9480932;-112.9836418;-31.88882294;-0.63096039;11.98477435;34.63489362;26.16215679;-33.3544639;11.15353171;22.05522145;-7.193457677;-3.874217087;-22.29989211;22.89884942;-0.335819256;21.71326687;11.82649237
36.12438612;-62.03288259;2.311699509;-124.9685072;-36.63828317;-0.298798646;11.45023136;28.89365792;37.41541599;-33.7435874;15.43058309;22.57182376;-8.352827616;-4.341669057;-23.45138257;29.13842719;-3.539406531;17.43305859;13.58382955
37.96374173;-47.69212154;1.383014742;-124.6871308;-37.22678532;-0.133365423;10.70972183;18.07;44.77749562;-34.26404368;17.96;26.31319612;-9.591229923;-4.616774286;-18.97600399;32.14893681;-7.508826058;11.60029893;13.37728732
37.76238877;-32.97717286;0.745873715;-113.2080489;-33.38420469;-0.176745707;10.27194122;3.729665387;49.05687949;-28.38897984;19.57195506;34.38308252;-9.642096676;-3.659138344;-10.26600436;33.39986748;-12.29319018;6.32643763;10.67962951
37.84174786;-17.34464612;3.027911162;-99.99538147;-26.73298829;-0.292276064;10.35478933;-9.578932432;51.8276556;-13.97875426;22.47635395;47.30897586;-7.52063676;-0.922529868;-1.24107025;35.69715325;-16.76902881;3.367849606;6.415212009
40.24522875;-1.42111864;9.404792;-95.59090449;-20.13458011;-0.321008525;10.72460368;-16.48351745;53.42127597;3.917961276;27.86637368;63.37554073;-3.583850562;3.093348864;4.109059244;40.213059;-18.72941235;3.59680997;2.490180481
44.95849731;10.64;17.91995777;-103.3191142;-16.42461051;-0.242794731;10.94388663;-14.224167;52.22068817;16.18713313;34.10241234;78.17941004;0.27244197;6.924843431;3.651359263;45.0016008;-16.27224195;6.770913609;0.570779002
49.78939553;12.90410184;24.35416851;-116.5553352;-17.13443387;-0.184796979;10.77829905;-4.758901369;46.04047493;16.34054021;37.2824614;86.32126027;1.667936706;8.945193257;-2.433630944;46.37281797;-9.455153803;11.65144015;1.053622438
52.02401287;2.677531576;25.23235459;-123.8679531;-21.84055479;-0.272971584;10.38565515;6.245800156;34.72201872;5.497424779;34.0040558;84.41308117;-0.603531;8.381825645;-12.25750728;42.00079878;-0.780458971;16.50435106;2.991987647
50.50902194;-15.54830226;20.59805618;-118.1925637;-28.47643715;-0.47860536;10.13103339;12.96908977;21.78338752;-8.260897088;24.15603248;73.29319328;-5.566068761;5.805810982;-22.98660876;33.10968836;6.071394619;19.87235163;4.942149942
46.47058899;-31.36026789;14.17390969;-102.9033102;-34.43323191;-0.620518849;10.22430504;12.98154726;13.27603304;-15.61480501;11.4036302;57.70348288;-10.57020773;2.707005249;-31.40979729;23.85091414;8.430772545;21.29357221;5.973041892
42.44527852;-34.89299857;10.58222235;-89.84649699;-37.85634012;-0.532896437;10.52934191;8.24605124;14.04388454;-12.35715094;0.869383125;43.52982943;-13.04305416;0.469448249;-34.67468565;18.37773808;6.158694435;21.55239436;6.044166011
40.25830929;-23.87620439;11.74655871;-90.48172625;-38.46038769;-0.241572271;10.71470549;3.032734403;23.93237394;-1.665870357;-4.185580875;34.56744379;-12.21377396;-0.470677025;-31.48627217;18.05259851;1.43461774;22.22667701;5.587210344
39.72569536;-5.593524214;15.36152926;-106.6072229;-37.47822939;0.028981116;10.58445091;0.544883078;37.11158528;9.001314032;-4.087577273;31.0907089;-9.527594486;-0.670359055;-23.23670438;21.02561148;-2.898720068;24.69728079;4.83279818
39.08448474;8.188911831;16.70927154;-127.65923;-36.84341387;0.042647952;10.26166504;0.86400907;45.64922517;13.5484903;-1.684482121;30.99496339;-7.461744287;-0.982860777;-13.93905839;24.31466702;-5.11022537;29.17103131;3.57820214
36.68272607;9.688306015;12.41491628;-136.873503;-38.09436479;-0.229897729;10.04918806;1.554170677;45.0940005;11.01306775;0.367848667;32.20644013;-7.689319777;-1.772075833;-8.370807503;26.3822379;-5.245352461;34.35327412;1.591738814
32.45386245;0.518036999;3.178203628;-122.200333;-41.58083296;-0.566634567;10.11010414;0.077880259;37.8436569;5.057525269;1.562514796;34.18090737;-10.01183916;-2.710244953;-9.282545716;27.91261477;-4.481467018;38.06688188;-0.810950728
27.97850317;-10.0368377;-6.639030068;-84.47510682;-46.33886199;-0.678337637;10.28768207;-4.107129508;31.4104111;0.36624625;3.203142608;37.34650545;-12.82138249;-3.269890539;-15.62179549;30.25251542;-3.989565147;38.51147969;-2.678348572
25.19266605;-12.32502529;-12.17110716;-37.32339911;-50.63320392;-0.46515384;10.25054984;-9.33987576;32.63219115;-0.726807484;6.376035136;41.33500303;-14.60759203;-3.390898293;-23.28173301;33.16921741;-4.288149752;35.37778351;-3.027078577
24.91519207;-3.371793928;-11.43460802;0.979575589;-52.84629278;-0.113492903;9.831931943;-13.26093383;42.30635797;1.109006087;10.3166713;43.99614408;-15.21338583;-3.668356584;-28.02495218;34.22046989;-5.394997354;30.05137609;-1.661442036
26.40637497;11.65857036;-6.385748432;18.15293774;-52.25766213;0.062354663;9.235307681;-14.50238438;54.63581259;4.054594959;12.77403372;42.4607578;-15.81411374;-4.874581241;-28.42784165;30.54384045;-7.28966032;24.72538151;0.537714861
28.18447844;24.16077996;-1.058153689;14.22104664;-49.3392451;-0.10115111;8.893862813;-13.16100595;62.04854483;7.255981109;12.03916871;35.55488079;-17.69646965;-7.258829239;-26.54796177;21.5975901;-10.03343852;21.02912086;2.186138008
29.24712054;28.64474163;1.52930171;-0.054364363;-45.43632083;-0.467520796;9.094176622;-9.962520832;61.41624527;11.2281961;8.715307156;25.44283207;-20.9177832;-10.27673133;-25.80527576;10.37237158;-13.42040489;19.17600851;2.414312161
29.61470367;25.82863777;1.242398822;-10.8789111;-42.00564633;-0.718884338;9.70348153;-5.223579354;56.36157525;16.57035613;5.51907013;16.82124686;-24.00784813;-12.99924941;-27.86693291;1.781875846;-16.64671112;18.26131938;1.496169941
29.8576316;20.3653211;0.255037611;-9.881535617;-39.81238749;-0.640041504;10.25681849;1.263900677;53.58832136;22.67616707;5.203622478;13.98510022;-24.989668;-14.81753763;-31.17730626;-0.674296524;-18.53824799;17.40769402;0.552717148
30.23303281;15.95819161;0.848733284;1.916024439;-38.52769709;-0.312236346;10.33741245;9.370602635;56.41516042;27.92833429;8.419782174;17.93248956;-22.89615898;-15.79085743;-32.39076246;2.637886076;-18.31217021;16.69578927;0.568115742
30.34016528;12.47379833;3.553945786;16.45958325;-36.97025115;-0.038303089;9.916883171;17.79901936;61.39177928;31.17428215;13.39408482;25.75293215;-18.55635375;-16.3344573;-29.46982118;7.877151982;-16.23683521;16.93678366;1.540512287
29.59338302;7.329028399;7.028534819;25.06348401;-33.8740108;-0.06308244;9.357244314;24.32401705;61.41914391;32.87130407;17.64804983;32.75286769;-14.02915215;-16.58438393;-23.73235035;10.64267992;-13.5265496;18.37605622;2.480351272
27.94664938;-0.713586499;9.462690766;24.31902477;-28.7364763;-0.341614685;9.081372573;27.12573362;53.00732425;34.58292699;20.13296717;35.6191178;-11.15280492;-16.09704186;-18.97281114;9.128925427;-11.43516533;19.55392686;2.256284837
26.04276172;-9.330827131;10.10671425;17.76801598;-22.2207075;-0.569356374;9.212774504;26.14347312;41.15382224;37.20887082;21.81341247;34.2093967;-10.35462052;-14.2258601;-18.27410671;5.166513034;-10.23784212;17.71735021;0.579984825
24.55757436;-14.26682586;9.661999677;12.63797998;-15.83421442;-0.453849899;9.501780978;23.24971491;36.73025981;39.7380778;24.21950644;30.82861623;-10.60097672;-10.85014275;-21.16230686;2.581073428;-8.946846839;10.99210399;-1.68712741
23.37352604;-13.24955786;9.439242863;14.20137484;-11.05641727;0.013459804;9.58525381;21.01176482;47.50437515;39.97915719;27.43298688;27.94302471;-10.42155036;-6.74499113;-23.58317586;4.367200175;-6.037792125;0.803885348;-3.15158536
21.47941938;-8.363863503;10.23223865;21.80649245;-8.448900789;0.532222421;9.324637591;21.00225045;69.89720219;36.86484101;29.56146181;26.39873285;-9.110177238;-3.165672556;-20.90023142;10.84776305;-0.655171638;-7.711003171;-2.919976813
17.8497667;-4.44857144;11.90258324;29.4410899;-7.31;0.743955344;8.910260365;22.97565029;88.95581093;32.26920877;28.39804472;25.48333602;-7.146793596;-0.940068359;-11.61272619;19.90120142;6.599288388;-8.394241473;-1.223589521
12.58324542;-4.848064331;13.83843153;30.54348481;-6.096119338;0.539996452;8.651990871;25.45937816;87.91578683;30.44281967;23.86273401;24.38064303;-5.594902515;0.143771407;1.155659602;28.60978247;13.84490701;1.530574008;0.820276551
7.213744786;-8.441594099;15.62658786;23.6473222;-3.345975302;0.153852895;8.672318163;27.13265044;60.78772932;35.14231826;18.91054749;23.37618295;-5.081229345;1.082578552;11.61079222;34.80895628;18.89606948;18.56345606;2.061420205
3.761687514;-10.81982889;17.22311888;14.48794981;1.465903252;-0.04522928;8.79914059;27.81824184;18.21114166;46.60355507;17.78021834;23.59394954;-5.259128172;2.722719388;15.21175102;37.55498685;20.36386143;34.21511403;2.086680138
3.228821439;-8.672940815;18.56802326;12.35227478;7.657738505;0.124188293;8.752397673;28.39959223;-18.60279225;60.81467945;22.77334032;25.5823917;-5.193237439;4.956062037;11.62337197;36.72539793;18.26216836;40.21954828;1.354934676
4.821504764;-3.386838102;19.2238185;22.58962721;13.78209338;0.500276567;8.431796874;29.95955199;-31.96172862;71.75918597;32.16634594;28.22549374;-4.306055541;6.762320527;4.617276077;32.61652628;13.91003906;34.20293717;0.70599062
6.630521603;-0.40615726;18.57158375;40.54155656;18.47647395;0.725926689;8.018670844;32.99343083;-19.54589934;74.94408763;41.07290739;29.15553883;-3.064322964;7.062513575;-0.769851976;26.01007813;9.3024039;21.50877339;0.725072505
7.237118229;-4.712027306;16.4436636;52.02487197;21.20164168;0.566837724;7.791476028;37.24935087;4.756810508;69.62365563;44.70383976;26.41075361;-2.808482336;5.616679874;-1.549301005;18.34991871;6.246821825;11.45007813;1.457206315
6.865541785;-16.36985195;13.51325522;41.41439587;22.45562851;0.118279832;7.838607092;42.01736209;21.48999345;58.38471259;41.52291056;19.89720725;-4.823417919;3.163723689;1.777082205;11.39381889;5.543166754;10.50772892;2.577305544
7.056654234;-30.18149165;10.91348829;2.78121897;23.38450673;-0.278673868;7.956792671;46.32222314;19.5719387;44.97426335;33.92614205;11.40219635;-9.339864664;0.709118152;6.314424944;6.312515626;6.507570815;17.5892818;3.725418385
9.130876357;-39.83956492;9.320543539;-53.52422905;25.05140862;-0.332577856;7.844201429;48.82179918;3.199400021;32.44231401;26.14072551;3.26813025;-15.19534761;-1.331077933;9.158022595;3.021963072;7.184367745;25.12230623;4.659816454
12.81154501;-42.87260836;8.36120273;-104.2942853;27.78966458;-0.04684329;7.40575679;47.82852242;-12.83284627;22.89053394;21.25010942;-2.948850569;-20.3844724;-3.28297243;9.132616425;0.580728737;5.402339228;25.27192641;5.160826516
16.2859042;-41.8821409;7.022721119;-125.8799083;30.99441414;0.295606732;6.868367691;41.9885763;-14.99641098;18.26613469;19.73502157;-6.620353436;-23.10714384;-5.501280592;6.8492985;-1.46497097;0.299468916;16.42214039;4.919833047
17.72571395;-40.96256296;4.832375304;-108.1433162;33.46182959;0.384806304;6.579177857;31.50710233;-0.690671625;20.57756698;20.36291647;-7.099966332;-22.63752425;-7.511951165;3.538042822;-1.996741875;-6.625636623;4.683308926;3.662434154
16.95856646;-40.76913202;2.750144285;-60.82065745;34.09403803;0.14549055;6.668932386;18.97889941;21.1166265;30.66797622;22.13501169;-3.033896207;-19.53902639;-7.969360091;-0.067661029;1.222484935;-11.89446639;-0.905156602;1.475021837
15.77204816;-37.2122938;2.800298431;-7.860039063;32.58654622;-0.216309766;6.907228243;8.784816958;37.56823337;46.48938021;25.22212965;6.874472277;-15.22327974;-5.68504659;-3.896318333;9.531200287;-11.99558063;4.341126695;-0.979609369
16.48260808;-25.57934232;6.497530004;26.69932062;29.70421918;-0.407315246;6.907126882;4.970087891;41.07226073;62.82731281;30.02353741;21.95372461;-11.22687479;-0.933285877;-7.888446315;21.33912089;-5.807251053;16.95322321;-2.657731201
19.93749524;-6.661976866;13.25844156;32.08905214;26.95734066;-0.297536923;6.502687416;8.841773068;33.00012081;73.48636887;35.48162471;38.28990505;-8.635265351;4.190997079;-11.37089209;32.04772185;4.24048933;28.20698151;-2.709630643
24.68597635;11.05094542;20.20765638;14.97797456;25.82690187;-0.008169316;5.940597744;18.03194035;20.32073819;74.77100748;38.67236248;49.80094659;-7.866416325;6.917114401;-13.14587165;36.53122019;13.35019678;31.38384034;-1.043272953
28.10995184;16.23930359;23.79688387;-7.390902172;26.97420722;0.222367792;5.681759857;27.87258055;9.342982097;67.66897644;36.58417383;51.56988049;-8.757674135;5.730482183;-12.26250301;32.63407766;17.31013039;27.30904296;1.565220926
28.61974428;3.684046046;22.19866231;-19.40203188;29.91064993;0.253640104;5.971161967;34.22243851;2.188199916;56.90915337;28.85955295;43.25503676;-10.76912572;1.59234934;-8.84467881;23.01160053;15.19130329;23.36879859;3.928652344
27.05146583;-19.93114114;16.70605573;-15.92337652;33.33476019;0.141162013;6.569517811;35.7492823;-1.876248979;47.52453368;19.06920651;29.89430022;-13.16104955;-2.60989288;-4.336299366;13.64918496;9.771758817;26.63563037;5.148064344
26.02049539;-38.88356104;11.01;-2.542095745;35.91380221;0.044868371;6.91631265;34.08120009;-2.872231026;41.61619766;13.01944048;19.14483351;-15.12463478;-4.066094437;-0.9784723;9.893455384;5.295744145;36.84678684;5.048889323
27.70347877;-38.82990248;8.780140144;11.29593881;36.98904646;0.057570844;6.607189327;31.9029663;1.397886724;37.83936968;14.98643344;16.68100458;-15.92496942;-2.000606959;-0.812281804;12.83845096;4.229387804;45.41407551;4.078063152
31.88377186;-17.31277799;11.2395001;19.89172786;36.74853487;0.127508102;5.767457401;30.63592185;13.12777207;33.79895244;24.61522203;22.94101133;-15.10188747;1.907574705;-4.696081507;18.75072781;5.507770777;41.82177705;2.824080863
35.92290583;13.79995109;16.42626258;23.87173174;35.81246073;0.142750474;4.973293136;29.53560265;30.93119154;29.04912739;36.89893603;33.42842458;-12.69458381;4.914022144;-11.76072054;21.94078733;5.634350829;22.54801937;1.595179263
36.73335698;36.21238866;20.59036058;26.90089684;34.61870952;0.078431224;4.766595969;26.76597726;48.82724953;25.92128917;45.35261156;42.10844241;-9.374022786;5.254382171;-19.56994777;18.88451573;1.739804233;-4.790991483;0.380812306
33.15807195;37.75866826;20.66010531;30.59041004;33.12931756;0.045241267;5.180342696;21.3824719;59.32176267;27.38270092;46.07127335;45.23552996;-6.34369281;3.23757984;-25.05414258;10.53301718;-5.858615057;-25.83606735;-0.852856338
26.82254174;20.29541817;16.05436249;32.56284374;31.08457464;0.179371394;5.698833185;14.52753581;58.19323722;33.82471357;39.77173278;42.92620938;-4.94057295;0.641105006;-25.96052117;1.26486036;-13.64677481;-29.40246536;-1.8809956
20.8017186;-2.771202348;8.726688928;29.20210301;28.54300175;0.47915422;5.70202373;8.935962089;46.90130082;41.72059225;30.58406385;37.82016903;-6.02855962;-0.920056152;-22.14850744;-4.450731779;-17.44147068;-15.37842891;-2.263313303
17.25249013;-16.9968082;1.650283608;20.14750196;26.17336119;0.758386694;5.012985369;7.263788768;30.69123098;45.55289249;22.85707677;32.46331289;-9.457069253;-1.212278368;-15.86878024;-5.003625167;-15.42211323;5.466844691;-1.70015577
15.97666116;-17.10310889;-3.033541363;10.03511049;24.9565093;0.782653669;4.067812061;10.55909548;14.41361627;41.62306384;18.54627232;27.72621325;-13.932989;-1.239758479;-10.56718148;-2.11407586;-9.295506345;19.51518754;-0.376813472
15.03185637;-9.233723113;-4.953004244;5.553586873;25.46826066;0.477819971;3.553244971;17.8247718;0.050990548;30.73320844;16.93410476;23.26562051;-17.51323888;-2.040502158;-8.717349841;1.13431834;-2.806376302;19.85787398;1.046792639
12.74685219;-4.267949376;-5.116796459;10.15127169;27.31680332;0.018798361;3.823582941;26.61333148;-11.95866938;17.6442779;16.35685698;19.07829556;-18.57850266;-3.616037766;-10.07845901;2.81310029;1.049819445;10.13519627;1.848641064
9.333038679;-8.269248313;-4.765648204;20.90881777;29.23722948;-0.295128713;4.601859497;33.95094897;-19.49331582;7.829755873;16.0950567;16.35271793;-16.78234836;-4.967171228;-11.77111629;3.204699484;1.832567681;0.237088389;1.75436808
6.691111687;-17.97285347;-4.442054208;30.32123451;29.83243467;-0.279813141;5.219421838;37.09373186;-17.70119273;4.102764396;16.80132347;16.72405208;-13.35954897;-5.13178761;-10.40179978;3.870643428;1.19654302;-2.049316633;1.134617356
6.61314439;-24.58889846;-3.902882515;31.62412556;28.41473777;-0.012508382;5.177092486;34.21677531;-2.32940094;5.526238456;19.39307564;20.70015765;-10.4840584;-4.196034718;-4.864597634;5.898901524;0.857723403;3.499968516;0.716734425
8.986196436;-22.17465253;-2.760425639;23.41551155;25.3083276;0.24512465;4.538034105;25.29221498;24.84189462;8.947299318;23.73256508;26.85171573;-9.964743551;-3.307678824;2.312120887;8.968753326;0.915708848;10.9858638;1.021706801
11.61352903;-13.23828919;-1.196324414;10.0592144;21.41777203;0.279132733;3.82447175;12.86175975;53.61540805;11.44713241;28.44642666;32.62096613;-12.06834705;-3.675890888;6.33399792;11.88962044;-0.035760637;14.71824347;1.956801646
11.88711147;-6.852045597;-0.103625013;-2.067203899;17.48214294;0.103748095;3.534471291;1.802770328;69.50441885;11.68857524;32.01418736;36.06687708;-15.27083099;-5.495980642;3.465217462;13.86512767;-3.275111121;14.49600286;2.87632651
8.955816322;-10.96559316;-0.500933334;-9.137155218;13.683706;-0.068487647;3.720620796;-2.561344472;62.56417588;9.593066881;34.00889438;37.00844757;-17.17601162;-7.808862095;-6.080207512;15.18432167;-8.412647324;15.23652157;3.066621699
4.582287277;-25.41598814;-2.64600384;-11.63815951;9.933180536;-0.034217578;3.994791449;2.594628278;34.66228371;5.423262456;35.26523759;36.63591766;-16.04814137;-9.432485938;-17.92806482;16.73745635;-13.40087467;21.58852932;2.296398821
1.937719652;-41.46209026;-5.547439518;-12.4495432;6.502905927;0.208477735;3.925454463;15.46206958;-0.679408779;-0.391314653;36.82428896;36.10900021;-11.94457384;-10.09498111;-26.31547966;18.93479483;-16.09478454;32.6291279;1.032896612
3.254424687;-48.27279052;-7.349514436;-13.52402892;4.306811547;0.458831351;3.4440699;30.09489002;-26.40203404;-6.568850841;38.70019315;35.55050838;-6.67251419;-10.69203992;-27.85948327;21.14491493;-15.95131309;41.6025117;0.171945101
8.160550484;-41.20409015;-6.477710054;-14.32623507;4.39668358;0.501522242;2.88835195;39.67341282;-32.39358944;-10.61248406;39.69369065;34.34194384;-2.598656173;-12.38887375;-23.5445759;22.21229635;-14.34623818;41.14215568;0.470010986
13.94837388;-25.39130247;-2.8489076;-13.18763527;6.963494682;0.308610005;2.659756284;40.50717062;-20.838771;-9.867152928;38.47987847;32.2596349;-1.145596659;-15.371283;-17.53155252;21.5482244;-13.23391127;29.54327964;2.05621744
17.49391605;-12.00118715;1.727051629;-9.887381468;10.68311064;0.068597359;2.830298392;33.94491799;-2.878346895;-3.595692451;34.96949686;30.119617;-2.021432165;-18.42574967;-13.8590658;19.7361894;-13.33969172;12.66484942;4.329294052
17.31798331;-10.18257021;4.407277163;-6.696274089;13.10782154;0.016389982;3.071197495;24.8023802;10.33134198;5.739423494;30.64217436;29.10556282;-3.682642039;-19.82620806;-13.6763491;18.05151096;-13.46479976;-0.248032945;6.284577386
14.30341267;-20.81231053;3.06170557;-6.714313621;12.02410309;0.220947609;2.966425333;17.59949473;15.0573742;13.55621025;27.46944908;29.36321871;-4.626368312;-18.8283403;-15.05957996;17.3105003;-11.49446389;-3.377692066;7.055040488
10.73975866;-36.4107301;-2.181933225;-11.01093963;6.883477821;0.524704294;2.411782466;13.6241993;15.55860107;16.2143415;26.34502787;29.35896423;-4.520184257;-16.46906632;-15.26161581;17.08874391;-6.24;1.811694865;6.346131627
8.642220109;-46.787597;-8.723469521;-17.31365473;-0.747354254;0.687735873;1.722093674;11.08336334;18.25545563;13.71582039;26.42217627;26.93679767;-4.340058594;-14.90083992;-13.28977477;16.02247202;1.415466477;8.645616603;4.535811898
8.673758069;-45.94862905;-12.94809181;-21.63409583;-8.099356268;0.601911425;1.344423205;7.919140829;25.02238579;9.656437619;25.96804191;21.39023259;-5.463944265;-15.72462733;-10.60875511;12.95013833;8.947918358;11.15619776;2.419303946
10.29770504;-35.41727406;-12.52877079;-21.51906993;-12.85710401;0.378935551;1.444186118;4.540947619;31.34667015;8.210284013;23.98687819;14.69748761;-8.459565567;-18.66367744;-9.526168402;7.932161025;13.76101209;8.673438336;0.772638665
12.71003906;-22.22578416;-8.023125845;-18.05075611;-14.39494212;0.235710504;1.749682603;3.820663714;30.5989968;10.54653016;21.16384881;10.55132051;-12.51236347;-21.6789401;-10.86224468;2.321652185;14.62474354;5.36038869;-0.012747268
15.57667726;-13.69917203;-2.562122055;-14.7504475;-13.77906397;0.287927976;1.8001214;8.219021619;20.40939037;13.77368747;19.27422745;11.67164076;-15.92380278;-22.46070303;-13.06640278;-2.119153336;12.00971372;5.533239226;-0.03936182
18.9852914;-12.94334756;0.278088221;-14.27724289;-12.67847831;0.444405863;1.367794679;16.67057509;5.512249508;13.47864655;19.56303094;17.51823358;-17.28653327;-20.12094589;-13.58525532;-4.304478123;7.364645819;9.244181206;0.26505894
22.85762749;-17.77810641;-1.023187645;-15.82469538;-12.1257947;0.497104342;0.664619992;24.33824;-5.423520387;7.800447585;21.51609986;24.40196616;-16.44664906;-15.77832201;-11.24826579;-4.299413924;2.165398264;12.16904237;0.455869516
26.5548971;-23.10814434;-4.873550418;-15.59686284;-12.08439221;0.31860581;0.144255933;25.96176365;-6.367191718;-0.510591294;23.10717292;28.09391224;-14.55669766;-11.65430684;-7.520398988;-2.97586841;-2.521823868;9.829546128;0.317033974
29.14682128;-24.58649664;-7.783415926;-10.10977838;-12.03740382;-0.018527845;0.085273654;20.24160247;1.467632709;-6.013297959;22.32689332;26.92281465;-13.22817993;-9.482960197;-5.461571876;-1.313270901;-5.929501902;2.213380401;-0.091092516
30.10809309;-21.14096443;-7.008665682;0.410741006;-11.95198149;-0.30890836;0.341079404;11.43825077;10.63550444;-5.019967896;18.71426425;22.86709755;-13.45030955;-9.499302842;-7.237868748;0.04022158;-7.444352776;-5.543568475;-0.568045631
29.75393976;-15.17373578;-2.664241349;11.44106188;-12.69709259;-0.399892666;0.484506325;6.427189771;13.17105823;1.204860292;13.65595889;19.76417598;-15.05916583;-10.68460566;-12.2898957;0.741306346;-6.808470706;-7.243116074;-0.956826607
28.95464767;-10.79106894;2.297705383;17.01097302;-15.50252025;-0.318644429;0.207918194;9.256120736;6.470377644;7.364366729;9.309377737;20.13611478;-17.06511491;-11.87192503;-17.70052241;0.558166774;-4.457794187;-1.010447367;-1.228791253
28.3551836;-11.30481471;4.260105337;13.8231965;-20.88699447;-0.223730793;-0.395256233;17.58286863;-5.057951264;8.577447501;7.143768768;23.25059228;-18.48114383;-12.67692921;-20.4378481;-0.5927029;-1.45139097;8.775866618;-1.429030669
27.82;-17.3;1.64827139;3.477023932;-27.94852874;-0.234095933;-0.927715589;24.10644386;-13.4903895;4.662367245;7.290237169;25.95705239;-18.96435627;-13.50595426;-19.60518907;-2.338111938;1.218881715;14.87472703;-1.568750505
26.65040496;-26.12877905;-3.849058514;-8.795314548;-34.63166809;-0.305485947;-1.069701047;22.12256943;-13.08880413;0.544852308;9.046573492;25.5042354;-18.81637597;-14.77856193;-16.90351727;-3.632456401;3.446544502;13.17451856;-1.589656646
24.41920636;-33.07579407;-8.429318443;-17.71885818;-38.81819868;-0.277257773;-0.885567741;10.89165223;-3.972175009;2.265478433;11.83471062;21.9510601;-18.45749803;-16.18183185;-15.06808299;-3.01951061;6.145167189;6.251187766;-1.441900006
21.66445919;-33.73323164;-8.792722256;-21.07818058;-39.46589307;-0.045791324;-0.767492737;-3.484341036;8.525947485;11.79942751;15.62529257;18.23444801;-17.91338951;-16.68555017;-15.69346337;0.644954696;10.37940984;1.425078831;-1.19061257
19.73995128;-26.44391182;-4.274828418;-20.19814096;-37.02436937;0.306107302;-1.067665847;-12.44021379;17.78945791;25.00334686;20.52359798;17.97451292;-16.79432227;-15.32813173;-18.22250042;7.467850161;16.10300336;4.839743749;-1.02065608
19.82373543;-13.41062087;2.983326508;-17.93350436;-32.93726795;0.558144884;-1.761568962;-11.15361056;20.04801743;34.4856204;26.12706899;22.89930714;-14.77666225;-12.09538607;-20.743495;16.31118843;21.61330655;16.41082302;-1.09896199
21.84850715;0.369841022;9.751466934;-16.17473904;-28.69731684;0.545638169;-2.457170084;-1.749817891;16.04026274;35.1471335;31.48798001;31.8751581;-12.12413188;-8.140286503;-21.69683498;25.2497438;24.35089532;29.76602378;-1.403350508
24.2751662;9.895087176;13.86558821;-14.90225055;-25.14835356;0.319937345;-2.744102579;8.818097581;9.688970316;27.95193372;35.82469765;42.00901891;-9.71778457;-5.147799922;-20.97707292;32.37443459;22.55222558;37.17444061;-1.690845308
25.01291881;12.97913107;15.23281698;-13.19685296;-22.41419277;0.120073853;-2.561411687;14.25218347;5.262610597;18.97137542;39.23476548;50.60220216;-8.466490555;-4.324347369;-19.65042244;36.45673268;16.47964146;35.42515787;-1.676946662
22.87500231;11.23497717;15.18038819;-10.883595;-20.30328017;0.169712436;-2.245252806;13.27662931;5.045432106;14.61297019;42.52828423;56.33265842;-8.51672736;-5.731204257;-18.80258988;37.20771901;8.239447585;27.98228287;-1.302441804
18.48789044;8.540603362;14.97752188;-9.116407854;-18.73443865;0.477506297;-2.214757358;9.634039443;8.682384929;16.9467643;46.15424133;59.08553739;-8.913467165;-8.351163452;-18.68880182;35.19589914;0.350070801;21.91445723;-0.85173664
13.93791653;8.108462756;14.85234172;-9.371566665;-17.84215905;0.822829666;-2.589274152;8.221558475;14.08513969;22.74505783;49.24526949;59.17858906;-8.067970545;-10.7206298;-18.8709422;31.6121016;-5.757409887;22.32168854;-0.779692982
11.37139769;10.30123825;14.18011919;-11.86060851;-17.7719025;0.944577613;-3.09222365;10.93457814;18.99357352;26.65320549;49.94836114;57.05071613;-4.774738695;-11.64003906;-18.97969727;27.94564958;-10.1350091;28.77370512;-1.348047606
11.54533739;12.73132493;12.40925032;-14.92232181;-18.43027953;0.766621675;-3.32840439;15.65233281;22.22272244;25.59247562;47.11044529;53.61967362;0.931521821;-10.57694254;-19.17954404;25.50912412;-13.46180776;36.32565878;-2.362934052
13.36175267;12.39248552;9.715839072;-16.08622259;-19.42603339;0.458835047;-3.172383031;18.81749373;24.00745451;20.78581764;41.94541994;50.50641962;7.708319082;-7.700477645;-19.83807753;24.85145202;-15.89144055;39.82468783;-3.259092789
14.69532386;8.033775485;6.778287073;-14.02481102;-20.21997612;0.28088512;-2.900692289;18.95945414;25.3727588;16.08173494;37.93307605;49.32595532;13.68800004;-3.708965852;-20.81690058;25.36167628;-16.74129305;37.73903017;-3.504968766
13.8974006;0.936394733;3.98560245;-9.799429251;-20.33253758;0.352450754;-2.938660247;17.94439604;26.97502394;14.3982852;38.49608094;50.32565381;17.5462062;0.407587258;-21.25185666;25.46158103;-15.27545692;32.54235801;-3.022329514
10.91168716;-6.319137273;0.950960274;-6.310840539;-19.47368611;0.558218367;-3.453790325;19.00956751;28.24831836;15.43291603;44.04626334;51.67788239;19.09711264;3.652551558;-20.20643363;23.47983889;-11.72350398;27.82883697;-2.271184355
7.263352295;-11.85468565;-3.105791159;-6.253457702;-17.58949407;0.669763245;-4.176098312;23.57694284;27.65484221;16.35753259;50.97155794;50.49462702;19.04616118;5.361573396;-17.64280809;18.75440898;-7.404014037;25.01347225;-1.904638038
5.001790859;-15.54042083;-8.400775162;-10.04238446;-14.89051802;0.565999089;-4.621377815;29.81812464;24.14748439;14.52337716;53.91824493;45.12619935;18.19570479;5.483750209;-14.71763087;12.19899013;-3.670114423;22.49828228;-2.252031899
5.377620429;-18.37845668;-13.94230765;-15.2651374;-11.86432142;0.344585383;-4.5220576;34.21287829;18.87519782;9.656968232;50.02553592;36.88763706;16.80628929;4.601026209;-12.96564274;5.852092149;-0.587072037;17.77239974;-3.04479869
8.143400903;-21.04950632;-17.86361132;-18.1761158;-9.176884307;0.220971556;-4.07417154;34.60025427;15.54419019;3.823277921;41.78277345;29.50708586;14.6384723;3.587014887;-13.00206916;1.662776991;3.34850566;10.31563822;-3.614208771
11.86863652;-23.10256649;-18.54964342;-16.34519071;-7.391308293;0.312433964;-3.770915758;31.96642244;18.49087076;-0.404961857;35.80289958;26.43;11.58583484;3.07487009;-13.93018742;0.37260656;9.973044609;2.619293382;-3.407147808
14.95437848;-23.51046324;-15.67186932;-10.73083983;-6.604871006;0.514239833;-3.967735908;29.48713421;29.30448229;-1.67613419;37.90210027;28.10408477;8.272577527;3.097795594;-14.09163981;1.295771092;19.60176735;-1.557987655;-2.403813879
16.61456573;-21.92368021;-10.31044527;-5.701791879;-6.270452979;0.590339083;-4.569318872;29.86106864;44.47270208;-0.059612875;48.10976908;31.62611246;5.989840338;3.173510897;-12.58335159;3.089377577;30.13029683;-0.135434155;-1.103707732
17.19967489;-19.27261257;-4.113752413;-6.733658551;-5.427005881;0.398984641;-5.120528822;33.39276236;56.43733709;3.988320957;59.82564619;33.20744839;5.903869787;2.765599927;-10.19317587;4.826443897;37.98896936;5.661444024;-0.106971666
17.73530098;-17.03815932;1.764817548;-16.97;-3.284710791;0.042314992;-5.219097378;38.38546715;58.20444984;10.41053133;64.42129237;31.39066876;8.130861483;1.751453796;-8.835654432;6.4962686;40.34973567;12.26994244;0.347998578
19.06503116;-15.87624354;7.088430111;-34.70283758;0.203027839;-0.20702065;-4.878532026;43.14714279;48.67457844;19.08908495;58.16989438;28.13462103;11.47017624;0.529098686;-9.878566607;8.612291607;36.94588251;16.42538599;0.505839859
21.1960057;-15.00475347;12.07442636;-53.50621946;4.216812079;-0.145023031;-4.516808893;47.47267539;34.56876385;28.7125236;46.01180986;26.7;14.11605981;-0.292962978;-12.7866347;11.40525141;30.17517489;17.28205532;0.792386088
23.25859691;-13.09147326;16.59974781;-65.29051349;7.552660028;0.173237504;-4.584865317;52.16612292;26.70014369;36.52178235;38.55886915;28.23793931;14.88144544;-0.332981445;-15.31393021;14.41011898;23.53606304;16.49908998;1.372996878
24.07247306;-9.898692534;19.88877704;-64.69409033;9.420307645;0.469927592;-5.170440701;57.25864038;32.42760655;39.77684867;43.84457871;30.39965319;14.00900367;0.366516139;-15.17410824;16.83947204;19.6974786;16.57919027;1.966917676
22.93622504;-7.054310701;21.01938031;-52.16744048;10.01099468;0.484001512;-5.92836928;60.98339323;49.44880583;37.99384033;59.82202596;29.63661757;12.92039589;1.503593878;-11.83216177;18.37364053;19.58458428;19.05797014;2.081060683
20.13986811;-6.960725293;19.81030233;-33.68458193;10.42584147;0.205087937;-6.389671454;60.87808838;65.84286536;33.89502482;73.78801695;25.37506132;13.07836269;2.842108269;-6.929345161;19.59764977;22.80427897;23.92713143;1.457230622
16.88283749;-10.55307756;17.27614129;-17.0889607;11.99861551;-0.107512689;-6.364025625;56.21946473;67.1792035;31.8268073;70.1894463;22.04056558;14.85385216;4.388847606;-3.004172008;21.64087221;28.56662946;30.35068727;0.343381562
14.64021327;-15.85861518;15.17686466;-7.367799772;15.46185467;-0.142291926;-6.0777994;49.4459086;46.32816257;34.5772674;41.91680961;26.26;17.30450874;6.301627382;-1.604397824;25.31443766;36.04343267;37.62852141;-0.644238008
14.34666013;-18.86975891;14.93948074;-4.00555702;20.49171305;0.197632456;-5.940039063;44.88510633;9.219833311;41.12763598;-2.977380192;40.72727574;19.04278744;8.680253004;-2.350371414;30.50016007;43.95838986;45.42774921;-0.950791361
15.87757793;-16.35643785;16.74664645;-2.205286127;25.88634586;0.708898065;-6.165927829;45.50830976;-27.78164693;47.33371872;-44.50862769;59.73029178;19.47807385;11.47530226;-3.624459985;36.29872092;50.21300782;53.29112372;-0.451722049
18.13715061;-8.478338894;19.45526794;2.985480598;30.21751439;1.054724998;-6.603482012;50.40698629;-47.520232;49.15739424;-62.43906431;70.88866325;19.39247201;14.57670407;-4.135532708;41.73587544;52.46330344;60.24821903;0.516380327
19.70654521;1.007480019;21.37178404;12.74970722;32.5420681;1.036630578;-6.908102276;55.32294753;-42.42066382;45.86404693;-48.78133625;63.05421532;20.34085897;17.91891542;-3.911419682;46.33111048;49.60064453;65.17814997;1.438986501
19.66861316;7.330960251;21.30781236;23.72073394;32.80031271;0.738937452;-6.884554709;56.0234451;-18.75192913;40.53697046;-12.68099904;35.0512917;23.33624475;21.41972478;-3.895139012;50.02307201;42.96334822;67.64223677;1.948822016
18.114697;8.212880222;19.22289422;30.84772284;31.76466558;0.433644585;-6.670361172;51.78401072;7.846361092;37.47900234;25.58212645;-1.58397839;27.89735893;24.79041461;-4.656747907;52.63050333;35.97245939;68.24311732;1.938553133
16.03357882;5.591123369;16.14267097;31.54198401;30.63678653;0.344039108;-6.594809808;46.0107253;22.28935031;38.70148273;47.25583429;-28.7698646;32.27516741;27.47681745;-5.547302579;53.53083672;32.04367627;67.93140689;1.446826264
14.67015664;4.205943911;13.54881118;27.74474088;30.50252498;0.478010345;-6.856789387;43.40617044;18.7315277;42.46174303;45.8458729;-33.19835292;34.73074542;28.93897512;-5.176846753;52.04430198;32.15876935;66.78068565;0.519655689
14.77557458;8.11163955;12.6807313;24.27902593;31.85634088;0.662940934;-7.33112923;46.04217192;2.653480017;45.02718357;29.08823002;-14.86144812;34.87129787;29.14224634;-2.817515986;48.27258032;34.01197901;63.48945652;-0.768634437
16.22714734;17.74823448;14.07823639;24.90993453;34.37032793;0.725739005;-7.685787212;51.65752235;-14.18496287;44.0607546;11.74422262;13.40451246;33.97653584;28.82295231;0.594541476;43.5637993;33.58437873;56.40141102;-2.172657668
18.2319347;29.68143189;17.44090606;29.40804582;37.02476183;0.640083008;-7.696382823;55.58986646;-21.77225489;40.65949645;5.040587028;34.98640027;34.03641485;29.15546129;2.889608521;39.96330086;28.11563138;45.44492178;-3.235683528
19.92220102;39.00261334;21.73635271;34.01506514;38.59492717;0.513478161;-7.459970878;54.63470478;-17.34250379;38.30656805;10.22650229;40.45982876;36.23933274;30.91490129;2.285523989;38.87100462;18.2754113;33.31791152;-3.514259463
20.89072044;42.42658946;25.50548787;34.80082749;38.29772651;0.450361267;-7.307419031;49.52181001;-5.337121463;39.71661319;19.9732466;32.53846368;40.07498161;33.72678058;-1.150967084;39.91356499;7.885214634;24.57535498;-2.953240658
21.28750096;39.84586605;27.3434289;30.96396736;36.24840429;0.443311555;-7.497914484;43.98685954;7.036622969;44.37129433;25.38454991;21.91926802;43.71291488;36.0511805;-5.486423881;41.00865008;1.39743281;22.90546703;-2.071628555
21.45328613;33.55160236;26.45061392;25.26574607;33.42177279;0.404026406;-7.981709511;41.41526793;14.82573334;48.88438668;22.74526314;17.91883052;45.30925823;36.0389411;-8.418743693;39.70139246;1.015076303;28.4914901;-1.699778551
21.43353085;26.17791253;23.00802942;21.36934278;31.10056172;0.294954539;-8.450058594;42.08117874;17.48897492;49.82391351;15.20740175;21.44512386;44.20298283;32.70168831;-9.058389819;34.82083742;5.510461062;37.52591772;-2.376247109
20.81522964;19.15827189;18.12224835;20.60145818;30.15716144;0.213339112;-8.621047613;43.32959847;17.43045667;46.48888597;9.050823079;25.46326561;41.12966282;26.54629851;-8.504477808;27.22342741;11.40597514;44.4083357;-3.860029297
19.07241255;12.67826821;13.30937284;21.10908311;30.66380713;0.322386641;-8.491425805;42.33837166;16.85292236;41.2507674;8.241980198;21.86447244;37.4253465;19.21634468;-8.748224137;19.11772466;15.40748174;45.11;-5.203468128
16.18193185;6.66671454;9.80556472;20.12583475;32.09483464;0.680139022;-8.322445704;38.82629859;15.6907905;37.27700048;11.71841069;8.679606177;33.9893778;12.45398324;-10.85236403;12.58801616;16.24024069;39.30634382;-5.412799721
13.00707379;1.598226344;8.131896479;17.11988442;33.91628618;1.132837044;-8.380273147;35.25694572;12.06162847;35.7646047;15.05749533;-8.232865073;30.87233377;7.200191755;-13.95364129;8.504972399;14.78643313;29.89627303;-4.218714184
11.06280253;-1.663612055;8.152269496;14.67897955;36.03056428;1.396490067;-8.681564857;34.47318655;4.52735133;35.1810667;14.54342725;-20.01228861;27.72068149;3.464550075;-15.92207268;6.572493688;12.87450369;20.59496147;-2.327320138
11.7104373;-2.671447571;9.483751436;16.02975742;38.66116177;1.279088601;-8.984339804;37.04877663;-5.844888073;33.14639438;10.08233305;-21.76966159;24.53085949;0.896168069;-15.11484113;6.23608159;11.96393659;13.67532941;-0.897423037
15.27091595;-1.913826587;11.87048975;21.31541811;41.76697282;0.854170294;-9.027956029;40.81585213;-15.29721396;29.18472312;4.872542709;-15.89229767;21.92609812;-0.596645222;-11.76853619;7.481094162;12.67904752;9.527483016;-0.618604056
20.66260137;-0.485851849;15.22780804;26.20103376;44.55167399;0.422529058;-8.789230549;42.92728083;-19.25778012;25.77194187;2.626766775;-9.255970918;20.65781964;-0.784154636;-7.901806925;10.76228749;15.13822622;7.93377642;-1.128113609
25.85787282;0.74623266;19.40308628;24.55740607;45.63994042;0.279006734;-8.508867013;42.44468507;-15.01284504;26.60655859;4.932355586;-7.088964297;20.79285246;0.392415129;-5.8294491;16.18339935;19.32212899;9.421428096;-1.272039422
28.91970273;1.635981519;23.96203163;13.34511852;43.95908523;0.476623294;-8.463887546;41.02021426;-3.447298354;33.49381394;10.73239946;-8.817536833;21.3877499;2.359743011;-6.479722386;22.76545816;24.92497101;15.11125351;-0.043886374
28.99518431;2.429320202;28.2507787;-4.39999722;39.7019926;0.789943634;-8.705642204;41.12015991;11.19079606;44.48943588;17.78508135;-9.24211643;21.05759888;4.060789942;-8.801995851;28.56485267;30.90895765;25.05479491;2.538656448
26.67187747;2.996554568;31.67624762;-21.25462723;34.53428734;0.909662139;-9.016306611;43.60236923;23.30995603;54.91635715;24.35332893;-3.747270172;19.05481311;4.686211305;-10.65370917;31.63333216;35.46962981;36.69671187;5.345523701
23.51603359;2.460019531;33.90581842;-30.64044149;30.69953127;0.700164248;-9.12717723;47.03750698;28.60755941;60.46768368;29.61394133;7.065789577;15.9765591;4.334126981;-10.44079538;31.07406557;36.79261506;45.27110497;6.946796566
21.11837588;-0.3422674;34.76665127;-31.35511954;29.5407333;0.299936837;-8.989008784;49.3969161;25.92932852;59.91865194;32.87394805;17.24730803;13.46494982;3.918171046;-8.306996283;27.39628449;34.15797054;46.3783412;6.70561807
20.23835008;-5.969898301;33.95948812;-27.66110889;30.50614319;-0.013122012;-8.83068033;50.32594599;17.51836856;55.3923367;32.96181078;19.89362582;13.06472708;4.299280192;-6.086357322;22.00460646;28.46572809;38.99109636;5.280243596
20.51718301;-13.93444432;30.95562917;-25.02487433;31.44987706;-0.062249457;-8.942316632;51.55486358;7.719232628;50.20899107;28.88113228;12.38477011;15.09514492;5.374378339;-6.119551783;16.35866292;21.64665443;26.47181929;4.114741873
20.84748789;-23.13898164;25.33338866;-25.43837586;30.10842055;0.096985817;-9.385113184;54.81813015;0.943259583;46.26369044;21.311854;-1.710266489;18.39983472;5.989651377;-9.720198759;11.47413517;15.37587311;14.54899977;4.300502261
20.11444551;-32.7518069;17.38874078;-26.61174086;25.72769445;0.260857962;-9.908268992;59.2740246;-0.072066657;43.04254516;13.36086921;-15.32735245;21.15535001;4.866775018;-16.18902109;7.954469396;10.14572763;7.572808158;5.702032053
17.8747757;-42.58907687;8.500573801;-25.72158697;19.65058822;0.283127159;-10.16396254;61.24120094;4.999889555;38.81079754;9.354857294;-22.77722646;22.10704626;1.801791738;-22.90034129;6.182061484;5.456473809;5.813482506;7.044962168
14.64334207;-52.54589816;0.804231941;-23.97275447;14.41226299;0.202588656;-10.02828516;57.07554585;14.43790614;32.66395442;12.18637843;-22.94709919;21.31026337;-1.935733494;-26.44409442;6.234496386;0.884552644;5.839574538;6.912078558
11.68814519;-61.62204653;-3.773961993;-27.08765748;11.98566221;0.176266335;-9.726897919;46.88602325;25.50800252;25.59741589;21.21267048;-18.76138903;19.88956946;-4.451579669;-24.33889731;7.561748803;-3.01325017;3.639949036;4.880019531
10.44645063;-67.65795781;-4.536931145;-40.33968814;12.44079038;0.292405191;-9.637848647;35.51619789;35.57114495;19.82792983;32.52084862;-14.01398218;19.10250049;-4.685815034;-16.53336027;8.92673328;-4.863251131;-1.980750022;1.916648524
11.80328508;-68.39256244;-2.397477764;-62.05055668;13.96077237;0.454167462;-9.94420804;29.29990715;42.84246774;17.18055747;41.53868831;-10.52418598;19.47746559;-3.24755268;-5.868157476;9.010661166;-3.635447205;-8.385760233;-0.271068691
15.52840417;-63.2345792;0.649179396;-81.78237043;14.15340416;0.45738531;-10.45613419;30.95007813;46.68494908;18.01077969;46.02355274;-7.730691405;20.64089251;-1.857041471;2.980873113;7.423750253;0.208809195;-11.21381335;-0.449035424
20.15493396;-54.2936628;2.601418351;-86.23443172;11.67801404;0.196893005;-10.77324667;37.08178425;47.51178027;21.41043885;47.11336976;-4.394264001;21.84644759;-1.806351652;5.794050178;5.269152628;4.644347134;-7.898966414;1.272409203
23.46199466;-45.59504229;2.382181981;-69.3306256;7.046819412;-0.195748788;-10.64571209;41.03524793;46.3954197;26.18073352;47.72513104;-0.341374839;22.69195834;-2.736875859;1.189501031;4.551237389;7.250649077;0.161877469;3.531465968
23.46415326;-40.79430816;0.125645723;-38.60573972;2.126110244;-0.427499044;-10.20453241;39.06312154;44.4743659;31.48266196;49.78541034;3.432193306;23.45521301;-2.826514622;-8.389826075;6.625441933;6.729739867;8.423881452;4.670854021
19.4896969;-40.97317662;-3.168174885;-11.90688474;-1.194335762;-0.282833232;-9.8461774;34.51264608;42.34884155;36.65259327;52.68324863;6.097312201;24.86489256;-0.308841725;-17.9324255;10.82435391;3.59274446;12.27846437;3.84363628
12.74952258;-44.12937888;-6.213905786;-5.699442645;-2.181238747;0.180120518;-9.873158777;35.69686641;39.80580945;40.70239455;54.17904348;8.115208295;27.56951266;4.909673095;-22.79959925;14.48194277;-0.448381433;10.03003906;1.499304346
5.957996123;-46.69619012;-7.875230926;-23.28569052;-1.538029935;0.656288324;-10.21979555;48.31380803;36.17796989;42.40579569;52.81537277;10.83040807;31.71531427;10.90752332;-21.53437311;14.59800956;-3.775899212;3.652129997;-1.024030353
2.070375777;-45.88522614;-7.37246355;-52.11344145;-0.75081191;0.831184712;-10.51819912;68.39891151;31.26728424;41.20128147;49.58070835;14.89720668;36.84862023;15.02552905;-16.62316173;10.05894135;-5.755424107;-2.952430412;-2.435491556
2.776044279;-41.11548557;-4.415855912;-72.85554898;-1.083653366;0.630462675;-10.44738157;82.31458951;26.23057816;38.10942497;47.29439607;19.21160035;42.07153868;15.7642063;-12.61525202;2.75791282;-6.612302055;-6.61256817;-2.275387327
7.629325418;-33.67362578;0.64065183;-73.85563619;-2.913046075;0.269422695;-10.04430395;75.18700819;23.59778049;35.57083412;48.24598817;21.62632599;46.27300347;13.78;-12.88394207;-3.322023562;-6.648769868;-6.468697171;-1.060394945
14.37429789;-25.23745354;6.76230672;-60.02277924;-5.716429186;0.063790111;-9.685467244;42.24972698;26.03439023;35.96745195;52.18718396;20.9729415;48.36484481;11.20647913;-17.33957019;-4.500918122;-5.696553546;-3.619285411;0.20081128
20.28196156;-16.69845515;12.53655404;-49.12915846;-8.545212615;0.16872369;-9.748419727;-5.571555793;34.41236456;39.859913;56.45800597;18.49277195;47.57838283;9.908883188;-22.72466174;0.389864046;-3.356927743;0.406202859;0.702241998
23.65444223;-8.208125874;16.8098488;-57.97254953;-10.58082167;0.468941011;-10.26;-46.86741986;46.5229283;45.43664468;58.13465172;17.12633415;43.82944798;10.13259574;-25.19200078;9.480778287;0.272110524;4.871422106;0.268499186
24.54364712;-0.101146825;19.28938334;-88.71869755;-11.47154647;0.70308262;-10.85711418;-62.84148864;57.61952532;49.78284031;56.31767324;19.02668811;37.97026509;10.61535865;-23.16542822;19.24252366;4.206185767;9.893134177;-0.692907787
