Channel 1 - P4;Channel 2 - O2;Channel 3 - P8;Channel 4 - T8;Channel 5 - C4;Channel 6 - Cz;Channel 7 - Fz;Channel 8 - F4;Channel 9 - Fp2;Channel 10 - F8;Channel 11 - Fp1;Channel 12 - F7;Channel 13 - F3;Channel 14 - C3;Channel 15 - T7;Channel 16 - P7;Channel 17 - P3;Channel 18 - O1;Channel 19 - Pz
-20.10141478;23.47645792;-31.33923015;66.90398219;43.80296883;3.997183741;67.36756004;-17.50007813;-46.82957403;-26.06117917;-33.21303621;0.749220898;-34.66087936;20.91328183;97.23601386;30.24379379;-16.78648163;-29.65560346;11.72422906
53.87702975;70.72351226;10.93084123;30.11050892;52.36157942;26.6004917;29.46930918;24.73633315;2.292903249;2.338837399;30.15495272;4.993289753;14.50089001;56.60492503;70.79519595;54.77199704;20.32987458;35.59783426;42.62556319
108.4219735;89.11236969;41.51538215;-18.22460195;31.67100245;32.91503251;-21.57424472;32.16251693;31.52396492;10.66248493;71.08693217;-13.74881189;34.82474577;59.43603086;15.59450168;45.12361168;26.40070571;72.12572623;49.43719944
116.3191353;68.89737942;40.88556328;-47.20256403;-3.938081759;19.90122293;-53.13479723;0.645844306;25.33660171;-9.36883792;69.95688351;-46.05458081;12.84978171;27.91397272;-33.09148302;8.262477827;-0.912594283;60.48611301;28.92419015
82.8435459;28.14434072;13.00483777;-42.07769075;-30.17746648;-1.768125783;-49.20075211;-45.02069634;-4.891336265;-45.65213117;37.70442133;-68.73235499;-34.56912429;-14.83855915;-48.70131705;-29.18290525;-40.40280838;16.19212505;-2.947815321
38.57682453;-2.860767631;-20.01719862;-13.55824714;-31.90907136;-16.35441061;-20.49506931;-71.75433447;-32.379194;-75.61202381;4.780990927;-64.63791402;-72.86972793;-38.85702628;-30.96022893;-42.18351081;-64.30418612;-24.28304629;-23.77882799
14.76920455;-6.100427266;-36.72231976;12.63913805;-14.09462895;-15.08266244;6.365842085;-64.08944017;-37.07147064;-83.49791639;-3.75699254;-38.08455181;-75.23744954;-29.67698537;-2.347231284;-26.16809552;-59.39934343;-32.48321832;-21.67822625
21.38711308;11.18688053;-32.48985578;16.57964642;3.937616609;-1.98011667;10.74249868;-34.37424332;-20.06432605;-71.28988278;13.25965322;-12.28695405;-41.44804727;2.099175381;11.82210298;1.259209809;-35.67126544;-8.464043938;-2.978118331
44.04281298;25.25176542;-20.28803535;-1.641424548;5.396066126;10.64218098;-7.130356024;-10.17657914;0.397582939;-55.11068906;34.88705789;-10.57252649;3.641289218;30.64413597;2.691822205;16.02011062;-16.49070773;22.64814749;14.67774465
59.67543879;18.00251101;-16.8545565;-24.62685538;-10.43458799;12.71171157;-29.28312855;-10.8113489;6.26903045;-50.89190488;36.91140895;-37.04545259;29.6551816;35.34406913;-18.25164457;7.040504047;-19.24340231;33.41311824;17.28490382
56.25834518;-6.793739751;-27.25735205;-33.51209262;-29.09295336;4.055152225;-36.85802962;-32.93274394;-5.146640703;-61.30269364;11.36555659;-72.96368519;22.5975827;15.41711077;-31.73104719;-16.22264215;-42.30074429;16.38133244;4.9271153
40.50160609;-27.06583259;-41.15834773;-23.00157844;-34.70269654;-6.685040913;-25.64640918;-56.1233753;-20.58893865;-74.22850882;-28.62584723;-91.82907905;-7.210790837;-11.86956914;-27.48098218;-33.19967941;-68.06276932;-11.92939544;-10.19698602
29.19718014;-22.35651815;-43.12395592;-3.748008174;-24.17398614;-10.17637171;-7.773712765;-61.94011046;-23.89;-73.33969738;-60.75847241;-80.51864909;-35.59112224;-26.27590663;-11.16842446;-29.5886127;-78.23633929;-26.94223793;-15.33017161
33.61560756;7.239561572;-27.04088117;8.330992791;-9.548103005;-4.233757755;0.406065073;-49.1756869;-10.37507439;-51.75162872;-70.7561799;-49.03071286;-43.59699339;-19.85225232;2.877502841;-8.10600913;-68.06129172;-17.01797631;-7.851489798
50.7081893;39.43923584;-1.738802627;5.553384077;-6.835939648;5.095917353;-7.32335164;-32.75570277;9.810524158;-17.95215763;-60.70216097;-21.3594164;-30.07410852;-0.657309523;5.123438413;15.30290554;-48.26696306;8.148733768;3.68459274
67.34339169;46.96012186;16.67933421;-6.600960522;-21.44044522;9.482288728;-22.76468019;-28.70634332;21.40455025;10.10335386;-43.52014266;-15.84980802;-9.260973085;16.24979901;-1.78129493;25.21958514;-34.54633872;27.47317675;8.096507065
72.14613356;19.26391099;18.45390564;-16.12274278;-42.98463462;5.639004757;-31.80164646;-39.45535951;17.37491104;17.51653571;-30.71152326;-31.60294545;2.588708396;21.47613216;-7.332029825;18.34483812;-34.49633354;26.81573685;1.55176596
64.02676547;-28.9689793;7.591449062;-15.64155127;-53.98799074;-2.319033637;-27.21074192;-52.40624369;4.099071805;1.919067897;-24.84945725;-51.52274799;-0.242606905;16.93637332;-4.049103433;3.92600314;-42.96572772;9.727612802;-9.711597103
50.99626102;-69.18872957;-2.97776089;-8.084837923;-44.8206374;-7.083990767;-14.35263316;-52.24560449;-5.47095085;-26.47275884;-22.16873189;-58.13773094;-10.68761682;11.15039942;5.529916168;-5.810885652;-48.57280519;-7.514576274;-15.66049055
42.1137566;-80.48024682;-3.520321901;-2.629053324;-22.09809563;-4.768739971;-5.403056143;-35.33343705;-3.764990456;-52.95978099;-20.52080013;-48.01858073;-17.0169043;10.03193951;11.79992081;-5.997872044;-44.50042042;-10.7806059;-11.56507735
40.6863315;-63.91648134;4.181133179;-5.595377242;-3.478073851;1.985766811;-8.082303139;-13.30435732;5.204622491;-67.75126814;-23.4997543;-32.9068867;-13.24677288;11.98456984;7.595161428;-1.57535921;-33.84152407;0.625455098;-1.751964574
44.05994262;-39.19547559;9.413809294;-14.87156872;-3.434034;6.840150979;-19.18400046;-3.106933244;10.45906908;-70.11858945;-36.32999493;-27.84076477;-3.165707812;11.06546293;-4.887210547;-0.98716692;-25.5346067;15.2575403;4.899552352
48.22192754;-27.75199109;3.097315909;-22.48339278;-21.98112397;5.612291155;-28.23537475;-12.67682167;4.646463218;-65.81944924;-57.99340331;-37.60372163;4.245373666;4.172526905;-16.05342995;-7.84885409;-25.54439336;20.72483485;3.179564709
51.2683222;-36.77871396;-13.52902031;-22.26539922;-45.42511289;-0.188855683;-27.33107654;-34.74713687;-9.244229629;-61.36850044;-78.32320554;-53.35098894;2.923387778;-5.130850685;-17.67582033;-18.21548725;-31.66875978;13.99863508;-4.036623949
52.26242822;-56.3858979;-29.7849064;-15.2830028;-57.86752488;-5.097250026;-18.00924703;-53.58270858;-20.88248921;-59.98066484;-84.30921356;-61.52215789;-5.809460849;-9.787236863;-10.22576962;-25.19293649;-36.33750992;2.140193087;-8.873822086
47.95686193;-70.3527772;-34.80024752;-8.280373681;-53.45672705;-4.808783649;-9.263507035;-58.06607148;-22.13309549;-61.33462143;-70.88586743;-56.24878542;-15.49591701;-6.14712921;-2.11190842;-25.82310628;-34.18763441;-5.772818084;-5.866826765
32.74978269;-70.05624483;-26.56281905;-7.095016428;-39.46513611;0.062734232;-9.027963165;-49.65252013;-14.22421154;-63.73292721;-46.51887536;-43.99126028;-20.55501321;2.16806003;-1.706259274;-23.57447722;-27.08345727;-7.016102822;3.151702259
3.860862216;-59.96776137;-12.81189941;-11.4083727;-28.59387494;4.839494833;-17.13077632;-39.05786469;-6.144170961;-65.87973602;-27.82254842;-36.75109876;-20.43750901;7.234349341;-9.565025693;-24.38183692;-22.06213311;-6.145229611;10.92390308
-32.6238898;-51.52071123;-3.515522753;-15.5513663;-27.93717202;5.206630957;-25.92176456;-35.74228672;-6.013343838;-66.92706261;-26.93927169;-40.61689328;-18.77892655;3.945715714;-17.91052365;-30.35920782;-24.45569841;-8.541457608;11.39700162
-61.80137457;-52.15;-2.192534037;-14.24348629;-34.12354154;1.059945336;-27.56634433;-40.04242612;-13.46931861;-65.68895251;-42.02652956;-50.25065728;-19.17928991;-5.282904076;-17.74251666;-37.32129501;-32.80029866;-13.72014156;4.967243571
-68.55890843;-59.40676796;-3.940582899;-7.677692909;-38.03148088;-3.62763404;-21.09424307;-44.46974273;-19.98666176;-60.68738109;-58.91842059;-54.11788098;-21.89541018;-12.58451634;-7.072326652;-38.47989408;-40.23362319;-15.33238912;-2.264707993
-49.14644533;-64.468261;-1.482754568;-1.265002368;-33.97928969;-4.585220109;-12.89320037;-41.92472028;-16.7680157;-51.47801909;-62.70447106;-45.41471736;-24.25333008;-11.65071241;7.12239947;-30.85084543;-40.91775318;-7.874122929;-4.25460391
-16.02467014;-60.83629504;6.894515254;-0.510741835;-24.87857245;-1.094415815;-10.55759627;-32.60703835;-3.059576206;-40.00425176;-49.65320114;-28.68210603;-23.8251385;-3.388280552;14.89379792;-18.42278969;-35.40860371;6.651794783;-0.380676575
9.335067339;-50.10856772;15.142087;-5.969994873;-19.08960368;3.541160628;-15.97574824;-23.35387961;12.54546464;-30.3610824;-29.74359437;-16.22557748;-21.00386761;4.818964485;11.85336273;-9.144034959;-30;19.00971237;4.382301757
11.25867463;-40.19924497;15.00896444;-12.94664507;-22.38196845;5.156586168;-23.92234732;-20.64044808;18.98452243;-26.684318;-18.07364604;-17.65645816;-18.56028176;5.544287415;2.693795933;-8.382807125;-30.72030034;20.25754825;4.389220453
-9.00346837;-38.37549935;4.041470741;-16.02858823;-32.54317718;2.49982409;-27.14899437;-24.29321042;11.81981596;-30.60356961;-22.61755202;-31.81080906;-18.8427389;-2.260120817;-3.253913276;-14.60112114;-37.57025154;9.815715074;-1.333341064
-34.77342755;-45.54738404;-11.55493355;-14.07685616;-41.3742367;-1.798979715;-23.0547197;-27.86657834;-3.184796199;-40.1820222;-38.42507431;-47.90781101;-21.45457639;-12.42222136;-0.328225601;-20.89850374;-44.30566503;-3.46530952;-8.198616255
-47.00587139;-56.29329717;-21.94498642;-11.0276563;-41.95942143;-3.795738858;-15.82488941;-25.04484878;-14.82629803;-51.10394791;-52.49910404;-54.5659167;-23.59736675;-16.85128893;8.639828836;-20.87835369;-43.96055957;-8.577383871;-10.28587787
-38.48589977;-63.65078235;-22.00886208;-11.90631473;-34.49767968;-1.854011272;-12.31003906;-15.76478043;-15.30093732;-59.15450773;-54.59646096;-48.68653254;-22.63908363;-12.23200673;15.0562925;-13.67692328;-35.1149098;-1.737782013;-5.701082091
-17.96893738;-63.98847146;-15.39331027;-17.91189652;-25.59571785;1.99598057;-15.66623082;-6.251121834;-5.737328749;-62.24320424;-44.75951072;-36.87918978;-18.43760835;-2.398081777;12.20590129;-4.042310733;-23.31550097;10.35514635;1.791194352
-1.557475107;-58.24788916;-10.66575987;-25.17916889;-21.99239439;4.082499677;-22.63489352;-3.09854735;5.712605051;-60.86719354;-31.8751323;-28.98524036;-13.34422847;5.316902895;1.016114404;2.133076765;-16.47574279;16.25702115;6.203168499
0.887686722;-49.80968894;-13.24610382;-28.28897016;-24.58896757;2.514528123;-26.78647356;-7.154748653;10.93299235;-57.2176281;-25.44317367;-29.94584245;-10.07850871;6.224852713;-10.92636769;2.597534486;-18.41094414;9.477674562;4.57377696
-7.131116453;-42.02401622;-20.60117153;-25.17872604;-28.09210707;-1.163865793;-24.53258048;-12.99679447;7.805030094;-53.91022724;-28.05766277;-36.96941022;-9.571289809;1.567257609;-15.9301365;-0.238250288;-26.12820895;-6.223298828;-0.707762644
-13.44896882;-37.62864412;-25.05419683;-18.91227991;-26.30371169;-3.515908393;-18.31391282;-14.36552702;0.44969025;-53.09160345;-34.63861674;-43.58662101;-10.68613839;-3.491396242;-12.42852205;-2.434270945;-32.93692393;-20.25979123;-4.416083682
-8.847025815;-39.32673403;-21.43739333;-14.80480723;-18.03208095;-2.420477688;-14.15422671;-10.2622245;-5.553207235;-55.9687822;-38.09572485;-46.00946692;-11.79171356;-4.809914903;-5.625444667;-2.495341932;-34.25982821;-24.01991009;-3.329144067
4.880784744;-49.21920692;-12.31177548;-15.72082698;-8.254214167;1.037753164;-16.01092161;-5.848101806;-8.14901665;-62.47277809;-35.73863804;-45.78646677;-12.42100484;-2.515063521;-2.442576983;-2.441298208;-30.90446827;-17.31010069;1.08244718
17.13700512;-66.3809039;-5.758684127;-19.91974186;-3.627305788;3.668206012;-22.19366154;-7.273092719;-9.643152848;-71.04973911;-30.84477586;-46.89732304;-13.35104299;0.070824095;-5.561267333;-5.213559624;-27.23130367;-7.274022693;4.42161081
18.41904968;-84.85422403;-7.703385892;-23.25032975;-6.537345216;3.153430882;-27.06082333;-15.34497404;-13.22347596;-78.95886096;-28.68845286;-50.85470356;-15.16003906;0.25725582;-11.75956007;-11.1311303;-26.45051647;-1.499672419;3.723582403
8.747634997;-95.21222858;-15.93085587;-23.32699788;-13.02678071;0.125241718;-26.28280323;-24.09664546;-18.90029105;-83.31845497;-31.26884177;-54.93518514;-16.90909727;-1.367391055;-15.58175778;-16.88453641;-27.7195089;-1.887451598;0.248166305
-2.755102569;-90.09646121;-21.55665337;-21.53595735;-16.30831151;-2.523747916;-20.75858875;-25.76713188;-22.80480686;-82.48880141;-35.63;-55.16559764;-16.48546702;-1.926565883;-14.60406024;-18.0724499;-27.67662853;-4.507255519;-1.849073651
-6.331240882;-70.03137474;-16.92636319;-20.97659891;-12.58634489;-2.370053711;-15.65086436;-17.73333126;-20.45307806;-76.88592588;-36.91150361;-50.80059794;-12.46118926;0.360421585;-11.43615409;-12.96265202;-24.62666772;-4.760068359;0.385150343
-0.18930399;-44.43485874;-2.91076044;-22.53359962;-4.044135797;0.332171289;-15.56452201;-5.064486918;-10.9355973;-68.60296904;-32.8842102;-45.55328459;-5.717382121;3.957041601;-10.89121094;-4.057387682;-21.02853672;-2.358759758;5.738368322
8.442963165;-25.9975058;11.13287022;-23.23138332;3.401350574;2.969367585;-20.37945941;3.677058155;1.737133683;-60.13267813;-25.70033921;-44.13568077;0.849800142;5.277029975;-15.24578067;3.926064813;-21.61830819;-1.296178073;9.790754776
10.44425996;-22.0989166;15.01720602;-18.88881931;5.292237235;3.047484425;-25.51601489;3.659278033;11.30180717;-53.20021886;-19.51715541;-47.43183837;4.505765576;2.268716363;-22.08393856;7.83688036;-28.78541791;-5.150832984;8.906843698
3.375630606;-29.85500713;6.440930833;-8.817332045;2.099914607;0.498711971;-26.25545207;-2.373493199;13.66261904;-48.51824077;-16.53702949;-51.16664772;4.916466773;-3.216109328;-26.61082517;8.338323482;-39.6148414;-12.6740503;3.569513443
-6.304655304;-38.85569982;-6.877558423;2.03264136;-1.83255924;-2.296363063;-22.05059804;-6.902699874;9.526470873;-46.32899762;-15.22797624;-49.68266042;4.460391073;-6.739914883;-26.11221762;8.817554915;-47.62692959;-18.23680408;-2.002512844
-9.243540391;-39.50439001;-13.59623083;6.087167757;-2.500053711;-2.738702509;-16.89266799;-4.374369368;3.43521441;-46.83613698;-12.17208613;-41.46372331;6.264932169;-5.256864795;-22.34601855;12.13798076;-47.92256981;-16.85500949;-3.581485026
-1.817160252;-30.27920809;-8.185504971;-0.749478758;0.407143517;-0.401307253;-15.51846555;4.204666379;0.336287754;-49.84889969;-5.547073437;-31.13358671;11.60091859;-0.096868792;-19.71637599;18.17876242;-41.18821269;-8.924301173;-0.58731834
10.45773339;-18.19044093;4.688490946;-15.11640051;3.853469265;2.608553273;-19.04967102;12.69882548;2.478726796;-53.98707406;3.082739199;-25.75492672;18.81664814;3.933752747;-21.05940283;24.1798969;-32.9033298;0.04944344;3.619062173
17.72425479;-12.43966515;14.44296685;-28.1122077;4.76184102;3.602692963;-24.07237497;15.61657715;8.663853588;-56.57350946;10.17038518;-28.56916409;24.63900301;2.711641311;-25.03625027;27.2968091;-28.3868756;4.633576921;4.979512095
14.39814723;-16.87558891;13.59102786;-31.9186373;2.898373067;1.752983727;-25.90406308;12.75406415;15.76927504;-54.95209492;13.25725131;-35.88560928;26.6523775;-3.451538349;-27.5382115;26.89483077;-28.12016106;4.613739009;2.475727138
3.900048828;-27.52527444;3.624928026;-25.76863262;0.659443093;-1.20577609;-22.93891627;8.601983986;20.93210271;-48.5984151;12.81913011;-40.14690675;24.87064258;-9.878249758;-25.72103094;24.58546057;-27.58944272;4.969141036;-1.062699164
-4.552798687;-36.81984592;-7.07240102;-16.25456286;0.226483257;-2.601546546;-18.05474593;7.451281609;22.84588314;-40.28458637;11.39319168;-36.61260729;21.25872959;-11.45615005;-20.8465704;22.22722675;-21.81828341;10.40335913;-1.747186259
-4.028555649;-40.3399741;-11.00843369;-11.68303651;1.065218318;-1.243987359;-15.86083095;9.076268942;21.76177665;-34.9127865;11.10109516;-27.70732396;17.89385856;-7.01366231;-17.25027178;19.96436228;-10.47044518;19.56123705;1.63126711
4.413039416;-40.04425617;-7.939693106;-15.21605375;0.289152348;1.56979058;-18.41198655;9.118178236;18.75280594;-36.39554143;11.98278122;-21.04287934;15.50723481;-0.306054834;-18.37086738;16.20730942;1.198435511;24.81609819;6.396280213
13.25939312;-41.45763059;-4.316507386;-22.53433117;-4.464431608;3.319295182;-23.36138925;3.699625336;14.94067611;-44.7287753;12.49272963;-22.74858871;13.55621409;3.221242674;-23.51144257;9.541569415;6.579922209;18.61018176;8.422695225
15.59409884;-47.84015608;-6.727571459;-25.85878655;-12.46969685;2.568383203;-26.19759687;-6.234159677;11.01928446;-55.57549538;11.35213216;-31.97489216;11.4285367;1.010636858;-28.3401452;0.718938989;3.488471416;1.081841606;5.958140213
11.11605351;-56.90691842;-15.57638548;-20.76086488;-20.1984291;0.19050875;-24.42698875;-15.06673415;7.165844237;-62.91221865;8.854821883;-41.44343459;9.381576976;-4.679125695;-28.71272728;-7.201090701;-3.669722486;-18.0838525;1.302880713
5.798072935;-63.06014803;-24.74647297;-9.936841296;-24.26703333;-1.551615455;-19.82243848;-17.11701936;3.423991338;-62.92124539;6.58089444;-43.57520393;8.260154475;-9.047119476;-24.35753566;-10.82019419;-7.389623038;-26.02551576;-1.210394132
5.786008904;-62.86939511;-27.36806437;-0.875534699;-24.30612923;-1.141836368;-16.71277544;-11.47686396;0.469239229;-56.28537648;6.157931453;-36.82034276;8.389669386;-9.041507407;-19.07810185;-8.868014174;-3.317695789;-16.54756667;0.886222449
11.32298941;-58.53163588;-22.22901997;0.381252944;-23.07275262;0.842045425;-17.95966783;-2.644452766;0.143288024;-47.25295245;8.408503098;-26.7046264;8.928144458;-5.802392308;-17.27880342;-3.138517295;6.095718163;4.722415346;5.94944429
16.29598194;-55.96410372;-14.90536783;-6.013475654;-23.7239611;2.375233706;-22.35606951;3.573927226;4.809809492;-40.33292567;13.35456095;-20.8315391;8.501530419;-3.205321506;-19.93682521;2.799899104;13.67930659;24.42461548;9.652827975
13.77572789;-59.19647229;-12.61811187;-14.33175855;-26.84063111;1.953868329;-25.80396749;5.079399079;15.21368714;-37.22840572;20.31288779;-22.36327516;6.6030934;-4.03077079;-23.63835141;5.978264759;13.56271797;31.68340624;8.79353997
2.491658162;-66.21292056;-17.5670038;-18.3956145;-30.00591622;0.009896574;-25.120778;4.848051034;28.06089622;-36.2401396;27.30010311;-27.66511579;4.35474441;-7.357083422;-23.55062471;5.591815049;6.004480244;26.13330513;4.063857859
-11.57758413;-70.17026982;-24.82939958;-16.59926535;-30.30432739;-1.535332284;-20.93934266;7.554170962;35.68913354;-34.27421036;30.31268677;-29.93148832;3.725168193;-9.523570062;-17.70426574;2.739050607;-2.986470444;17.25803448;-0.654479772
-19.86185465;-65.10878298;-26.71281921;-12.62541389;-27.32192739;-1.122036072;-17.06570193;14.7539209;29.44583216;-29.56692707;24.14973415;-25.3067457;5.762865309;-7.668983582;-8.831014437;-1.070616299;-6.732210427;15.85235778;-1.775102426
-17.92773258;-51.22900592;-19.60518589;-11.6246581;-23.73395291;0.952601099;-16.95163378;23.18163082;5.626986237;-22.91692185;5.620936448;-16.01793378;9.447695163;-2.510428024;-2.194000682;-5.136277675;-3.227680436;24.94850231;0.881543553
-8.43906853;-35.14895817;-7.177095075;-15.52979242;-22.8475633;2.797748381;-20.56362835;27.71726208;-29.98185395;-16.69253921;-22.52750524;-7.97901749;12.34051924;2.205982823;-1.350961182;-9.497678394;3.708430144;37.75740649;4.091453908
1.930741745;-24.93213601;2.841877155;-21.63489171;-25.38967706;2.69621424;-24.49948195;26.20589407;-63.1055085;-12.76506344;-50.48860848;-5.363744418;12.61959298;3.048469398;-5.495186067;-13.8884976;8.155056404;44.00911125;4.244411461
8.505228496;-24.15759802;5.304222895;-25.40175923;-28.63052615;0.719006956;-25.17527459;21.62451447;-78.27057187;-11.20720578;-65.45463423;-7.177928522;10.76124588;-0.054891348;-10.50109257;-16.94394954;7.211611466;38.94356484;0.601586366
12.03282605;-29.95495908;1.734998411;-24.6657936;-28.81286066;-1.319103287;-22.10307925;19.59679116;-68.28057052;-10.66735242;-59.30717184;-8.741711647;9.308839469;-3.844412324;-12.52494264;-16.6390605;3.08998578;27.2033437;-4.105137372
16.70082187;-36.30546407;-1.6411936;-21.37623933;-24.74997683;-1.523105395;-18.26141348;23.54688279;-39.31679148;-9.783362936;-34.72783466;-6.365414093;10.79140283;-4.753871757;-10.92181653;-11.78318767;0.623133583;18.54498174;-6.172499754
24.98877814;-39.35020649;0.08014793;-19.47369827;-19.25792372;0.337763632;-17.28401276;31.86667101;-7.532389703;-8.247148706;-4.646373398;-0.697454875;15.50326443;-2.113735828;-8.096621968;-3.377163859;2.666557623;19.39226356;-4.198056358
34.43595896;-39.97950686;5.992790353;-21.07842431;-16.96635191;2.610739825;-20.10865095;39.50151824;11.01994821;-6.712956324;15.52141595;4.279431881;21.061165;1.408512183;-6.777703977;5.391408006;7.51484173;27.63433319;-0.202170691
39.46054443;-41.73347557;10.43465639;-24.57668943;-20.33971114;3.260969323;-24.16478648;42.28657818;10.22871556;-5.939062027;17.72908629;5.398227244;24.18872233;2.492429767;-7.421326508;10.76739808;10.45121014;34.9759322;2.29725161
36.57076912;-46.36512409;8.467419534;-26.28394595;-27.43595788;1.71164135;-25.78970508;40.01284372;-3.391196976;-6.174165444;6.053701549;3.475803235;23.28745302;0.440676137;-8.089975946;10.7045182;7.857956385;34.48624962;1.413173149
28.09709112;-51.38096146;0.669494702;-24.0087049;-33.4502582;-0.654762231;-23.59382807;35.65756947;-16.80838756;-7.336399073;-7.244846114;2.446449134;19.67256194;-2.039582411;-6.691897187;6.291139044;0.23183047;26.62043354;-1.602313736
20.86261296;-51.84350562;-7.138976304;-19.14159891;-34.73654988;-1.770837283;-19.67638581;31.94051105;-20.45175664;-9.574971497;-11.28441921;5.360345408;16.46739905;-1.349647877;-3.280192888;1.305227485;-8.353153255;18.56096158;-3.708547812
20.7773303;-44.71018232;-8.942773295;-15.33738895;-31.78782815;-0.749614794;-17.62691144;28.76444544;-14.45033928;-13.38322562;-4.305397466;11.17701708;16.09764608;3.433948452;-0.178529344;0.059728517;-13.59857443;17.66;-2.908462694
28.02748309;-31.69682737;-3.744225805;-15.03747786;-28.5828756;1.359304078;-19.21278822;23.96189343;-6.829325651;-18.97121833;6.236947641;15.52402177;18.44438349;9.20920695;0.147709987;4.805445748;-14.13490101;24.81128219;0.063791608
37.03209213;-18.0850908;3.724927389;-17.06356514;-28.93620498;2.581302394;-22.81383477;16.34423931;-5.862284738;-25.51723283;10.77819359;14.78624876;21.09248389;11.06645204;-2.58924919;14.29409332;-11.96963807;33.473293;2.64245788
41.15376126;-8.603109386;7.318749612;-17.52786166;-33.11445053;1.834134301;-24.99711836;7.747508413;-13.17693663;-31.21423183;5.737658773;9.665468637;21.34096663;6.273776695;-6.188687281;24.44480253;-10.30052263;35.10591991;2.925717187
38.04830586;-4.065331589;4.83695882;-13.29698244;-37.66929376;-0.12056619;-23.71716912;1.835927252;-23.0515357;-34.33501749;-4.061911104;4.776542373;18.25641933;-3.351289244;-7.919022301;30.76619296;-10.94866917;26.35757337;1.363978098
31.12264018;-1.610695742;-0.364219949;-4.949476599;-38.516458;-1.433837466;-20.16992925;0.767343113;-27.85978963;-34.50040779;-10.20995245;4.55107146;13.16949366;-12.69521292;-6.869920972;31.03617975;-13.5989431;12.01331831;0.101435492
26.09522671;1.958723582;-2.792286134;3.388005941;-34.42839657;-0.897183156;-17.62795516;3.095402746;-24.57682479;-32.99473123;-8.151333647;9.224136214;8.420118802;-17.15650852;-4.510128648;26.49845817;-17.05623193;1.38268492;0.692930565
25.90142841;6.948126384;-0.003256483;7.205931976;-27.8623529;0.96472754;-18.39021396;5.164841972;-16.80736108;-31.74596162;-0.699057441;14.66678505;5.570058594;-15.84935139;-3.02428892;20.7606055;-20.86593257;1.182224943;2.438757497
28.42714036;10.53876338;5.178903282;5.085223346;-22.55695053;2.42266021;-21.68685855;4.771800169;-11.02855081;-31.80448732;5.153387854;16.26151834;4.550548928;-11.70297121;-3.128226639;17.15301515;-25.60898971;10.58393659;2.962160262
28.84508797;9.542556162;7.302330648;-0.40224473;-20.247185;2.168669651;-24.4438742;3.442097559;-10.77523446;-32.66302145;4.865678745;13.21204866;4.22528047;-8.670495744;-3.514604561;16.44977839;-31.78998252;22.06318295;0.51192081
24.22462748;3.416319702;3.247937015;-4.983635236;-19.51358891;0.517853499;-24.14743065;4.837101601;-13.98077075;-33.02689563;0.279884745;9.215686051;3.612953198;-8.598792284;-2.436139091;16.64644516;-38.75205188;26.99107365;-4.176557838
16.2399746;-5.253019669;-5.006860957;-6.115143487;-17.66385087;-0.914607197;-21.13538482;10.58581196;-15.55405427;-32.3023483;-2.605392513;8.801755101;2.615960752;-10.31152222;0.212385662;14.95286419;-44.95358531;21.48797003;-8.249761122
9.702927313;-13.07294427;-12.17440527;-4.706113943;-13.67847796;-0.736517274;-18.22467562;17.63296242;-12.5099674;-31.36709148;0.267430839;12.74914442;1.769660283;-11.31;2.500554721;10.39455297;-49.40208903;8.377884194;-9.074327958
8.421409289;-18.62593828;-14.16437114;-3.908736577;-9.317428325;0.924053694;-18.07377682;20.11067185;-6.837414658;-31.81829352;6.865834129;16.9851925;1.510771459;-10.23811089;2.309493517;4.856268672;-52.69692572;-5.570527975;-6.4644948
12.12230337;-23.05147299;-11.16082753;-6.236763291;-7.320464089;2.543355724;-20.75170076;14.53906286;-3.543971428;-34.31980875;10.84003906;16.22070707;1.816306047;-7.857830592;-0.313974725;1.626518985;-56.41711681;-14.50108072;-2.798503421
17.01085054;-28.00388978;-6.680557856;-11.49773424;-8.476761275;2.616870524;-23.74247333;3.711139547;-5.77787134;-37.58260261;7.668568593;9.121670628;2.528640665;-5.911185621;-2.727355425;2.613900223;-61.28144776;-16.82690998;-0.924186173
19.2070076;-33.14038881;-3.860652173;-17.09209329;-10.48486591;1.046053329;-24.32597512;-4.655923241;-11.55222022;-39.03233249;-0.529551746;0.183223563;3.874824508;-5.245822381;-1.920543048;6.634639391;-65.91747826;-15.19935148;-1.73294329
17.86961854;-35.76194811;-2.684583419;-20.1551447;-9.861365618;-0.778743767;-22.08898871;-3.87422006;-15.10809096;-36.7351646;-6.185005568;-3.719512076;6.450677088;-5.108268862;2.471257292;10.35179462;-67.70367267;-13.82433346;-3.54563758
15.36840718;-33.1520449;-0.704955103;-19.636399;-5.221687032;-1.260218876;-19.24671449;6.118361538;-11.78528966;-30.99549498;-2.767523058;0.68668919;10.51158445;-4.199380939;7.276987637;11.1461465;-65.20440585;-15.37216102;-3.789782458
14.69473818;-25.50388136;3.719356739;-16.75319962;1.179420957;-0.048989378;-18.522671;18.50718141;-2.167266712;-24.26765652;9.044025814;9.819846959;15.21151647;-2.309313621;8.228066646;9.387740114;-60.01247034;-19.42033408;-1.389159236
16.73246563;-16.61007813;9.126319586;-13.7754559;5.273900778;1.661385103;-20.59701173;25.12180379;8.083503935;-19.45153618;21.12103921;15.77705413;18.63871251;-0.821552731;3.861477352;7.968271335;-56.07182169;-23.00159296;2.303580241
19.88735965;-11.42194263;12.06882458;-12.36301601;4.882783105;2.249271827;-23.49792277;22.99623997;12.55929378;-17.99616324;24.13850874;12.6940274;18.85382121;-1.542145532;-2.626394231;9.38429085;-56.71778063;-22.58415611;4.824905419
22.17624606;-12.42277911;10.64676851;-12.72027752;1.92850543;1.146438768;-24.47278066;16.21837886;8.980547424;-19.31605637;15.1831533;1.556994801;15.21117358;-4.982538448;-5.614585827;13.03699917;-61.84064318;-16.29112091;4.906698139
23.53136744;-17.91165159;6.87290658;-13.8952989;0.972040247;-0.672193784;-22.56905732;11.53397214;0.677917538;-21.79866505;0.246902782;-10.65;8.900807628;-9.769162195;-1.878453906;15.4691331;-67.70298153;-5.257274668;3.64311051
25.94655917;-23.69309991;5.204324566;-14.64192379;5.173330873;-1.614627121;-19.51964011;11.88753183;-6.285035271;-24.29533091;-10.58576773;-16.7201187;2.23738645;-13.76123613;6.056707751;13.6761036;-69.75309173;6.572138463;3.468040156
31.22404348;-26.73454541;8.249616024;-14.11462417;13.22292786;-0.934001342;-18.12722712;14.02534804;-7.771594351;-26.6997269;-11.23210507;-14.96785852;-2.757855566;-15.80607385;11.22574452;8.573712436;-66.14052924;14.25432075;5.897035945
38.44;-27.68328849;13.64835317;-12.13576571;20.12225768;0.623399304;-19.66786548;12.49672532;-4.272487669;-29.23268477;-4.182672669;-10.10055203;-5.381483788;-16.4531034;7.592366709;5.074199012;-58.93033728;14.48480634;10.0903422
43.63979987;-30.17245484;15.43421545;-9.194330403;21.37142924;1.556699401;-22.72486923;6.207999495;0.165026533;-31.35765719;2.206207089;-8.658054156;-6.166399982;-16.97319431;-4.742964478;7.977594207;-51.95818804;7.590269245;13.52473377
42.33833751;-37.62378558;9.208013957;-6.305852171;17.04154978;1.020546572;-24.51565524;0.873314446;1.482759391;-31.58880533;1.234732069;-13.13092714;-5.946559875;-17.70127659;-18.94927662;16.88306922;-47.21956882;-2.480014648;14.1557127
32.88905076;-50.3235427;-3.291681363;-4.63431851;12.12960048;-0.410758767;-23.4597751;4.179748183;-1.315937149;-28.51614763;-6.301035583;-19.86784721;-4.995492045;-17.41863414;-26.34788614;24.92563119;-43.02973378;-10.37775666;12.14187491
17.93808691;-65.16907954;-14.57090349;-4.840841951;12.68847015;-1.318150987;-20.60644103;17.41284249;-5.649465287;-22.08922166;-12.88429504;-22.45503802;-2.980811962;-14.51431831;-23.0710297;23.43512637;-35.68031951;-12.45888062;9.638866198
2.737609565;-78.11342216;-16.96090901;-6.541838095;20.86151752;-0.791187035;-18.62268958;31.38139418;-7.268040619;-13.84561912;-10.87233185;-17.49511309;0.348673994;-8.910573092;-13.10759397;9.442020535;-23.22608613;-8.689373415;8.907830522
-8.321525694;-87.10803768;-8.964652353;-8.506560835;32.97299711;0.714473101;-19.31083268;31.59620566;-2.922874572;-5.730137594;0.808718921;-7.770197648;4.510285617;-2.872456414;-5.110383379;-10.27480748;-8.070324269;-2.096364969;10.43844575
-14.20134613;-93.12657869;3.11270556;-9.777824332;42.31189946;1.811598278;-21.96691762;9.767043819;7.771841867;1.469525803;15.5514987;-0.186595369;8.364916164;0.283821016;-5.413891214;-22.92512215;4.058834889;3.638503022;12.68945898
-16.89894126;-98.65843686;9.992557707;-10.95138409;44.32833807;1.492162235;-24.08212692;-27.51020645;21.80857589;8.584322369;24.38560801;-0.388181379;10.89795505;-1.318987562;-12.92308705;-19.37236311;8.09412829;6.470309179;13.56015748
-18.85643327;-105.1896553;6.978240884;-14.30781977;39.97649065;0.084583882;-23.70235952;-60.79155405;33.42548596;16.89837668;23.16554872;-8.562749063;11.99763844;-6.500131036;-20.13752822;-2.38447455;3.374061315;6.492295869;12.20663349
-20.42632354;-111.8347;-2.002920598;-22.13857922;34.54810926;-1.037809292;-21.23643698;-70.27861766;35.83962005;26.36469308;15.64742503;-19.65823034;12.51392843;-11.69678887;-19.60469064;13.75056613;-5.905944628;4.682232696;9.623010619
-19.50371695;-116.0855331;-7.378480013;-34.18415415;33.12690882;-0.728582842;-19.042684;-49.86911666;24.09454132;34.87513987;10.07951817;-27.39990872;13.5278006;-13.44410953;-10.58679332;13.14890564;-13.86930874;1.479337654;7.604702468
-13.5236957;-115.8308159;-1.666183463;-46.29578001;36.5254778;0.858007643;-19.20375957;-12.03519201;-1.682673312;39.38336817;12.35015544;-28.594067;15.45566337;-10.6733923;-0.408971193;-9.120296995;-17.14071395;-3.27646138;7.147644234
-2.070087891;-110.9363448;14.27249155;-51.96775804;40.99277764;2.385722941;-21.57729181;20.44141482;-34.50565605;38.02440325;21.39417086;-24.51988805;17.73103989;-5.068300034;0.835178105;-41.66446683;-16.71387251;-9.096625018;7.728935208
12.09164872;-103.2983751;31.52935242;-46.29586718;41.71078664;2.541104112;-23.93474659;29.81117799;-62.31345223;31.45382362;30.41551629;-19.03372971;19.27333271;0.585080538;-11.81055712;-63.49955264;-16.23559923;-13.87212913;7.996826877
24.43087906;-95.59582185;39.74711386;-29.75589635;36.97983485;1.219982709;-24.04624762;14.44206407;-73.56089259;22.30503692;32.58236417;-15.57215577;19.28645963;4.493030532;-33.84694436;-58.5865448;-18.40118642;-14.64200614;7.096904574
31.47417572;-89.78564354;34.74714284;-8.855585987;29.60843092;-0.386546733;-21.76127748;-12.06397772;-63.85986665;13.32181007;26.37028996;-15.43243013;17.72526602;6.682570052;-54.01753084;-27.53494583;-22.52075273;-9.797604937;5.37543506
32.96179599;-86.22667032;21.28919827;7.250181583;24.53388255;-0.875855543;-19.14951543;-32.06337283;-39.21101491;5.831553839;16.38424002;-17.89415958;15.15389252;8.187927073;-61.98387883;12.38966985;-25.07441142;-0.717908552;3.89829418
31.80918555;-83.6578784;9.159519959;12.10475864;24.83968036;0.109815473;-18.57687493;-36.21855445;-12.93906557;-0.233436047;9.413644428;-21.0701644;12.27760309;9.713327612;-55.15057592;39.07641781;-22.48492592;8.97793899;3.366507786
31.94126935;-79.83031686;6.040583479;5.600701171;29.46837738;1.594518641;-20.50952577;-27.96456576;2.273826634;-5.115007623;9.227199273;-22.44036478;9.625873808;11.16077555;-39.6534355;40.40067985;-13.68467232;16.23112529;3.508261176
35.52723027;-72.58288935;12.7376978;-6.55076131;34.28432125;2.189255571;-23.08552491;-18.07070348;2.007739438;-8.290109719;14.221872;-19.31747983;7.569724969;12.31215401;-25.18082696;21.19341844;-0.603387794;20.92635212;3.472405
41.49879866;-61.15074579;23.89545067;-16.96037864;35.31789809;1.360399126;-23.84912847;-15.01797938;-8.018668828;-8.895011346;19.36537985;-10.12762166;6.436982318;13.66085588;-17.96173507;-2.221886453;13.30512285;25.45937886;2.744573474
46.32908445;-47.17252406;32.74821706;-21.18801346;31.45018622;-0.113579971;-22.03777144;-19.20528028;-17.12488001;-7.054376092;20.40920933;3.689156985;6.409858985;16.22347711;-17.2770844;-14.91820715;24.86742573;31.61924253;1.640392271
46.52284652;-34.53419523;35.65024082;-19.65391853;24.61705583;-0.890947865;-19.30249416;-24.67799884;-17.88866279;-4.536758641;16.90857639;17.01897238;7.228466108;20.30081054;-17.65610557;-13.44434004;31.91809763;37.6840256;0.912928655
41.10529204;-27.54;33.14801036;-15.95496267;17.84937236;-0.306157997;-18.19409481;-25.48163601;-11.10489832;-3.672745197;11.99741298;23.52237025;8.091438428;24.44372289;-14.31290917;-5.878012236;33.0060899;38.87405633;0.919605633
32.34876466;-28.10951382;27.79148723;-13.4456241;13.08197628;1.045739989;-19.81150238;-20.56062495;-3.872784293;-5.24023039;9.604330117;20.55112117;8.086754674;25.94998781;-7.114576471;-3.059863894;27.22244532;31.40927748;1.216698772
24.14323119;-33.90881328;21.46951584;-12.92063897;10.41598411;1.897190666;-22.77916504;-13.48150791;-2.773930079;-7.324370646;11.55351432;12.80013183;6.975242542;22.86022414;-0.073756955;-9.013632761;14.90571105;16.79906423;0.988832656
19.11847144;-39.24783215;14.70864089;-12.88432105;8.931791803;1.497012199;-24.49251039;-8.345238732;-8.002864549;-6.561298632;16.63376619;10.56161761;5.664178584;15.85640436;2.669060873;-18.40094123;-1.389130627;2.124046665;-0.137701116
16.70817424;-38.76157379;7.890058594;-11.59431253;7.832727255;0.288473697;-23.48440416;-6.289725754;-13.32501461;-1.007761095;21.93201193;22.159075;5.789390375;8.244140384;0.591696062;-22.3728307;-17.07874697;-4.788248443;-1.735575663
13.87878082;-31.52134411;2.367466668;-8.822962901;6.774767463;-0.539183051;-20.74339493;-5.611889655;-11.7233986;7.883913273;25.11395741;45.53261714;8.52069418;3.706529497;-2.941425586;-17.10961636;-27.53928642;-1.695732936;-3.036704403
8.28929424;-22.32277168;-0.124653184;-5.948886029;5.38559257;-0.186302649;-18.7879482;-4.623096899;-1.786443483;16.22611324;25.96721184;66.26575154;13.45520062;3.512010197;-3.857304632;-7.533415766;-30.77508247;5.78956807;-3.725823937
1.48284121;-18.6277955;0.773326285;-4.68941565;2.901710009;1.004224171;-19.36199881;-3.842662085;10.68013489;21.04841825;26.29787949;65.61380997;18.56209218;5.528321604;-0.983067204;-3.251620946;-28.62709973;8.58440883;-4.217630587
-0.885402989;-24.98100902;3.214134618;-5.863102812;-1.374829938;1.875009882;-21.86768281;-5.242347012;17.23728655;23.04927449;28.37514166;34.31405175;21.40043662;6.010546595;3.128724805;-10.50251176;-25.2833681;1.985422985;-5.084125718
7.088094471;-39.04576265;4.562709127;-9.184878998;-7.161116093;1.546753992;-23.95351684;-9.554722199;13.75920154;25.86548746;32.87657967;-17.81671982;20.80319651;2.790854606;4.760305699;-26.99740155;-24.08465667;-9.717677672;-6.201771755
25.80045745;-52.58399269;4.018504917;-13.87832703;-12.89880363;0.249173804;-23.69;-14.71918446;3.934293031;31.94252436;37.53167621;-64.91375273;17.767426;-2.774903519;2.546223078;-43.74600028;-25.20620909;-16.33735604;-6.563789809
46.97258997;-57.05904865;3.818838248;-19.17603743;-16.71264504;-0.885431238;-21.32309103;-17.34099208;-3.582872172;38.49269596;37.45511986;-80.3920415;14.83569296;-6.784668765;-1.265874123;-51.97872964;-26.17714012;-10.50890477;-5.117404353
56.55919218;-49.83552579;7.398223796;-24.22340399;-18.01893838;-0.872232091;-19.01035453;-15.86407097;-2.008641411;37.68316397;27.47326758;-54.59038832;14.38996175;-5.935427943;-2.936870309;-49.32906972;-24.7496571;5.354862168;-1.948233273
43.08597012;-36.23381105;15.7434204;-27.86240906;-18.37635925;0.2099447;-18.81509665;-12.24041943;8.302340361;22.03194311;5.592886735;-1.948802455;17.09450806;-0.243437766;-0.800041504;-40.5912193;-21.47395084;20.35680765;1.349276828
6.243286323;-25.73478362;25.25431124;-29.05914869;-20.66469822;1.286928477;-20.82113933;-10.19869638;20.28358543;-8.668199049;-24.37537951;48.14670983;21.57079188;6.903215186;2.99235928;-33.18828268;-19.48786674;24.24218473;2.66150556
-40.6763502;-25.12573223;29.53775196;-27.9285565;-27.10472617;1.278707672;-23.09279812;-11.55702401;25.69225783;-44.71096323;-53.1959239;70.83430048;25.42171938;11.3605561;4.206224096;-31.62433529;-21.51572637;16.7664169;1.021937663
-77.30351188;-33.75903891;24.20922907;-26.26857686;-37.70157646;0.095922048;-23.48581499;-14.13714818;21.17310887;-71.26090851;-70.28437825;61.70832807;26.7519702;11.30564792;0.306650362;-35.32250442;-26.75081224;8.738646153;-2.456030583
-88.17955877;-44.43277924;10.84691014;-26.54140382;-50.38516278;-1.273518888;-21.61828587;-13.56083779;10.17459606;-77.91226521;-69.6202862;37.79914991;25.10860922;8.268433392;-7.039092824;-40.77785087;-30.69429932;12.87241817;-5.28402475
-72.31612948;-49.02515761;-3.491810394;-29.63506184;-62.66437546;-1.662748056;-19.19053291;-7.59809307;-0.345352683;-66.08218675;-53.76659497;23.25871959;21.37141194;5.426793302;-13.03303329;-45.27906458;-28.57848371;31.62823529;-5.476487601
-43.57620928;-44.42673588;-11.25092666;-33.28900135;-73.30684446;-0.780046387;-18.38687088;0.864725835;-5.348750173;-48.29719749;-32.86274688;30.71882879;16.955783;4.786019663;-13.60351675;-48.72013649;-19.72028219;52.74637899;-3.089501769
-21.37824831;-34.32063474;-10.01591153;-33.07665759;-82.58846915;0.544694159;-19.85818454;5.235246179;-4.892510134;-39.36817831;-18.63700451;52.21488788;13.05352714;5.685215452;-8.783824601;-52.41965491;-8.96258938;57.49606821;-0.135677852
-18.12579966;-25.80851413;-4.147566682;-25.8543786;-91.00317414;1.133613199;-22.14661317;0.225713118;-2.932962552;-45.80549512;-17.16652862;66.01659769;10.34018775;5.77134527;-2.669484029;-56.80090145;-3.531772469;35.98573003;1.064390871
-32.09911883;-23.88232075;-0.910180205;-13.12879367;-97.76075744;0.530820975;-23.059617;-13.5899045;-3.309020007;-61.44696262;-25.39938605;53.66236375;9.040132878;3.383968677;0.084197215;-60.5252702;-7.512510102;-2.892630095;-0.277854448
-50.44686997;-28.12679602;-4.210455829;-1.196958327;-100.6181742;-0.614205349;-21.69981007;-29.53048779;-6.442902081;-72.63334702;-33.99603308;14.19935389;9.017439637;-0.853067287;-1.750765913;-61.83256245;-18.41594802;-35.972723;-2.898947312
-59.46614326;-33.91482761;-11.19342681;2.838555417;-97.38139629;-1.185671105;-19.27215257;-39.17800344;-9.257647195;-68.89850981;-34.43921048;-34.65571951;9.793588609;-4.593883699;-4.969935205;-60.49652485;-28.87025005;-42.49836677;-4.649242528
-54.24890177;-36.68088085;-14.64860602;-3.462377093;-87.8664955;-0.653155857;-17.94273624;-37.86028836;-7.976941193;-50.88847934;-25.12085302;-68.59055617;10.71119527;-5.862033343;-4.848156213;-58.28895142;-32.29558868;-20.40072034;-4.288538275
-40.82385007;-35.64286663;-9.288691743;-15.36715464;-74.61146738;0.443645198;-18.82856956;-26.984915;-1.316525712;-29.50598935;-11.90629717;-72.64270186;11.41499532;-4.725573214;0.528772519;-57.50311597;-27.97766995;10.93630221;-2.387263412
-30.07386477;-34.16475158;3.400109651;-24.00553732;-61.63121572;1.017722822;-20.98405704;-11.8083966;8.363107855;-17.25881684;-3.006512264;-49.72423615;12.38941477;-3.085050191;8.361337007;-59.08445622;-21.24590224;24.33129529;-0.659588006
-28.94865632;-36.83084477;15.94566207;-23.14876028;-52.12395543;0.466787127;-22.30601505;2.942857027;16.55047688;-18.84668148;-2.439095028;-16.7980066;14.95483107;-2.860058594;13.51246075;-62.19467381;-18.45417489;4.828064982;-0.427491709
-35.96458633;-45.7641822;20.80361685;-14.52304449;-46.86530332;-0.750926741;-21.49703855;15.73135528;19.44258867;-28.33051078;-7.319960734;7.109055882;20.37549155;-4.271616485;13.26806181;-65.39246606;-20.92492435;-39.20886277;-1.593330194
-43.87537056;-58.94411762;16.49108585;-7.084462185;-44.39263996;-1.531494195;-19.26035661;27.30140739;16.26329625;-34.69384532;-10.92205175;11.96537479;28.51537062;-5.745094858;10.29987841;-67.85916768;-23.14449917;-82.36449501;-2.937455393
-46.41165952;-71.44199131;8.732754856;-10.23994369;-42.60036215;-1.143186265;-17.62996056;37.80465436;9.800521502;-30.86580082;-8.631245617;0.02179444;37.12599522;-5.436727319;10.91029691;-69.15573886;-17.1356242;-100.7332899;-3.334109472
-43.0983809;-78.3276873;5.55508547;-25.98577066;-40.33530568;0.096773638;-18.074255;45.21334181;5.01592632;-18.81051804;-1.646190651;-18.91276471;42.6510257;-2.943334519;19.5733376;-67.87557236;0.305710307;-88.36486382;-2.720974316
-38.45681977;-77.15387425;10.41893779;-46.21782254;-37.8132413;1.111006932;-20.13828551;46.7398117;6.377897864;-6.916028447;4.612715074;-35.06299299;42.34451797;0.325278776;34.15898831;-61.24102846;23.58713289;-59.40845645;-2.002837085
-37.02848814;-68.69264962;19.27325967;-57.73964612;-35.83;1.046967135;-21.87543176;41.85351699;15.00944459;-2.403844775;5.77094075;-43.51429233;36.32338564;2.355114216;46.1020699;-47.15539247;41.38077065;-35.43243981;-2.11694718
-39.06285495;-55.99507547;24.21887382;-51.53222216;-34.72060499;0.04968269;-21.6556168;33.78768801;27.02633677;-5.37780206;2.670502638;-44.29818179;27.94359629;2.152888095;46.02272285;-27.61539743;44.9902266;-28.85107822;-3.223129205
-40.62605818;-42.70949178;20.85173415;-29.38647237;-34.01485122;-0.884283106;-19.67;27.75155477;34.38556574;-9.352320793;0.709087585;-39.76991869;21.9611434;0.35448698;30.84156555;-10.17182867;35.63813706;-35.51392402;-4.748315768
-37.60188747;-31.57517512;12.99332378;-2.880404419;-32.91975935;-0.829057924;-17.74675236;27.1408534;28.6509946;-7.400706518;4.910564354;-32.46055663;21.58639833;-1.578669023;6.910472953;-4.830465366;24.58422597;-41.14077025;-6.106708717
-29.56865412;-23.56720736;10.34737077;14.51399314;-30.99290581;0.224020645;-17.66063395;30.97829505;6.260058594;1.612837977;15.08156747;-24.73894782;26.46985411;-2.667468818;-13.51934874;-17.42483323;25.2410954;-34.8393865;-7.256139359
-19.91453488;-17.8544796;20.34589317;16.26054264;-28.36390107;1.367306976;-19.50597506;34.81560018;-27.81573987;12.03705417;25.38295393;-19.22593847;33.06385854;-2.970492503;-20.14463018;-44.13741934;42.73394928;-17.93087382;-8.481972427
-12.26599823;-12.59222071;40.4941923;6.120889888;-25.47472536;1.61090433;-21.62743462;34.3196643;-61.0602031;16.29322594;28.82477127;-18.35208364;37.08374866;-2.997365011;-11.11843709;-72.02685836;68.7331743;-1.362223147;-9.667937417
-6.826761237;-6.297580821;57.7157196;-5.921007354;-22.81516177;0.774728273;-22.15604858;28.49582694;-79.55772473;11.20516315;22.91081333;-22.91233531;36.2665775;-2.770338808;6.405960838;-86.33564608;85.85117232;4.831655445;-9.925489778
-0.304181301;0.90989956;56.14170501;-11.46676895;-20.98520222;-0.374771116;-20.7210253;19.97768237;-76.10114144;0.365452773;11.64249238;-31.08197661;31.4870079;-1.647206673;21.78651323;-79.95992258;78.95758257;0.14707063;-8.159150936
10.31348158;7.136322628;28.27193657;-9.110039063;-20.84058601;-0.848864374;-18.76313472;12.49323083;-54.9689798;-9.263666196;2.216359772;-39.28552704;25.62106735;0.822702639;28.10260071;-58.22453944;45.60545165;-7.040352585;-4.19013761
23.61449182;10.00764365;-18.51334353;-3.794203395;-23.1957959;-0.336658137;-18.17997895;7.996396899;-29.66565169;-13.3012561;-0.713659626;-44.58184755;21.26058571;3.898618229;25.78818271;-35.20202702;-1.750153067;-8.071486273;0.625398925
33.34758038;8.68887177;-65.11929283;-1.5319;-27.99994074;0.549131662;-19.57007813;5.927727236;-14.58355637;-13.19730487;1.674786316;-46.61305872;19.11740309;5.695325015;20.55644146;-24.07652012;-43.28490536;-2.261991372;4.038139146
32.6428127;5.054192912;-91.81697941;-4.304502208;-33.67412979;0.888221229;-21.69513459;4.841709985;-16.02923078;-14.10973899;4.196768687;-47.35498644;18.20163095;4.542712163;17.98988358;-28.56581756;-63.84876322;2.717484127;4.461369698
19.59531042;2.819102728;-89.87783334;-9.161023156;-37.52639187;0.335778589;-22.6385004;4.421326266;-28.81541534;-19.54768192;2.79319039;-48.832316;17.32463078;0.600263805;19.40204821;-41.53251975;-61.39496208;-1.537431652;2.192756019
-0.513136691;4.992336332;-66.06199026;-11.60399438;-37.38709476;-0.558964157;-21.57194291;5.762772739;-40.76401756;-27.71060357;-1.640073242;-50.84475447;16.46253399;-3.779945802;21.95445054;-51.32856157;-46.573674;-15.69311348;-0.777086716
-18.43503648;11.51601305;-37.31496512;-9.814573882;-33.3871919;-0.88956178;-19.49822879;9.751503912;-41.72643058;-32.84258075;-4.078877997;-50.80523648;16.80361123;-5.505526411;22.18407093;-50.61167604;-34.57847304;-31.19462014;-2.287604808
-27.19249653;19.05412262;-19.70808926;-6.004692845;-28.30160886;-0.270479465;-18.30175552;15.37665017;-30.48194195;-30.40701914;-0.044343032;-45.91999227;19.54500609;-3.006105787;19.39793485;-40.91865286;-35.36780223;-37.2656324;-1.630544363
-26.39611697;23.29043393;-19.20077699;-4.068148074;-25.79031175;0.775398047;-19.00498154;19.93724502;-14.66075282;-21.46395652;10.06948317;-35.83095826;24.58490832;2.501693844;15.96864322;-30.09906644;-48.72973796;-30.26752787;0.066517374
-21.35138567;22.04623998;-29.93718031;-5.977646259;-27.61930292;1.289364449;-20.84562058;21.18868356;-4.25127898;-12.28220841;20.87149185;-23.40048967;30.27755389;7.824540574;14.64030605;-25.45203826;-66.55297863;-17.14582726;0.973899723
-17.99249825;16.7860456;-40.21731194;-10.20802553;-32.04777536;0.771745668;-22.0098561;19.44729888;-4.02468965;-9.350674639;26.20451286;-12.9262246;34.44392877;10.07307236;15.65924489;-28.37878051;-79.50410723;-9.82911667;0.190425645
-18.0118354;11.35700805;-41.17974505;-13.37336208;-34.90432606;-0.337351651;-21.31952616;17.53670567;-10.65260673;-13.96834267;24.08672469;-7.267625962;35.76390529;8.607436518;16.5101303;-34.44912351;-82.86147879;-15.28756721;-1.540627441
-18.12;9.058942013;-32.07992488;-13.33308838;-32.78413055;-1.046585958;-19.30372613;18.4153964;-16.25640958;-21.02775915;18.13658812;-6.207686141;34.42840485;5.154298361;14.44850925;-37.9981357;-77.86855976;-29.67018611;-2.590319525
-13.69858143;10.43336346;-19.21343663;-10.88857935;-25.94740795;-0.719975266;-17.67782797;22.53390933;-15.02747779;-23.10284457;14.3356302;-7.202090128;31.64287361;2.145463575;9.344291914;-36.89153853;-68.85777049;-41.40532824;-1.922542005
-3.42862631;13.39596843;-10.30551926;-8.702501497;-18.52;0.333091541;-17.7380469;27.31409446;-7.491145078;-16.51100984;15.98674243;-7.62788986;28.55163076;0.76555594;4.059917319;-33.61301893;-59.34930998;-40.55207905;0.058996969
9.121069145;15.25688053;-9.021007988;-8.674137202;-15.63441357;1.131450576;-19.17366861;29.25372825;0.627978536;-4.393195343;21.17163207;-6.562326468;25.53512697;0.31560457;1.920813983;-32.42412473;-50.30866545;-26.58762737;2.010900868
18.1634776;14.67539314;-13.39368041;-10.289561;-19.6175966;0.913330659;-20.39014965;26.78521285;3.411852189;5.643484054;24.72388696;-4.834619662;22.35498469;-0.736274847;3.610288455;-35.63333419;-41.28411616;-8.414588734;2.958003016
20.19940975;11.97990735;-18.54224113;-11.37796518;-28.18681252;-0.168268479;-20.02122395;21.37337359;-0.785778716;7.317660704;22.80469276;-3.765185202;18.80124025;-3.107216948;6.438732599;-42.24255005;-32.59406606;2.960152617;3.157195128
16.57025267;8.049175636;-20.87345322;-10.39120574;-36.07717033;-1.18003418;-18.20931721;16.00875755;-8.845397756;0.215561079;16.04562021;-4.025505423;15.10502569;-5.964325195;6.777265877;-49.62365737;-26.1745059;2.712130806;3.733440492
12.14309547;3.305954529;-20.36060274;-7.966134353;-38.81510538;-1.248192865;-16.46507181;12.64243447;-16.13460831;-10.37927726;8.672292531;-5.576223863;11.72923479;-7.692315859;3.465248626;-56.08936155;-24.30127455;-5.193992277;5.488602131
11.50422062;-2.0098812;-19.53059856;-6.3159385;-35.68165465;-0.339025121;-16.24939584;10.96446721;-20.25991311;-17.88632973;4.639815598;-8.327519824;8.838195357;-7.383319192;-1.023496259;-61.78549154;-27.51622285;-12.5268361;8.061775325
15.87187146;-6.78941668;-20.58159319;-7.094995788;-29.64713003;0.723267617;-17.60820242;9.491376427;-22.14033639;-19.27290606;4.351868106;-12.42873369;6.080471439;-5.673184932;-2.893972135;-67.36285259;-33.80397568;-13.95337778;10.26298196
22.93987342;-8.864263359;-23.32981976;-9.796949146;-24.55979453;1.005420171;-19.13137279;7.643130578;-23.98895478;-16.54081528;4.819842372;-17.66757104;2.980666839;-4.203624755;-0.798986824;-72.20336043;-39.86399732;-10.69818187;11.25566674
29.18988695;-6.582785452;-25.62576631;-12.1954683;-22.03591994;0.292661294;-19.2684566;6.59705189;-26.56226394;-14.10037595;2.910435782;-22.67802801;-0.421506462;-4.238636447;2.507635732;-74.30926397;-43.39708329;-8.172163022;11.421486
32.32610799;-1.023285426;-25.59562968;-12.39655733;-20.55809639;-0.748895872;-17.77286704;8.056860997;-28.38062645;-14.66182164;-1.430831749;-25.15163376;-3.357061921;-5.668753554;2.474785945;-72.10887133;-44.43616387;-10.40484342;12.01719788
31.89676768;3.535373802;-23.54260508;-10.57646613;-17.28901919;-1.200092773;-15.93319021;12.2933223;-27.46315091;-17.18852508;-4.960821968;-23.36367057;-4.843244298;-7.215149119;-2.76040307;-66.33035123;-44.65368514;-16.48504111;13.8879687
28.19282435;2.1560021;-21.78369591;-8.799534472;-10.82124872;-0.715462754;-15.38146338;17.63413339;-23.64238698;-18.35845089;-4.087293744;-17.85567364;-4.521079069;-7.551604068;-9.753211494;-59.88;-45.40599116;-21.85949766;16.44971466
21.11164641;-6.7318939;-22.59556121;-9.10569682;-2.446639895;0.202654734;-16.58717333;22.10557864;-19.05185527;-15.88190846;1.752241083;-11.58116191;-3.038652712;-6.311826842;-11.76302804;-55.57555302;-46.3660525;-22.76288598;17.97547958
10.406298;-19.2811535;-26.10800863;-11.64102128;5.014353305;0.706763971;-18.42980275;25.58763014;-16.25162041;-10.61325946;9.382233163;-7.965025403;-1.56675297;-4.17251894;-4.207626283;-53.75846367;-45.98519103;-19.47472998;17.03710499
-2.953094059;-28.51579578;-30.00512397;-14.5281184;9.605290403;0.393186307;-19.23672112;30.06285147;-15.81219736;-5.717477122;14.49723829;-8.260058594;-0.827494294;-2.10600676;10.87973554;-52.08637379;-43.28968485;-15.60710541;13.84112261
-15.93332411;-29.70994309;-31.30579381;-15.54832424;11.65833222;-0.356021583;-18.3174606;37.31710261;-15.7566152;-3.849388075;15.22118716;-10.49730115;-0.508287039;-0.600786;25.40582642;-47.82921269;-39.24442824;-14.49984252;10.2098424
-24.39444301;-24.51687033;-28.69879945;-14.06202684;13.07860406;-0.773510875;-16.57617851;46.20763099;-13.51700433;-4.948095981;13.41890188;-11.17698081;0.366460061;0.463325758;30.80827675;-40.60094492;-36.27275856;-16.33468887;8.13669518
-25.42781325;-19.96576978;-23.45081457;-11.43296534;15.319479;-0.448528205;-15.64878135;52.5539358;-8.638441546;-6.507965457;12.63875332;-8.461832874;2.395495614;1.332544912;24.40918324;-32.94106436;-36.21251361;-18.57097481;8.146607729
-19.22990381;-22.5539528;-18.16531327;-9.649870046;18.02916118;0.294667901;-16.3787248;52.53499142;-3.645330408;-5.889729929;14.64459728;-4.111034665;5.035316532;1.929048774;11.37234626;-28.08955555;-38.50071247;-18.94664669;8.921887904
-8.90674395;-32.13277508;-14.54449098;-9.496941573;19.63315487;0.726762915;-18.04714609;46.90746408;-2.083777945;-2.501519003;17.76695282;-2.247470967;6.873172258;1.957294194;0.556283461;-26.93032586;-40.32105402;-17.87171032;8.561071814
1.671044091;-41.07697428;-12.16603632;-9.980762411;19.23967986;0.423326624;-19.05984757;41.79780671;-5.348235558;2.013615902;18.60755109;-5.737666376;6.80143193;1.429283033;-2.433483651;-26.94816571;-38.79945446;-17.80272729;6.37469225
10.19804086;-40.18312674;-9.375914725;-9.483968482;17.96650108;-0.325028976;-18.4380921;44.21963816;-11.12975358;5.519333118;15.50959396;-13.20842783;5.110711737;0.96957506;0.667640312;-24.27639198;-33.50073653;-20.27558788;3.605706376
16.60699769;-26.94489804;-5.490941724;-7.476194777;18.28728179;-0.788428449;-16.72276244;55.21522311;-15.0212871;7.272654344;10.51297525;-19.45945947;3.500231598;1.449694582;2.857589035;-17.07853782;-27.08961501;-23.65868886;2.386661274
21.78262799;-9.253104238;-2.255216469;-5.110191046;21.84351229;-0.492442491;-15.45902941;66.48896865;-14.0765636;8.194915695;7.83253811;-19.28718559;3.879106664;3.206641432;-1.746090178;-7.216320089;-23.48027131;-24.06806734;3.814140815
25.75896318;-0.741173584;-3.024949302;-4.118245785;27.67992007;0.329476006;-15.75287239;64.50063013;-9.338363663;9.417647482;10.08395072;-11.75519226;6.874709012;5.608324645;-12.66724018;1.353110054;-24.90579795;-18.84415544;6.840937594
27.22691094;-10.68186832;-10.07885429;-5.060861395;32.62633586;0.9538681;-17.24765602;40.15835014;-5.116516366;10.6818414;15.65837046;-1.328788813;11.26732218;7.490700695;-23.4265446;6.043191084;-30.28449606;-9.418851549;9.010278236
24.88846534;-36.0935805;-22.16414302;-6.618998236;33.71161073;0.847542901;-18.46801846;-2.898276265;-5.493398494;10.31416874;19.77921029;5.285189675;14.84105118;8.179265617;-27.14272998;7.818292497;-36.20114131;-0.772190505;8.459346361
19.41782094;-62.4326019;-34.41288747;-6.658051462;30.65314729;0.165501505;-18.2015111;-48.34533777;-10.88704298;6.97219094;18.53468208;4.213440043;15.97424266;8.18042084;-22.52974219;10.04773218;-39.63602613;2.28244082;5.499200809
14.12054479;-72.74856805;-41.00182008;-4.125283011;26.26936461;-0.404572103;-16.62694727;-76.6263031;-17.5237061;1.557472464;12.41514393;-2.659991235;14.67548266;8.820455776;-15.08625947;14.997657;-40.13031765;-1.183534277;2.420366205
13.40512433;-58.66147662;-38.7724689;-0.035268534;24.34973039;-0.303251395;-15.14223409;-77.59606079;-20.34229811;-2.682164889;6.118146173;-9.333765574;12.23743878;11.01160346;-12.38844054;21.12582917;-39.61907745;-7.756407593;1.680381636
20.00188361;-25.25281356;-29.22053035;3.382667721;26.67593617;0.362028747;-15.05912181;-57.24787521;-17.09240319;-2.374062254;4.54488004;-10.61750367;9.846707046;14.14836766;-17.47286403;23.72971407;-40.2226022;-12.86630719;3.988780753
32.93915631;13.12811388;-17.45928125;4.603629712;31.66270546;0.915201059;-16.38404214;-33.4652301;-10.42134787;3.01116535;8.312374941;-6.388025829;7.372255404;16.12489359;-25.9878372;18.57552068;-42.06569689;-14.73440952;7.849581804
47.76;42.21922794;-8.998283464;4.022942128;35.78098447;0.759396619;-17.81756119;-23.78583192;-6.29195846;9.916553367;12.74193248;-1.75574835;3.410824671;14.58537975;-29.63372344;5.490123622;-43.12981772;-15.52510969;10.84778742
58.82926376;55.14922623;-6.683572194;3.341710499;36.61339758;-0.03711154;-17.96687272;-33.99967722;-9.846431461;12.50346912;11.47377571;-3.032053077;-3.387587374;8.515084024;-23.08483916;-11.12427884;-41.28389656;-18.70587585;11.51086968
62.16362011;53.16322792;-9.796562151;3.70433048;35.01020494;-0.778624829;-16.63868015;-55.53889323;-21.67826525;6.491533197;1.909227604;-12.72420858;-12.77886438;-0.995829191;-8.618490716;-25.2798487;-36.62747579;-25.10919316;10.19127971
57.04604597;41.12269011;-15.5132589;4.366540158;34.52681089;-0.782144806;-15.01043056;-72.86151984;-37.09173512;-7.643272403;-12.03311785;-27.44626881;-22.45556501;-11.31652732;5.416323887;-33.39;-31.91993415;-31.44096812;8.373361608
45.69804857;22.95150271;-21.20762313;3.226459365;38.54468344;-0.026041671;-14.52571702;-74.74841065;-48.76803835;-24.4513332;-22.29929354;-40.1963213;-29.1181294;-19.65771175;11.0157883;-36.043457;-30.52954796;-32.81143638;7.199223595
31.59830751;0.938339017;-25.77352242;-1.164295214;47.37453483;0.808469578;-15.54667156;-61.16128589;-50.99447843;-36.52390925;-22.48745266;-45.0294521;-30.36846688;-24.25830641;6.535407896;-36.40796455;-33.58457408;-27.18560775;6.593228512
17.7032151;-21.80798861;-29.3010352;-7.918497959;57.66971323;0.960203362;-17.01907585;-41.40472088;-42.78265772;-38.74194405;-12.48832111;-40.54398137;-26.0961568;-24.71638428;-2.521363332;-37.0087345;-38.84375634;-17.76615177;5.682960423
5.573904955;-39.76976036;-31.92440376;-14.07676336;64.64339158;0.307909013;-17.46078835;-26.15241089;-28.14745713;-30.99440994;1.657151191;-29.91889667;-18.43582225;-21.59456055;-8.311108668;-37.80281066;-42.42018399;-10.98071304;3.958851647
-4.365342379;-47.18931657;-33.17220601;-16.74616818;65.39195043;-0.486578798;-16.35217744;-20.0111163;-13.6742117;-17.76871173;12.42740779;-18.13266551;-10.4265298;-15.9127219;-6.834433703;-37.00859745;-42.03256382;-11.55458828;1.960200267
-11.92510897;-42.57473836;-32.38482974;-15.35334541;60.81964224;-0.565146053;-14.63346244;-19.89371979;-5.003075429;-5.148593174;16.15271243;-8.944065339;-4.362103448;-8.950403039;-0.400771229;-33.52448054;-39.05620868;-18.77604393;0.797234384
-16.38218036;-31.02366081;-29.5751967;-12.0822756;54.80822515;0.331167882;-13.84369626;-19.317527;-4.222555071;2.687854779;14.80877026;-3.772324118;-0.881364555;-2.231147208;5.292880438;-28.42812081;-37.56954394;-27.16257768;0.988408102
-16.44993773;-21.25367285;-25.6620944;-10.0987166;51.38983433;1.585326887;-14.6975457;-14.2977569;-9.413847356;5.345975625;13.20144067;-2.52281647;0.819291258;2.720370017;6.498310209;-24.13079331;-41.1;-31.02950377;1.791341503
-11.09220358;-19.08158828;-21.69293556;-11.05576168;52.08475797;2.213398815;-16.41839413;-6.091703158;-16.31143578;5.627687731;14.34228187;-4.745427592;2.061203869;4.975347563;4.362167711;-22.12161065;-49.72155532;-29.11894133;1.769888146
-0.663477656;-22.84120426;-17.78085122;-13.96257721;55.25244611;1.715552598;-17.44639222;0.648236636;-20.94569875;7.21330759;17.12655069;-9.721222434;3.789557115;4.756684682;3.097726821;-21.58542995;-59.85190002;-25.34979199;0.167147964
12.55245425;-25.06535925;-12.8930502;-16.277723;57.66521255;0.510495872;-16.86796847;1.945295836;-21.71379152;12.20747225;18.1420542;-15.68744427;6.20301516;3.393174961;5.388431606;-20.26201711;-66.79392874;-25.0060756;-2.16490805
25.14499867;-19.35;-5.890888746;-16.16158277;56.90759079;-0.433902287;-15.24731807;-2.787061135;-19.75704233;19.94623386;15.64397907;-19.64417261;8.907047475;2.547122462;9.45696075;-16.67250101;-67.76804388;-29.5444287;-3.215122285
34.55007813;-6.45314491;3.007894863;-13.89761633;52.81484628;-0.440617709;-14.09510504;-11.09889308;-17.58788082;27.54667633;11.79895704;-18.71800476;11.2854137;3.242246999;10.60126618;-11.47696231;-62.90164143;-34.42472615;-1.380791707
40.88342841;6.014534998;11.72777873;-11.34978467;47.11974013;0.315158692;-14.46912252;-19.81323311;-17.02239484;31.68150834;10.94143845;-12.32990142;12.81558628;5.438224963;5.844294163;-6.591029471;-53.61597163;-31.94523121;3.130268656
46.92613615;10.38522952;17.45905044;-10.13287951;41.88352556;1.010724012;-16.00033228;-26.92774333;-17.92211115;30.4813868;15.33823074;-3.201780747;13.2476889;8.425925373;-2.581069527;-2.962303504;-40.30160246;-17.02516021;8.27350824
55.60572482;6.287330409;18.64532935;-10.27036368;38.04498242;0.939315079;-17.23983667;-31.78906113;-18.64604673;24.50214092;22.44836289;4.091791487;12.67753012;11.57537434;-8.263982744;0.636783403;-21.86105221;8.474779898;11.59976314
66.39438623;1.715376437;16.20316285;-10.5289663;35.0836806;0.131940917;-17.00006104;-34.14911039;-17.79524893;16.26387234;26.56087393;6.203413406;11.51429844;14.67687307;-5.553083877;6.313250758;2.078758014;36.14590679;12.01188538
73.57288619;6.328255853;12.85988838;-9.948694707;31.80117152;-0.712281384;-15.44864015;-33.58813055;-15.75520586;8.695084566;23.80655833;3.277376073;10.30928491;17.58335778;5.708413358;14.25678847;28.19374996;55.78909009;10.44663092
68.65948677;22.56708949;11.03472608;-8.930683292;27.4237279;-0.894014208;-13.9474271;-29.98911545;-14.61747325;3.478776549;16.23313928;-1.533438485;9.494135164;19.64626401;19.69879725;21.19936387;48.81755666;61.06927544;8.979116586
46.36610921;42.5951786;10.95356818;-8.710958988;22.16853566;-0.347292502;-13.79301927;-24.35103737;-16.36110906;0.38278518;10.95505023;-4.860872604;9.207451221;19.73875483;28.86187036;22.09357847;55.11981326;52.29637582;9.126699288
10.17969045;54.30436748;10.56833607;-9.705548614;16.98507944;0.339582446;-15.02529134;-18.75813475;-20.72316946;-1.983444811;14.3657617;-5.662944954;9.378810629;17.10935749;29.38334522;14.12229589;42.40928633;35.00895772;10.71946579
-27.12946185;51.6016934;7.394839099;-10.47015889;12.83563599;0.510956021;-16.40207516;-15.21120323;-24.66481787;-4.569990822;25.8373289;-5.126511985;10.01919202;12.38296409;23.46322362;-0.248829278;13.73905692;16.06961989;12.16029487
-49.79730364;39.98624132;0.784624827;-8.600317045;10.12326879;0.070417425;-16.55549814;-14.27988912;-24.19756417;-6.72406864;36.39054636;-4.05433117;11.4194568;7.650809524;16.788516;-14.11064635;-21.14119519;0.270141;11.74048786
-48.825357;32.08825397;-7.251434274;-3.0762682;8.630533339;-0.443800745;-15.25621769;-14.82474897;-17.38185357;-6.498095081;34.28;-0.496477822;13.97061404;5.253186053;13.68793163;-20.71074627;-51.09952737;-10.65689791;8.895408798
-28.55292586;36.54024776;-13.39427244;4.020857933;7.887398602;-0.396393553;-13.61914816;-15.05836891;-6.157225604;-2.332440438;13.89617788;9.422729198;17.66726415;6.063341766;14.20612022;-18.41406152;-69.61224783;-16.91897174;4.471481189
-4.802129846;49.76847102;-15.49741404;8.272652222;7.602575104;0.312471937;-13.06771529;-13.95664976;4.613679573;5.183862178;-18.71401062;27.31854838;21.75396066;8.721962564;15.33494962;-12.01292655;-77.34338452;-19.12338942;-0.030670749
4.93913561;58.32218723;-14.21207798;5.998108186;7.824724675;1.12537524;-14.0195386;-11.7544471;10.35696208;13.03088728;-48.35766849;48.35919048;24.99571943;10.64021776;14.78929652;-9.120996996;-79.83768319;-17.69852584;-3.485065163
-7.132771937;50.47120772;-12.42424581;-2.669047934;8.751571595;1.33893019;-15.50730644;-9.225027994;9.865620349;17.46950997;-60.03354706;61.43697249;26.55731632;10.10602522;13.51028315;-14.31504517;-82.47486805;-13.32840887;-5.630591658
-34.22618997;27.46489251;-12.88709396;-13.3298033;10.36560254;0.770781507;-16.07910962;-6.663486561;5.865831227;16.63411662;-48.67145631;55.14071485;26.83139475;7.768481876;14.46568553;-25.55216262;-86.61409095;-7.462174092;-6.81190757
-60.03180381;4.422607831;-15.84692759;-20.16572265;12.18677596;-0.048387122;-15.14135644;-3.73449666;2.652466365;11.99677267;-22.34773879;26.11697465;27.38574718;6.159535563;18.96477223;-35.61600888;-89.52198116;-2.088384614;-7.406431681
-70.06314052;-0.878418824;-18.48610953;-20.03991553;13.35688865;-0.350053711;-13.50476723;-0.361552551;2.714435247;7.3841168;3.265335684;-16.40802421;29.80609722;7.531784416;24.22237592;-37.38571346;-87.49933223;1.154480017;-7.511118392
-60.95277955;17.24128775;-16.66453811;-14.64222236;13.0634657;0.160908507;-12.635002;2.369610162;5.054270041;6.100293535;15.13473326;-54.22250965;34.19660606;11.79423182;24.91367555;-28.81656689;-79.2595788;1.79095728;-7.071932455
-41.12740559;46.19556216;-7.781911789;-8.930216983;11.08;1.017734677;-13.30366591;2.489001244;6.470536955;8.306145288;10.52440967;-70.40457305;38.61144031;16.36057445;17.76708553;-13.9709023;-66.8615397;0.626495268;-6.172315609
-23.01692173;63.23130856;7.179869788;-7.095784128;8.070241344;1.401724072;-14.88091013;-1.320163427;4.612094357;10.76640345;-2.933864243;-59.61248437;40.14227198;18.1590855;5.177923293;0.285151766;-53.87750546;-0.803238933;-5.102666307
-13.38106971;52.06075312;23.77045104;-9.326479988;5.379406666;0.884001111;-15.91209004;-8.200929795;0.187351514;9.307081548;-13.99830787;-31.18241746;37.06853824;16.18024985;-5.719044209;8.997365115;-42.79572838;-0.96200699;-4.138970631
-9.390753546;15.24755738;36.235516;-11.99273925;4.322372818;-0.176613529;-15.43900503;-15.12820286;-3.506815892;2.170718111;-15.86681587;-2.709418977;30.44044266;12.39271371;-8.290656652;11.63439758;-33.9809698;1.171388613;-3.300029297
-3.060078125;-27.28271667;40.38;-11.0550204;5.334268911;-0.944711672;-13.85213657;-18.7222745;-3.283150608;-8.336225428;-9.696764211;11.42301746;23.6815292;10.17865327;-1.825368042;10.99545895;-26.78899616;5.808827746;-2.370536828
10.29581056;-52.41250548;35.48670483;-5.79283285;7.531377335;-0.847788313;-12.50610726;-17.52898974;1.305396666;-17.23842238;-1.827105672;8.529546421;20.26829386;11.54286297;7.534259511;10.13313802;-21.37189953;12.14012357;-1.175645897
27.02562176;-49.74677669;24.34731404;0.327796455;9.05736637;-0.075114817;-12.47233506;-12.91238098;7.565037426;-20.29978975;2.148331526;-2.538579303;21.15902855;15.42717048;11.4891935;10.15748021;-19.19545164;18.30674878;0.191532518
37.83866462;-27.41237588;11.59611452;2.44196037;8.11219475;0.609753255;-13.5832987;-7.832756705;11.73373622;-16.84993508;1.393230835;-9.400148802;24.0260494;18.55212428;6.319809064;10.45505023;-21.68270141;21.90744272;1.447362981
35.87884197;-4.200505379;1.399111111;-1.564683552;4.076122745;0.561913605;-14.63207572;-4.573270953;11.74623963;-9.930504941;-0.862670564;-5.590682639;25.03339619;18.06645047;-3.854660455;10.42817222;-28.31441661;21.14322955;2.431518286
23.23477877;4.91670485;-4.255249872;-9.036041092;-1.994098357;-0.181353072;-14.51443117;-3.324428931;8.472576618;-3.803189071;-1.288683574;5.513586809;21.85417295;13.75577106;-10.15665053;10.61799444;-36.14709194;16.05;3.318793927
10.21818363;-1.524934598;-5.890342808;-14.42943975;-7.86384819;-0.970126125;-13.24204302;-2.684484987;4.622086067;-0.890700008;0.286238281;14.5983243;15.52064403;7.976233263;-6.085203953;12.01736295;-41.471152;8.836062873;4.468837433
7.734796236;-13.20949581;-5.541523038;-13.6503294;-11.34468414;-1.160222685;-11.9001048;-1.383751377;2.4554708;-0.511642836;1.214298449;14.39978819;9.556010048;3.47637827;6.985365911;14.4193845;-42.36643156;2.757677835;6.018509894
18.7650586;-18.3413246;-5.184139474;-7.324966712;-11.49143015;-0.697241597;-11.61743038;0.494989382;2.267243651;-0.162722711;-0.641185038;5.299085413;7.053550961;1.101119838;20.42832636;15.74380668;-40.01602645;0.098596782;7.610516097
35.70436536;-13.41845865;-5.604107907;-0.325759314;-9.032905314;-0.129853114;-12.52693074;1.920596435;2.711764267;1.994258933;-3.962749678;-5.534831694;8.135562548;-0.574434519;24.71017424;13.37835286;-37.63562561;0.734277582;8.561578238
45.6107401;-4.954083548;-6.361214359;2.09107958;-5.800148331;-0.056647909;-13.67897655;2.423676115;2.37492143;5.618503729;-4.434565988;-10.18156227;9.99566742;-3.40196086;16.47883151;6.547115151;-37.88677702;2.51919422;8.368966389
39.23146453;-2.92891031;-6.709413039;-1.580930493;-3.559008487;-0.538730159;-13.96184276;3.090889429;1.049324266;8.792010926;1.49664694;-6.032965115;9.582530387;-7.349283915;0.86595191;-2.470500912;-40.89901946;3.321299582;7.118909059
17.01104734;-12.31;-6.633065876;-8.014859856;-3.001566245;-1.035942921;-13.14330452;5.904129725;-0.319823097;9.970425823;12.75532089;2.80596342;6.665140336;-9.931709739;-12.63875235;-9.608796518;-44.44673295;3.050933483;5.426871922
-11.97768713;-29.60931037;-7.060078125;-11.83524071;-3.494235411;-0.928704629;-12.05286412;11.89966398;-0.712512682;9.417020541;23.25257185;9.400755727;4.533899039;-8.068635991;-17.28440026;-11.93717462;-45.95808447;3.841916485;3.959979352
-36.63033946;-46.42470689;-8.969905323;-9.949540916;-3.663942229;-0.13464843;-11.75061978;19.83712087;0.042056014;8.86023165;25.83754692;9.609501222;7.477504421;-0.856039083;-13.49977626;-9.839925777;-44.52798174;8.000672091;2.972468146
-50.53645913;-56.05675873;-12.08601579;-3.897309367;-2.39070023;0.765158389;-12.48894513;26.71175833;1.340181095;9.796008358;17.81342616;4.910480398;16.94705018;9.174367108;-7.45695087;-6.560694381;-41.24494452;15.34260801;2.261133087
-54.15076889;-57.50997376;-14.35060789;1.626866344;0.420822646;1.023607418;-13.46191665;29.80896223;2.631616744;12.07081545;3.720428819;0.567464422;29.62858571;17.5413002;-5.394342969;-5.40122391;-37.72680743;22.34052258;1.538406476
-51.89259409;-54.32845465;-12.90849095;2.764517577;3.725034808;0.40221091;-13.58199239;28.58412968;4.025219218;14.06922928;-7.042791919;1.112996241;39.26753189;20.96718688;-8.60498164;-6.858470503;-34.34593739;24.23706642;0.818693799
-47.52944241;-50.39263297;-6.13123593;-0.336604938;5.89696574;-0.593836837;-12.54167377;24.7689131;6.011897929;14.32895369;-6.346716245;6.994524279;41.04391731;19.68254862;-13.09634364;-8.070078125;-29.82698664;18.79347861;0.410730601
-41.75884351;-46.83575019;4.786637354;-3.762733835;5.62393889;-1.140631928;-11.1402086;20.66845385;8.62740311;13.10036628;7.053847198;14.84504578;35.09724936;17.04053208;-13.80253572;-5.044714155;-22.60139373;8.697983542;0.514014733
-33.24491625;-42.34613452;16.03642764;-3.21586552;2.636122005;-0.802329461;-10.54807421;17.20895009;11.00629804;12.42145665;26.38248114;20.67475218;26.35771338;16.8105331;-9.429832392;4.10684068;-12.69856677;0.372288145;0.838694115
-21.23627206;-35.64416247;23.32900554;2.323405513;-2.096513883;0.11066641;-11.19443679;13.47750601;11.91111902;14.60600526;40.98790401;23.06687246;20.79613873;20.38111631;-3.674741701;17.47304549;-2.453317884;-0.358379654;0.684889088
-7.007387308;-27.24361764;24.56350357;9.710719396;-6.782293309;0.840980402;-12.33691807;8.113167761;10.82114012;20.42617872;42.94068584;23.85510695;21.1326213;26.06241486;-1.813118739;30.40328805;4.69483423;7.372221345;-0.508776627
6.919807335;-18.95308092;21.10433511;14.25569025;-9.610078125;0.854864396;-12.74487834;1.222751462;8.535723356;28.4891804;31.71815749;26.11444721;25.45503562;30.83797065;-5.670508936;38.37474175;6.449172678;18.5232552;-2.610470358
18.50896264;-12.16426948;16.69731825;13.64347442;-9.520365898;0.275283026;-11.8760971;-4.976635382;6.638649427;36.22579955;14.10997598;31.45423886;29.69051107;32.89803174;-11.37393195;39.46516228;3.263610677;25.63814611;-4.755444289
26.98200615;-7.069452883;14.81967928;9.857875157;-6.566029938;-0.294050686;-10.43940389;-7.447802712;6.234668443;41.55043928;-0.266730786;38.84310715;31.55500046;32.79555901;-11.96015907;34.81998093;-1.823603472;24.38150529;-5.905246676
32.10936064;-3.604475791;16.43526242;7.43176956;-1.726797724;-0.358569941;-9.784252038;-4.515736787;7.087031514;43.82544638;-4.747117093;45.60369733;32.35913584;32.42647885;-2.880571674;27.23242588;-4.906665267;16.99063911;-5.550464747
33.27039576;-2.763920109;19.75413308;9.386836296;3.644488557;0.026530216;-10.64837978;2.851038684;7.945277335;43.55944422;0.895477282;49.37910926;35.03034025;32.97147145;13.95705001;19.28718889;-3.248252161;10.91230276;-3.967169944
29.77287575;-6.378896699;21.97250955;14.19728356;8.37579685;0.364400215;-12.4153923;11.64911254;7.753018948;41.45266139;11.10484154;49.35595313;40.25695747;33.74635082;30.83127838;12.44498805;3.549471666;13.45678139;-1.845676442
22.37235293;-15.14003906;21.43149278;16.40361234;11.72548717;0.243278603;-13.5946424;18.75278446;6.601896945;37.84497205;18.5607701;46.04545617;44.61591343;32.95810468;39.10129987;7.285689889;13.59118086;26.32069395;0.313855544
14.25076451;-26.81935575;18.44221786;10.64617575;13.29178881;-0.240554489;-13.1230883;22.59562964;5.541673432;32.98367897;18.91240348;40.33212611;42.99479809;29.58708095;34.73202463;4.084228896;23.5320693;43.98305241;2.446457362
9.774372342;-36.90655872;14.29489267;-3.864557509;12.81246332;-0.574988461;-11.32154091;23.49605777;5.45117569;27.54302845;13.38336561;32.97532256;33.6850145;24.62171306;20.55867176;2.881834257;29.65732529;57.13989195;4.592643485
11.34226205;-41.7047433;9.571941808;-21.89953643;10.13441772;-0.347989264;-9.63015198;22.75093814;6.086651008;22.54756956;7.776660073;24.9901003;21.59588418;20.5027493;4.046851468;3.068566425;28.95921528;58.67630449;6.377731727
16.76240176;-41.33152934;3.430131095;-35.05361897;5.427297484;0.318139364;-9.346092992;21.52528501;6.275758022;18.58014237;8.490841416;18.22191915;15.94076081;19.26007813;-7.401444888;3.231332368;20.17760774;47.941263;6.921343885
19.72114393;-39.70698813;-5.442317641;-36.97403956;-0.563619832;0.848688213;-10.4925094;20.41213616;5.134678237;15.1221598;17.88332525;15.10615007;23.16217122;20.96878127;-10.16470708;1.853834135;4.556941887;30.51628518;5.414093142
13.63322219;-41.13325425;-17.06915479;-27.32306685;-6.526772086;0.756789725;-11.83265101;19.67291075;3.170560766;10.98993493;31.81840758;17.38088375;40.3207333;23.82549327;-5.040627026;-1.457640769;-14.22946166;14.05460479;1.925580459
-3.698916256;-46.30514201;-29.28854593;-11.78083177;-10.97123594;0.134697797;-12.00761382;19.54083178;2.161149411;5.813444664;41.17321347;24.63813931;54.7635119;25.70595148;4.672006019;-5.275040524;-31.35644256;3.493855092;-2.315474833
-28.11808259;-51.43900122;-38.65645169;1.73718048;-12.79099841;-0.386706196;-10.76229559;20.13978865;3.784500408;1.262407674;36.84528963;33.975738;51.59952511;25.81920183;15.46604797;-6.985577571;-42.91386547;-0.970341797;-5.552122636
-51.40789778;-51.60774333;-42.51521287;7.877290304;-11.64189512;-0.204942272;-9.153894073;21.20745391;8.12794334;0.562637799;15.54983346;41.26506579;24.36121978;25.09663685;24.57072832;-4.496208226;-47.57418261;-2.189647258;-6.639482683
-66.1603633;-45.48996507;-40.55740403;6.429956287;-7.906509687;0.668473785;-8.569901033;22.1275086;13.37564989;6.174096458;-17.17437925;43.31462746;-18.91346661;25.13717142;29.63438463;2.229075394;-46.7110793;-2.598568182;-5.796220461
-69.63533699;-37.15067417;-34.64132564;1.316893104;-2.34507278;1.5556119;-9.463152128;22.40698624;16.99105968;17.29134391;-48.99729632;39.53215246;-59.25471184;26.76211253;28.55122154;10.99548781;-42.86774107;-2.064005399;-4.336901113
-64.04082611;-32.86262833;-27.11652215;-2.777676232;4.255366352;1.673853727;-10.9558089;22.12767093;17.45083242;29.41379227;-67.11016127;32.08834493;-78.20978433;29.43871596;20.46647266;18.71122315;-37.76818265;1.263882339;-3.591713636
-53.62468713;-35.44038972;-19.16013554;-3.469601144;11.20428009;0.829568295;-11.65806652;21.80700526;15.16180258;36.8408727;-65.20241986;24.65245366;-69.45;31.92437438;7.391636335;23.19879971;-31.47318709;8.079974372;-3.906403616
-41.34220221;-41.11623977;-10.51988181;-1.434666664;17.85622006;-0.377053236;-10.9368365;21.72121129;11.93779701;36.54123382;-46.78592733;20.60939134;-42.41744263;33.37295412;-5.339395606;24.15584857;-23.3315463;15.76513444;-4.54139379
-27.75148015;-42.13583333;-0.733312332;1.130926349;23.62155259;-1.034457582;-9.471084599;21.43181393;9.61640443;30.44852072;-22.72378709;21.71914688;-15.50391049;33.84507454;-11.05203668;22.73300421;-13.78748926;19.13269371;-4.507310678
-12.52100775;-33.34889482;9.443623078;2.676642137;28.16136346;-0.678904592;-8.59923764;20.18599717;8.986212711;24.19970596;-4.569264069;27.62900452;-3.748341505;33.86634549;-5.490107022;20.35109284;-5.254008894;13.90122059;-3.565567185
3.356912122;-17.3216389;17.81848974;3.28950193;31.58617782;0.328313734;-9.07574631;17.94812725;9.729121803;23.05563143;1.924085862;36.11760471;-9.789421811;33.63362092;10.08617443;17.88182325;-0.98315599;0.393974228;-2.497061514
16.90786677;-3.322018215;22.03632906;3.998093905;34.32814555;1.127586748;-10.38584097;15.95118156;11.10007813;28.04750482;-1.007806421;43.82956024;-24.09708135;32.74999325;28.90587066;15.78115399;-2.639441893;-15.4808909;-2.405565699
24.66031195;-0.474005764;21.25416366;5.358584874;36.59041677;1.094988049;-11.23956549;15.85979819;12.51827658;35.3162433;-6.285291842;47.3878569;-33.51526853;30.75022425;42.24841128;14.7509855;-8.59910583;-25.10564563;-3.682560528
24.86094484;-10.35938377;16.76059469;6.746321945;37.74621209;0.340050049;-10.77500444;17.95638994;13.57086656;39.12190248;-7.791740013;44.72921292;-31.25782513;27.81905701;44.44882215;15.97796014;-14.63487638;-22.26684541;-5.556048236
18.4999412;-25.09644744;11.03277666;6.953697708;36.31248985;-0.448176472;-9.354008742;20.01670994;13.69205253;36.10333335;-4.543760649;36.17846153;-21.0315672;24.87841639;36.06513979;20.44378209;-16.78086525;-7.196406602;-6.625575405
8.498114578;-32.68037005;6.089195714;5.433723561;30.81291547;-0.636147359;-8.220509742;18.35241619;12.14683814;27.45156692;-0.493429765;24.54514769;-12.92963012;22.85562773;23.1;27.79326438;-14.31182201;13.18344997;-5.923823061
-1.918915264;-25.58233415;2.532906322;2.960431021;21.10921473;-0.179073516;-8.345426051;10.70837669;8.559234436;17.46724514;-0.658066251;13.86722783;-15.03701985;21.81027977;12.87094577;35.84424699;-10.50527108;29.07353012;-3.607516603
-10.18283352;-6.038132418;-0.065394718;1.052594432;9.21021957;0.407288257;-9.528027254;-1.226554797;3.524229403;9.956894248;-6.886026925;7.317120838;-27.47273423;20.81719378;9.390633581;41.43181866;-10.48718966;33.30084337;-0.736724537
-14.27263412;15.8314341;-2.07746133;0.659867131;-1.265954391;0.568894385;-10.57920075;-12.11234218;-1.392296231;5.570232249;-16.46527484;5.554314887;-43.04923502;18.82020374;11.33727236;42.19068995;-17.70637351;25.11494101;1.593126712
-12.47241365;29.2666268;-3.248176611;1.2979095;-6.887736531;0.222436509;-10.41169972;-16.38239467;-4.443031485;2.161260329;-24.28094139;6.690851625;-53.27700769;15.71657578;13.76637324;38.02589117;-31.62104003;10.08033748;2.97770331
-4.082326839;29.73635342;-3.23264574;1.440739479;-6.366530359;-0.213679398;-9.032201622;-12.36706908;-4.690122971;-2.456404929;-26.47801683;7.935797936;-54.53375042;12.63428477;12.10018086;31.15944494;-48.1854446;-3.592506878;3.704205721
9.098677186;20.50386474;-2.593770465;-0.122777679;-1.305801738;-0.264963717;-7.529824391;-3.721456935;-2.386293095;-8.003228342;-22.73789119;7.70264111;-49.71429255;11.05787292;5.483142465;24.69029527;-62.54306812;-9.779458807;4.148563166
22.06732726;8.548766178;-3.02;-3.120292416;4.847955466;0.123092322;-7.083506746;3.278723273;1.494728176;-11.72929872;-15.76877118;6.57943034;-44.73841585;11.53377298;-2.754264025;20.71791683;-71.75686222;-7.329815326;4.232553797
28.15266804;-1.142926886;-6.200909824;-5.838513766;8.953129068;0.53633643;-7.905919838;4.578548013;6.022935688;-10.81644619;-8.958950052;6.472862162;-43.36483007;13.13566086;-7.627401286;19.35976608;-75.65477082;0.343945367;3.490786104
22.51258865;-8.25565048;-12.15614753;-6.392741491;9.91577201;0.508687953;-9.084700063;1.373125347;10.61305673;-4.93413902;-4.343412932;8.733098152;-44.63316575;14.23360306;-6.067667;19.24116386;-75.59809349;8.21280707;1.666526926
5.365570603;-15.29297935;-18.55343595;-4.2091765;8.858537048;-0.004794249;-9.445834148;-1.234248751;14.70754495;3.362561524;-2.276179404;12.88479956;-44.59393989;13.93106744;0.994394742;18.89551536;-72.6514905;12.89116693;-0.78032124
-17.549153;-23.65720509;-21.88155949;-0.520024414;7.771433872;-0.559734994;-8.628744977;1.209242913;17.45192411;10.68585163;-2.427630246;17.01868541;-40.31612232;12.88663136;9.367384034;17.90406068;-66.8691043;14.14356412;-2.802888684
-37.92340896;-31.48972352;-19.76963379;2.523265714;7.835652804;-0.63225846;-7.386884111;8.717410925;18.03533612;15.39919192;-4.644900358;19.42979812;-32.55743776;12.74390149;14.48932335;16.96261815;-58.15073839;14.04733852;-3.484218545
-49.3129739;-35.05763255;-12.6575761;3.39858627;8.751207809;-0.121323372;-6.859039631;17.18673069;16.5821876;18.41738927;-8.713036405;20.01454362;-25.0159607;14.62996448;14.39294805;17.01399788;-47.58891018;14.8590874;-2.727681985
-50.01061029;-32.15770509;-3.456347556;2.201353908;9.46117811;0.536341025;-7.506604251;22.47488585;14.65033225;21.64243912;-13.47260282;20.20420287;-21.14738858;18.04230037;10.74856814;18.30806088;-37.79382038;17.29958621;-1.310787512
-42.63326695;-24.39953449;4.517057384;0.350177497;9.461771192;0.758115219;-8.702852553;24.40038275;14.49950703;25.67479936;-16.59608465;21.56205914;-21.43666662;21.13571772;7.390463361;20.18511598;-31.66771594;20.34465994;-0.256878376
-31.31152509;-16.48455281;9.607537552;-0.657994606;9.435633915;0.355753897;-9.336502297;26.79861975;17.42980095;29.07145932;-15.73559765;24.36990723;-23.31059311;22.19882275;7.446143115;21.66215035;-30.55096531;22.32619065;-0.076918375
-19.04924679;-13.27237103;12.22397863;-0.386395039;10.60660859;-0.280361395;-8.846467204;33.40701532;22.60244009;29.88099568;-10.30233752;27.48638534;-23.4479941;21.05768179;11.07234382;22.2036967;-33.26435673;22.24243346;-0.515394855
-7.20691623;-17.04836404;13.42480729;0.391545646;13.39268133;-0.531580368;-7.718093061;43.43760526;27.60545333;27.92374868;-2.27348424;29.53141807;-20.31317194;19.20276449;15.32706646;21.97405269;-36.82628528;20.26842465;-0.943438702
3.146413428;-26.77899104;13.17310378;0.538345236;16.59960834;-0.118242567;-6.992057475;51.35687122;30.49957167;25.45659832;4.926459067;30.19743383;-14.86623024;18.55096621;16.24133857;21.41522796;-38.24314975;17.31584641;-0.956374414
9.989702039;-39.22793223;10.02556163;-0.407549512;17.97296648;0.638544082;-7.266856979;51.6942236;31.51534221;25.31743789;8.761826872;30.39577508;-9.228349782;19.92960481;11.67969781;20.64172616;-35.98606251;14.30277644;-0.602673265
10.88288349;-50.54526439;2.665201692;-1.882780755;15.77714757;1.103723436;-8.142323898;44.77027776;32.61544199;28.09707026;9.26963564;31.11063294;-4.827583567;22.56366718;3.049879639;19.29669905;-30.20555198;11.87425403;-0.096409031
4.988641063;-57.29958717;-8.095432337;-2.866391129;10.18022581;0.901082832;-8.624769374;37.68179344;35.06276223;31.04256031;8.680314798;32.14354715;-1.716000192;24.91448109;-5.326841504;17.04732825;-21.90584269;10.68123512;0.592345128
-5.389577177;-57.10296531;-18.80158803;-2.794487223;3.345296186;0.245768157;-8.102111569;38.60194346;37.30704164;30.05921628;9.311095683;32.10538906;0.614835123;26.02284831;-8.831363757;14.24963347;-12.10035821;11.64373093;1.760266185
-15.50044645;-49.45661419;-25.1019168;-2.004435436;-1.854008359;-0.266670153;-6.958326106;48.5989069;35.69908488;23.41183985;11.57036731;29.82313088;2.070967864;26.13074348;-5.464765599;12.08973589;-1.722771447;15.58822474;3.528369579
-20.85259666;-36.67190578;-24.55180509;-1.359815386;-3.524932238;-0.21496079;-6.235506176;58.29908155;28.12417115;13.98201298;13.81023836;25.87267579;1.804026493;26.10275583;2.852739086;11.93747161;7.888720601;22.33436724;5.399291104
-19.84665019;-23.71851247;-18.26044513;-1.443173026;-1.65314124;0.265683964;-6.649843202;53.53333949;17.51818337;7.883057252;14.11788893;22.65310468;-0.729851685;26.31666528;11.48428102;14.36622684;14.79777216;30.06674379;6.368959615
-14.22710994;-16.0871382;-10.03376918;-2.054568412;2.278885367;0.62694246;-7.882896102;26.68630602;11.41861955;10.20339392;12.39706371;22.67317766;-4.626404074;26.16681517;16.00907523;18.65509811;17.16;35.86622851;5.646465877
-7.14994425;-16.44760524;-3.696410946;-2.440078125;6.437211648;0.438799995;-8.823851344;-15.07232684;16.57117229;21.14526535;10.81644082;26.43588438;-7.618817305;24.69609747;14.9467094;23.23840867;14.43387594;37.39741339;3.398382698
-0.736925675;-22.52641528;-0.731049731;-2.0085266;9.583346115;-0.190645372;-8.55777113;-52.08186764;32.20092077;35.66706614;12.14997476;31.85601478;-7.568915283;21.750186;10.46271928;26.77007813;8.05327898;34.62866847;0.793462631
4.686842474;-28.34687299;-0.010315285;-0.877979319;11.25633413;-0.703414137;-7.197789106;-64.55555414;47.84321022;46.97868213;17.42057272;35.8951713;-4.16017784;18.50064511;6.614820283;28.91563058;0.791953798;30.12689613;-0.81893176
9.20904929;-28.49379033;0.4414136;0.22292091;11.4003667;-0.610862864;-5.795212562;-46.33932333;48.97024102;51.16496715;24.89912519;37.08715202;0.716704557;16.74112691;6.387599603;30.19344008;-4.877026891;27.39033817;-0.971726499
11.50319193;-22.30997312;1.412626353;0.584070166;10.06593616;0.037654055;-5.406562702;-9.633464308;27.49036316;49.3870424;31.33366084;36.70053849;4.306451668;17.51335984;9.595003165;31.02983737;-8.212572622;28.25701516;-0.466064724
8.788843125;-14.4852354;2.038579327;0.102008943;7.540452481;0.677244336;-6.168940923;23.22272446;-10.58539253;46.18180437;34.34119702;37.40494422;4.971769595;20.28703746;13.10573537;30.95217061;-10.31212658;31.36837459;-0.689119863
-0.881702815;-11.17483043;1.201530925;-0.673890441;4.651481406;0.730597374;-7.221321528;34.94719824;-46.99696882;45.54807766;33.91896595;40.57227001;3.167134891;23.45534042;13.19632073;28.80832865;-12.83943506;33.06325861;-2.398899701
-15.87122714;-14.59110775;-0.669359992;-1.033428424;2.689657009;0.135645585;-7.525553367;24.20086051;-62.50614215;48.11019352;31.87598667;44.70648938;0.653162047;25.71743138;8.334837964;24.00982451;-16.44183472;30.23660264;-5.016206789
-30.44674738;-20.65260478;-1.260331773;-0.665614669;2.738517148;-0.586643645;-6.815386089;4.363733275;-49.93401646;51.44792693;29.86517076;46.60449796;-1.252186427;27.09361352;0.421849776;17.76595082;-20.14561996;23.03259364;-7.064235948
-37.57362103;-22.03585431;1.966219533;0.199463068;4.848891962;-0.791624152;-5.797681387;-8.100203055;-19.22502008;52.86057207;27.90399725;44.37455516;-2.782714048;28.63778351;-6.35069249;13.04655567;-22.16306936;15.17210146;-7.40674432
-33.26288512;-14.45381963;9.437957204;1.13347174;7.798514819;-0.284234517;-5.437401006;-6.145133226;9.626456907;51.88068659;24.72792675;39.58663466;-5.233956027;31.11120141;-8.163601791;12.91838289;-21.3683168;11.45073939;-6.219266982
-19.19563911;-0.960679674;18.523574;1.956797693;9.780795724;0.510668776;-6.014039495;4.042101557;20.72080415;50.36345337;19.54681816;36.39473242;-9.405351009;33.87455545;-3.881725785;18.30043442;-18.20206305;14.1987927;-4.834744102
-1.539084055;9.666827943;24.95383416;2.847528581;9.579977113;0.930608817;-6.844568648;9.963427781;12.81755827;50.32494256;13.41601475;38.12366615;-14.48643385;35.11569796;4.492001665;26.89942833;-14.32160866;21.44205294;-4.57839539
13.14615167;9.650774213;25.62560061;4.032379112;7.320877209;0.659764437;-6.936464956;3.887954348;-1.606338537;51.70893397;8.758872219;44.24135513;-18.48631067;33.34642202;13.31369153;34.38436535;-11.38194553;28.27776477;-5.600210123
21.73594237;-1.208232023;20.61954115;5.404683238;4.18649537;-0.011954938;-5.956043988;-11.21720176;-7.671038919;52.18674058;7.31346693;50.55169234;-19.88234871;28.91675932;19.49840437;37.15672838;-9.981845179;30.47037822;-6.732421269
25.29874149;-14.60498336;12.87878225;6.490671705;1.345287602;-0.477968942;-4.593843858;-25.19161245;-0.48434549;49.13771347;8.339760877;52.70612141;-19.02202178;24.18036198;21.88490167;34.71082789;-9.540777081;27.48167042;-6.512101617
26.61860424;-19.6159417;5.88253159;6.838291745;-1.008989586;-0.374263806;-3.966043223;-29.78427842;11.32879163;41.97427263;8.848079076;50.06126553;-17.98542324;22.03433196;21.09754787;29.7551568;-9.020585396;22.5784248;-4.487243353
26.97643403;-11.01352597;1.218529602;6.467174418;-3.710452519;0.106557579;-4.592150521;-25.22139316;13.49484941;32.73602342;5.887858464;46.33081673;-18.95596107;23.92033943;18.46373981;25.97402458;-7.762878746;20.01802652;-1.667401827
25.08951445;6.539960429;-2.068237195;5.921355559;-7.759271173;0.423586885;-5.894919762;-18.95695076;-1.448642832;24.49877982;-0.937984632;46.15604473;-22.4615715;28.83561608;15.1127719;25.22063406;-5.790434133;21.68381572;0.282177652
19.01738211;21.85753633;-6.007312021;5.820753174;-13.31308959;0.209012231;-6.696753025;-18.41319066;-27.5104315;19.07495976;-8.9068244;50.47188332;-26.97285223;34.07685778;11.909162;26.42924613;-3.527819029;25.94348081;0.415463395
9.141368511;25.63295975;-11.48967462;6.293402147;-19.39402332;-0.389520145;-6.269953795;-24.51680159;-49.80038577;15.98687972;-14.1655141;54.99881787;-30.17213617;37.05541484;9.893749947;27.09694721;-1.395970229;29.56589645;-0.726115233
-0.636950606;17.36245168;-17.18452223;6.824510118;-24.52484909;-0.859872057;-4.983609079;-31.59060786;-56.3051656;13.42378722;-14.71544844;53.75799255;-30.77549771;36.75799293;10.36427615;25.95152819;0.313280167;30.87704541;-1.595829992
-4.788174419;5.443345564;-20.42133893;6.708407004;-27.7094767;-0.817775145;-3.955696744;-33.15207826;-47.05444125;10.11301958;-11.93257527;45.00359333;-29.35007813;33.87561751;14.13108025;24.32162958;1.321875947;31.25565968;-0.941208638
0.198040797;0.506408239;-19.24188813;5.732612808;-28.92855876;-0.371196491;-4.030346451;-27.9491609;-33.27449067;6.379215863;-9.33165721;34.28427781;-27.48741191;29.80576754;20.44797061;24.83021831;1.355575484;33.56025355;1.191853064
13.21763353;7.286902886;-13.95307204;4.470864421;-28.81550529;-0.012574673;-5.017686698;-20.70447677;-27.60534182;3.621779247;-9.56365088;31.14417326;-26.14350581;25.57858531;26.70677554;28.51;0.414256953;38.90822466;3.570294006
28.94379727;21.2880426;-7.017898085;3.87214475;-27.92760859;-0.141988026;-5.888782562;-17.15712788;-33.76272824;2.980385729;-12.11103499;41.18790561;-24.66734652;21.58475621;29.55691623;33.11840245;-0.944025338;44.90130166;4.839456505
40.79757678;32.53721877;-1.473639392;4.456368412;-26.33941166;-0.673360074;-5.737762993;-18.28038824;-44.11661389;4.590142465;-13.58392464;59.66225061;-21.40642641;18.07022621;26.93749082;34.63820809;-1.75114288;47.29374024;4.586173527
44.28781218;33.1930189;0.876522906;5.811043765;-23.89819013;-1.100014648;-4.619538877;-19.21479004;-46.72698226;8.032388309;-10.39886052;72.39950435;-15.37875071;15.63007813;19.58446394;31.11025321;-1.291799852;43.9964347;3.51030153
38.61653208;23.04449711;0.25664509;6.862094215;-20.79082383;-0.965925828;-3.491779298;-13.99229247;-35.49906699;13.25894357;-1.704663468;64.6588321;-7.556822402;15.0501812;10.77184556;25.43662718;0.232063278;37.85585261;2.644796595
26.08932277;8.994547157;-1.641521738;6.732340123;-17.74946854;-0.306046342;-3.319995346;-1.688951928;-14.92310186;20.78289192;9.743082604;32.03305035;-0.622330265;16.62289087;4.318130941;24.04151786;1.742348775;35.17899778;2.392384011
10.46368199;-0.498471229;-2.92938021;5.473896677;-15.58299452;0.358570397;-4.176779499;11.78922058;4.097370801;30.77181674;19.39470338;-14.701238;2.675155443;19.68252641;2.246378533;31.52460152;2.211198503;40.40259721;2.249180974
-4.370803102;-1.352865439;-2.541316989;4.042762007;-14.42003906;0.476406155;-5.168860397;18.19771629;13.18248739;41.96998976;23.95689441;-54.97296161;1.285372325;22.934121;3.793964454;45.23461194;1.792759162;50.94053071;1.41317691
-14.95305581;4.242605987;-0.464470335;3.524724348;-13.41050395;-0.040390224;-5.259167349;13.93544712;12.39352505;51.75367064;23.38574082;-70.81536603;-3.580606557;25.35566816;6.423068091;54.6911361;2.097136877;56.89541942;-0.333220838
-18.61766993;10.77035608;2.686766498;4.27021148;-11.27980071;-0.735001526;-4.224990717;3.362043524;8.551159405;57.61878261;20.48931965;-57.78748898;-9.414941594;26.84146183;7.913705118;47.61824826;5.117460112;47.00729323;-2.295246933
-14.23342384;14.16604291;6.248280579;5.67760842;-7.360670086;-1.013354089;-2.869195553;-4.585663909;8.237689325;58.9447483;18.68240891;-26.91403735;-14.03647938;27.96280743;7.822098975;19.08867579;11.48045345;17.23116864;-3.384172273
-3.021635232;14.47367908;9.836443782;6.795944479;-2.240725978;-0.6695439;-2.291010488;-3.657198379;12.12406775;57.42954554;19.70344819;3.355368839;-16.6129491;29.08609532;7.225091219;-22.92830788;19.44631638;-24.36541966;-3.000456944
11.48130893;14.68481194;13.36241108;7.193438994;2.561400937;-0.053733318;-2.887935588;4.792616113;15.48366354;55.69334895;22.87632474;19.09928202;-17.46924624;29.7677042;7.196515631;-60.5126314;25.67798239;-60.6615508;-1.494211546
24.84079734;17.38295221;16.88678464;7.303092727;5.658908525;0.262716769;-4.004018024;13.3959236;13.79789912;55.23336026;26.14566401;18.38213735;-17.12357183;29.13225426;7.554484476;-76.17832939;27.4352209;-75.19222009;0.17405596
33.85623932;22.35760561;20.47384007;7.930238013;6.719710509;0.010501159;-4.541289637;15.35417878;7.782898799;55.56772179;27.81227632;9.708862944;-15.54775499;26.97184695;7.118764888;-63.90117942;24.60704947;-62.17815166;1.22917111
37.9410815;27.08736891;24.1045505;9.375846941;6.485462828;-0.546422226;-3.965744842;10.19502324;3.026707143;55.32514125;27.60530641;3.813904082;-12.30170582;24.48404444;5.273193253;-33.01437232;19.95747141;-29.99225036;1.621553317
38.74762514;29.29939812;27.65298583;11.0017495;5.914438693;-0.875425517;-2.782528269;3.740638076;4.698327531;54.16802679;26.48380673;5.588507983;-7.333615183;23.73692512;3.314887748;-2.050782396;17.25820478;4.312539414;1.888303807
38.45346795;29.1030143;30.93398024;11.68717687;5.24875487;-0.679814515;-2.050949537;2.508572638;12.46592875;53.55948788;25.60232956;11.91225274;-1.641336533;26.06228176;4.100587443;13.1855963;18.62618687;25.5128203;2.549708997
38.22404948;28.80454853;33.80882519;10.81688715;3.869157193;-0.171012867;-2.396085725;7.663652152;20.51920928;55.42509359;25.37729624;15.95;2.870229963;30.66657082;9.937723056;8.930452543;23.04291774;28.5;3.640132104
38.09897095;30.69620908;36.2663661;8.921863276;1.086860418;0.140735358;-3.432267518;13.94270426;22.73231657;59.83751151;25.30591045;13.51819123;4.313393143;34.77350225;20.31911274;-6.096824632;27.14586241;19.07643787;4.772774018
38.13550872;34.87299355;38.37;7.352657525;-2.841410559;-0.065357493;-4.126480618;14.47795765;18.11166661;64.011697;24.50873367;6.199757061;1.881206857;35.43073024;31.49720556;-18.66295351;27.64343782;7.675050227;5.587187851
39.40314409;39.00155751;40.06491929;7.205593364;-6.432764523;-0.614296856;-3.759650174;7.180466236;11.34790322;63.92641065;22.47396063;-0.760265032;-3.660617886;31.68242128;38.57241279;-20.8930628;23.50327091;1.36372781;6.073667561
43.55805509;40.19365577;41.00997627;8.410058594;-7.783773931;-0.998367402;-2.595010991;-3.026875035;7.889990958;57.52713489;19.46730949;-3.276927537;-10.30528535;25.38400134;38.73480033;-14.71277238;16.33848848;0.052258677;6.439156584
51.15696636;37.33749574;40.65549732;9.791397341;-5.876155021;-0.855789277;-1.637447995;-8.142494701;8.233991038;46.83905297;16.40793827;-1.580770436;-15.65851923;19.95291494;33.23403483;-8.303979976;8.897587411;-1.085417253;6.682341179
60.26102896;31.93011743;38.60328704;10.09446488;-1.33841879;-0.314769116;-1.706988798;-3.750453744;7.097050923;37.01102791;14.37715602;0.74471131;-17.78777198;18.00091006;26.51228914;-8.354052189;3.019404507;-5.96097046;6.368911479
66.86734393;26.79674427;35.00058449;9.097952118;3.959185379;0.122401499;-2.678394951;7.399613489;-1.266797409;32.84839306;14.09830008;0.549982094;-15.71884038;19.69114922;23.09727935;-14.71268556;-1.308361243;-13.78422926;4.914246969
67.19383751;23.856988;30.6071449;7.833578378;8.156938605;0.050815317;-3.582332227;17.95198649;-16.2565256;35.5711049;15.67466598;-1.837035565;-9.557050157;23.04017226;24.58891632;-21.42384695;-5.193194634;-20.04646785;2.165403038
60.15575495;22.80808243;26.406025;7.68400935;10.52072994;-0.448679497;-3.472920481;22.28081659;-29.20293557;42.38020939;18.68324944;-2.935661983;-0.386615444;25.771064;28.96618599;-22.52049746;-9.224303641;-20.86627961;-1.265539489
48.06574111;21.72375349;23.03451173;9.127029987;11.5942678;-0.869817923;-2.27144303;20.96803238;-29.22859857;49.01134861;22.49848669;0.647010675;9.946790834;27.09512948;32.57369681;-17.21939049;-12.47968117;-16.56420239;-4.2821912
35.00953518;18.92729971;20.50982448;11.24292425;12.38239829;-0.741521564;-0.829142198;19.53133181;-12.41704199;52.92704471;26.57022299;8.968948083;19.18807374;27.98103964;33.04871479;-10.1727052;-13.01714208;-11.33780733;-6.013036635
24.26949802;14.48034368;18.48281564;12.46662841;13.33194185;-0.068333661;-0.170739063;22.68544899;13.46474471;54.41975466;30.41735907;18.25296899;25.1957021;29.85586169;30.82676331;-7.007890224;-9.436048722;-9.526234451;-6.359042924
16.88057427;10.03786345;16.75885148;11.97040954;13.96948078;0.654980067;-0.616936853;29.42212848;33.3262504;54.98762023;33.35875645;23.4683277;26.55815376;33.03333191;28.18162884;-9.400740335;-2.234896971;-11.9266107;-5.920058594
12.27822885;7.25697941;15.55188833;10.46472953;13.43954277;0.87166389;-1.568573099;33.47395116;35.45424557;54.94463926;34.33;21.83;23.09852202;36.31259788;26.86073768;-14.00024263;6.104981709;-15.42512776;-5.394172873
10.07563201;6.194889124;15.19307462;9.661143443;11.42149776;0.44661195;-2.108461246;28.9161062;20.32591157;52.88142069;32.21642916;14.51164925;16.04268207;38.0569852;26.48656235;-15.85238309;12.36640535;-16.14841127;-5.00804736
11.05467519;5.16449387;15.59620438;10.7941462;8.628428404;-0.230315283;-1.832343452;16.00565063;0.436148021;47.65259998;26.75989599;5.517609822;7.731320664;37.69962081;25.10711231;-12.96956431;14.27585872;-13.19806959;-4.479941307
16.3376428;2.307605885;16.11435527;13.45668169;6.485493097;-0.60682159;-1.142723698;1.982622199;-8.976041729;40.85985151;19.45961237;-1.076944125;0.91528112;36.25586347;21.32130145;-7.884396727;11.53190951;-9.55752196;-3.494268786
25.57714197;-2.336114901;16.10484559;15.7936957;6.261293769;-0.457976164;-0.772522164;-4.160606722;-1.244625544;36.97670327;13.53967054;-3.313336357;-2.176386742;35.35728021;15.99070734;-4.964054707;5.697675439;-9.315846067;-2.177523392
36.0779098;-6.046368604;15.77423561;15.95939019;8.30978546;-0.056755655;-1.032452823;1.301362482;16.96260829;40.29010033;12.49822623;-1.635450754;-0.686661859;35.69177797;11.89876009;-6.165197458;-0.730075684;-13.65621503;-1.073368269
43.98921286;-4.849767525;16.4159049;13.64094816;11.91050084;0.117850209;-1.513951334;13.89885634;30.80191413;50.96858659;17.85661242;2.319801136;4.467373441;36.29541661;11.52011949;-9.245511409;-5.383802863;-19.213071;-0.615731506
46.76483398;3.602740747;19.53185257;10.35255137;15.69751715;-0.151050163;-1.519310239;24.60391604;28.03964666;63.84950791;27.66614864;6.997917668;10.91787218;35.38949861;14.75455424;-10.08753005;-6.719616256;-20.41536273;-0.613727262
44.80067927;17.726653;25.34285341;8.227172292;18.29451259;-0.616783921;-0.783291869;26.97540576;7.237000549;71.53773664;37.16603192;11.2499114;15.87083283;32.06805047;18.59795371;-6.950039063;-4.270696615;-14.02352787;-0.290606963
40.79273303;32.11393637;31.94993159;8.316853846;18.78193586;-0.8190016;0.227759964;21.84884936;-22.27768024;69.69079383;41.55230549;13.905341;17.38663469;27.35535214;19.15600018;-2.646574221;1.369928539;-2.149970614;1.084564593
37.39551573;40.33433831;36.11320184;9.840516901;16.88979549;-0.541418608;0.741220665;15.79583805;-47.63339865;60.22897059;39.08541873;13.57224108;15.21163334;23.66678032;14.47575356;-2.490576361;8.727555254;8.768370972;3.505961013
35.32511365;38.77265042;35.34404555;11.00087559;13.01821604;-0.037382283;0.424902985;14.9410173;-60.69940089;49.72643759;32.19914961;9.2809144;10.63923147;23.06516493;5.993846016;-9.669360432;15.82350771;12.32749167;6.11172192
33.62560192;28.96061311;29.78672906;10.62586003;8.163644196;0.19773391;-0.269282419;19.63003906;-61.46836271;44.26152566;25.59179718;1.540644964;5.494788187;25.72461401;-2.481616899;-22.07581085;20.77050933;6.520713064;7.779444025
31.71348285;16.73309957;22.32249612;9.171463179;3.690484694;-0.101121788;-0.514788451;24.5511571;-55.25114461;45.03884715;22.64557705;-7.276673713;0.981946021;29.82861074;-7.388530452;-33.42659275;22.40736743;-5.096785971;7.942468113
30.97610271;8.64366208;16.65249095;8.199090757;0.879596161;-0.697054694;0.09727087;24.04716565;-47.26273874;48.39149142;23.02791941;-13.89880779;-2.739471772;32.93225713;-7.594231964;-37.80695925;20.65473838;-16.05697422;6.931791236
33.953375;7.965647237;14.77596482;8.818238723;0.382296268;-1.045753755;1.134994192;17.76665702;-39.36153881;49.86898776;23.54711914;-15.99359704;-5.951222131;33.65521078;-4.621828335;-33.8714772;16.39186764;-21.21053341;5.57319498
41.43160849;12.91998649;15.84653661;10.54076546;1.915119394;-0.788572132;1.694683092;11.48888649;-30.85570216;48.486384;21.65883043;-13.57437462;-8.343348023;32.40435798;-1.048543166;-25.32217492;10.96628726;-19.45441693;4.43342454
50.09428363;18.24092826;17.29254893;11.64830825;4.4763361;-0.092545476;1.242552215;12.21258927;-21.43870124;47.17582392;18.57517537;-8.880428997;-8.58954519;30.71672783;1.432261416;-17.5487347;5.676102415;-13.42814622;3.404520442
53.43983741;18.88486265;17.19827461;10.80088669;7.008190935;0.482194656;0.149355877;21.74136949;-12.87628008;49.14886319;18.9123518;-4.779943568;-5.113230524;29.93478619;2.790296749;-13.51427469;1.497719711;-7.073984438;1.975449272
46.09819286;13.2614638;15.88187522;8.430740498;9.047105211;0.476290637;-0.598149063;34.52971077;-7.883534983;53.89953512;26.55476523;-2.862700037;2.440599055;30.33238471;3.976276678;-12.33045815;-0.950695132;-3.217210083;-0.111303253
28.49577433;3.842410026;15.33132207;6.570111824;10.86130987;-0.059128394;-0.268886383;42.03117136;-7.588388665;57.12221009;39.85114082;-2.589864093;12.29149425;31.25442334;5.714317581;-11.32353865;-1.424883947;-2.665807284;-2.472432197
7.881376474;-5.009131203;17.07284888;7.12965103;12.96706923;-0.610361675;0.947516589;40.12268157;-10.23798852;55.13917713;50.45841284;-2.019913696;21.16271116;31.912179;7.931015346;-9.250313824;-0.183538651;-4.718691249;-4.346314954
-5.810784142;-10.15871772;20.4656603;10.09183006;15.43872463;-0.665260512;2.097920224;33.214766;-12.42048538;49.77288546;47.76341423;0.55645183;26.24727113;32.02124915;10.14894572;-7.5156614;1.903529101;-7.99461419;-5.251614586
-6.654772273;-11.43266263;23.05130805;13.28486129;17.62641421;-0.173331224;2.312459634;31.08530969;-11.62199228;48.41807962;26.41277733;5.334922447;27.07541347;31.79503209;12.1852319;-8.377495419;3.544959042;-10.84373846;-5.400370935
3.046086693;-10.89630548;22.72091241;14.08768858;18.5666075;0.414278763;1.5730268;40.47888777;-7.802862722;57.94321801;-8.479285173;10.93769131;25.75579041;31.4944624;14.30780923;-12.10012859;3.602863394;-11.57273144;-5.456201829
14.52864589;-10.58487287;19.75575013;11.68160634;17.77298277;0.557936559;0.70332704;58.18051827;-2.780275414;76.92545462;-42.79745005;15.45436772;25.27419057;31.09874322;16.71365005;-16.02332011;1.75721353;-9.076535467;-5.862885657
19.30961238;-10.68971981;16.81700995;7.859605542;15.74147502;0.117702727;0.594731816;71.61405643;1.701763501;93.31642093;-61.2877635;17.68707003;27.13;30.41350744;19.00864327;-16.63791648;-1.238539406;-3.805298507;-6.396618879
15.81655201;-9.623155907;16.75648376;5.559220348;13.71298611;-0.525662581;1.38616441;67.3055087;5.294346802;91.07843011;-56.74925739;17.69418831;30.21676115;29.40735949;20.41399064;-12.80211003;-3.976904122;1.881560005;-6.394082727
10.60035922;-5.714951197;20.11777902;6.27740047;12.84518223;-0.820432276;2.357513777;41.21544454;8.705066473;62.00978365;-34.25839435;16.39082323;31.88994144;28.33533979;20.62746756;-7.013489434;-5.238442994;4.842105843;-5.453945095
12.8435295;1.03320606;24.57914995;8.617374498;13.43496994;-0.539461627;2.632464366;3.057654975;12.38682548;13.89322682;-7.535809381;14.7046907;30.34880049;27.48719726;20.44861061;-3.369711611;-4.646291346;3.370993596;-3.924469988
26.17190395;8.628948763;26.94031737;9.363140858;14.78675046;0.029707634;2.030351779;-29.06461289;15.78562649;-32.1070164;9.88943768;13.02467564;26.30457365;26.85664948;21.33981809;-3.947827196;-2.668818281;-1.197428826;-2.658826268
44.19783445;14.38383148;25.99204222;6.310427569;15.78354084;0.36435511;1.261018311;-40.19529789;17.89303813;-54.05942761;12.53315468;11.29699746;22.46418064;26.1485636;24.09988777;-6.917632997;-0.055424707;-5.149920891;-2.214289782
53.7263194;16.64405705;23.74834942;0.454054022;15.65632729;0.188051907;1.263616003;-28.07480332;18.3757085;-43.3;4.702971756;9.507101295;21.21301583;25.17326891;27.84496008;-8.231718353;2.737740094;-5.234228627;-2.245795829
43.86814842;15.53793993;23.88157376;-4.469993697;14.33899104;-0.292037093;2.293313854;-3.975109299;17.96299233;-9.773903798;-4.309600041;7.972269717;22.47790628;24.20475733;30.45102604;-5.474703878;5.611837819;-1.549351638;-1.729533268
14.66696764;12.31140207;28.62359563;-4.88668804;12.21196641;-0.603186222;3.613247668;15.51302017;17.6429325;25.16963783;-7.416862773;7.10860222;23.68024176;23.83190485;30.36473444;-0.380503643;8.37682815;2.07845295;0.09294916
-21.19668913;8.085698518;36.754147;-0.360875982;9.588632379;-0.465932825;4.107580786;19.59850917;17.5764623;43.11884326;-3.968291976;6.895898666;21.94046289;24.32338628;28.28272538;2.395170877;10.30884169;0.943096562;2.868924986
-45.35940093;3.265464329;44.38131297;5.925288237;6.490560862;-0.058883905;3.28344;9.43;17.00697463;39.63716079;1.45123828;6.635086601;16.72833416;25.0961624;27.00350588;-0.686664933;10.25914472;-6.529472003;5.201308714
-45.03316376;-1.947052356;47.8329908;9.73103716;2.932083391;0.158102791;1.753747332;-4.545157208;15.37928993;24.56531533;3.815861957;5.410511859;10.67717525;24.91657803;29.17241955;-8.750585083;7.349427402;-16.93982902;5.673603624
-21.11161401;-6.634095094;46.2230991;9.265934423;-0.598839064;-0.10709726;0.744141726;-11.2292449;13.48291069;12.59194061;1.829958314;3.034797946;7.763411162;22.83889639;34.58804621;-16.97209938;1.705982672;-24.0431695;4.00548288
12.25793662;-8.978097253;41.65139388;6.64420965;-3.022591946;-0.683989633;1.044584539;-6.712152707;13.22499931;12.15053172;-1.598072649;0.689763448;10.27248999;19.1339388;39.47591316;-20.53224827;-5.413693342;-23.38519411;1.331384475
36.2828849;-7.249086571;37.1231269;5.958213194;-3.193299955;-1.081892298;2.33436381;4.206047468;15.97447853;20.99629908;-2.326602467;0.524242203;17.03136405;15.32056671;38.79613048;-18.63193102;-12.24778894;-15.73003906;-0.687398442
38.59710918;-1.227848354;34.18718965;9.568312747;-0.774277171;-0.943129373;3.482456819;13.04721488;21.01859267;30.65713633;1.495867209;4.217026682;24.35248321;13.11401213;30.14521159;-14.97952491;-17.40663226;-6.376227773;-1.193179452
19.71957811;7.210887821;32.30386012;15.85173135;3.205374143;-0.385702913;3.554511274;14.56548917;25.83308986;34.76537552;8.224482639;11.44125821;28.86755274;13.08294256;16.20880582;-14.23400152;-20.30443713;-0.827183775;-0.769073359
-8.800129978;15.00634279;30.17141386;20.49667146;6.627622711;0.089619527;2.628134803;10.00797754;28.21626935;33.89645516;14.40856604;19.49212109;29.86918531;14.16743579;3.532627165;-17.5108543;-20.90911628;-0.41780588;-0.826782645
-32.65079422;19.71246183;27.41610828;20.35003906;7.333900501;0.052009031;1.696393789;4.705950953;28.37107913;33.42410249;17.55783017;24.65082379;29.26404233;14.55156557;-1.828165054;-21.0062898;-19.24341126;-1.638103413;-2.274356237
-43.58321372;20.83407519;24.90316158;16.46108905;4.329806529;-0.458639481;1.760665699;2.720068359;28.75922126;37.2441004;17.60675206;24.54474294;29.3407538;13.2207732;1.379257798;-19.14655173;-15.29085552;0.227152448;-4.633845362
-43.11628509;19.74215533;23.51517282;13.45996944;-1.588777175;-0.953862704;2.934852286;3.377049165;31.52143113;43.49291052;16.17014079;19.8292724;30.43610343;10.88657299;8.707992593;-9.680740415;-9.478908541;6.324590538;-6.397504881
-39.35552573;18.39652285;22.92451665;15.51207548;-8.150342034;-0.929783375;4.357656043;2.521296545;35.76349446;46.08959346;14.66864859;13.8168114;30.60813084;9.448666688;13.38667521;3.703288593;-3.174415849;12.66323306;-6.327565154
-39.88766495;18.00977387;21.92020869;22.20262051;-12.66031969;-0.323689374;4.972107239;-2.914995844;37.56748018;40.46888498;13.16995079;10.15231493;27.59157449;10.41207826;11.48014877;13.68346818;1.603704846;13.44007813;-4.565720148
-46.05028568;18.64564329;20.14135715;28.07586071;-13.21834435;0.417940287;4.456244374;-11.24346735;33.32604558;28.18387344;10.86161199;10.2088713;21.24980196;13.60460621;4.858315911;14.81973337;3.424522249;6.622223624;-2.567432777
-52.42798705;19.77423077;19.33169015;26.65149203;-9.531901049;0.722372751;3.47256106;-16.61863889;23.72834421;16.22073927;7.466766003;12.23803374;14.27258276;17.31077697;-0.365128547;7.792520561;2.800535419;-3.135223552;-1.892233445
-51.46503108;20.96493818;22.35158315;15.88663485;-3.035284407;0.381946224;3.036416307;-13.57734562;14.52608659;11.60192363;4.104906266;13.01282735;10.40726202;19.72318298;1.270510808;-1.142103905;2.379994838;-7.246591389;-2.880048828
-39.50303513;21.96311996;30.30680461;0.538462154;3.65748757;-0.28182704;3.598309419;-1.808663238;12.58829819;15.88816427;2.706001171;10.67525955;11.68405093;20.46568866;10.16484528;-5.056921962;5.394042577;0.074050021;-4.352669498
-19.79976406;22.23153577;40.34450154;-10.82617035;7.726002883;-0.717260649;4.672228175;12.82935718;19.99342745;24.11550033;4.448640819;6.412163598;16.97940189;20.87875301;21.17938673;-1.630114625;13.19792309;16.43640772;-4.603037448
-0.505430683;20.7449945;46.64459833;-12.06773726;7.206719241;-0.624650591;5.323294716;22.02370802;31.27139976;28.83090189;8.579556659;3.464237709;23.08364132;22.83745816;27.43930412;5.428158727;23.72999655;31.92956576;-2.836412021
10.72635468;16.63784811;44.52305213;-4.027558928;1.781188355;-0.187658739;5.042336438;20.65620017;36.89876752;25.72812172;12.67098948;4.231774934;27.26257835;27.14234004;25.42522047;9.802118872;32.30475974;35.85481741;0.146772922
11.53042681;10.35454337;34.5169093;6.34989795;-7.027062819;0.138604035;4.200852261;10.1185818;30.98125265;16.41887399;14.21515848;8.003074138;29.06656285;32.85877289;17.43052702;7.923239725;34.4915807;24.6197568;2.576593813
5.742510908;4.186670238;22.74187331;11.71185915;-16.38031934;0.067275332;3.686677401;-3.049668605;16.98311574;6.607149283;12.41734159;11.47230529;29.92297672;38.10054273;9.612601082;1.911292933;29.14684247;4.672403982;3.092992485
0.135147591;1.349225194;16.63527182;10.20629768;-23.20275457;-0.266994586;4.077684961;-11.88537079;6.169768021;1.722968495;8.902412204;11.84373339;31.10812838;41.46938759;7.325154178;-2.108826856;19.353008;-11.97036897;1.725665932
-0.33460915;3.957077355;19.24585453;6.746052949;-25.33696911;-0.468116834;5.120136559;-13.36232938;9.009301105;3.674969484;6.816551886;9.881004039;32.14984229;42.84092462;11.41797402;1.225647067;10.45077263;-16.3237241;-0.284179121
4.721058446;11.37243715;26.90313752;8.559604765;-22.24528388;-0.28681801;5.978030531;-9.316727988;25.83443366;10.78735128;8.877244795;9.974687781;31.24530227;42.88406068;18.22236288;12.48502262;6.50346809;-8.660937377;-1.574875565
12.01982931;20.34192;32.56729376;18.71346035;-14.96341868;0.118298871;6.004624965;-3.82796827;44.4734498;20.03034797;15.59253183;16.68287062;27.33047651;41.94333111;22.91458258;27.10457199;7.738645396;2.296181133;-1.694102344
17.91714132;27.03567027;32.26650064;33.04174725;-5.430717915;0.319311842;5.321061854;0.335696161;47.69380504;29.07895755;24.77825038;30.39155651;21.80617234;39.52174126;23.36184635;38.63845162;10.79416101;6.435509249;-1.23954346
21.20805187;29.57312851;28.97371478;43.14415769;4.368326962;0.030519075;4.686160962;3.275959751;25.67224225;36.65998857;32.74795584;45.92985291;18.13161235;34.98591082;21.41901084;42.89806218;11.48366153;0.028253786;-1.115084237
23.274082;29.16021227;30.02648039;43.06512321;13.0119721;-0.594044832;4.802064656;6.686188064;-15.66800021;41.75895894;36.54302713;55.83309966;19.38914806;28.84167539;20.90477292;40.01529813;7.927209331;-11.68337448;-1.658576882
25.84390606;28.99208228;39.6761888;34.14098239;19.82033345;-1.063479176;5.703945173;11.41344725;-57.03820334;43.31595972;35.84265089;56.01036374;25.80267795;23.21571846;24.18300009;33.4304559;1.712512518;-18.82240939;-2.423756854
28.63553503;31.76843863;53.03601729;23.94148737;24.71946;-0.971395121;6.77515525;16.31679377;-77.68933017;41.10884228;33.21845742;49.17362309;34.34132567;20.76944386;30.22796436;27.11961119;-3.638433456;-14.55836839;-2.736167104
29.10013165;37.66042757;57.32276228;20.09016319;28.01;-0.358590372;7.334539229;19.40922834;-68.57828598;36.78099182;32.336749;42.84847142;40.79112776;22.70669322;35.62720486;23.25407224;-5.53091907;-0.210020752;-2.430446857
24.53397142;44.11727524;40.6623525;24.00901712;30.16245914;0.310720402;7.226212329;20.03225466;-37.60298227;33.40537559;35.15080512;43.22451298;42.57942319;27.52555125;37.49086082;21.60701577;-4.193665258;15.89909441;-2.0529265
14.70069375;47.47051604;2.219120675;29.74843347;31.62466009;0.539027972;6.875971611;19.85856816;-3.579925276;33.32031979;40.11660891;49.87466068;40.06042199;31.73905606;35.76693584;20.49898065;-2.220755686;24.63689606;-2.349516173
2.636793745;45.08060997;-44.49986321;28.91514286;32.6184819;0.204947525;6.806578765;21.649063;16.27087419;35.93019808;43.0745582;56.05046923;35.41182733;32.21687233;33.11481855;18.21575534;-2.301596349;22.47968892;-3.529313299
-7.135684954;36.64799678;-78.64442236;17.7177574;33.00747202;-0.364816844;7.112192209;26.80254251;16.36159797;37.67444005;40.5854079;54.72098436;30.41869317;28.40137534;32.58225585;14.02043988;-5.061913801;13.52533352;-4.986088631
-11.56849865;24.15454994;-84.9648987;0.420523358;32.3804425;-0.707429281;7.403152275;33.88455624;3.869782773;34.67671307;33.35882203;45.38617556;25.28865296;22.6616544;35.07742285;8.512137714;-8.713964043;6.033546649;-5.727605775
-10.85139353;10.85399138;-63.52815096;-13.57359572;30.3829278;-0.624511918;7.253583819;39.48243844;-8.54482499;26.10317372;26.75472997;35.47882034;19.48523052;18.5135867;38.65933705;3.424972922;-10.66279065;6.397379866;-5.130425046
-7.6898004;0.059699602;-29.19992943;-16.6463855;27.10462199;-0.313088085;6.688371448;40.69253932;-12.16184154;15.3219871;27.14624616;34.36047671;13.50685185;18.13824926;40.09834664;0.919127893;-9.652747558;14.9279469;-3.380373886
-4.909825454;-5.815068925;-1.439280061;-8.393197184;23.21218176;-0.131931825;6.211785479;37.14516893;-6.938576845;7.621244244;36.25351181;44.36806084;9.557062224;21.13923815;37.35842082;2.446089194;-6.703827735;26.08120524;-1.2748812
-3.491020762;-5.87823256;8.009957785;4.585912499;19.66210517;-0.245574784;6.33534387;30.93833898;0.800541082;6.185291125;47.85591767;56.618638;10.12461867;25.38139844;31.05358042;7.652625444;-4.160740335;32.45590393;0.375722357
-2.533792349;-0.989387632;0.849615207;14.06242583;17.15775033;-0.486575603;7.062424045;24.71469491;4.615165138;9.650726799;50.33230101;56.13376873;15.63926611;29.01381436;23.88044219;14.15531781;-3.710175905;29.55449386;1.222005257
-0.828477821;6.594331707;-11.84484849;16.22828746;15.75128569;-0.553601284;7.84383447;19.68166948;2.771933815;13.33377415;34.37831239;33.35993525;23.5151828;31.88690905;18.63556445;18.7238075;-4.973743077;18.31081667;1.401601458
1.68232253;14.21930402;-19.27675508;13.69895992;14.90756332;-0.33723872;8.071118344;15.27222011;-1.590476106;13.12600013;0.852276062;-6.667430635;29.81525843;35.24191276;16.39553045;19.36425092;-5.732091985;4.253723904;1.239518651
3.952993314;20.03677511;-18.37462829;12.30568422;13.98727799;-0.04706537;7.649861709;10.54297898;-4.015116474;8.779632433;-37.36931973;-45.33662403;32.32699308;40.12578491;16.12445234;16.80495477;-3.524023531;-5.710734534;0.987420504
5.190972611;23.56973046;-13.97958358;15.74975218;12.76975809;-0.011205621;7.101740626;5.815022057;-2.43033451;3.851325634;-61.95633821;-61.97969366;32.30074524;46.05773957;15.78807011;14.01641613;2.625569264;-6.874812381;0.811391255
5.979604474;25.14653768;-12.99205912;22.6375846;11.61288264;-0.341406643;7.08207855;2.9188188;1.88860717;2.468295865;-60.40052065;-47.89257139;33.06579208;51.14243047;13.99054635;13.85281615;11.5504789;1.096428855;0.901387065
7.858901333;24.70451478;-18.17597064;28.0857865;11.15665019;-0.793563473;7.759188422;3.779392941;6.171290247;5.780636434;-34.32573742;-12.4243851;36.55361921;53.46456585;10.94464513;16.59003906;20.65451601;14.18612138;1.440133991
11.63339803;21.24499224;-26.6424831;28.15433278;11.84176907;-0.972514073;8.646756692;8.652817401;8.614615882;11.12247287;1.27163319;23.56480907;40.92102166;52.47530571;8.219549982;19.49776422;27.31932441;26.04905793;2.37768604
16.06513502;13.82964958;-33.38838483;23.17928422;13.61901905;-0.700123425;9.060944711;15.64472524;9.288289498;14.44927914;27.62802931;42.02198978;41.82224722;49.18101355;7.58435685;19.05016642;30.03689031;31.11021581;3.267385572
18.40825166;3.502898243;-35.97731909;17.30699102;16.00435827;-0.200187349;8.777736016;21.95246192;9.178551483;13.7754927;33.99238456;39.10097099;36.68451962;45.10633016;9.765941735;14.09435408;28.73364613;27.35586359;3.45815048
16.54550902;-5.799097673;-36.07953311;14.90130351;18.32709395;0.085829104;8.26047152;25.72202911;8.798758998;10.60742805;23.33085737;25.48028781;28.27951794;41.10668316;13.86477555;7.255529029;24.42130625;17.40045279;2.608409196
10.86465595;-8.953070599;-36.96667334;17.04022177;19.92412635;-0.104011551;8.221132099;26.94126285;7.882255789;8.299902826;8.320796818;16.2479147;23.84765393;37.13526394;17.7240179;3.162892906;18.63613034;7.067375414;1.096733281
4.064962847;-3.40880368;-39.81058549;20.9838289;20.21451155;-0.603813193;8.913542817;26.7850844;6.302179784;9.02672004;1.259954523;18.95690041;29.49414492;33.04933261;19.04288919;4.777228802;12.97279408;2.040905631;-0.120284056
-1.099885316;7.854710715;-42.39743168;22.79104537;18.80972549;-0.955261771;9.833151749;26.28122055;5.025911495;12.14713511;5.764882709;29.22680401;43.891588;29.48244805;16.66536761;10.88223961;8.704897434;4.471855319;-0.20733696
-4.165008594;17.21379476;-41.25986247;20.64414315;15.792235;-0.813434279;10.13935961;25.67093376;5.890627789;15.27935421;16.13563667;36.51816349;56.7578345;27.74316412;11.34529974;16.99035545;6.404748978;11.73928052;0.831867338
-7.159805909;17.46875019;-34.94071819;16.09054266;12.01265926;-0.259208338;9.440108256;24.95403591;10.20325579;16.8220267;23.83889168;34.26728095;54.48042817;28.69702354;5.4619288;19.05400273;5.685952192;18.35312039;2.069625641
-12.31031635;7.721485956;-25.225292;12.41946673;9.020431038;0.265822215;8.214063991;24.76817629;17.38700071;17.40550645;25.04137512;25.45554128;29.70087652;31.68620725;1.674169356;16.8910433;5.379324994;19.83838077;2.35952818
-19.24793658;-4.832017231;-15.3562202;11.84607501;8.388531029;0.34598897;7.449877003;26.35260364;24.95714628;18.9223987;22.92204815;19.22758767;-11.98521775;34.65298039;1.198358801;14.35676661;4.286535398;15.88902515;1.283654537
-24.4241435;-9.554328225;-7.22084109;13.96285424;10.70626199;-0.046931951;7.794373896;30.34402129;29.98312874;22.2052986;23.46578489;22.17166614;-53.6386156;35.58546839;2.843560835;16.03222097;2.172217001;10.42672665;-0.481647942
-23.6416871;-0.720368299;-0.380538577;16.5437071;14.96446153;-0.540072021;8.970563569;35.5668386;30.93160263;25.76057473;29.13979081;32.34907174;-76.54997434;34.13435002;3.677960712;23.22220127;0.27756087;8.39979911;-1.747096029
-15.79523758;16.79876;6.182841594;17.65807746;18.95542478;-0.700410231;10.00690335;39.31260887;28.49564475;26.94695203;36.38846957;41.37182315;-71.54533205;31.9578273;1.175303469;32.69829464;0.799300698;11.66199713;-1.871823615
-4.578064271;29.65335735;11.57919963;17.08911252;20.59740217;-0.418097326;10.09314328;39.33356089;24.88313515;24.57212244;39.11435694;42.43475412;-44.31925212;31.38264122;-4.50317955;39.26082002;5.482019901;17.13193669;-1.366884762
3.609968576;25.3161543;12.62984946;15.96039135;19.29511874;0.011862931;9.301279981;35.98938398;22.24407448;20.3808302;34.74525718;36.83491016;-11.2488739;33.44827829;-9.858840473;39.87393701;14.2136248;18.85296359;-1.454476193
4.151891049;1.976390832;6.420297373;15.2446184;16.27513411;0.173427623;8.517017194;32.44984018;21.44655905;17.80911594;27.12199116;32.90945429;11.15449185;37.00127812;-9.909566963;35.7926407;24.66427442;12.63084901;-2.908074952
-2.446388262;-28.77756464;-6.408559908;14.76938711;13.54769024;-0.089674969;8.634332177;32.32013554;21.93901966;18.92012546;23.36014917;38.21497294;15.74954946;39.6463679;-1.636034027;30.95188902;33.35651066;-0.163702156;-5.179142272
-11.10279037;-49.25613139;-20.90218465;13.66546343;12.24310493;-0.544967572;9.736960318;36.39726154;22.50710967;22.27057773;27.38918634;51.9947406;7.061055115;39.76174651;13.29785752;28.26517154;37.53382807;-12.62420458;-6.634874787
-16.15772869;-48.02161296;-30.78379643;11.68228386;11.64260405;-0.802786037;11.01151027;41.36097041;22.16732117;23.80930886;36.03582611;64.93395547;-4.252574606;37.85063727;28.70383291;27.31351846;36.58146091;-16.45869934;-5.8
-15.53842359;-28.09198021;-32.98520757;9.923554256;9.726206712;-0.683070653;11.47900597;41.85587765;20.59097723;20.25343311;41.38942;66.8149073;-9.877973374;36.06731827;37.21067085;25.50383525;32.0483378;-7.521929941;-2.603646989
-11.730108;-4.59650351;-29.86025116;10.13983189;4.835734772;-0.373377448;10.88650448;34.58764272;18.0027776;12.07984043;37.58957418;55.54233673;-8.951936151;36.3365009;34.77750955;21.41579236;26.32987554;11.11571163;1.430411
-8.968689301;6.540688152;-27.00252913;13.15173431;-2.896933535;-0.236328214;9.946492956;21.1588726;14.87859071;3.441161926;26.09380436;39.4912559;-6.768136879;38.6931824;23.32688902;16.88352676;21.03672281;30.75951192;4.256885983
