Channel 1 - P4;Channel 2 - O2;Channel 3 - P8;Channel 4 - T8;Channel 5 - C4;Channel 6 - Cz;Channel 7 - Fz;Channel 8 - F4;Channel 9 - Fp2;Channel 10 - F8;Channel 11 - Fp1;Channel 12 - F7;Channel 13 - F3;Channel 14 - C3;Channel 15 - T7;Channel 16 - P7;Channel 17 - P3;Channel 18 - O1;Channel 19 - Pz
126.5598314;49.28623612;121.2555281;-88.28094828;-15.63180717;40.05623361;-95.35154731;102.6174047;141.6753349;61.45704778;158.0712304;62.33195806;96.16135252;60.42;-107.4838719;46.87050489;71.18035544;66.10391998;59.88610813
68.14248685;3.696630034;75.70103492;-68.8068365;-42.88427717;16.86440031;-80.87685757;60.48470277;79.15690761;33.07091498;106.354795;5.661257112;58.14022074;15.88574921;-89.82495715;5.1697841;24.38628175;41.59113818;20.61527255
-12.11353013;-31.08096244;9.472900792;-18.09590343;-49.30068437;-7.715463262;-32.69739669;7.086583321;7.883676379;4.21;30.68478542;-39.04289764;10.49441587;-27.73915969;-36.34850199;-19.17076449;-25.79052321;7.885989949;-19.43027477
-71.52850361;-38.49055304;-38.83290274;34.9062435;-31.6703891;-19.64703699;19.55839283;-26.03400564;-28.84107824;-8.113137055;-23.68689436;-45.39028674;-17.89397305;-46.18887924;20.17312138;-12.8994607;-53.3638225;-13.86297426;-38.02699543
-84.91487662;-21.47794738;-46.65807598;61.93327234;-3.424040505;-14.77506262;46.6;-24.43874449;-15.93549945;1.109168164;-30.97899583;-15.19303051;-14.73767499;-34.12634313;48.29962192;15.12676481;-49.77696202;-12.48054807;-29.44781535
-59.20646909;1.247926259;-20.39152109;54.31704606;16.05938812;-0.521176518;39.05885161;2.016562409;25.96070149;22.88623084;0.672016446;25.61877332;9.71566234;-6.431485835;38.96313223;42.40089695;-27.02744545;6.448036578;-6.563763449
-24.55055326;9.86264536;12.69816668;26.6331755;15.84724593;10.80957031;11.41958896;29.65649593;59.99515807;41.86333182;39.75872738;48.19205708;33.30379624;14.87887702;8.93250919;50.35508452;-6.226750966;26.53737011;10.52981646
-10.23521121;-2.388383281;26.08353819;3.50636424;0.447503474;11.44433125;-11.37479966;39.70832061;62.30878058;47.25853702;56.89613134;41.6889033;39.64736866;17.12726072;-14.5110616;37.21737699;-1.405904196;33.73126298;9.827184909
-24.38036129;-25.80615346;12.38405914;0.811487215;-15.36713912;3.027693283;-13.18071713;30.61088374;37.60697007;39.13651759;45.07183955;18.19330398;28.98626275;4.337011969;-14.63828432;16.98399109;-10.95572591;26.01822337;-5.103634575
-51.7860577;-43.16715984;-14.39471395;15.80573671;-18.94516865;-6.167397073;3.143213651;15.61329071;10.72529899;26.30536019;20.44094326;-0.334248323;14.87181684;-8.870963514;4.24347703;6.758144641;-22.02571214;12.80786969;-20.23325311
-69.24961787;-43.12203859;-32.50529002;32.54526668;-9.157054468;-8.658386879;21.18705721;9.514608561;3.84414016;18.52093219;5.701685932;-0.763500257;11.11788162;-10.45575458;23.59412808;13.38847802;-22.75306565;5.783155037;-23.42433376
-64.52792269;-27.60564664;-29.86315731;36.5389264;4.218298377;-3.507003465;25.97559117;16.35214458;19.28901115;19.35845647;11.13777526;12.27337844;20.48623867;-0.118374423;27.41550945;29.72087507;-11.7914824;9.465762273;-13.62903451
-43.97749386;-8.436062493;-11.63673499;26.09172533;9.64463757;3.882612;15.63200732;27.70179728;40.92743828;24.76636065;28.37202967;23.11399659;33.84552224;12.16752155;14.67306793;42.16532892;1.984746291;18.92010595;-0.14006134
-24.53176339;2.913994302;6.422860017;11.83275853;3.379752711;7.016674842;0.942071409;31.62524972;50.4098775;27.55980316;40.03954789;19.98307994;39.12905521;15.66945718;-1.943098118;42.22706342;8.072581867;25.3663953;6.269952905
-18.53082209;3.592404246;11.77751304;6.31142154;-8.291292023;3.775241075;-5.292180163;23.61176087;42.76912978;23.76757666;35.52378562;4.73046902;31.58665354;7.765818862;-8.254357307;32.39270056;3.227203507;24.0030639;2.215287044
-24.53996346;-0.478848073;4.220176284;13.3236299;-15.23414232;-2.378075085;0.819658607;10.09645243;28.43984018;15.84402555;19.18481841;-10.19425047;16.78994891;-4.932088354;-0.543047696;22.41572548;-6.667090121;17.32778675;-6.610964354
-30.81673135;-1.51834763;-6.249401122;25.75;-12.19385268;-5.939809363;12.09472218;2.232708249;21.89034753;10.52818347;5.185157512;-13.56563208;4.832758608;-13.13802458;12.61107705;20.24553154;-12.49290805;11.8990943;-11.42748339
-26.92431008;2.771977723;-9.460651259;32.72249734;-2.654010137;-4.200430055;17.69234344;6.019552637;28.44188665;13.24610157;4.677425517;-4.968589769;1.653939604;-12.7667906;19.01882603;25.68436151;-9.83606618;12.24575785;-8.156165204
-12.77388113;7.669884714;-3.658003004;29.12933487;4.906874927;0.793631471;12.83039154;17.49867879;40.90119652;23.4302904;16.80603882;5.888711928;5.093975687;-7.443961328;13.66449452;31.66463301;-2.156634641;17.51;-0.283979085
2.255388587;6.442643868;4.355992989;19.26951754;4.544473033;4.482044201;2.320389333;26.78113073;47.57022347;34.3781655;30.60438809;8.553885506;8.363725457;-4.244366161;2.226185602;31.17288952;2.93757258;23.26242802;5.068649462
8.288365728;-2.953879581;6.576574699;12.21587802;-2.466911766;3.908552579;-4.494686428;26.86412426;42.9816959;37.95063915;35.06458951;0.933991122;6.934224508;-7.117874508;-4.95343253;23.36050767;0.474758535;26.06880306;3.782052031
3.477170336;-15.41728238;1.407666814;13.6662937;-9.45069329;0.042866489;-2.249907046;19.36318972;31.44213982;30.83720445;28.12144161;-9.789133874;2.358308147;-13.89645349;-2.345399754;13.76150263;-8.036785698;26.28288594;-1.922902144
-5.25;-22.45138265;-5.212776239;21.53088965;-10.50584776;-3.477235241;6.135242245;12.42788213;21.32121307;17.73618198;17.17207561;-14.46164961;-0.02862492;-19.01882489;6.37358496;9.041986133;-16.60483493;26.75251237;-6.034187745
-9.149910028;-18.79031644;-5.653026746;28.59608227;-5.407715937;-3.745650526;12.72205606;13.12480296;16.85907659;8.677603226;11.64547908;-10.25254529;3.223679375;-18.90807913;12.418423;11.30219744;-20.26010712;29.21364406;-4.445305372
-5.579602762;-6.386304654;2.280454028;29.24523502;0.826226;-1.000610657;11.92141244;21.22698499;15.7337116;11.78634689;14.79533666;-2.441515432;10.21722161;-14.93923075;10.1999018;16.84223814;-19.01524647;32.17681661;1.457296948
0.169129487;7.249043752;13.34;24.05585084;2.850340896;1.930442521;5.208084;29.76958982;13.97814888;26.3668193;21.7882832;1.355852602;15.56664524;-11.58723011;2.175243506;20.01392564;-17.07231774;32.36367202;6.317661308
0.282742744;14.633738;19.48056963;18.54072173;-0.253794295;2.384212173;-0.740485462;31.58968647;12.12659987;41.62292814;25.03;-1.359311464;15.56350032;-11.90516238;-3.842407245;18.34411472;-18.49389012;28.13564187;5.748200438
-8.200058594;13.20469165;16.76488262;17.7320142;-4.50667387;0.203730902;-0.356166908;25.87342584;15.43466913;42.85255059;21.32994334;-5.889927509;11.63568501;-14.73814142;-2.06583872;14.34435433;-23.49515381;21.41967444;0.116594114
-20.71159854;5.952010422;8.431764416;21.75858002;-4.925201707;-2.351126268;5.934189021;18.93251256;27.54666313;21.60657104;14.4285513;-5.357417473;8.873767769;-16.17555867;6.04129263;12.68428123;-28.56759604;16.16669964;-6.054291388
-29.27815722;-1.9891095;1.709447237;26.21842693;-0.045024434;-2.839508118;12.46317721;18.63728271;44.36470689;-17.14932987;11.06710651;2.130104536;11.09716042;-13.66664835;13.26021469;15.57729861;-29.9730327;14.80371599;-8.2426765
-29.44095949;-7.467462038;1.493817546;26.5911036;6.951997572;-0.865820978;13.67627014;27.46668413;55.45016751;-56.48671943;14.62549981;10.97107124;17.13047091;-8.791169708;13.19869274;20.62931448;-27.19304125;16.12003906;-5.757397303
-23.76152266;-10.82947981;6.491406076;22.42537623;11.27440834;1.68745201;9.05014709;40.21625949;53.0435924;-77.44519354;22.19905102;12.6142867;21.76663339;-6.028882966;5.892251041;22.99734403;-23.22511423;16.66087161;-1.926032809
-19.0643915;-14.16917732;10.91792589;17.5710107;10.7793672;2.491351169;3.245500225;48.25753988;40.58590522;-71.03364894;27.51889118;3.052990766;20.51854889;-8.63795382;-2.486329977;19.80776753;-21.66708549;14.30413774;-0.767246187
-20.21466468;-18.48260214;9.858034282;16.51253214;7.624810055;0.89561325;1.650575068;46.60192986;31.76076556;-43.87944947;26.77498554;-13.45392808;13.77722867;-15.43709788;-5.282654659;12.85557584;-23.42490311;10.52955227;-3.359766332
-26.06665754;-22.47427502;3.411512868;20.32003906;6.029409802;-1.570641459;5.547306804;37.76332125;39.19564018;-13.30552496;21.9946578;-27.68851185;6.561276792;-21.4825139;-1.14798633;7.217957762;-26.050455;9.058917631;-7.15144223
-30.94896215;-23.90575599;-3.800430322;25.83311903;8.372888013;-2.674952803;11.21560076;29.33519634;62.00168171;4.730956025;19.07549508;-32.82182873;4.074669483;-22.13163147;5.133729178;7.017113071;-26.18060338;12.00878049;-8.600870439
-29.98931445;-21.97;-6.910462901;28.59470362;13.19968783;-1.505446731;13.54250121;27.60757446;83.76570506;6.036405178;22.41706909;-29.45124047;7.081799491;-16.96830283;7.244980076;11.98515811;-22.72651763;17.20560333;-6.530623136
-23.34819626;-18.36131481;-4.82177384;26.71889671;16.78111669;0.789351073;10.66635598;32.74399242;84.34732473;-0.648993317;30.96574584;-24.31152333;11.24745504;-10.192377;3.019090677;17.71029527;-17.89131114;19.44682483;-3.094690309
-15.73972916;-16.03415697;-0.527664065;22.26140221;16.62043948;2.128702083;5.461517241;39.40542634;56.60012512;-2.146085344;39.01897295;-24.30957403;11.01079698;-7.167610719;-3.865734327;19.27061183;-15.16969978;14.92983873;-1.602689318
-12.01762686;-16.76349367;2.148624182;19.10569164;13.63589745;1.387591765;2.716160334;41.86908799;13.83811382;8.082253632;40.88455764;-31.33837507;4.528405404;-10.10487444;-7.471851181;15.1619424;-16.22482374;5.030296387;-3.344072827
-13.01061369;-19.63561937;2.127125673;19.4968777;11.11613843;-0.671940161;4.756775541;38.93539512;-19.17350999;25.21168601;35.298955;-42.06014921;-4.672456326;-16.49047685;-5.016526727;8.31632248;-19.46936874;-4.076965784;-6.376543005
-15.26414796;-21.74155269;1.699107812;22.35183987;11.54888747;-2.191740943;9.507917352;34.41119406;-25.13133516;38.25057898;26.02154824;-52.03200687;-10.72065389;-21.41237881;0.788294417;3.54144553;-21.55284677;-5.952123726;-7.341168185
-14.61333715;-20.48448647;3.87280216;24.63887189;14.30748503;-1.923890692;12.58696515;33.06689534;-7.613801558;40.37315896;18.5041133;-59.77941633;-10.38020692;-21.62767257;4.41028515;3.654886959;-20.33185095;1.07334094;-4.575805276
-10.10248575;-15.66509108;9.116457007;24.30357392;16.29605124;-0.284485374;11.34416408;35.95703655;12.31564951;35.25605119;15.77498347;-67.0322442;-5.635283509;-17.90942704;2.577485243;7.497672563;-16.64699789;12.56183597;0.329927077
-4.69769872;-9.80214603;14.57776195;21.99423988;14.90080567;1.135685978;7.130952918;39.38827921;13.76277893;33.64808205;16.95188389;-75.42302848;-1.754686817;-13.89693294;-2.867554452;11.2692423;-13.39757201;21.45918466;3.909810198
-2.360465142;-6.560881345;16.4465985;20.16448096;10.50987546;1.067331537;3.862006872;38.40299523;-6.646700491;42.83707402;19.16418896;-83.44015835;-2.694772042;-12.72815889;-6.795141898;11.82863926;-12.85387049;23.48170513;3.831737244
-4.365260235;-8.469391913;13.24224586;20.61135982;6.297654949;-0.331600541;4.358344482;31.55241563;-32.1162638;58.13053405;20.66739914;-87.02907015;-7.909790159;-14.47500302;-5.489966515;9.117736804;-14.66032209;19.95734754;0.833858841
-8.257872292;-15.38343448;7.068042189;22.82737719;5.463599394;-1.720268463;7.871630815;22.60122032;-39.84328706;64.32770789;22.18611616;-83.46467384;-13.22390596;-16.45480959;0.056849595;5.816132824;-16.26857039;15.95746971;-2.073628922
-10.26032533;-24.45540878;1.824376027;24.60929585;8.39109944;-1.861511447;10.95389618;17.57983195;-20.11351865;47.06583964;25.45465582;-74.70494432;-14.77154225;-15.87344427;5.125397729;4.781733495;-15.3262912;15.58890538;-2.31987098
-8.748676255;-31.41420535;0.101852573;24.19658836;12.23667437;-0.728411608;10.71801414;19.75931603;15.47152417;5.432833099;30.60216636;-66.70833787;-12.40903184;-12.33130982;5.485022068;6.638009389;-11.84428698;18.59751858;0.069217372
-5.577384639;-32.42943359;1.501153024;21.86851906;13.29516403;0.554188;7.427977287;26.96132734;43.12664228;-44.51329675;35.03299083;-64.93824316;-9.654411144;-8.074743329;1.016136517;9.563775309;-8.23864694;21.07874703;2.722008546
-4.155537367;-25.80640725;3.641949981;19.5738538;10.07583285;0.808934075;4.111243322;33.52692714;45.43859933;-78.95520389;35.01118726;-69.95415035;-10.39114382;-5.999284394;-4.39989006;11.29608257;-7.264903728;19.41302876;3.212802284
-6.207679049;-12.9279694;4.635515734;19.07142491;4.47367887;-0.112456196;3.684648886;35.13983063;24.05072612;-81.93931537;28.67751551;-77.09955518;-15.38014412;-7.324052604;-6.436426398;11.39647367;-9.679415151;13.80643073;1.243179674
-10.26667629;1.978148613;4.618022728;20.39337731;0.132810765;-1.249973951;6.311094908;32.21122833;-3.260824456;-55.90574125;17.91663344;-80.66234125;-21.63865871;-10.9294299;-4.041180385;11.64650087;-13.61394232;8.328205075;-1.220207555
-13.20933275;13.38474716;5.049681477;22.01829704;-0.499742304;-1.480932076;9.372816512;28.88943996;-17.61155397;-19.40309813;7.423804577;-78.8261562;-25.09971377;-14.69484958;-0.080168738;14.16135477;-16.0982381;7.499555791;-1.860353339
-13.26886215;16.8833308;6.7055446;22.46105456;2.070501585;-0.577353375;9.97161428;28.73602437;-13.11996197;6.008349014;1.617353719;-74.99290675;-24.10076226;-17.39820101;1.457313737;18.92492289;-15.34665576;12.45212302;-0.153507318
-11.63589878;11.36062895;8.488106788;21.68064014;5.154423541;0.600661767;7.579206757;31.1429874;1.010737249;9.734244499;1.760151262;-74.33772349;-20.65786709;-19.41477631;-0.965985655;23.09222597;-11.90610673;19.9143395;2.194502224
-11.16419129;-0.372393922;8.303595636;20.9701042;6.307206334;0.924171474;4.424161221;31.90642109;10.6469834;-2.947114893;5.446095181;-78.77370784;-18.54237308;-21.7359938;-5.24324531;22.95746208;-7.881650258;24.75471236;2.833713432
-13.45249788;-13.08232345;5.185608432;21.50176546;5.257959325;0.046901368;3.354978619;27.55758528;9.23214079;-17.49694308;8.74707666;-84.92813801;-19.95776011;-24.43007813;-7.678963882;17.13047484;-5.118489194;23.83785577;0.869654486
-17.09410959;-21.97468508;0.604364343;22.99;3.81774658;-1.276580105;5.220962509;19.47874954;1.926354148;-21.96708498;9.321511822;-86.98499253;-23.68911704;-26.11650791;-6.25640109;8.226052574;-3.957839137;18.06947001;-2.415955514
-18.78193423;-25.12025676;-2.371088628;23.80156969;4.091606282;-1.875939165;8.170373996;13.77221572;-1.017154898;-14.71618735;8.146081489;-81.84176546;-26.17190962;-24.99283774;-2.177118655;1.410579658;-3.463291164;11.27655345;-4.793179197
-16.28853027;-23.86119753;-1.400699847;22.45292367;6.695619578;-1.20974351;9.431409096;16.51862457;5.503369491;-3.037501841;8.619884515;-71.94907057;-24.4;-20.46697979;1.516285599;0.725189904;-2.618951875;7.244984251;-5.06679685
-10.5892388;-21.04999932;3.343493126;19.113397;10.45817819;0.174342745;7.865009204;28.30935404;17.10321775;4.574266639;13.72880418;-63.29141375;-18.18448087;-13.88369393;2.756391687;6.091959871;-1.233049306;7.476525641;-4.015393429
-5.166334458;-18.58650772;9.47554747;15.70469923;13.63049585;1.15088669;4.942182586;42.94900466;24.78921482;5.304792014;23.3663534;-60.29784144;-10.05420317;-7.662509126;2.083338437;13.54400488;0.240011597;11.17148497;-3.521316104
-3.095760222;-16.19858306;14.43424775;14.45595964;15.34272091;1.007825515;3.317193239;51.88759371;23.74550021;2.757018965;33.85107438;-62.14617627;-3.173341901;-3.578068404;1.758823284;18.63532361;1.584946637;16.81126232;-4.785568467
-4.520244983;-12.31922141;17.41500264;16.15589695;16.02341659;0.024561011;4.381387357;50.97234095;17.61065747;2.19400169;40.20461349;-63.61410432;0.845328022;-1.630929664;3.413320316;20.24458247;3.349528718;23.5144303;-7.284719313
-6.741684203;-6.121131228;19.56629097;19.59304489;16.61446569;-0.844835222;7.054942085;43.82537383;14.60821715;5.45504874;39.7922056;-59.60756857;2.589407083;-0.383971529;6.525837756;21.45770328;6.350137966;30.99614443;-9.356243485
-6.789554363;1.210585852;22.48869725;22.60603336;17.52483611;-0.849177444;8.863811328;38.74479754;19.66903682;10.15260198;34.74926344;-49.3896711;3.829984565;1.643925271;9.087703951;26.55052694;10.58302658;38.59815124;-9.772441981
-4.116038301;7.192045541;26.59331443;23.777777;18.36180831;-0.071009491;8.234206098;41.50871463;30.14353148;13.21088012;31.11215799;-37.01302229;6.022536494;4.768549285;9.6711731;36.51007813;14.65187891;44.78898824;-8.803260538
-1.013943676;10.1624851;30.8548627;23.33278763;18.58129875;0.725611095;5.87300983;50.19394952;38.89931451;14.72588889;34.65562846;-27.90969993;9.557527894;8.061300827;8.848110665;47.12432905;16.43482292;47.91722755;-7.822935202
-0.453798162;10.88985046;34.03435709;22.59240161;18.26013116;0.836204259;4.017411942;56.71846681;41.43845872;18.14537826;45.92553954;-24.81899853;14.00490564;10.28382779;8.620365987;51.82521199;14.58849389;47.56747454;-7.909845146
-3.356211994;12.07003906;35.99967144;22.62503795;18.12643792;0.241246131;4.324177706;54.17373603;39.99596556;26.56092295;58.10777277;-26.4380057;18.68478321;10.88843889;10.46506708;47.41755514;9.657207027;45.11744162;-8.806136548
-7.766346774;15.93772491;37.73673251;23.34303661;18.80203616;-0.435813413;6.378799589;43.77747844;40.73183952;38.75447206;60.03430693;-29.43949043;22.89127185;10.23322928;13.89418657;37.88170576;3.801698609;42.79059748;-9.216180641
-10.62045539;21.960631;40.02940205;23.76711763;20.05967012;-0.551085325;8.162909552;35.04791653;46.93457692;48.97920437;43.25419017;-31.51369733;25.79538106;8.990612198;16.88785482;32.35421526;-0.702003928;41.95244729;-8.132274638
-10.44264936;26.72739257;42.21678198;23.0754745;20.92040005;-0.036870639;7.977422583;38.16227903;55.06781994;51.05912936;8.82691831;-32.56382206;26.55843212;7.459869276;17.7559745;37.90348716;-3.003577346;42.17315519;-5.904248761
-8.513296921;26.41765483;42.4753427;21.40480897;20.58436389;0.572330971;6.003295686;54.23420691;57.78787877;43.43278506;-31.14073932;-33.36319589;24.90762942;5.470542644;16.64886047;52.40855969;-4.033286804;41.90495021;-4.01423061
-7.49;20.0365328;39.6129753;19.70577253;19.32043871;0.675220356;4.076845788;71.74648973;51.29724282;30.8185129;-59.20811667;-33.57579679;21.69499578;2.885202295;15.315432;63.70789965;-5.441831541;40.13422127;-3.735888767
-8.792623168;10.76368317;34.7658863;18.87774894;18.40262261;0.175932267;3.943494578;73.13811455;39.9910107;21.02299492;-62.61464451;-31.51888641;18.66598961;0.083630957;15.39524486;56.95618534;-8.06472819;37.47793956;-4.912738597
-11.16844645;4.107369697;31.22762204;19.03157307;19.0453153;-0.440203665;5.644816887;47.57;33.5570637;19.46968193;-41.21149699;-26.0503441;17.275383;-2.155505223;16.90489633;25.68479309;-11.20049001;35.73197125;-6.008651663
-11.76167283;4.065701142;32.19283261;19.52205337;21.25466739;-0.579382367;7.52204725;0.467287575;38.61422714;25.77109614;-7.794638759;-18.57476486;17.40037866;-3.322904867;18.34845582;-21.55340314;-13.25620274;36.31481706;-5.439635301
-8.739698283;10.16415601;38.1299512;19.62710043;23.65747834;-0.103807251;7.789051775;-47.8761228;52.27245665;34.76538962;19.71330715;-12.82144239;17.1760193;-3.745538692;18.29441749;-64.6189022;-13.15251225;39.02801234;-3.028837141
-3.12944432;17.67308649;46.03229231;19.18093691;24.52513959;0.538218713;6.183557188;-74.48416375;63.69728361;40.73524984;29.11139987;-12.15993439;14.38270912;-4.434872244;16.84740661;-83.81925748;-11.28106863;42.1950247;-0.289130091
1.780104241;20.91049446;51.3516659;18.59666783;23.13461969;0.72712532;4.171729579;-68.39977215;62.83724978;41.2447197;20.49714147;-16.74734427;8.436352318;-6.249849977;15.55102001;-72.48261858;-9.239046474;43.95203306;0.749662003
2.970727678;17.18823258;51.18178567;18.34843818;20.288541;0.239932209;3.55154652;-37.51029056;49.04259817;37.87870781;4.349854893;-23.22524493;1.31703135;-9.070846246;15.78410993;-41.1641947;-8.609179067;43.49753515;-0.809130195
0.000989268;8.511877931;46.17421929;18.48239321;17.55582775;-0.549004909;4.779365626;-2.733690021;32.13287335;34.04;-6.963030133;-27.4562888;-3.516074807;-11.73125556;17.2019165;-10.39507305;-9.80852631;41.32557354;-3.9841286
-4.821738857;-0.081736163;39.70959686;18.63224552;15.9285236;-1.006219151;6.569583846;16.07158063;24.80532917;32.17994189;-7.752197938;-27.93400035;-3.535429979;-12.82620339;17.79602144;2.868252419;-11.89580057;38.53816163;-6.675486209
-8.426522927;-4.111488592;35.12984998;18.47266977;15.09259441;-0.797246679;7.111864944;12.37336981;32.61931894;32.67726828;-1.54882034;-26.74099552;0.984229672;-11.76349985;15.64967621;-4.517507468;-13.38692006;36.12486862;-7.263819401
-9.33304154;-2.40570672;33.39234629;18.11118641;13.93078213;-0.160828071;5.754533968;-4.855880598;49.7909923;34.6265151;3.520160122;-27.10642931;7.150342203;-9.204607139;10.83314204;-21.8547855;-13.33186844;34.85136648;-5.730182004
-8.409492672;2.85968021;33.00916637;18.00829603;11.74842049;0.330006104;3.59665884;-19.58551938;64.0526751;37.11905095;2.160981917;-29.79634869;11.56605383;-6.548389299;5.656432017;-33.97063913;-11.79920897;35.486867;-3.455093442
-7.58747601;8.470176958;32.0670343;18.50708093;9.065305783;0.282663501;2.463792594;-20.75908296;66.28084069;39.65582403;-3.964051818;-31.79512507;12.69010377;-4.893606611;2.929054454;-32.41915952;-9.509703664;38.60919194;-1.989999302
-7.878615123;12.70153626;30.33067046;19.44593712;7.23032825;-0.193037444;3.235082662;-9.04887418;56.94058921;41.69918631;-8.351846749;-28.7557224;11.60814991;-4.311185117;3.683973464;-20.27248158;-7.084585739;43.77845669;-1.891710474
-8.521537025;16.03632394;29.47733453;20.24328831;7.204008375;-0.62562045;5.064358833;5.715765278;44.51166316;42.40864742;-5.672098778;-19.21554144;10.74318692;-3.957629633;6.352517461;-7.80290356;-4.608587191;48.9030527;-2.532590992
-7.924184716;19.76792348;31.29950839;20.38294249;8.622754298;-0.628213252;6.188326106;13.22916615;37.9373526;41.22602789;3.637457744;-6.763558312;11.72133001;-2.859343289;8.123719529;-3.484934388;-1.816920259;50.91;-2.886898492
-5.390039063;24.02016771;35.60835325;19.85106453;10.01254429;-0.232565983;5.549853399;10.24870891;39.76582393;38.72495811;13.90865196;2.047777891;14.19039918;-0.69721964;7.300762248;-7.810112824;1.387036273;47.79505795;-2.487797498
-1.95376854;27.10511704;39.86938558;19.13585687;9.988321814;0.177446459;3.737359125;1.624776053;45.35678007;36.53018116;19.0678044;2.552487758;16.43298789;1.995895768;4.604332327;-14.3342285;4.638471087;40.58898553;-1.719861266
0.456651808;26.84516406;41.04809044;18.81759539;8.393628023;0.241858177;2.400391921;-4.871164125;47.93834017;35.96059246;17.3815089;-4.429109732;17.03292888;4.281440809;2.337196701;-16.12191084;7.322547139;33.32758641;-1.297076687
0.743888858;22.67653992;38.13541804;19.13581887;6.391378343;-0.052934365;2.712565414;-4.95803629;44.54473233;36.54938598;12.17404301;-13.29816847;16.04273833;5.467798483;2.235801922;-11.61812;9.059517379;30.50860849;-1.506493396
-0.340770967;16.60319826;33.15226619;19.89286006;5.447401662;-0.394327429;4.309244524;-0.366849281;37.85442803;36.09463991;8.315443606;-18.10163124;14.70082355;5.462692533;3.969065673;-5.139123347;9.974273713;33.7760124;-1.934222667
-0.820193762;12.01732647;29.69351323;20.70281691;6.110374753;-0.463276993;5.659357225;3.802732476;33.11157586;32.63083975;7.928461234;-16.93138988;14.12320082;4.654177858;5.598330533;-2.216189037;10.48131859;40.60339535;-1.879742751
0.791720382;11.2277019;30.1592353;21.28866002;7.633416588;-0.238063277;5.496925776;3.881859253;33.5458127;26.73490931;9.148019697;-12.67358942;14.26635286;3.540408646;5.500672137;-4.400705064;10.78941148;46.33424349;-1.025864195
4.184332459;13.68432713;33.92301112;21.55589264;8.704223316;0.001115119;3.977256617;0.344432926;38.34007813;21.85866498;8.732313339;-9.743426638;14.0836737;2.445514367;3.937837624;-8.193727207;10.60671977;48.03857258;0.257016164
7.469297935;16.38063417;37.88120787;21.46150437;8.573151355;-0.041953224;2.504476158;-3.425683591;44.21;21.87377466;5.741348784;-9.937597556;12.60924862;1.471550726;2.812623451;-8.764852695;9.350760584;46.81273394;1.213071598
8.69465479;16.16586685;38.85017953;20.9219701;7.565885163;-0.382582783;2.415528397;-4.618814453;48.28484302;27.58069387;2.620320478;-11.17848045;9.848696887;0.586579019;3.842618593;-4.805593206;6.701592799;46.27186147;1.29804806
7.342563675;12.15426535;35.83537908;19.92544459;6.580304851;-0.728651729;3.747937107;-3.423682119;49.37934176;35.21957722;2.578298899;-10.18534736;6.615663584;-0.317952558;6.84578162;-0.012458094;3.008294638;48.38689979;0.542900711
4.597419418;6.342789605;30.45700243;18.73019137;6.108641468;-0.747714419;5.217235376;-2.479908062;47.06953373;38.64019495;5.741817649;-6.476468379;3.529018822;-1.433522009;9.740373414;0.116160145;-0.831115342;50.55969351;-0.573540755
2.286101668;1.995190549;25.44328401;17.86872189;5.733929273;-0.378879783;5.403046019;-4.268855093;40.50314609;33.73431926;7.87362989;-3.84508959;0.225635376;-2.995046175;10.30486915;-6.752520545;-3.94027663;47.1983475;-1.544244988
1.492008352;1.126128942;22.63041695;17.83726314;4.571692555;0.096963197;4.041152113;-8.996047149;28.93620771;21.64554831;3.241561013;-7.690511883;-4.357556049;-5.113720715;8.140311483;-17.48553005;-6.009485182;35.15972755;-2.137580164
1.990257505;3.087684076;22.07730757;18.68864081;2.224665394;0.291887914;2.24577269;-14.72292903;13.64475148;8.091732363;-10.55090405;-20.32966072;-10.82427118;-7.573015528;5.078580248;-25.83974732;-7.349217922;18.46578338;-2.367134268
2.811204802;5.313584087;22.72569528;19.90942847;-0.672778257;0.040347149;1.4841125;-19.28507332;-1.231133167;-0.712281306;-29.91512132;-38.3390843;-18.36548581;-9.797934746;3.658772155;-27.35766752;-8.404149078;7.394001395;-2.266481246
3.243496217;5.52335397;23.67875509;20.74981795;-2.875464181;-0.464822042;2.260565712;-22.02784244;-10.7505404;-2.245476579;-47.28633887;-54.3710867;-24.97514243;-11.11377361;5.004855958;-22.57905463;-9.148589905;11.26737008;-1.768423293
3.324100649;3.563170789;24.83454352;20.76336725;-3.580583323;-0.83954556;3.705575526;-23.84934888;-13.02990834;1.304167139;-56.37528377;-62.14071033;-28.75725644;-11.15891129;7.952036348;-15.98702367;-8.902402856;29.89712319;-0.821704096
3.482745136;1.439971856;26.46095014;20.09934066;-3.181038119;-0.823590975;4.411990831;-25.80695115;-11.41805233;5.700421997;-56.48645769;-60.62914201;-29.23940694;-10.13876636;10.14687133;-11.89729832;-6.769293091;50.84301315;0.412234429
3.85385856;1.62029572;28.40848182;19.2984363;-3.019911344;-0.472733198;3.723339034;-27.84628672;-12.38168408;8.387975902;-52.48351784;-54.23691528;-27.56794465;-8.693802334;10.11018821;-11.02729792;-2.385513761;56.01481651;1.542544931
4.035193327;5.044579758;29.94347328;18.79231294;-4.308570059;-0.080958123;2.295095986;-28.89388511;-20.21083208;9.989769719;-50.59064253;-48.98762698;-25.43803419;-7.458119328;8.447608794;-10.61058134;3.600392801;33.98344902;2.185178206
3.554723394;10.44642726;30.43201445;18.57262291;-7.101504302;0.076026506;1.447241367;-28.08294301;-32.88955042;12.53015517;-53.58252871;-48.02173744;-23.72458242;-6.651201179;7.201605026;-7.609535252;9.702774038;-10.71771005;2.24847672
2.551608448;15.41733971;30.12359372;18.31815;-10.18440566;-0.053817355;1.938050883;-25.77048836;-43.01131746;16.42080101;-59.21551874;-49.93690589;-22.02101015;-6.032127917;7.996917769;-1.882087995;14.32495945;-58.65490382;1.990276808
1.926532744;18.22365003;30.08832091;17.81833022;-11.96882506;-0.304007484;3.292363036;-23.30068708;-43.48212299;19.31290341;-62.8558344;-50.93299737;-19.44744954;-5.24712528;10.64864828;3.576065262;16.54045109;-87.01746873;1.780181495
2.707999808;18.85059572;31.17913948;17.2471666;-11.66072949;-0.467684817;4.274378676;-21.7876907;-33.46100211;18.03269759;-61.7479362;-48.55793905;-15.92797604;-4.264261289;13.41082328;5.374645204;16.43428364;-83.91829153;1.78933531
5.141056293;18.50614308;32.93453613;17.00343354;-9.776122329;-0.471268131;4.033489735;-21.17144079;-19.46128025;11.78232582;-57.22101589;-43.78603562;-12.70895454;-3.504285537;14.54417679;2.81254962;14.86679146;-55.51615079;1.903607346
8.313968068;18.16742965;33.56091335;17.28097031;-7.646417554;-0.397463577;2.855506174;-20.47921544;-10.48040196;3.472997884;-53.17644672;-39.89649683;-11.5795264;-3.527081661;13.74863542;-1.515777053;12.92294111;-21.1280586;1.933325562
10.70443996;17.53675004;31.24176616;17.81784438;-6.376087793;-0.365574045;1.849415308;-18.97014243;-11.11819818;-2.274998172;-52.49474293;-39.45384297;-13.43637499;-4.517355928;12.22466322;-4.03270718;11.44463823;-0.160243571;1.89030421
11.24242293;15.35351516;25.78377638;18.10186044;-6.098922254;-0.402848267;1.895984922;-16.94259779;-18.40331913;-2.810811114;-54.65302573;-42.14665607;-17.44793861;-6.009755755;11.43136428;-3.205584979;10.85706442;-0.302522044;2.026019256
10.05141499;10.78003906;19.17392686;17.84493799;-6.055210436;-0.429564435;2.848938134;-15.35940708;-24.86237982;0.498333241;-56.54386879;-45.23023678;-21.57398654;-7.128611224;11.77026953;-0.580113705;11.21208253;-14.8852646;2.56325194
8.311923366;4.608724671;14.44538302;17.24868586;-5.314980187;-0.358881184;3.714013566;-14.71080963;-25.00283876;3.750596301;-55.54938913;-45.94429055;-24.0326565;-7.210384119;12.40030562;0.923925866;12.25330219;-30.09994044;3.38208467
7.413188671;-0.851569549;13.65509427;16.77659831;-3.506376533;-0.203156844;3.607921719;-14.38771219;-19.55756843;4.204208124;-52.00304131;-43.68731556;-24.50456292;-6.347997554;12.26235644;-0.310988144;13.43223031;-35.69054138;4.00860926
8.08386703;-3.258472802;16.53789166;16.65035515;-1.014834814;-0.080144249;2.585717488;-13.36012354;-14.01052961;2.790668648;-48.87682247;-40.18526961;-24.11160261;-5.413438271;11.24832004;-3.440848488;13.99618319;-31.0494299;3.988130131
10.10450553;-1.983284249;20.84768322;16.59492271;1.377276202;-0.113127753;1.572005254;-11.56680718;-13.08172528;3.09060026;-49.0920655;-37.77817481;-24.26526832;-5.482808879;10.35279926;-6.388792334;13.28553689;-23.15191576;3.336375116
12.65729477;1.251204156;24.01296812;16.13435852;3.016057624;-0.318137244;1.480404302;-10.51799527;-16.35073716;7.66688923;-52.92331071;-37.49854469;-25.41365166;-7.040421087;10.6563406;-8.020698079;11.16449943;-19.36464561;2.627193169
14.89052055;3.387286817;24.72818026;15.17693444;3.657224261;-0.579538064;2.356252206;-12.20364145;-18.95434901;15.14372077;-57.76547101;-38.55527525;-26.73861706;-9.536920132;12.13406988;-9.041161426;8.268056949;-21.54922598;2.557156457
16.25808913;2.006684721;23.31652051;14.28234285;3.411108629;-0.733364822;3.339284289;-17.05294495;-16.53665152;20.82795556;-60.36777665;-39.42290381;-26.99269304;-11.66021661;13.47775842;-10.80307313;5.756422343;-25.81360546;3.304351208
16.55405273;-3.11328895;20.86962217;14.2583017;2.556280518;-0.686036399;3.468690382;-22.84553519;-9.74066694;20.47158707;-59.50306177;-39.35289829;-25.69868159;-12.1851418;13.17684564;-13.38909763;4.603170829;-27.06799082;4.24191546
15.87386388;-9.875318465;18.19514711;15.39;1.437616688;-0.47409795;2.572655298;-25.8972562;-4.026971932;13.86863789;-56.78644896;-38.94524664;-23.68418756;-10.8414638;10.90422006;-15.08249024;4.864255776;-23.78671156;4.325410379
14.68293756;-15.13650441;15.57492121;17.03391817;0.448919562;-0.227753052;1.418520401;-23.87487136;-4.957444958;5.049459585;-55.08096939;-39.42069268;-22.54536728;-8.589190042;7.9198975;-13.94195421;5.504932136;-18.92439333;2.916719024
13.86398905;-16.45285038;13.3612382;18.04504966;-0.060225661;-0.078392154;0.995427741;-17.96167058;-13.25104381;-1.129699036;-56.00763417;-41.3815353;-23.53618896;-7.069913593;6.06649832;-10.00153505;5.020749029;-16.77049311;0.401141738
14.44618246;-13.22930912;12.51435651;17.74143311;-0.023778431;-0.08260687;1.603396748;-12.37827005;-24.08861613;-2.941489194;-58.70347656;-44.146992;-26.78319261;-7.565797027;6.208927677;-5.811403137;2.491845363;-19.01870955;-1.936856752
16.95379097;-6.781870144;14.23574969;16.54740246;0.128891204;-0.206963139;2.59041135;-11.38496898;-31.21563692;-2.726680963;-60.72922266;-46.10515304;-31.34876392;-10.15457217;7.498789949;-4.495045014;-1.673266653;-23.55863429;-2.750009766
20.77432196;0.463299201;18.84239243;15.67440605;-0.425982465;-0.366164907;2.969165397;-16.07634116;-32.02977771;-4.018859252;-60.14803913;-45.67171622;-35.91837576;-13.63742525;8.130019531;-6.907323466;-5.875744904;-26.66752606;-1.577126185
24.15906987;6.065217371;24.97630482;16.05545078;-2.404496703;-0.477584021;2.332333694;-23.576892;-29.06184575;-7.58543208;-56.94302111;-42.13788707;-39.45019875;-16.29557436;6.93082611;-10.53255252;-8.284506494;-26.2164406;0.8055165
25.11698851;8.496688221;30.1533252;17.4740779;-5.796401578;-0.500398987;1.220271133;-29.30718473;-26.72631068;-10.17405175;-52.72776339;-36.01233871;-41.3301763;-16.95708775;4.393302457;-11.35512264;-7.943825851;-22.93590693;2.894659694
22.74244159;7.692783719;32.49117213;18.71295139;-9.619491744;-0.447805318;0.611696057;-30.44182112;-26.65331888;-7.313938162;-49.26410846;-28.9065271;-41.14618932;-15.64031324;2.242374469;-7.261270244;-5.263054574;-18.94710181;3.450833409
18.0264311;5.104686237;32.24882462;18.63920003;-12.33955651;-0.373691864;1.018251105;-27.73084836;-26.16474926;2.24788237;-47.19915365;-23.11922853;-38.5538732;-13.35147703;1.934976241;-0.03563859;-1.61498643;-15.40807534;2.249311125
13.42969892;3.132361188;31.73741357;17.25544532;-12.75882564;-0.339380628;2.019424478;-24.32783474;-21.36452719;14.55903921;-45.991637;-20.91769507;-33.52783773;-11.23440956;3.410009766;5.861656449;1.553723068;-11.75420577;0.090310416
11.36466499;3.953248269;33.44129102;15.72406204;-10.78075654;-0.37310787;2.657312502;-22.85154435;-11.79959659;22.97630357;-44.80507077;-23.52070915;-26.78588708;-9.741489779;5.161896576;6.755902902;3.392759315;-7.184339962;-1.85608163
12.59780942;8.173523752;37.78079637;15.29099765;-7.498139899;-0.446087062;2.316827234;-23.32467563;-1.997085449;23.25211786;-43.37329413;-30.15705742;-19.86361947;-8.456356378;5.53103979;2.511257717;3.690223971;-2.656690059;-2.82658668
15.73865297;14.11650604;42.43047504;16.07658168;-4.521446738;-0.488336942;1.279429;-23.67539819;1.967616021;16.87668644;-42.10970088;-37.93385451;-14.53604432;-6.673335168;4.056424148;-3.717289402;2.484021215;-1.065112502;-2.805446801
18.2446585;18.45180693;43.94043666;16.88263465;-3.010227846;-0.442428679;0.450644889;-22.09292107;-2.042479298;9.749954853;-41.59850171;-43.02442285;-11.86211843;-4.230820143;1.734168061;-8.349345727;-0.203592563;-5.042458242;-2.274897108
18.26502025;18.09243598;40.49194682;16.26724955;-3.073090456;-0.317810444;0.524181799;-18.9036542;-9.803338132;7.257329566;-42.13653118;-42.77845767;-11.54718086;-1.886960174;0.033071173;-10.20658578;-4.167030106;-14.27012483;-1.684349232
16.00486671;12.29530968;33.57150977;13.95173049;-3.914750258;-0.197069808;1.353827813;-16.22969174;-13.94414567;9.925900773;-43.72225514;-37.4354157;-12.17407577;-0.889861866;-0.397018741;-10.8307962;-8.580405318;-24.90029086;-1.105549591
13.6128291;3.50088734;27.12134732;11.25341189;-4.564371304;-0.178944202;2.100293931;-15.88141975;-10.26370392;13.31305725;-46.24061794;-30.09879092;-12.22198101;-2.04751589;-0.18468826;-12.24087762;-11.91153054;-31.94219321;-0.311140102
13.6524139;-3.874189643;24.73939498;10.07328777;-4.630196991;-0.299066831;2.004333765;-17.62470255;-1.600147908;12.0967766;-49.36435754;-24.76589507;-11.17069365;-5.021628518;-0.535860934;-14.45940466;-12.54294849;-32.78231818;0.870261137
17.23439696;-6.072622178;27.09899647;11.28234438;-4.558080895;-0.496779179;1.072119204;-19.55158021;4.344321313;4.741896197;-52.16486678;-23.71450174;-9.883315707;-8.413651541;-2.090939614;-15.27198659;-9.791658297;-28.87097265;2.279563778
23.12609088;-2.335522581;31.59620779;13.93859678;-5.262030934;-0.662322806;0.054313866;-20.17651986;1.51868019;-5.258599946;-53.04078727;-26.1582012;-9.971342662;-10.60372307;-4.392969944;-12.47249081;-4.527418732;-24.12212777;3.477515129
28.45721393;4.674285161;34.43771649;16.05567781;-7.432521187;-0.72736206;-0.245644018;-20.11518875;-9.254601411;-12.46733999;-50.52296748;-29.17018893;-12.59011917;-10.73301562;-6.38415185;-6.401358005;1.222924603;-21.43960452;4.05873762
30.52764291;10.65452869;33.44898934;16.25450933;-11.0105096;-0.718098001;0.307197704;-21.52574353;-20.94444627;-14.03421135;-44.6527557;-30.09754305;-17.53070259;-9.138954712;-7.381146858;-0.233260167;5.511376621;-20.4401399;3.944547031
28.48065189;12.36145076;29.40169787;14.83190734;-15.15744309;-0.720043945;1.079567737;-25.67266499;-26.29303955;-11.67290958;-37.74740651;-28.50636106;-23.26;-7.003902762;-7.588844519;2.427595131;7.636477567;-18.3778915;3.40610565
23.73276491;9.322428842;24.97588506;13.32011867;-18.70670451;-0.785072677;1.263949724;-30.95609117;-23.83870284;-9.510647483;-33.47965051;-26.13236239;-27.87861928;-5.570416196;-7.725401883;0.501097033;8.322038673;-13.39811884;2.813568553
18.92397047;3.493055952;22.42103833;12.99960986;-20.79248731;-0.869510191;0.611142055;-33.56160068;-18.6851438;-9.967798414;-34.49071397;-25.01873954;-30.3104174;-5.527031467;-8.214614444;-3.815714337;8.774489169;-7.108386166;2.338664983
16.14745983;-2.614553352;21.91808975;13.77403348;-21.27871719;-0.867843766;-0.361194497;-30.53867894;-17.43569471;-11.50479085;-40.21735633;-25.55177728;-30.87680613;-6.912817187;-8.792158402;-7.244243839;9.438337585;-3.976564315;1.864654117
15.66436027;-7.723029219;21.85972956;14.43411564;-20.75816521;-0.716962016;-0.853472174;-22.70881043;-21.93933278;-10.27;-46.84477193;-26.14131306;-30.84731583;-9.402343871;-8.908255139;-8.543860039;9.55302281;-7.829761848;1.168407438
15.93319317;-12.15483011;20.54329768;13.98983507;-20.14818799;-0.473638618;-0.503156582;-14.64225066;-27.53611553;-4.093636866;-49.82252126;-24.81228196;-31.29512436;-12.56489256;-8.469020049;-9.60126822;7.936978607;-18.33637335;0.202663128
14.86911776;-16.73985807;17.64341173;12.72577058;-20.13125618;-0.285332728;0.31444169;-11.36634511;-27.39740186;4.857877319;-47.25061858;-21.26909204;-32.1044513;-15.85576733;-8.089204525;-13.38663522;4.330816892;-30.52252245;-0.778350346
11.4220494;-21.45320248;14.22090229;11.92464791;-20.76805263;-0.271156232;0.854600299;-14.41294479;-19.01405691;11.25564955;-41.46903865;-17.55105251;-31.90659958;-18.48808356;-8.516551688;-20.6354733;0.07039354;-37.93043682;-1.372384465
6.37524651;-25.08272549;11.46731733;12.53779801;-21.51030398;-0.417537283;0.681081689;-20.59543938;-6.900369394;10.70269723;-37.37509308;-16.59659387;-29.08216311;-19.53501496;-9.766388226;-28.42016754;-2.635308691;-37.04105644;-1.344822022
1.830621005;-26.20500796;9.515095539;14.15627148;-21.60569841;-0.586227299;0.032325155;-24.67938181;1.03429282;3.283429344;-38.55949341;-19.83500164;-23.17761657;-18.40257662;-10.88978775;-32.13391735;-2.357850576;-29.56546683;-0.843934518
-0.229309821;-24.53759814;7.458928647;15.36817472;-20.64225121;-0.631977121;-0.436186024;-23.73544844;0.272799302;-6.403540595;-44.23179832;-25.78239802;-15.70231043;-15.38185803;-10.74921941;-29.26663099;0.29608914;-20.95957464;-0.323409871
0.731052582;-21.40219257;4.482461374;15.19469336;-18.87609388;-0.525022148;-0.269696481;-19.43050165;-6.433708029;-12.68429704;-49.46127086;-30.82208285;-9.613279252;-11.76821552;-9.163668098;-21.60406092;2.928766587;-16.49977768;-0.213603607
3.528475467;-18.83824937;0.892498687;14.14561476;-17.11088077;-0.367224448;0.382199623;-16.2643411;-11.60553536;-12.82848636;-48.71616868;-31.59922325;-7.682456373;-9.285514762;-7.292759125;-13.80537362;3.008211171;-17.99114686;-0.593748546
6.221524907;-18.10518992;-2.029133577;13.7298732;-16.18935241;-0.289583989;0.927447896;-17.32374614;-9.744861913;-8.487037347;-40.04371802;-27.22110825;-10.77385268;-9.103972153;-6.718191577;-9.568375088;-0.313237341;-23.36090002;-1.13135382
7.575621065;-18.83874794;-3.253988607;14.80756893;-16.42675697;-0.33071824;0.881334028;-21.35193683;-2.204141584;-3.742142494;-26.65576805;-19.69143709;-17.21217337;-11.11834196;-7.900773307;-8.807653675;-5.628363223;-28.91176699;-1.351439106
7.92467329;-19.5417141;-3.094764939;16.47186987;-17.36543281;-0.412906509;0.286293405;-23.79255587;4.175813799;-1.740745312;-14.68729663;-12.42186214;-23.72254327;-14.00892528;-9.422732506;-8.373020327;-10.3658791;-32.05169551;-1.032368335
8.76683955;-18.93871038;-2.991279667;16.80021556;-18.01391199;-0.43563972;-0.368294572;-20.91848413;3.455675962;-2.713933476;-8.883784935;-8.046999188;-27.32430093;-16.03823564;-8.894756709;-5.589902467;-12.63456583;-32.40274114;-0.411091391
11.3944952;-17.02664832;-4.06819825;14.96656418;-17.40795888;-0.388746401;-0.620238481;-13.3473995;-3.740299637;-4.605395889;-9.543768249;-7.076508747;-26.87750642;-16.0105457;-4.963675918;-1.26929443;-12.36838257;-30.95918949;-0.020504887
15.62165608;-14.98208313;-5.803118964;12.59538593;-15.13759595;-0.365128075;-0.444198429;-5.728725393;-10.45932342;-5.210375841;-12.95665512;-8.089082492;-23.25689401;-13.76775596;1.24990183;0.732589943;-10.98344523;-28.65845505;-0.274615106
19.63887246;-14.09307045;-6.199537386;12.60867511;-11.5560198;-0.453399553;-0.226366298;-2.794064307;-9.48156015;-3.767973714;-14.76625775;-9.028121745;-18.1886861;-10.02261565;6.657316523;-2.840359778;-10.02620479;-25.87515434;-1.12977778
21.18877232;-14.65245626;-3.548188792;16.14151338;-7.636016128;-0.617928822;-0.357868345;-5.276807496;0.098516898;-0.961434016;-13.45789727;-8.584449816;-12.81327385;-5.836378706;8.445833993;-11.06864901;-10.06728169;-23.04393174;-2.101595018
19.23362494;-15.65087715;1.682190481;20.34007813;-4.641802067;-0.69910883;-0.851841172;-9.4212887;11.63023598;2.014496204;-11.26476228;-6.881991646;-7.195433262;-2.197356166;6.300765264;-18.72;-10.74311736;-21.29664883;-2.633840732
14.86731891;-15.33567496;6.616836723;19.69378308;-3.784123526;-0.555280263;-1.344735129;-10.63848639;16.21140012;4.017209679;-12.01388947;-5.283114432;-1.13537967;0.12009491;2.709910694;-19.92751176;-11.73569214;-21.99943189;-2.524070078
10.75140788;-12.03279121;7.902778147;10.65976822;-5.882616268;-0.220711136;-1.462154069;-8.087065473;9.996433493;3.749184043;-17.87429104;-5.562975234;4.560452571;0.601738422;0.971868059;-12.65942981;-13.6259988;-25.35664738;-2.056707318
9.442188562;-4.651544519;4.402155359;-3.986932598;-10.9808305;0.082095405;-1.184442375;-5.958869417;-2.798471848;-0.354143819;-27.65878208;-8.828740551;7.687973171;-0.812523773;2.479688705;-0.225730358;-17.7091197;-29.47644049;-1.735063631
11.79453551;7.140474014;-1.557546804;-15.27526014;-17.98300243;0.113825717;-0.860788491;-10.02227368;-13.72751771;-9.174210594;-37.85032546;-14.60048928;5.786813289;-3.447325742;5.551783068;11.33613723;-24.84332978;-31.14977348;-1.844372934
16.55403892;22.66593209;-5.54204804;-13.66453107;-24.60310399;-0.165889579;-0.867222054;-22.17716655;-17.35771893;-21.23557008;-45.25353272;-20.56462361;-1.891425337;-5.896357114;6.852609625;17.59353478;-34.31;-28.08450293;-2.226290241
21.35337852;39.73617877;-4.046832304;3.496995434;-27.95535411;-0.539269178;-1.244448732;-37.72422175;-15.59791102;-31.99041222;-49.0271574;-23.44629754;-13.18734931;-6.606297443;4.26296357;18.06739786;-43.67715501;-20.83075981;-2.462422709
24.31615898;54.37931894;3.110681882;28.59697802;-25.78650375;-0.701834927;-1.662683552;-47.96541348;-15.46403954;-35.50375812;-50.65477529;-20.92105961;-23.80731645;-4.839456149;-1.220521848;14.96665963;-49.80851373;-12.61658257;-2.298213176
25.11107771;61.58231101;12.85707262;47.83013855;-17.8023877;-0.527829775;-1.740252679;-46.33766214;-22.44551097;-28.01827831;-52.28300855;-13.61583109;-29.7857418;-1.338806731;-6.208815735;10.10229376;-50.24304001;-6.96376408;-1.910323612
24.81843021;57.26292934;21.21043422;50.35258116;-6.212346704;-0.192376881;-1.403869993;-33.27957233;-35.43232701;-10.87458408;-55.10349346;-5.7187607;-29.95888268;1.931823712;-7.699822007;3.309895819;-44.00376146;-4.902808601;-1.74741467
24.90184335;40.57677576;25.94549857;35.8191778;5.109057446;-0.027507695;-0.945473373;-15.99175637;-47.63410285;9.759328823;-59.0788111;-3.242942481;-26.62444397;2.950989072;-5.560187178;-6.06292615;-31.55610255;-4.111302495;-2.063284946
26.17117098;15.00179614;27.51957736;14.43890968;12.60377966;-0.226738173;-0.729731495;-3.347020314;-52.51713944;26.56697063;-63.83181965;-10.53198667;-23.85545333;0.931203493;-2.569178264;-16.36836353;-14.41635904;-0.816018415;-2.571605677
28.4639132;-12.81324516;27.81429182;-0.648426747;15.04765475;-0.659386472;-0.845385595;0.013397728;-49.35472895;35.55238888;-69.40386027;-27.12296312;-24.68823954;-3.228585;-1.963855358;-22.9141189;4.975267212;6.983736021;-2.586449447
31.08779037;-35.9509036;28.10744962;-2.81920667;14.27491455;-0.969290787;-1.044470154;-4.017892859;-43.44066752;37.8692083;-75.88040382;-47.27341232;-29.22755718;-7.693530709;-4.601540092;-20.77848849;23.13894734;17.56378005;-1.596899084
33.47646692;-50.10119575;28.17640838;4.06380524;13.99270175;-0.880952347;-1.027533679;-9.582269455;-40.87767793;37.68949527;-82.24603177;-62.86386656;-34.95574206;-11.06491057;-8.224943035;-9.087934194;35.88725314;26.40134742;0.192410113
35.47691042;-54.6566248;27.19610199;9.996002372;17.3150992;-0.444452791;-0.787485016;-11.69395891;-42.73460864;38.12230003;-85.88503969;-68.00426407;-38.81981865;-13.29215846;-9.506080241;7.245722295;39.67932794;29.27659135;1.856927917
37.14570474;-51.64832626;25.33018002;7.581142008;24.57617751;0.002120694;-0.657075137;-9.369253512;-43.91482785;38.82652936;-83.76791779;-62.30801417;-39.38015837;-15.4287878;-7.093016678;20.47236416;33.60384538;25.13641413;2.369072557
38.40517494;-43.75160442;24.26364305;-2.152441462;32.89481329;0.123311138;-0.988183971;-5.043516603;-37.83521757;37.37117208;-74.77768112;-50.62214985;-37.43165713;-18.4955433;-2.938592059;25.61078568;20.62673657;16.59389192;1.387047202
38.97159515;-33.0730248;25.97705145;-11.47335218;37.85214565;-0.12837024;-1.758904491;-1.586664417;-22.78552355;32.90592355;-61.26663208;-39.50638808;-34.86144354;-22.4369476;-0.640690933;24.01382577;6.796331916;7.905359882;-0.420571375
38.61783522;-21.41472807;30.81862465;-13.27905745;36.23686308;-0.486950671;-2.500835408;0.071667249;-4.276960519;28.43785373;-48.1746804;-33.05482282;-32.91213002;-26.03483626;-2.167509593;21.6673225;-1.604055253;2.214314477;-1.80261039
37.45809299;-11.15407342;36.72884501;-7.392587236;28.08254962;-0.625235485;-2.65746308;0.84624296;8.825769594;29.11853106;-39.91324781;-30.97954956;-31.33761901;-27.80055681;-5.872606156;23.56219262;-1.35694117;0.180392064;-1.785302198
35.92016696;-5.236946646;40.5209237;-0.307445057;16.67946322;-0.449116056;-2.076992382;1.669088011;11.15323989;37.60146606;-37.23961799;-30.01207903;-29.00879802;-27.05130223;-7.708580495;29.0914039;6.100786078;0.687629425;-0.291792626
34.4072453;-5.693138356;40.25024985;1.200719804;6.580412168;-0.162885752;-1.191452155;2.174652356;4.819805751;50.51757926;-36.7129952;-27.14758978;-25.23926905;-24.28486332;-4.787588806;32.68511887;15.89116471;2.512789528;1.939520043
32.99163729;-11.72897282;36.63491168;-3.326597131;0.923541471;-0.051758453;-0.693700865;1.271182778;-2.794202534;59.62841362;-33.49349971;-22.05599254;-20.57444929;-20.63813835;1.729378939;29.25081224;22.83170302;5.230019531;4.001933863
31.47146116;-19.2673004;32.2520923;-7.341138874;-0.20843614;-0.195435587;-0.971351942;-1.195706932;-5.44113934;57.41470252;-25.53708785;-16.95120353;-16.39673556;-17.01063041;7.056836268;19.51618018;24.29397431;8.652927875;5.437531195
29.75703553;-22.88864159;29.20265424;-3.306337146;0.583865901;-0.391807092;-1.786541044;-3.692675914;-3.020205906;42.89708653;-15.86275502;-14.39836317;-13.80850639;-13.63936443;6.439991408;10.21647407;20.9515117;11.70125943;6.310406629
28.19642132;-19.13460266;27.3430157;9.927925135;0.034090003;-0.367694527;-2.486372888;-4.216712189;-0.977642196;22.8685297;-10.81371798;-15.09232229;-12.84382685;-10.38593732;-0.858409773;8.588955702;15.30513145;12.20058678;6.761720456
27.46845004;-8.781112757;24.716033;25.20735981;-3.527079098;-0.072833427;-2.565432938;-2.411584161;-4.826878389;7.215506417;-15.3067863;-17.38209238;-12.65327619;-7.283170444;-10.60381681;15.90279791;9.511471851;8.202684134;6.56942221
28.07504956;3.742033503;19.83141408;32.74598741;-9.130119728;0.236892687;-2.091419307;-0.388168408;-14.73549736;1.845629111;-28.58994395;-18.66467482;-12.35988054;-4.684038275;-16.63422065;25.94296246;4.290964231;-0.163138872;5.222623785
29.87417765;13.45179941;13.71086596;28.70414199;-13.92803287;0.226594798;-1.626319055;-1.144085713;-24.9489802;4.854882073;-43.91055429;-17.2533903;-11.71081602;-2.840502905;-15.54590834;30.164953;-0.519640607;-10.02036529;2.499622285
32.10028202;18.10129123;9.720265935;19.06651181;-15.14304566;-0.182342673;-1.72093802;-5.812563631;-28.50283256;9.04434522;-52.65653864;-13.18240822;-10.95493581;-1.41019434;-9.219952698;25.21457347;-4.714003092;-17.10233073;-1.00506886
33.88444543;19.17788293;11.13303912;14.9685422;-11.86088897;-0.692432959;-2.432780228;-12.28778385;-23.05331641;8.687401354;-50.08897185;-7.570432481;-10.20916528;0.453834095;-3.11156164;16.09078299;-7.18142937;-18.25586564;-3.994728548
34.80848158;19.99145175;18.42805726;23.00055458;-5.526697914;-0.863275656;-3.287164298;-16.6931241;-12.7510019;4.838249364;-38.44595616;-1.449320198;-9.096331919;3.332597632;-1.730402867;11.83207464;-6.630839922;-13.17755518;-5.267470431
34.9755602;22.56487031;28.6664103;38.67;1.085194709;-0.504751268;-3.702130592;-16.56479752;-4.598937209;4.532143007;-25.10228304;4.773009444;-7.129990688;6.745337895;-5.088846939;17.26948255;-2.801573546;-4.084571678;-4.585077155
34.53969744;25.90343576;37.55479457;48.93749476;5.652745669;0.128759833;-3.490162284;-12.91626791;-2.537480004;14.21947541;-17.20732886;10.89040783;-4.495358253;9.168490535;-9.069948233;28.20650346;3.091468673;6.231676184;-2.857824723
33.19481129;26.94507209;42.48844832;42.26288628;7.633604338;0.536745421;-2.995119507;-9.212018388;-4.398561182;32.689673;-16.88685826;16.21152627;-2.360973196;9.061793987;-9.324581607;34.71706551;9.156005292;16.1946443;-1.43317345
30.23178315;23.22684428;44.02444793;18.16771821;8.319397688;0.400998026;-2.759846739;-8.046119323;-4.290565763;49.53871694;-20.57173114;19.50375433;-2.205937666;6.151093912;-5.272583653;30.13254731;14.10121423;25.5831621;-1.05643828
25.26664187;14.98758579;44.63498386;-11.55411905;9.695939901;-0.138052213;-3.037841555;-8.501481807;1.767549907;51.13755823;-22.70873689;19.73090237;-4.586053705;1.860835992;-0.669851065;17.88510643;17.75827688;34.16392013;-1.386345807
19.04455484;5.100157918;46.00071042;-31.14278766;12.96982819;-0.610988295;-3.587261414;-6.703882791;11.9177767;30.20159542;-20.65226433;16.88225622;-8.412690204;-1.578501356;-0.16335122;9.662066862;20.37349838;40.43683879;-1.48180457
13.49136011;-2.837068958;47.37287417;-32.14063013;17.76865752;-0.641059058;-3.916370701;0.712900707;19.65769013;-7.993598032;-16.70500266;12.07356195;-11.51605361;-2.698814195;-4.793485809;15.58610112;21.47898965;42.04770942;-0.813098185
10.71278102;-6.494368558;46.5088694;-18.75775717;22.47485737;-0.273501065;-3.740482537;13.18337461;19.13660075;-47.55352003;-15.73255324;6.821701905;-12.20043105;-1.766543065;-10.463953;34.31549704;19.65561156;37.80612555;0.139354806
11.5480902;-5.41223368;42.27713394;-3.435447226;25.33678181;0.089249258;-3.232149634;25.89523133;10.04379266;-71.09709206;-20.50168567;2.19721489;-10.58821127;-0.358879008;-10.98574225;51.75389814;13.67957807;29.52837347;0.285980389
14.79226275;-0.275795862;36.41450038;3.301773154;25.50839992;0.082389141;-2.849593882;33.03597205;-2.016770907;-70.01828407;-28.8088936;-1.378279932;-8.624313609;0.06441027;-3.382426255;50.41126327;4.112609805;21.73938499;-0.992571425
17.80644282;7.848222676;32.60249155;0.286828822;23.32882922;-0.271149891;-2.916003289;31.98657871;-9.919820948;-49.08358826;-34.9665071;-3.651348209;-8.662634981;-0.662194176;8.961672918;22.67183888;-6.26048357;18.9446499;-3.069496627
18.18853228;17.31262655;33.45194494;-5.196848424;19.79440747;-0.590736198;-3.33871796;25.03031496;-10.47781287;-22.5919633;-34.51500039;-4.085703463;-11.71007813;-1.493473813;18.1558426;-22.37993815;-13.88752909;22.36352701;-4.373597592
15.31113309;25.18101285;37.990363;-5.052209495;15.77500957;-0.523393847;-3.714490007;17.28864077;-6.514029041;-5.063321259;-28.21084939;-2.119946417;-16.68213479;-1.373726966;17.46705275;-64.18824269;-16.8431864;28.77170825;-3.610135099
10.58949139;27.49991749;41.98903285;2.32830589;11.62302144;-0.114091864;-3.708363102;12.78773245;-4.054869032;-2.812751515;-21.80138025;2.013505705;-21.19491824;-0.387295302;6.422832971;-84.27593074;-16.20768612;32.62482937;-0.8945233
6.313509533;21.40994585;41.08922718;11.2958675;7.385450446;0.208229534;-3.352277349;11.99080103;-7.191970273;-11.65888399;-21.53766199;6.83193269;-23.19560723;0.260933864;-8.672443695;-77.98335221;-15.17693486;30.02620554;2.199210541
3.992409078;8.019339231;34.23819895;14.81864564;3.266338549;0.038339047;-2.998916387;12.61851169;-14.89952995;-21.51825981;-28.9759577;10.28620723;-22.14348064;-0.537961158;-19.21123914;-55.91665526;-16.5403035;21.51472171;3.777755897
3.506911026;-6.469400121;24.5908216;11.2778461;-0.204702443;-0.581032933;-2.991118592;12.58317167;-22.2119716;-24.07140009;-39.35399708;11.30470504;-18.94636535;-2.508870151;-20.22160095;-34.81117724;-20.59599144;11.48345956;3.038536929
3.657789795;-13.20013589;17.12514249;5.964272031;-2.50604436;-1.13710367;-3.36131349;12.1124434;-24.44081533;-18.10086627;-45.00701948;10.91647163;-14.94080581;-3.89983637;-13.2240715;-25.4864933;-25.23108516;4.702439737;0.787306168
3.532137269;-5.85464373;14.96441381;6.078939113;-3.628667508;-1.08440629;-3.829910157;13.14267392;-20.73372956;-9.25036899;-41.18214434;11.77629425;-10.91822207;-2.811969601;-4.114980488;-27.04224702;-28.01030579;2.752155044;-1.340501578
3.454610029;14.75595853;17.41973956;13.9551486;-4.195654734;-0.359568132;-4.081801387;16.77692588;-14.12993788;-5.031493115;-29.61033694;16.19835867;-6.973762681;1.128371462;1.771256914;-30.69589649;-28.34147347;3.234598124;-2.250112631
4.690048828;40.21414383;21.20485288;24.739181;-4.968109282;0.509939717;-4.044941282;21.45703486;-8.415976432;-9.013653387;-16.99151961;24.19349312;-3.083711708;6.224801196;3.216966886;-28.82602022;-27.72733007;2.330971764;-2.1606418
8.166588843;58.96691668;23.53249699;30.63866391;-6.111650718;0.834838462;-3.910670253;23.78944589;-4.748704912;-18.30473201;-9.684707688;33.19319786;0.356458581;9.847964189;2.642713653;-21.29284686;-27.87297308;-1.496389594;-2.156846205
13.3528408;62.96718292;24.29310077;27.86595923;-6.907831146;0.366686744;-3.896941586;21.40520527;-0.989580417;-25.82104848;-8.955139026;39.82616842;2.675737536;10.37280479;2.619480272;-14.34625473;-28.44;-5.806115257;-2.999527621
18.31390615;52.00781966;25.51698712;19.95687523;-6.272292604;-0.470405519;-4.00635924;15.24910761;5.82338183;-25.43733524;-10.58408588;42.36041636;3.640515133;8.341541066;2.945030609;-14.08784107;-26.67380407;-5.95860098;-4.327386217
20.97799335;32.91112344;28.8579899;14.40828058;-3.719067753;-0.944735759;-4.029805023;9.140307333;16.17842447;-16.25485033;-8.974937646;41.79239414;3.989922568;5.939721522;1.099325611;-20.7190006;-19.51344251;1.054131757;-4.998953682
20.60934495;14.49297561;33.59397077;15.61534004;0.068275733;-0.663410883;-3.796507672;6.902593085;26.91612634;-3.077166236;-2.179757464;40.68910888;5.147104653;5.298127083;-4.416135462;-28.41302805;-6.517945366;13.87753384;-4.254123325
18.28003906;2.167310418;37.05926502;20.49743089;3.644355298;0.082450903;-3.416143361;9.542035701;33.23468775;7.010180332;6.38491628;40.84305719;8.208536204;7.063220862;-11.20292513;-30.36720971;8.953088583;27.41877546;-2.596184404
15.94197725;-4.057875915;37.09353251;20.91770224;5.933751487;0.592367188;-3.249560886;14.85050004;32.22470186;9.346722598;10.87588057;41.8550147;13.01525083;10.3227487;-13.68799532;-24.27329752;21.51079159;36.33720808;-1.524462647
14.84900481;-7.374963652;34.180459;11.00659369;7.119806815;0.40408653;-3.600117469;19.57023125;25.061672;4.356237394;8.024287966;41.92502854;18.10980004;13.71012985;-7.396645474;-13.62868583;27.19051449;38.60650593;-2.288754876
14.61478466;-10.22509249;31.21534774;-6.93540909;8.42180072;-0.281401779;-4.399437361;21.98324625;16.17678891;-3.4930152;-0.036662595;40.09393913;21.66435484;16.51946741;6.653940973;-4.337216565;25.87370387;36.38512125;-4.749739184
13.66442206;-12.08230057;31.02656648;-23.23705812;10.81296971;-0.79409083;-5.196299664;22.58691655;10.2096683;-9.311322959;-7.391667374;37.75597259;22.65826398;18.82394755;21.41173506;-0.045963602;20.82813441;33.71751129;-7.378141734
10.68782167;-10.58537507;33.8613777;-27.9790099;13.73046191;-0.631491444;-5.496390291;22.50384382;9.206790998;-11.10842001;-8.891409586;37.80679635;21.3905338;20.68470929;28.11687665;-0.21194764;15.93536946;33.1666205;-8.438780747
5.874742789;-4.628611285;37.10976134;-18.65949475;15.00034288;0.058628203;-5.174346195;21.50722462;12.07767182;-10.43080649;-3.768974006;41.92604625;18.98794786;21.47453299;22.45711202;-1.945342903;13.0276693;34.19061344;-7.360425532
0.889692474;3.559483752;37.52224255;-2.114426078;12.28779322;0.611641109;-4.591433498;17.87304799;16.30389293;-10.21739768;4.492441487;48.36434276;16.40058667;20.20418736;7.778467706;-3.251117176;11.44591075;34.39875002;-5.125598067
-2.41772897;9.292201673;33.9330806;10.81216539;5.071803198;0.482482879;-4.29732959;10.38408432;20.1121014;-11.96746733;11.49062272;52.46887648;13.75445839;16.66278258;-7.261926883;-4.480839909;9.804890468;32.27392148;-3.376444092
-3.523048711;8.608125304;28.08285726;13.39384508;-4.4533175;-0.212945169;-4.562861126;0.531594859;23.23268681;-14.66298127;15.23319217;49.97961046;10.5661503;12.22994292;-14.85190444;-7.004120234;7.978955335;28.75917099;-3.050532384
-3.711021504;1.21269957;22.90734773;7.387789;-12.43928808;-0.779756278;-5.150491323;-7.477155943;25.89343404;-16.18216402;16.6188919;40.64258214;6.565684576;9.364091768;-13.24271856;-10.92581867;7.28730423;26.27160571;-3.7364322
-5.099017908;-9.092045829;19.96687172;0.468552241;-15.77560061;-0.599361621;-5.52837915;-9.382883287;27.38927287;-15.69228567;17.11501972;29.08521442;2.370646291;9.953655481;-7.113486719;-14.39734654;8.743425372;26.14646106;-4.252406188
-8.940109656;-16.71925182;18.39929647;-0.624683967;-14.06872652;0.247939628;-5.343425427;-4.153623989;25.91453579;-14.67767234;16.34606795;21.86929877;-0.603852776;13.85129773;-3.118007545;-15.21165365;11.23189066;27.02224013;-3.842286143
-14.53947383;-17.57268779;16.26238696;4.697563136;-9.717476709;1.000503361;-4.736390553;4.948239194;20.07656759;-15.5691236;12.27063139;22.71319238;-0.990474483;18.89224744;-4.450782815;-12.95322476;11.66970731;25.87254672;-2.860625455
-19.65041292;-11.07593067;12.84286392;11.36828763;-6.053893796;0.899532574;-4.219687049;12.55450698;10.79734384;-19.22423125;3.933517979;29.56161133;1.525039515;22.46470742;-8.820593102;-9.425026056;7.360126426;20.94760195;-2.342215245
-22.05671798;0.041221349;9.619878819;13.82311839;-5.017091405;-0.07228742;-4.227194202;14.90409003;1.713874244;-23.69104823;-5.998629503;35.99122282;5.754026483;23.339928;-11.17613492;-6.865700591;-1.445818132;13.98202091;-2.913838307
-21.1160532;11.56558838;8.917465749;10.95191716;-6.135516483;-1.101589978;-4.738292834;12.08377178;-2.6959311;-25.62759927;-11.86425355;36.15771061;9.449526522;22.23610692;-8.52736783;-5.746018282;-11.20698801;9.43098378;-4.115924931
-18.07399911;19.84437139;11.56850921;6.589473407;-7.466288797;-1.236667173;-5.310662371;7.168143477;-0.099740785;-23.31345233;-8.954053281;29.62010897;10.42218783;20.72978934;-2.604287179;-4.399404766;-17.5550196;10.99757477;-4.798130612
-14.93334762;23.0575275;15.92896907;5.525176429;-7.533419612;-0.263217708;-5.48703317;3.346829097;7.86921857;-18.5620701;2.32849506;22.20329892;7.718767374;19.61404455;1.856921481;-0.925717;-18.61331695;18.21003906;-4.222830449
-12.80582015;21.54300574;19.30613002;8.950965897;-6.566418347;1.043640713;-5.203020722;1.707444714;16.52588829;-15.59806214;15.87164386;21.84695841;2.222721309;18.26211499;1.559519564;4.495986756;-16.31173035;26.08215846;-2.824137248
-11.07619701;17.41567213;20.48486347;13.49317543;-6.056913095;1.562705027;-4.824231774;1.417528213;21.29162165;-17.58297056;23.83610959;32.14978685;-3.677495308;15.55220622;-2.157296716;9.251503553;-14.47747433;28.54069007;-1.875237996
-8.048576818;13.63671437;20.85973662;14.51122508;-7.160695511;0.820506696;-4.78275461;1.615526405;20.82112563;-23.68903495;22.29223295;48.28012301;-7.247982024;11.37888551;-4.22971398;10.41647613;-15.30341478;23.17773438;-2.334337846
-2.543140435;12.63834255;22.93380802;10.46383757;-9.451040226;-0.559140616;-5.155291911;2.755655379;17.75518164;-29.37944303;13.96853828;58.57908515;-6.842441372;7.176236492;-0.185124646;7.452980595;-17.29049808;13.58362641;-3.920949164
4.870078125;14.96619374;27.52434379;4.317990625;-11.14955149;-1.382218305;-5.583941118;5.924678705;16.51506169;-29.90361343;5.817684273;51.37595001;-2.824136038;4.813894484;9.778101637;2.908284541;-16.53752078;7.222527213;-5.285400205
12.03891204;18.82827497;32.44596158;0.806438885;-10.60565272;-0.940797455;-5.624811133;10.92343385;19.79516929;-24.1884541;3.410881932;22.8586828;2.626036788;4.845012994;20.42391756;0.350223783;-10.32302376;10.243969;-5.141927676
16.70839648;21.20627664;34.2139324;2.140381632;-7.693912748;0.348270182;-5.203969896;15.36262234;26.3931039;-15.81885332;6.827144552;-19.17683409;6.80648182;5.831521513;25.21906204;1.363617556;0.136820092;23.04663223;-3.355784123
18.14107885;20.08733195;31.42010008;6.106287227;-3.917657014;1.313478881;-4.741799798;16.13244157;31.98107919;-10.19857374;11.36807972;-58.48258771;8.145651346;5.557871586;21.19414304;4.34249883;10.21189904;39.87155688;-1.021347541
17.56101529;16.21386831;26.58796779;8.214452221;-1.19735311;1.088745361;-4.798833364;12.16877286;32.18712802;-10.25495093;12.23368895;-78.89495168;7.106650363;3.14709598;11.06604858;6.148337885;15.2858433;52.63295196;0.506091098
17.04346658;12.73762881;24.42677977;5.86568728;-0.474389729;-0.096321242;-5.543825907;5.867522143;25.65970502;-14.32864047;8.901014124;-73.25589608;5.66250076;0.098666366;1.045837411;5.021306661;14.18505147;56.04955227;0.721188147
17.75885153;12.69023228;27.68184415;0.730892325;-1.333760954;-1.127293834;-6.536286176;1.483829156;14.9184762;-17.99238058;5.332996348;-47.32515423;5.668685747;-0.892115749;-3.777082825;1.980261099;9.721296651;50.37491171;0.232649925
19.05558283;16.1655541;34.26060183;-2.764768857;-2.8209813;-1.037930173;-7.056991072;1.635492731;4.571566486;-18.0960671;5.953325268;-16.27521522;7.341935465;1.54732701;-2.795405759;-0.55941422;5.997040999;40.11703135;0.021560074
19.21295187;19.74404353;38.53636281;-1.413014407;-4.501080481;0.080460907;-6.725624868;5.001108817;-1.553978653;-15.39258556;11.15586068;4.09825728;9.055223231;5.862150659;0.446648105;-1.496702164;4.926233666;30.26985272;0.479232001
17.2933202;19.08969451;36.11495786;3.956374546;-6.657016281;1.145787626;-5.859738129;7.454260352;-2.209698222;-13.42389128;16.54451639;6.071862123;8.661870848;8.50139274;1.626426131;-2.300743183;5.014896108;23.21637558;1.167580235
14.51160064;12.89500603;28.03803389;9.285585305;-9.479906249;1.089734159;-5.230212766;5.803829875;1.580418907;-14.78291359;16.72617077;-6.645787538;5.303923638;6.808514592;-0.9016483;-5.421375983;3.336813229;18.44756112;1.478847138
13.80598952;4.798383217;20.51598417;10.89607574;-12.21262598;-0.119066603;-5.399002788;0.81100371;8.141718693;-18.31144153;10.31948662;-22.65454687;0.200448596;1.451254406;-5.266798387;-11.30186452;-1.244071793;14.65199016;1.443359343
17.71200747;1.175805833;20.01437111;8.590019531;-13.34272352;-1.399467764;-6.216357671;-3.347388611;16.35331342;-19.97807497;1.641112882;-30.88762716;-4.28031564;-3.79801386;-8.16081353;-16.99274649;-6.61811004;11.84699875;1.772594764
26.10959867;6.078045513;27.70970638;5.514387895;-11.89967831;-1.537543202;-6.939968948;-2.799899107;25.38726627;-16.77066976;-2.593840387;-27.45640224;-6.498536504;-4.90301402;-7.756871403;-18.04045912;-9.077952347;11.54253157;3.0153421
35.7033325;17.30247448;38.18249278;5.064504568;-8.67384887;-0.338121404;-6.89496826;2.488746095;33.56144613;-10.01697244;1.198912889;-16.93116896;-6.742180798;-0.69999312;-4.976611019;-12.24892985;-6.549622616;14.96898;4.679712158
41.87200835;27.14708028;43.7324469;7.761875767;-6.006344037;1.134214217;-6.096573673;8.696101694;37.92762152;-4.857186893;10.49276595;-7.728430956;-6.675289173;6.310267415;-2.307171385;-1.958255873;-0.456905256;21.23802295;5.334940211
41.680339;27.80955493;40.77963408;10.9474063;-6.015878311;1.49576624;-5.264639309;11.73592501;35.65281184;-5.994328226;18.80190662;-5.420423408;-7.522469484;12.14533538;-1.530142069;7.407596413;5.454211539;27.3282331;3.811111068
35.84526093;17.45809021;32.82147965;11.44843111;-8.688166935;0.335879151;-5.190784674;11.11872143;26.49650246;-13.33890946;21.0681165;-9.022625649;-8.676694539;14.54514889;-2.467029097;11.48171317;8.22437032;30.07310107;0.470710801
28.15145748;2.076751783;27.28337845;8.625917641;-11.64250821;-1.339832401;-6.012632629;10.33417298;14.29039992;-21.52479759;17.59886393;-12.76972779;-8.119051217;14.39560234;-3.673554109;10.24932099;7.89481222;28.48715936;-2.729961131
22.73032633;-8.68769398;28.95231689;4.925480747;-12.05809534;-1.975839537;-7.061697376;13.22211242;5.660643363;-24.0161162;13.23669478;-11.53632545;-4.408885176;14.23819631;-4.140947522;7.620490929;6.89847463;24.44553705;-3.674570055
21.26060862;-8.647912321;35.79098497;3.463677181;-9.24755527;-0.896801745;-7.45217269;19.72669549;6.247090008;-18.45086308;12.70158253;-5.286561061;1.535045192;15.41410707;-4.226810222;7.703637802;7.356173371;21.16699483;-1.887967516
22.19694442;0.396318699;40.91081421;5.002478666;-5.53905974;1.009750557;-6.896675636;25.30673636;16.83018726;-8.631076131;16.37985781;1.079188652;6.630911645;16.62900961;-4.934304728;11.16280641;8.934628958;20.81414682;0.921544924
22.5217447;10.3314381;38.99429473;7.245456917;-4.411704393;2.035444005;-5.995737131;25.02101467;32.25196849;-1.385505008;20.28128391;2.190452391;7.888702431;15.35077328;-6.364858803;14.9242907;9.330465681;23.17255173;2.211197895
20.52355156;13.24657675;31.37041084;7.168595613;-7.275272841;1.198035963;-5.700723191;18.74575885;44.23969134;-0.988386848;20.016469;-2.941093416;4.874742906;10.70553019;-7.045631023;15.37444;6.894755319;26.30857309;0.785414496
17.33072124;7.524824674;25.030519;4.151659157;-11.74092391;-0.808156034;-6.413568654;12.42307946;46.44363937;-5.961139786;15.00722179;-9.925761532;0.152231495;4.984913769;-5.033325278;11.93870417;2.811085965;28.37188611;-2.106490686
15.98956169;-1.352636757;26.30846329;0.805842944;-13.21540927;-2.173842584;-7.561930425;13.47473326;38.31243099;-10.95395926;9.027524509;-12.78725674;-2.87511143;2.054995327;0.058965502;7.601511654;0.590943828;28.86833184;-3.824015636
18.89366835;-5.747757099;34.90474236;0.50889712;-8.814655532;-1.602263531;-8.091920647;23.9150416;25.18663262;-11.86207584;6.63677637;-9.29775566;-2.94712926;3.884241956;6.037031139;5.871882079;3.166739664;28.44662881;-2.707040412
25.69350785;-2.289607267;43.83097072;3.858850833;-0.333202691;0.456970762;-7.470795382;37.3462785;14.65755542;-9.452029002;8.894278896;-3.156266692;-2.08173255;8.387025201;9.342156719;7.174517976;10.19938237;27.73164558;0.33504281
33.3774062;5.573787037;45.57919505;7.518232447;6.544834286;2.135254366;-6.264168035;43.16146642;11.8120323;-8.188349181;12.40280768;-0.921708772;-3.671830134;10.84670411;7.795411912;8.317242647;18.14169065;26.55871965;2.531967871
38.413155;10.85100388;39.03505907;6.900670041;6.561888169;1.811545667;-5.681622676;35.05430869;16.5738374;-11.42014293;12.61229315;-6.162793073;-9.068700017;7.997190437;2.622411178;5.789585119;23.10525879;24.39256595;1.752195838
39.18383929;9.116648022;30.69656267;0.546019935;-0.66947429;-0.357570856;-6.434144942;16.76745005;24.63268918;-17.54625602;8.302812158;-15.87456738;-15.71227851;1.231908812;-2.164813639;-0.172214812;23.95395044;21.38981398;-1.402406971
36.79531026;2.179427481;28.76315824;-7.846028406;-9.959286814;-2.471837961;-7.959669187;-0.15087029;30.84320936;-20.99551894;2.988274104;-22.48443504;-18.72250009;-4.130694833;-2.869066819;-4.880263135;22.7777554;18.8357195;-3.881778976
33.75081172;-3.704695495;35.28673834;-11.97183439;-14.52128685;-2.543195598;-8.830772411;-5.192584344;32.45387951;-17.42622395;1.779012258;-20.04239839;-14.87180175;-3.244561645;0.659684963;-3.037277367;22.3235675;18.2937859;-2.777551581
31.74800358;-3.323127689;43.74013238;-8.232540737;-11.58126966;-0.337096878;-8.087292287;2.844233408;30.07216094;-8.451763097;6.483364807;-9.45227833;-5.601140024;3.862435267;4.42740135;6.089261313;22.86609235;20.16003906;1.973907476
30.48357332;3.170981338;44.75391834;0.81216051;-4.884126256;2.288296546;-6.282830096;15.14680773;26.22111039;-1.266053728;13.50261504;1.844511922;3.681074344;11.85555631;3.201877083;17.09562712;21.63275256;23.05361912;7.221519028
28.38060565;10.80547681;35.2302329;8.21413954;-1.708759578;2.948172899;-5.149432117;20.43312974;23.06636533;-2.926907811;16.67186938;5.763838625;7.691179916;14.34402279;-5.059304432;22.52605036;15.53664202;24.8006045;9.060539076
24.47184334;14.55538833;22.37896528;8.5297512;-6.607255225;0.884327287;-6.00492108;14.38991803;21.1562267;-13.96177139;12.72411278;0.298125241;5.437030303;9.396911664;-16.76174081;19.4846828;4.72905246;24.25561993;6.111688373
19.72133155;13.99431241;18.15406307;2.847992475;-17.09964244;-2.222572802;-8.312421008;2.96373202;19.86861147;-26.95378424;4.55146813;-8.593564558;0.915125127;1.544847046;-24.5167622;12.85048095;-6.567122355;22.29943858;0.766372765
16.60697153;13.67197989;28.09235782;-1.725660732;-25.22509819;-3.601437722;-9.891133044;-3.254229226;18.79749929;-31.76515642;-0.771837482;-11.6855856;-0.336368549;-1.721221758;-22.3630276;11.62778411;-13.16314139;21.00447446;-2.785083587
17.28885748;18.87289601;44.23623306;1.800745954;-24.02165724;-1.815061313;-8.881747345;1.412004375;18.68605077;-23.40693458;2.309817682;-4.035436077;4.054516815;3.757622919;-10.60142759;20.92072887;-13.43830515;21.65254444;-2.12792018
21.85476607;30.48071045;49.23949157;13.61761925;-13.64026933;1.84649164;-5.806782541;12.60453746;21.0486653;-6.170228876;13.20190955;10.82541482;11.34021398;15.0070743;3.683417844;36.33707677;-11.09624835;23.45360982;1.291224603
28.03420949;43.45514273;29.54771623;25.96535488;-1.731808745;4.298208901;-3.6127942;19.73400365;26.74455446;9.371429574;25.49331444;23.55471412;16.11627525;23.98807811;11.38097961;46.21905214;-12.07888858;24.27779227;3.450806341
32.58902382;50.3017801;-12.616487;29.23035887;2.656640076;3.221298435;-5.149923413;15.34943065;34.60439517;14.04139291;31.90440805;26.34638088;15.02869359;24.01460539;8.263712251;40.70538483;-18.89698432;22.8624556;1.383082402
33.36111293;46.65617241;-58.60164866;20.56121088;-3.165449147;-0.891247706;-10.01905549;1.847723196;41.26718118;6.292732981;29.67661145;18.93080711;9.610058594;15.24360644;-1.21414454;20.50223111;-27.32183407;20.47059572;-3.979408448
30.62715836;34.39471747;-85.33487972;7.374695726;-12.79758933;-4.965529586;-13.87741248;-10.33177636;42.71224176;-7.603127853;22.1250634;8.387655431;4.815954169;4.611257863;-6.741637606;-2.211849135;-28.80735762;20.30858098;-8.267903897
27.05785074;19.90096513;-80.96598073;1.740564106;-15.88108078;-5.700254016;-11.71087351;-11.3841188;36.95549016;-18.80120738;15.57417774;3.133246671;4.670078125;0.187763681;-0.351142298;-12.28147127;-17.23166905;24.98598599;-7.154395323
26.51016981;9.212718351;-51.99943415;9.329671304;-7.34118414;-2.091147392;-3.121266296;-0.074020863;26.4725586;-21.71899179;14.7072824;6.238326257;8.979190961;4.609654649;15.72868444;-3.214393175;5.415209231;34.17319898;0.076799914
32.36829666;4.185604895;-16.6781186;22.08592877;6.965919499;3.949797398;4.848850553;15.86826617;18.57561926;-15.92513845;20.13578566;13.59903545;14.03505448;13.04643663;27.96457347;17.33502926;29.3526505;44.61521572;9.903950338
46.06880821;2.59157081;9.396195654;21.97133529;13.61253372;9.31115768;0.862822572;26.91075961;22.62826143;-3.708820482;29.3799291;18.22656017;16.51699731;17.38229747;19.36899457;33.05037908;43.58294426;52.6632406;17.42802339
66.21187543;1.509495473;23.38612123;-5.322145258;2.27439371;12.19829098;-22.48328551;29.84968021;44.71213797;13.13048737;39.25751468;16.76046242;16.83669393;13.13786073;-18.01631241;31.59340259;43.78693464;57.21826997;20.2968502
88.60815955;0.676100627;33.30949917;-56.52734022;-24.32532055;13.32707997;-60.9440288;29.75314062;82.45687601;33.70858836;47.02230665;12.62430143;18.69963433;3.450058594;-74.59520465;14.73644103;35.35486352;60.51775072;20.41720737
107.5628817;2.878596033;47.05650327;-108.3610051;-49.55051376;14.92719397;-97.98980747;34.4126705;123.7385325;55.74148765;49.85038986;13.30676659;25.25868778;-3.059944835;-125.6986129;-1.991244998;29.17290721;66.04104579;22.13165247
118.2198094;11.34178003;63.08395079;-130.4727444;-52.97485781;18.60681643;-113.5081306;46.79490041;151.4906479;73.94640346;44.74823063;24.2537853;35.56569279;1.296485414;-145.1239983;-0.18366387;33.52642282;75.34895884;28.53896301
118.8814691;26.64602685;71.54292486;-106.0742426;-24.94390071;23.99655535;-97.08540982;62.5037064;153.0803774;82.18839474;30.69060645;44.46523817;44.88046354;17.66128547;-121.7998082;27.93437736;48.39047241;86.59084784;39.05491103
111.6428253;45.76927419;64.63670338;-45.62247455;24.90092993;29.19388605;-56.6727116;74.22203427;128.7926181;78.33034895;11.74824752;67.05629811;48.74416895;39.86752073;-68.4076881;73.09708062;66.13324409;95.83391798;49.98957765
100.3477249;63.62981018;46.0721647;17.34413169;71.77688214;32.29428056;-15.51536126;78.34904227;93.11389506;67.07498519;-2.644618663;83.6743438;46.91698109;58.44051013;-15.20203988;113.9844237;77.33148914;99.74640855;57.18242553
86.82650741;75.3396558;29.80498124;46.79470751;90.32165559;32.38942952;1.931355544;77.04246574;66.37627745;56.90316753;-2.903123877;88.74762522;43.05945896;65.74503053;8.086088757;129.7203725;76.59019183;97.00238992;58.1336254
68.26169835;77.31252603;27.94643939;27.69826178;69.89918726;29.17454024;-13.82916991;73.6121196;61.09194436;52.47676857;12.34669931;80.50612725;39.96953456;58.60509715;-9.068259925;111.2985215;64.06205985;87.26145978;52.00615598
38.50994971;67.21078219;38.2358708;-23.87508335;20.54569491;21.94151782;-50.33988667;66.21494744;72.23103582;48.97117056;31.53257301;59.30622922;34.84355403;37.70771836;-51.16165386;65.15692129;42.71378736;69.33677946;38.31464912
-6.391996155;44.29771415;43.19126702;-71.35918891;-33.87673799;9.557250581;-80.81971791;47.19608998;79.37591025;34.53290188;34.92210632;26.37847282;19.89093185;6.024837542;-86.65873365;8.228595484;15.14591643;41.40589778;16.57276404
-61.95893007;11.19870174;23.67764121;-81.88087573;-70.04772717;-7.915543078;-81.72078209;10.42458075;60.89345784;0.652040393;7.964632135;-14.83778042;-10.71073926;-31.41133005;-88.50067316;-40.88223214;-16.4723701;4.2744673;-11.92043748
-113.4070369;-24.21891574;-23.2253874;-47.45415352;-77.3643502;-27.22371993;-48.3314506;-39.17199828;11.02683328;-47.29644617;-45.64120036;-56.13178483;-52.69241498;-66.5955442;-51.56557127;-69.0088226;-47.63056027;-34.83679855;-41.66451283
-141.2409528;-49.68796606;-77.29929072;11.04993545;-60.79949354;-41.84212405;2.279092712;-83.27690079;-52.7586294;-88.9212037;-101.9010111;-84.56535195;-89.98695219;-89.05603903;4.496606409;-71.22121365;-69.74176777;-62.36;-63.01386525
-132.1076063;-53.61878708;-106.7019112;59.08322477;-34.38633233;-44.94601398;42.82477164;-99.4562994;-99.02338798;-100.2315085;-129.3649367;-87.54782597;-102.8472573;-89.7369094;48.64787033;-50.26365727;-72.99234613;-64.49026876;-66.37039424
-88.1733982;-32.25028543;-90.55817623;71.46475821;-11.31687478;-33.95607138;53.59524499;-76.4852913;-103.1366893;-70.55261768;-109.4724367;-60.83861453;-81.21442856;-66.83873784;58.64740838;-14.72916401;-53.03137017;-36.45;-48.53127947
-28.12361698;6.185047951;-35.48472441;47.31815818;2.426942932;-13.29717355;34.15657808;-23.90606249;-65.16601643;-12.29824743;-50.1967297;-13.67670776;-33.49417724;-29.17659332;34.32975489;23.21152011;-16.33531365;11.78626301;-16.48405112
22.0483035;44.40647658;27.31238813;7.658730978;7.980900708;7.249862374;1.48137007;32.57457225;-11.26766108;44.8105187;17.53584497;33.93440523;16.77535783;6.792889362;-4.408252335;51.11229731;21.13182594;58.78074741;15.10461435
43.2499772;65.47028884;62.94675494;-20.95500746;9.258934149;18.10630485;-23.06488528;67.31693498;23.62924569;72.08993526;59.0258618;61.40722858;45.12783328;25.69473041;-32.39782408;60.7078652;42.53861334;83.2644304;32.03345723
33.42419536;62.77045532;56.3107779;-24.1143022;8.890813972;15.72811609;-27.90744116;70.62475851;20.05423603;60.04471666;57.40336477;58.99645334;41.51094281;22.25926803;-35.71429064;51.73213258;40.56790664;76.83387879;29.10835534
6.991099322;43.647874;20.6680078;-6.530860904;7.317636477;4.539773418;-16.79252712;52.42326609;-12.52555646;23.33885567;22.5771464;32.74578337;15.711849;4.150729131;-18.62801965;32.26879074;21.89891049;48.77867972;12.98003906
-15.750349;23.82515836;-14.35774188;14.85388492;4.479896174;-6.494762093;-3.024689813;31.74927608;-43.28243202;-10.66594149;-18.13090992;-0.41927133;-10.95007813;-13.7555888;2.584444494;14.39017184;2.137031028;19.29049193;-2.933493695
-21.76101413;16.54182471;-25.28434376;24.69686287;1.459669445;-10.16919215;1.860646926;21.39961873;-43.34930638;-20.92693788;-39.85848468;-23.82995507;-21.20343678;-19.66867094;12.97754392;7.239601045;-5.243332587;5.725721092;-7.830626581
-12.04417094;24.179695;-10.29106623;19.26496468;0.183923824;-5.599879059;-3.997154194;20.334118;-7.488901031;-5.356558918;-35.67413981;-30.58092848;-12.98526422;-12.28491035;9.07801935;12.05664836;2.251696322;11.76930418;-0.404811878
1.819309862;38.17142062;13.11458542;6.292517284;1.652703376;2.112936999;-13.51614498;18.99515736;42.2751806;21.15926628;-17.22984857;-25.26195846;1.624900268;-0.105038226;-0.937613956;22.60885228;15.90275625;27.08740748;11.58760764
7.758598577;46.60822667;24.52616795;-3.290469828;4.702317865;6.480101294;-18.0485241;11.25560308;73.73681902;40.09450083;-2.194082637;-17.89237048;7.759442317;6.2495871;-5.670963455;30.57117617;23.77118589;37.00448598;18.23030796
1.952404315;43.26435704;16.85396036;-4.1412477;6.705192591;4.665160391;-14.64123705;1.329475197;68.99650186;42.70114974;0.20690751;-15.61693222;-0.253607403;2.379589681;0.008108515;31.67917957;20.22775595;34.20773111;15.16167298
-9.881095662;31.18971486;-0.322987512;0.851787567;5.644574592;-0.880957271;-7.496708322;-0.721061367;37.35747305;33.69811592;-5.786312469;-18.53870382;-15.60929741;-7.303452063;11.75318831;28.05394794;9.561446773;23.3976481;6.208783805
-18.51575026;18.8062392;-11.3025676;4.866792055;1.668896547;-5.084314228;-3.349487472;9.760861609;6.819328138;24.2834917;-9.293561627;-21.9463951;-26.09469422;-14.17542514;20.41048239;25.32434839;1.399550955;15.88193487;-0.598306946
-18.94682062;12.4751182;-8.378207657;3.669636018;-3.237383693;-4.656347782;-5.412100622;25.27050351;1.288127563;21.9601918;-4.02673208;-21.88435187;-24.73059231;-12.82843009;19.87744571;27.35092467;2.348473884;19.27880125;0.106100111
-13.60251159;11.8631111;2.620672087;-1.296535112;-7.033958102;-0.545633581;-11.10367925;31.19464323;21.8380306;25.90114118;6.221366642;-18.85200087;-14.92487572;-5.093356226;11.57086405;33.03012322;10.94025259;31.1;6.968725157
-9.141180702;11.47933881;9.093568638;-5.186111911;-9.122249684;3.344885161;-14.99184115;18.90623974;46.86880949;30.4611902;11.9406595;-16.77422238;-6.399546058;2.263753959;2.414321615;37.57581485;19.69635852;41.27517477;13.64835
-10.28295342;6.314220681;3.672425393;-4.596969981;-10.22687393;3.744781716;-13.83749006;-4.993036574;50.60571566;32.01753731;7.297049871;-18.80029774;-6.172171185;3.649902238;-1.230462366;36.7866309;21.96203339;41.00031666;14.40930277
-16.109701;-3.691731611;-9.469587367;-0.459056618;-10.97675251;0.7082835;-9.192153644;-22.61962423;24.54670846;32.15824216;-4.260019531;-24.06539374;-12.71030605;-0.878450707;1.658363053;30.47541572;17.40544945;30.1642507;8.700657758
-21.60080233;-14.06655466;-19.10876911;3.266987532;-10.77729259;-2.759917401;-5.559871964;-19.80323928;-15.7460188;34.68069674;-13.00258075;-28.31078719;-18.06479273;-6.34578159;6.901282192;22.30184282;11.68637201;17.18266836;1.096931169
-22.48690974;-20.21279631;-17.53939476;3.418463031;-8.240058594;-3.556501748;-6.148543604;0.406761406;-43.87778178;40.22528257;-11.43963011;-27.63125116;-15.57559041;-7.650666522;9.355559637;16.53965096;11.06261277;11.75280173;-2.910381099
-18.89061724;-21.44944876;-7.439080357;0.324040437;-2.835176173;-1.171195293;-10.13985598;18.05230888;-44.6086518;44.54858324;-0.557260502;-21.91290256;-6.032991615;-3.919409891;7.208075136;14.83419911;16.92730247;16.97402991;-1.418903218
-14.70676372;-21.01360256;0.93068825;-2.9;3.892302849;2.07632554;-13.74478398;11.45765906;-26.0412988;42.55826633;11.54577487;-14.97722196;3.10317448;1.299835516;2.782777146;15.65849224;24.93988131;27.46827461;2.816636801
-13.65482271;-22.30709078;-0.714739963;-3.476849689;8.939826273;3.272343656;-13.81094824;-24.57082571;-11.64903527;34.20852752;16.95813719;-11.42109278;4.477235375;3.768600759;-0.285230106;16.51222569;29.12108465;34.66350838;5.275070329
-15.79207086;-25.18670199;-11.14874294;-1.476881612;10.03186032;1.503732835;-10.59643852;-72.7370577;-18.79516816;26.09909783;14.43120453;-12.92479887;-2.590327624;2.523306171;-0.552496039;16.47739704;26.98332078;34.21135153;3.675003606
-17.6047613;-25.96623756;-20.78903639;0.519758904;7.559470762;-1.468665892;-7.30512569;-105.0708714;-42.10249086;26.44417908;9.475183321;-17.07169559;-11.54256448;0.438657631;0.220883545;16.69747128;21.17971107;28.97702924;-0.407273109
-15.4081497;-21.2212017;-20.28913205;0.086605058;4.503569223;-2.92056443;-7.013714287;-103.5275058;-56.4768962;37.49638847;8.576202086;-19.46902526;-14.38483933;1.076024012;-0.840031738;18.54396832;16.54717621;25.31390236;-3.431994036
-8.825356132;-11.8023127;-8.788786596;-2.664424843;4.240298654;-1.61707014;-9.900555767;-72.94048331;-38.3473369;52.44492966;13.23614299;-17.25460706;-8.606524681;4.949076734;-4.755844639;21.50521683;15.56697355;26.44458616;-3.29147418
-1.180910955;-3.09115208;5.414389152;-5.182291154;7.973853926;1.181196298;-13.24083829;-36.13500953;12.00463943;60.24209787;19.24972711;-11.15249281;0.834670573;8.788631026;-9.657877699;23.05685923;16.46090609;29.23930694;-1.0712558
3.457902746;-0.868782769;12.15142454;-4.88620377;13.91238184;2.954722401;-14.01814609;-15.66802804;66.13630772;54.71898089;21.42108591;-4.645957795;6.037486214;8.531386496;-12.52780595;20.8141997;15.48138188;27.39167305;0.251231523
3.825617661;-6.232972262;8.061191196;-1.600048828;18.83622595;2.194465614;-11.66646245;-17.38496535;86.38181759;40.13336693;18.82046647;-1.187589806;3.061721627;3.275853258;-11.96784535;15.01275967;11.01365644;18.00421428;-1.239642649
2.366238257;-14.10343729;-0.877817628;2.224257521;20.67726844;-0.338342779;-8.467982944;-28.83754126;54.39013073;27.9978508;15.42927963;-1.722533564;-4.82195971;-3.474811551;-9.418488032;8.931917037;5.503032099;5.358690758;-4.591762981
2.729438918;-16.91263271;-4.900824178;3.657651348;19.91265246;-2.402481164;-7.36103378;-32.68346749;-12.95596158;27.55398596;15.70137706;-4.27707296;-10.16824774;-6.520267616;-7.784649706;6.665845824;3.332604012;-1.89608407;-6.928173557
6.168897289;-10.60386308;1.010521655;1.833246969;18.6785846;-2.303757963;-9.254906281;-22.68650213;-73.44442143;38.01512113;19.63194087;-5.644987896;-7.771047694;-3.289669904;-8.825029027;10.01773222;6.592851604;2.058445837;-6.16859449
10.11644164;2.040518471;13.04683604;-1.399208744;18.53552074;-0.313316863;-12.29762777;-8.438727659;-88.66026747;49.44652316;22.49905318;-3.731937486;1.219969593;4.014152558;-11.70219999;17.107786;12.69130268;14.93502907;-2.983148394
10.23327916;13.56736599;22.19285196;-3.214078378;18.96568855;1.720194985;-13.67393929;-5.348087564;-50.71893111;51.72708646;19.90275331;1.129757081;10.86149096;10.32723049;-13.92044778;23.83922351;16.13266393;27.80720617;-0.212572689
4.147050459;17.7544869;22.05;-2.301479824;17.95720968;2.10166112;-12.20126493;-19.4336527;13.30381005;43.81962185;13.3202689;6.682178082;15.91767871;11.9940782;-13.66820814;26.97294324;13.03810931;32.29433546;-0.32558855
-6.377323912;14.37451203;13.98075678;0.131575481;14.1042762;0.750400618;-9.340869919;-40.73608053;62.0459234;34.97983986;10.33529131;10.58505217;16.22636353;9.664987265;-11.37753942;26.31288667;4.465378708;27.38527027;-3.227167686
-16.67551576;8.956078041;5.406783946;1.655293088;8.265480634;-0.876983871;-7.770311731;-51.22103267;69.41564284;36.3354571;18.2904081;12.30198935;16.15598394;7.372344623;-9.14709134;24.39806397;-4.411295582;20.04676425;-6.353803992
-22.7081699;7.899369837;3.197119435;0.912822694;3.209712223;-1.222721165;-8.905582611;-40.14594553;40.73820135;49.76826507;36.39893965;13.70889193;19.9559199;8.732518058;-8.688945017;24.23028488;-8.591628965;19.11404909;-6.913747141
-23.85780339;13.13079666;8.107079576;-1.216684762;1.483529268;-0.045405232;-11.66146881;-13.363749;4.493762275;63.87289434;53.56900416;17.84386982;27.45789182;13.69325393;-9.770423538;27.04645821;-7.318004175;27.75128734;-4.258188812
-22.75742823;20.72093324;14.86248269;-2.590861656;3.337247986;1.454290026;-13.53026469;11.49712189;-12.06257928;61.27317196;54.97015339;26.40096276;34.09853483;18.6494621;-10.57168899;31.80670054;-4.447611166;40.92355209;-0.341622199
-22.55435338;24.45354764;17.28368286;-1.912915321;6.5216244;1.832519348;-12.91311395;19.61857012;-3.236805798;32.16058136;33.02719805;37.62136806;35.18152855;19.69774851;-9.551434059;36.42195544;-4.884002583;49.86591691;2.01837236
-24.14620804;21.21343399;13.59274928;0.038003811;8.142508937;0.757871918;-10.53636208;10.60411252;14.37486791;-16.58214133;-5.684699763;46.40921875;30.41813456;16.05399528;-7.026876588;39.35810175;-10.21331335;49.4454578;1.465208483
-25.73586558;13.6971324;7.351462613;1.191364704;6.981824873;-0.725141971;-8.694523523;-2.72413622;19.61351843;-64.22672346;-43.45634643;47.30884037;24.55214124;10.62746888;-4.981831853;40.26983958;-17.29996314;41.96636406;-0.993615213
-24.85052783;8.333727026;3.704973739;0.206682079;4.322958151;-1.21676539;-9.087942483;-6.761500246;6.852802275;-89.32562469;-62.57509959;38.83168597;23.4214775;7.365914688;-5.282465919;39.48921091;-20.96541489;34.36151139;-3.135283206
-20.80960921;10.27257907;4.734354003;-2.203122087;2.656052889;-0.275579386;-11.28283861;0.563534163;-8.803934773;-83.49500578;-56.45495495;25.96166136;28.90062491;7.852249736;-7.945380967;37.27230026;-18.3537354;31.70459007;-3.535106024
-15.3968338;19.51787541;8.124133474;-3.913967949;3.476302313;1.195255194;-13.18652375;8.535594446;-5.422562881;-55.90363863;-32.75613736;18.13355405;37.16329837;10.19648936;-11.04056195;33.70649529;-11.22778059;33.13656892;-2.618782045
-11.26396162;31.09631061;9.978176794;-3.409501743;6.107252052;1.814715945;-13.03788701;4.355818838;24.79247818;-25.82238707;-6.805433374;22.92087116;41.78317427;11.10111082;-12.31938812;29.26383603;-4.330427945;33.81394351;-1.94262398
-9.658166512;38.78106048;8.787604048;-1.27709434;8.488829013;1.009377391;-11.03356464;-13.98896648;65.48743564;-9.480412564;9.082956683;39.32726666;38.99557327;9.098436481;-11.11681347;25.18882723;-1.348999031;30.70158325;-2.537000204
-9.558422503;39.25496173;6.753687147;0.25733633;9.098735159;-0.474526253;-9.097228599;-34.39237826;86.16490299;-10.98566026;12.32504788;55.99419824;30.65745497;5.959159508;-8.863764954;23.05117767;-1.975157033;26.33748224;-3.912561119
-8.886054311;33.68548289;7.403042975;-0.62285189;8.219019999;-1.281757718;-9.052608435;-40.08351461;64.84369947;-22.94270807;8.699445264;56.99553175;22.53365414;5.000613859;-7.802147733;23.6879761;-2.462220388;26.59767034;-4.592042902
-6.524504588;26.07236299;11.96307276;-3.569021019;7.438988904;-0.700626779;-10.93197065;-23.83620828;5.581044582;-34.56025973;5.428136442;32.43411842;19.55917553;7.871780043;-9.056149774;26.46183645;0.977074624;34.33249311;-3.56568658
-3.231286044;20.19029154;17.99688949;-6.25797088;7.939228452;0.698955565;-12.98860426;5.330896816;-63.01877764;-39.93921189;5.069263991;-13.27467391;22.15351971;12.78209716;-11.70662063;29.55327459;8.922327132;45.10155133;-1.256253392
-0.678615304;17.53712386;21.51862597;-6.424113354;9.211095;1.606986016;-13.36810836;28.78683232;-107.271303;-40.46439678;4.861647563;-61.98026468;26.51094618;15.84496807;-13.58026571;31.10158902;18.31798015;49.81463162;0.880009766
0.337488038;17.32324969;20.50534498;-3.923948294;9.437441654;1.172261945;-11.8502384;32.68081947;-110.9763645;-40.93252416;0.962058805;-91.97777044;28.25670138;14.41097133;-13.00444788;30.30072744;25.00852536;42.79932976;1.675776774
0.7326806;17.74840549;16.50908749;-0.943265177;7.208048759;-0.243687809;-10.03112356;18.0666164;-84.32363626;-44.03871766;-6.960242466;-91.41989071;26.10798672;9.471753731;-10.07150341;27.69440104;26.92380602;28.22699865;1.225540872
2.197816826;17.18661191;12.98530557;-0.10354647;2.993569929;-1.423129346;-9.79250022;-1.362298931;-53.51889478;-48.2081983;-14.92401275;-65.65661041;22.49197689;5.001647417;-6.512882678;24.6735302;25.28083223;18.30280723;0.630593204
5.401762743;14.64604612;12.07361859;-2.126328125;-1.007733022;-1.40036843;-11.50831081;-11.39965154;-40.39646293;-49.93848486;-17.9288337;-33.14332239;20.9397462;4.753308069;-4.476223015;22.74915687;23.07264542;23.37336614;0.830629393
9.085825663;9.879517825;12.92474325;-5.150717044;-2.580544416;-0.29903947;-13.67540156;-8.691393852;-48.11542299;-47.67815559;-14.03271258;-12.77329228;22.82794271;9.203486857;-5.243944373;23.04190146;22.43701406;41.60284156;1.678592016
10.97390969;3.65707623;13.05141154;-6.354360137;-1.286664162;0.839812018;-14.31484364;-1.958625567;-62.95950931;-43.39945117;-5.618109168;-11.7907453;26.32817854;15.18337839;-8.703283644;25.91097237;23.22992634;57.41213862;2.133008157
9.715344998;-2.019670601;11.21399929;-4.478090849;1.219526297;1.03707033;-12.83207436;-2.821166519;-68.87635867;-40.69555886;2.881362827;-22.86756399;28.2282199;18.42564279;-13.59349094;30.4936126;23.80522245;51.47931536;1.343554236
6.094077103;-4.532997623;8.891405929;-1.028537407;2.615738905;0.241538019;-10.59434646;-14.82213293;-61.74785222;-41.5799702;8.384556069;-31.83021342;26.74720917;16.84726035;-18.04618422;34.41624426;22.97197885;15.58288723;-0.446156478
2.393998724;-2.34674687;8.810152629;0.924655268;1.817323363;-0.69291607;-9.679533208;-30.28940438;-51.85349311;-45.07944028;10.67298861;-29.45183134;22.82035757;11.90450508;-20.08303762;34.4483176;21.2024822;-39.18541149;-2.060368603
0.492945525;3.230389924;11.92818235;-0.663589164;-0.283307838;-0.851579571;-10.95489103;-37.38629838;-53.5906678;-48.65588838;11.12716875;-18.0259044;18.9431511;7.104860862;-18.16162391;28.49256501;20.07111118;-87.95523018;-2.465814438
0.409554425;7.928573007;15.8865942;-5.069916355;-1.82086537;-0.111733302;-13.2712387;-30.77155664;-72.06571353;-50.71207761;10.45088921;-8.111721544;16.88137498;5.135264983;-11.92366099;17.96034388;20.63462811;-108.0641724;-1.728796695
0.592443179;6.870489927;16.6741782;-9.387656902;-1.734219557;0.780095215;-14.52473494;-16.46436365;-98.12470882;-51.62767844;7.820169776;-8.916671491;16.35174072;6.036453693;-2.852578204;8.425006166;22.38453254;-93.9427065;-0.932731975
-0.366982807;-1.809944972;12.23570547;-10.90455322;-0.703673569;0.944437122;-13.60518373;-6.902220626;-115.7226863;-52.53268527;2.186901169;-20.62541429;15.6220198;7.724940016;5.863117654;6.955572752;23.74232513;-59.94957676;-1.120631555
-2.213406834;-14.74915999;4.797997272;-9.220592756;-0.447015899;0.204146267;-11.42571504;-10.72411668;-115.0965726;-53.44098724;-5.791636162;-34.80920591;13.15325876;8.077736957;10.68085769;16.9463488;23.55186074;-29.33472186;-2.256542241
-3.116450903;-24.60955046;-0.348652037;-6.347399382;-2.073098021;-0.76248898;-10.07851181;-26.02378652;-100.7029379;-52.98976197;-13.34386051;-41.96864028;8.658800505;6.608673403;9.725045393;33.90245574;22.10751667;-17.95190519;-3.19675591
-1.295790413;-24.41904912;1.199744603;-4.824353176;-5.018582217;-1.074183764;-10.89715298;-42.37879848;-87.63352526;-50.26243679;-17.32522874;-39.38415014;2.831833416;4.397191576;4.107743213;46.05183953;20.75992456;-24.8916486;-2.7271345
3.300097656;-12.14315376;9.530058594;-5.570608493;-7.52256004;-0.475741452;-13.21927076;-49.32100819;-89.80719854;-46.80532947;-16.63415507;-32.62684945;-3.563135472;2.641258642;-2.607651301;40.76890808;20.52613699;-36.26763041;-0.727359886
8.788241338;7.765474656;20.35804204;-7.310959715;-8.176600253;0.433589292;-14.99503247;-43.87245218;-109.5836068;-46.40047815;-13.14507163;-29.87320457;-10.03487671;1.38347247;-6.651507528;13.30232346;21.06860483;-37.98459402;1.610188355
12.80509517;26.98395407;28.33598184;-7.938395618;-7.127248329;0.773559819;-14.67818551;-31.36956933;-136.6579486;-52.1266037;-10.32251119;-34.38298991;-15.81762096;-0.38877036;-6.458427013;-28.3046815;21.03317749;-26.82231585;2.728018685
14.32053558;38.23070757;30.90447867;-6.47537134;-5.863397684;0.209808987;-12.64976171;-20.02893861;-156.238877;-62.98052309;-10.70497821;-41.80073277;-19.33074474;-3.484524399;-3.451460359;-66.38866404;19.43058906;-11.47025096;1.986779515
14.22565826;39.04921334;29.5697974;-3.87033722;-5.836703648;-0.739001943;-10.85848263;-14.74479408;-159.4012238;-73.23668815;-14.31601719;-44.41983502;-18.73932649;-7.407956689;-0.639455557;-83.74501507;16.74240879;-3.843755439;0.159001458
14.25079494;32.11966479;27.85328386;-2.017535093;-7.214942761;-1.191045859;-11.01370875;-15.24101288;-147.7575654;-75.74787284;-19.09399146;-38.36118031;-13.55659616;-10.52228118;-0.208874567;-74.18912741;14.66176361;-8.719130989;-1.274800178
15.27321027;22.47575427;28.00381292;-2.006698849;-8.896524689;-0.722787406;-13.00612867;-18.92246479;-130.1043025;-67.08304284;-22.65846055;-27.2106394;-5.870391769;-11.34419144;-2.063570052;-46.32355027;14.62496971;-20.31905475;-1.374920171
16.57156122;14.12381922;29.39191379;-3.228293165;-9.701988296;0.241603565;-15.0180341;-24.44298602;-115.2436205;-50.59286408;-23.79395143;-18.99216655;0.304722843;-9.768127599;-4.387509849;-17.76086762;16.41246164;-28.01470545;-0.438783393
16.65911232;8.490764949;29.73113446;-4.083164853;-9.549687324;0.824786211;-15.21744577;-32.10487378;-107.2597811;-34.83119228;-22.6313701;-19.30483929;1.535861089;-7.11338649;-5.539947916;-3.781495296;18.08306269;-25.6;0.407672164
14.86327695;5.202764369;27.65390117;-3.545890759;-9.458022853;0.499556667;-13.46175185;-41.19016156;-106.0379556;-28.24462423;-19.85952351;-26.71876945;-2.488687567;-5.001519182;-5.497375785;-8.30365817;17.3733726;-16.0783614;0.273833674
12.16043878;3.74641116;24.10418505;-2.098725762;-10.36351966;-0.440825903;-11.42845766;-47.93050548;-110.5831645;-33.87419882;-16.03902876;-34.33889863;-8.581620864;-4.128481485;-5.588772857;-23.14771018;13.44912495;-8.287583526;-0.764604923
10.49469596;4.224377282;21.34462875;-1.212849437;-11.92294365;-1.165060507;-11.05107531;-47.32731534;-120.6698916;-47.75497662;-11.63427057;-35.92303097;-12.4032007;-4.017758968;-6.912858526;-35.37540289;7.612720884;-8.832810304;-1.873309154
11.21056907;6.738062572;20.7226823;-1.932498722;-12.54966423;-1.061151588;-12.7131637;-37.88425634;-135.0623465;-61.89204103;-7.396026977;-31.05302246;-11.77388655;-3.853040968;-9.051475563;-36.75442979;2.455560123;-16.51265953;-2.312071906
14.0188733;10.47162643;21.4599404;-3.91615467;-10.79961707;-0.267456867;-14.88132987;-24.68472125;-148.9299937;-69.42909436;-4.335213982;-24.95233096;-8.242608763;-3.46072191;-10.36773607;-28.4239831;0.195000258;-23.8186608;-2.077780595
17.39465771;13.81117873;21.63492402;-5.798828513;-6.897664917;0.493036402;-15.52467132;-16.98338931;-154.5702739;-68.38234354;-3.100891288;-23.44324728;-5.570520402;-3.420243457;-9.615800012;-18.06903407;1.493234522;-23.76340494;-1.756869478
19.98999896;15.63711657;20.34821642;-6.471027694;-2.929993089;0.592879222;-14.0081093;-21.29700664;-146.4619525;-61.77982979;-3.399026663;-27.75363503;-6.390019531;-4.192230207;-7.275040796;-12.76281156;5.520783746;-15.85088718;-1.810167779
21.75073298;16.53446484;18.8992542;-6.034165176;-1.337798725;0.050880784;-11.70088794;-35.53379971;-126.8733381;-54.78995743;-4.179220487;-33.72407219;-9.884618462;-5.18165846;-5.227277853;-13.50174432;10.95159675;-6.108450691;-2.055683903
23.74815381;18.51973518;19.75236834;-5.552585327;-2.886240392;-0.542706705;-10.72724482;-49.56293558;-106.5172105;-51.26831271;-4.516137897;-35.79271682;-12.48579313;-4.796362413;-4.97131513;-15.39821972;16.90915829;-1.489323684;-1.88472202
26.93825301;23.21452441;24.196697;-5.899079476;-5.864375922;-0.622967981;-12.00861385;-52.48363409;-98.25;-51.96806452;-4.289878046;-31.87492463;-10.99249437;-1.65186554;-6.042790491;-12.59678611;23.12551057;-3.781560479;-0.988916786
31.02352041;29.97959573;30.88228106;-6.849120028;-7.317143379;-0.184934481;-14.40900932;-41.03022812;-107.8688804;-55.03439772;-3.897713867;-24.73218721;-5.422597855;4.06;-6.243025618;-3.379170704;29.39988651;-8.321581057;0.158479134
34.45814616;35.8117188;36.63974133;-7.313041045;-5.396896524;0.246305257;-15.77924799;-22.23807584;-129.2947455;-57.83599621;-3.28933481;-18.91453054;0.870433833;10.3131381;-3.647881348;8.661942483;35.06351089;-8.413107819;0.605902653
35.57531049;37.39683669;38.89920248;-6.478251399;-0.927163128;0.161372453;-14.93827512;-8.069076119;-148.568714;-58.71880895;-1.511188846;-16.47509994;3.930498046;14.50218142;1.364773696;17.84198828;39.05586201;-1.39590103;-0.216938758
33.82182598;33.78262039;37.57272073;-4.740798257;3.122488469;-0.410943327;-12.75884188;-6.348676286;-154.0959594;-57.8075728;2.405148701;-15.57592562;2.456370794;15.3085453;6.014938286;20.86646776;40.56912607;8.932445494;-1.887690347
30.04541114;27.41571227;34.78739549;-3.488793648;3.842194994;-0.912805665;-11.35089249;-15.38238085;-145.2302926;-56.74215873;7.820314474;-13.10728329;-1.169141062;13.68085065;7.250830972;18.82681464;39.65883741;15.48614114;-3.248376211
25.67274217;22.51342144;32.83372494;-3.885672202;0.498871618;-0.791820899;-12.09807552;-26.3967007;-132.3068407;-57.6457594;11.87048027;-8.486453638;-2.911833666;12.09466499;4.363375853;15.47121493;37.24309928;13.74563029;-3.357189827
21.5851165;21.93352095;32.27022651;-5.762169366;-5.075464954;-0.049475774;-14.36863872;-31.30342525;-128.04426;-61.74279546;11.06906867;-4.67989735;-0.432901737;12.63740416;-0.238326824;13.7118652;34.45408465;5.256152839;-2.296729966
17.67454949;25.00690116;31.86185203;-7.654785826;-9.995971168;0.725407777;-16.10007813;-28.97435483;-137.2968344;-68.2021245;4.324065373;-5.261234537;5.036047368;15.41428958;-2.902238783;13.49073453;31.85548694;-4.012029825;-1.098916647
13.35417798;28.07098786;30.23291141;-7.988806891;-12.38764759;0.882251742;-15.71922627;-24.8773285;-153.5017879;-73.96158909;-5.16078523;-10.31377388;9.756350345;18.50925493;-1.744195946;12.54094396;29.13405023;-8.736065267;-0.836486702
8.418167809;27.27436564;27.51181981;-6.364034099;-12.34822434;0.308500948;-13.61512479;-24.93866121;-164.5966246;-75.06444781;-11.24610559;-15.34836536;10.48846026;19.49668874;1.791234177;8.936816248;25.4788979;-8.266426277;-1.690511191
3.409650695;21.4243787;25.33531363;-3.82207047;-11.24842192;-0.456495134;-11.79103303;-29.4915103;-163.289656;-69.13929576;-9.067794683;-14.72680837;6.951745008;17.30756523;4.208876703;2.994930247;20.34403433;-6.326370751;-2.829268844
-0.784690598;12.69855494;25.2334016;-1.913108918;-10.24561857;-0.704793405;-12.00810666;-32.81490653;-152.9837127;-57.5453177;0.986752603;-6.77869785;1.886568325;13.04205822;3.007872561;-2.980174714;14.05031293;-7.013652437;-3.196034304
-3.634707813;4.838487541;27.0228341;-1.451901989;-9.409531441;-0.198517985;-14.1393144;-28.55231437;-144.4067903;-45.39956884;12.93895943;4.082484079;-1.070314223;9.190209899;-1.140652852;-6.541360085;7.840456296;-10.84879224;-2.477670823
-5.257617844;0.441079468;28.84936714;-2.068916495;-8.096251493;0.620632389;-16.26661948;-15.97783732;-145.9229332;-38.84937488;19.25778771;10.502108;0.168852602;7.92219641;-4.976641476;-6.72382493;3.364631466;-14.32246119;-1.370470589
-6.073821397;-0.487603206;28.92253576;-2.856712323;-5.966367742;1.037915976;-16.44358858;-1.374167678;-155.8786467;-41.00561645;16.40992327;8.168608887;5.186994491;9.708588142;-5.476335707;-4.182785216;1.87790433;-13.15559159;-0.91410869
-6.262494957;0.201727175;27.30828242;-3.375371073;-3.507600238;0.709434517;-14.49809247;6.785581451;-163.6301678;-49.35240803;7.575230082;-0.468427492;11.9238618;13.15962346;-2.44372349;-0.144324694;3.545758387;-6.257027488;-1.522157574
-5.628347073;0.758128434;26.00450488;-3.998997343;-1.543933138;-0.045199469;-12.20377794;4.643093504;-158.5474119;-56.84165473;0.2706208;-8.039797683;18.22646994;16.03453976;1.378882378;4.537641391;7.203223122;3.086530115;-2.607971369
-4.029243959;0.867673397;27.09611382;-5.299736953;-0.319938303;-0.556374586;-11.65448609;-4.15737151;-139.5129165;-56.39166877;0.688966559;-8.163304029;22.75101308;16.62158358;2.724915713;9.357360733;10.74854184;9.70817463;-3.144177826
-1.901952768;1.30448572;30.61855287;-7.15821691;0.780969083;-0.419153357;-13.3415457;-11.86804303;-116.9270655;-45.8818216;9.218271729;-0.403471635;24.85979297;14.60607607;0.575662875;13.53928887;12.08589248;10.48870235;-2.62700353
-0.285760769;2.466530822;34.12715266;-8.582268929;2.473676029;0.16173918;-15.71332836;-13.17735987;-105.3839671;-30.06148602;20.59182432;9.84140375;24.20216259;11.03466232;-3.134229171;15.8785028;10.21049833;6.401588546;-1.546363518
-0.220834326;3.376332534;34.49108117;-8.516876279;4.487406313;0.600769514;-16.62452399;-9.1574245;-112.813922;-17.79263018;28.28213301;16.17472628;20.76011139;7.584602525;-5.409088734;15.52151598;5.826094791;1.182435009;-0.927086968
-2.014363793;2.243838946;30.43328373;-6.914531656;5.356984132;0.498779355;-15.32833623;-5.407890338;-134.6750123;-16.36134753;29.3574791;16.36263956;15.32757426;5.656728257;-4.894344567;12.98764907;1.024994507;-1.931829059;-1.369964112
-5.013783975;-1.806039444;23.64031522;-5.003666381;3.548702269;0.007411889;-13.15849203;-6.416021845;-157.5522622;-26.75304401;25.91727225;13.38458859;9.654731191;5.754812269;-2.9379286;10.22861096;-1.9079198;-2.484338349;-2.482438674
-8.064864944;-7.394516865;17.50291512;-4.396540744;-0.941837712;-0.343317154;-12.26574364;-11.37903262;-168.9651637;-43.13016148;22.36512869;11.82238964;5.681953402;7.371327653;-2.118171419;9.318163253;-1.876877464;-2.334402499;-3.224522633
-10.22386433;-11.28469684;14.59483111;-5.771390509;-6.027791619;-0.174059356;-13.58789641;-15.17709011;-165.5622631;-56.75504933;21.3202425;13.23262246;4.261905404;9.359455439;-3.677152618;10.74275542;0.383944731;-3.236941757;-2.848465576
-11.12716608;-10.45428431;15.01614427;-8.305200432;-8.764702048;0.371616349;-15.95364021;-13.40283495;-153.7590158;-61.50733849;21.82952134;14.85157552;4.506247015;10.59455157;-6.27801989;12.85333804;2.89432182;-4.89129994;-1.566480889
-10.82871964;-4.364453041;16.85203816;-10.37989249;-7.559225689;0.76711775;-17.16879;-6.719189614;-143.2962154;-57.21453928;21.13996154;12.67207877;4.540048828;10.60669754;-7.257712031;13.15141975;3.840828988;-5.248221299;-0.338770397
-9.447943787;4.323995564;18.09502246;-10.92847963;-3.525982204;0.617385744;-16.08018862;-0.539130994;-139.617087;-48.80426672;17.96521154;5.78;3.206272775;9.840333359;-5.229847776;10.44308815;2.771598393;-2.678449491;0.011131296
-7.075308798;11.23456128;18.20180054;-10.21048708;0.275204442;0.052712903;-13.68530765;-0.322282591;-141.08;-42.32077633;13.9891746;-2.276268359;1.271282357;9.352343487;-1.625910962;6.012020271;0.67082975;2.092798523;-0.468380647
-3.977678892;13.00393107;18.01082486;-9.355230395;1.237409197;-0.378864363;-12.23096645;-6.72015569;-142.28;-40.85974738;12.26096195;-6.410109071;0.951036493;10.08957251;0.302717668;2.718890866;-1.097787235;6.118935519;-0.943876531
-0.707508485;9.407248516;18.39827312;-9.172094715;-0.701974347;-0.224844722;-13.12076743;-14.87635294;-139.5969962;-43.14947246;14.20971166;-4.424723473;3.988554033;12.20109721;-1.784358682;2.719388152;-2.051303165;6.38088111;-0.611305882
2.222102673;3.458069635;19.18439867;-9.399352052;-3.064995256;0.43510861;-15.58095405;-18.44618302;-133.893215;-45.34901381;18.28513195;1.257625251;9.856423005;14.87492218;-7.227673872;5.718702852;-2.938684458;2.131430488;0.527546211
4.888751702;-0.569808145;19.38086319;-9.107156696;-3.00279037;1.043212068;-17.3503466;-14.77312289;-128.6110852;-44.38367763;21.53640283;6.144441144;15.69458794;16.84808726;-12.74919758;9.228099799;-4.842648398;-4.505654457;1.648672525
8.087447864;0.073972723;18.39497854;-7.823628618;0.148860311;1.063763223;-16.77934532;-6.796792926;-125.9318969;-40.34818982;22.4791013;7.936863403;18.20539816;17.24123571;-14.98243381;10.54892752;-7.804286831;-10.0915586;1.86196168
12.62082492;4.743963534;16.79135146;-6.223931889;4.090578453;0.467580163;-14.39142792;-0.28972888;-125.0763829;-36.47189234;22.29381866;8.285061464;16.07010046;16.10682513;-13.00640546;8.73942382;-10.24041322;-12.22968383;1.037808262
18.17401825;9.547092461;15.68293614;-5.63141498;5.265923255;-0.246286493;-12.43313856;0.906475966;-124.2072433;-36.91307452;23.07546166;10.29370141;10.95617028;14.29122165;-8.827050049;4.927304461;-9.831866392;-10.880129;-0.058794678
22.83939714;9.434177476;15.31165876;-6.753400321;1.686463586;-0.507042561;-12.79925259;-2.52437906;-123.5099157;-43.9486885;24.91191497;14.32826941;6.298656426;12.74464184;-5.589463381;0.880887349;-5.327358962;-7.852493486;-0.448480675
24.05139457;1.097925274;14.36675836;-8.879391244;-5.427078878;-0.17997804;-15.24794479;-6.884925273;-125.7238326;-56.26830443;24.97874235;16.58481129;4.823796791;11.83487087;-5.198739586;-2.698358433;2.141255927;-5.244603885;0.192124446
20.5119763;-14.8749783;11.00461421;-10.39435772;-12.49691884;0.341508073;-17.58169195;-9.267556484;-132.9696443;-69.26359129;20.04593907;12.3694681;6.741539545;11.18127126;-7.325558032;-6.558826029;9.357223436;-4.254875355;1.259756957
13.62100857;-33.77937688;4.844394867;-10.21554182;-16.18494588;0.531796175;-17.65963976;-9.997145474;-142.7236088;-77.10104767;10.34530274;1.291341054;9.904202227;10.0697181;-10.34559193;-11.70500198;12.83655796;-5.1355683;1.786759425
7.039820267;-48.72159683;-1.956344987;-8.823444137;-15.61780808;0.23312093;-15.39360465;-11.64486738;-147.3248722;-75.55550833;0.950972366;-10.83690958;11.60989561;8.039185234;-13.02859328;-17.91104719;10.89338907;-7.857840932;1.312122038
4.417831175;-53.82543368;-5.850882981;-7.860326723;-12.56601792;-0.212867138;-12.86495604;-15.87903036;-138.7376868;-64.2919796;-1.350404042;-16.02908743;10.50645709;5.147612727;-15.33735475;-23.49049377;4.500245037;-12.49709146;0.27373728
6.903776755;-47.10855559;-4.6180882;-8.588636426;-9.691897685;-0.317898822;-12.42326688;-21.34533419;-115.5506402;-47.49883148;6.345757828;-11.16900267;7.178258609;1.771119501;-17.80313567;-26.6227182;-3.564325263;-18.86458484;-0.408687818
12.42391736;-31.49688667;0.596071041;-10.61831097;-8.525647982;0.061497477;-14.5074718;-24.60621295;-86.54510525;-32.41905512;19.71014664;-1.697217975;3.227149543;-1.775729688;-20.4163682;-26.97700673;-10.50897659;-25.88030406;-0.150672484
17.38349089;-13.37994495;5.808365482;-12.14038599;-8.832763419;0.569044768;-17.21486603;-23.17965718;-67.14929953;-26.25329806;29.39066619;2.185757876;-0.142403491;-5.391548767;-22.35203093;-26.01330468;-14.90765451;-31.57835311;0.828865724
19.46039829;0.536946338;7.090939821;-11.54088157;-9.617227139;0.682065045;-18.04378269;-17.79217428;-70.35745296;-32.78487698;27.57752503;-5.565889351;-2.82709421;-8.987402965;-22.83486826;-25.55983038;-16.82207594;-34.05264552;1.781250821
19.21211669;6.34453546;3.544781915;-8.95304286;-10.523776;0.21734962;-16.21647642;-11.84282364;-98.07811629;-50.4116247;13.88286742;-20.3227825;-5.423056977;-12.19748774;-22.14341597;-25.94385933;-16.92231357;-32.67198666;2.139052871
19.19350716;4.306398369;-2.102049566;-6.288429066;-12.19176572;-0.474121806;-13.42630514;-8.775770489;-138.8929741;-72.7163388;-4.206161219;-29.04094774;-8.305218413;-14.36999589;-21.53137518;-25.48161732;-15.58223458;-28.50623894;1.977576086
21.40718457;-2.107655261;-5.771455776;-5.641677094;-15.27891839;-0.815660712;-12.2924518;-9.904664267;-173.8668802;-91.42174476;-16.7067084;-20.61846049;-11.07429097;-14.92558607;-21.97078386;-21.95127612;-12.73035367;-23.52967488;1.814616544
25.35053218;-8.692703027;-5.267760746;-7.469951208;-19.24815341;-0.532687966;-13.93212578;-14.4921299;-186.7007073;-100.2536493;-18.03214677;3.630853388;-12.75696114;-13.78288064;-22.9554785;-14.82020094;-8.40624975;-19.24525117;1.986833824
28.3963482;-12.81336767;-1.772129952;-10.19828812;-22.27333055;0.094134863;-16.90100825;-21.42957516;-172.0175233;-97.7035594;-10.00256938;28.4521859;-12.44024231;-11.44556863;-22.73035642;-6.192735541;-3.308356119;-15.89324489;2.242298595
28.17358958;-14.19863198;1.547456296;-11.62357016;-22.53034164;0.489318644;-18.50617806;-30.25441587;-137.3069285;-87.30748841;0.973656951;34.51719453;-9.769916289;-8.64159989;-19.9796824;0.505973932;1.30636498;-12.86642126;1.965730218
24.81306715;-14.0762719;2.458484943;-10.83919705;-19.75088269;0.314380354;-17.2963654;-40.17409057;-98.24516988;-75.45986584;9.596193981;12.86113199;-5.049101448;-5.82577542;-15.45795192;3.082327452;4.337387085;-9.840609157;0.828475501
21.0029223;-13.64456723;1.509883525;-8.917672633;-15.57155864;-0.225035255;-14.42130491;-48.30826858;-70.66438815;-68.08847322;15.20999227;-27.21389134;0.908751336;-2.994318742;-11.85894165;2.175153171;5.535410051;-7.476127193;-0.770083008
19.7236447;-13.15893959;1.246040298;-7.747660914;-12.27321786;-0.580992484;-12.5788279;-49.80051107;-63.44412767;-67.97311456;20.54106246;-63.34597879;6.940104822;0.031002351;-11.74014637;0.499851666;5.564740833;-6.964915969;-1.922812263
21.6154082;-12.20730329;3.607680339;-8.162152824;-10.99951728;-0.380706857;-13.50557313;-40.98921172;-75.30325146;-73.94;27.50842548;-75.02365563;11.71905119;3.142713599;-15.21738756;0.396965296;5.40674984;-8.808687079;-1.933086622
24.3157664;-10.69890998;7.908137049;-9.17445745;-11.05879191;0.227041596;-16.34135228;-23.54460685;-96.35529137;-82.05950572;34.47415064;-57.26938691;14.1506282;5.783381926;-19.58557806;1.852241311;5.650618995;-11.98588968;-0.894412391
24.42486819;-9.543535508;11.18619021;-9.083704308;-10.93027469;0.71720458;-18.41108048;-5.559919994;-113.4653051;-87.98921238;37.58665969;-23.12178171;13.94117788;7.273154789;-21.43234615;2.730189018;6.252411401;-14.37346962;0.391314223
20.47113012;-10.33059347;10.58993834;-7.386762541;-10.0006084;0.680314314;-17.7249735;2.648614875;-117.1016443;-89.19284166;34.74419964;6.436384621;11.94021442;7.347526391;-19.53274019;0.968252942;6.852164347;-14.18273875;1.08567943
14.36561484;-14.18950696;5.691893566;-5.578769091;-9.341585304;0.191940172;-14.87470568;-4.18176474;-106.5039399;-85.98975201;28.12923348;17.08602342;9.795988517;6.401530639;-15.95358999;-3.295519917;7.225670712;-11.24735636;0.981932827
10.11494447;-20.69583602;-1.205364488;-5.915465446;-10.71298972;-0.285479711;-12.5308352;-21.47525727;-90.16311309;-81.03837014;22.67383898;9.487811383;8.959849171;5.194273861;-14.26965447;-7.631369098;7.402665924;-7.101224439;0.599793815
10.87194589;-27.67244452;-6.884340788;-9.179742792;-14.66630246;-0.363037657;-12.96743498;-36.99515264;-80.60129365;-77.62331603;21.82395047;-3.947389861;9.728455826;4.273412085;-16.37564392;-9.380337387;7.411084983;-3.814174245;0.669184027
16.72912081;-32.09387674;-9.46704724;-13.58239833;-19.563298;-0.096702588;-15.90207406;-39.22064377;-85.9111216;-77.70196749;24.68824376;-10.01007813;11.15086237;3.652864506;-20.73097952;-8.00686504;7.04301298;-2.585367044;1.501071956
24.90987033;-31.55795027;-9.239732538;-16.01720296;-22.58105905;0.091423455;-18.6902068;-25.89053919;-103.3688416;-80.8047753;27.39734562;-4.264925684;11.97447202;3.045324626;-23.67978407;-5.573332802;6.021088566;-3.215679658;2.796117409
31.94400441;-25.4617102;-7.630422893;-14.72239336;-21.96487014;-0.137270694;-18.74528653;-5.960979671;-120.051385;-84.43568297;27.38446062;7.601472039;11.86202066;2.418144273;-22.73296777;-4.842170619;4.48184362;-4.722665515;3.992511238
35.88867345;-15.25799953;-5.575031374;-10.96769124;-18.5554572;-0.663141187;-15.96388127;6.922191492;-121.0542507;-85.73625043;26.28527901;16.27030651;11.7701595;2.309875717;-18.86146692;-6.671958888;3.260453812;-6.345033375;4.752649086
36.93102476;-3.730019531;-2.855993562;-8.107248743;-15.14120806;-0.989735684;-12.88162616;4.612584616;-100.2051059;-83.35073269;28.29792089;16.76774787;13.06363886;3.544996763;-15.66192106;-9.06711412;3.535535571;-7.943361194;5.109281348
36.3497926;6.272557099;1.150012207;-8.678804542;-14.07754994;-0.721813384;-12.36332871;-9.578403987;-65.52463625;-78.24473791;35.28162501;11.44626944;16.11319451;6.549662549;-16.06622058;-8.81114221;5.964559094;-9.522121355;5.183947255
35.19665618;12.98422112;6.306459962;-12.09095074;-15.20540699;0.016695361;-14.9366689;-23.773168;-34.8117387;-72.9165822;43.44221854;6.528667443;19.70460428;10.87817469;-19.55255723;-4.312185514;9.992032165;-10.54645286;4.843698958
33.94905519;16.22791531;11.44223504;-15.05227894;-15.92672657;0.64580127;-18.25775432;-26.83203394;-23.88981791;-69.58611541;45.51214387;6.210469537;21.94027691;15.4120103;-22.45363823;2.831296208;13.99145184;-9.964338136;3.719075914
33.07492657;17.08484826;15.25370052;-14.49072153;-13.44631972;0.645502045;-19.25259631;-16.57561862;-35.87146248;-68.70941059;37.32669026;9.642192042;21.93631118;19.10274794;-21.19667867;8.958258074;16.25743698;-7.118415948;1.613050256
33.38857435;16.96368514;17.40248925;-10.41147552;-7.27350451;0.053472772;-16.98337712;-0.541535707;-59.42672771;-68.91814592;23.05763557;12.80560878;20.76307122;21.63076792;-15.61517796;11.23523644;16.13193573;-2.734680942;-1.111970128
35.39299807;16.62820099;18.6172946;-6.077728281;0.193627219;-0.535835742;-13.56821385;10.82211301;-77.34852485;-68.36220669;13.62389726;12.79280924;20.62529663;23.41180179;-9.317679767;9.832878667;14.38391565;1.0946226;-3.615450636
38.15408506;15.78331179;19.66174151;-5.231504002;5.53060411;-0.499272977;-12.2512192;12.48821064;-78.80890913;-66.31899531;18.32180876;10.30592715;22.84806709;24.96615103;-6.68941186;7.532804358;12.54319704;2.211716809;-5.140947835
39.15171085;13.48552049;20.26614607;-8.760039063;6.996646415;0.230334074;-14.3731845;7.807675846;-65.96238607;-63.74296606;35.99981104;8.402578707;26.43459372;26.24763455;-9.13455152;7.149891492;11.73581298;0.051830682;-5.583184391
35.8849797;9.081618381;19.24866513;-13.80576594;5.767414623;1.067767356;-18.06387372;4.1624818;-50.27769334;-62.3381126;53.49939678;9.172300707;28.62119344;26.57488414;-13.88786713;9.048134157;11.9564814;-3.749935861;-5.528958461
28.23761497;2.967208348;15.87638613;-16.19817974;4.684711705;1.276735586;-19.92462621;5.748445905;-42.30103412;-62.98532682;53.83765392;11.70830799;27.15204333;25.26244087;-16.44941391;10.91998474;12.31532414;-6.446602267;-5.702751199
19.45677369;-3.446206272;11.17324587;-14.10331451;5.702044437;0.626970108;-18.19041993;10.13692891;-43.56769842;-64.88085433;28.69078524;13.15794164;22.39588958;22.39984963;-14.46356991;10.00115415;11.96659299;-6.183606944;-6.305387577
14.40468892;-8.557045973;7.742887369;-9.636222441;8.30687787;-0.389399209;-14.43350181;11.51371618;-46.98768943;-66.09715642;-14.28165535;11.58569865;17.40727909;19.06248259;-9.600019531;5.764266694;10.88531159;-3.303710887;-6.852835313
16.05153991;-11.52360844;7.985028873;-6.961143836;10.2541193;-0.983960036;-12.16886647;7.239736978;-44.47424089;-65.04171621;-55.25746059;7.805307944;15.72;16.71313914;-5.839599427;0.723542989;9.848946599;0.12970083;-6.669744609
22.97242284;-12.5274536;12.15394386;-8.556815995;9.833194181;-0.756550718;-13.59389022;1.284467897;-34.50070302;-61.55673819;-74.79329014;4.544411832;18.62690966;16.24807495;-5.823185798;-1.382722165;9.700748256;2.174806483;-5.58047194
30.10821663;-12.12412042;18.01221957;-13.00458045;7.536086503;-0.018697945;-17.48225793;0.976956948;-22.88790741;-56.80112107;-66.02454008;3.930467826;24.20079257;17.44164682;-8.607169152;1.473229359;10.5726178;2.626486986;-4.146331913
32.44287;-10.31349663;22.49042525;-16.30500979;5.609803643;0.528125814;-20.2473703;9.837145492;-16.65891059;-52.1802134;-37.89051036;5.770192616;28.8579147;19.1976903;-10.76850606;7.982759498;11.72615873;3.005861573;-3.215408341
28.71503885;-6.311047099;23.96421938;-15.53190212;5.96822813;0.447650304;-19.2622265;23.24755345;-17.19511156;-48.38188654;-7.760185543;8.1467634;30.1055304;20.3482965;-9.66613295;14.47696784;12.09978357;4.954176462;-3.195783409
22.11236698;0.575343394;23.18776296;-11.49052534;8.455091294;-0.055690045;-15.37155217;31.57944339;-19.33655647;-45.32307338;10.3383124;9.556585031;28.15916233;20.34321987;-5.737774947;17.64424681;11.06374076;8.487126745;-3.726643936
17.38717611;9.64576111;22.15229846;-7.939999096;11.09257306;-0.3801842;-12.20297834;28.71773735;-17.18119875;-42.81059391;13.17765696;10.41595979;25.2;19.36162541;-1.771353277;16.79306227;8.780058594;11.72147178;-4.049930759
16.88691619;18.38664805;22.04899926;-8.087509051;12.06198981;-0.13921125;-12.8282659;18.56959175;-10.71395701;-41.0004745;7.096853589;12.53461925;23.17085425;17.92527786;-0.073473748;13.99077716;5.967822118;12.40057345;-3.726134512
18.9146527;23.68149353;22.30708895;-11.59213798;11.51426155;0.454464277;-16.84058057;13.10576692;-6.378569813;-40.04463711;0.770400478;17.20158643;22.2366527;16.47241426;-0.465231983;12.21941478;3.37077281;9.927198265;-3.017873505
19.75498166;24.0030636;21.58355546;-14.87815488;11.45333212;0.804436646;-20.61961474;22.43775214;-10.47206319;-39.34018225;-1.37306163;23.8231822;21.26097869;15.2465913;-1.108239232;13.19011266;1.380810249;6.095451765;-2.591222202
17.43172295;20.85;19.63062048;-14.50918139;13.75861978;0.5348645;-20.64138024;44.68268041;-21.50547628;-37.44849134;-0.339421621;30.40109357;19.63191755;14.43790319;-1.198312546;16.47177771;0.019694329;3.794238561;-2.845089959
13.73057071;17.9992192;18.04925937;-10.50412762;18.21138048;-0.11155951;-16.81310827;64.54602628;-29.41428333;-33.2227942;1.024137812;35.28262484;18.44012311;14.24589685;-2.507497106;20.30230973;-0.863595636;4.722983029;-3.534404034
12.62448682;18.80386351;18.99178313;-6.463367729;22.45176464;-0.485581471;-12.68513039;63.1207962;-23.56739391;-27.34537009;1.952813008;38.41844268;19.65561997;14.68647644;-7.766188475;23.10263744;-1.429174657;8.070836283;-4.053655912
16.5487761;23.49360988;22.94360964;-6.294880716;24.00960171;-0.165883304;-12.22534062;32.2479054;-3.006161608;-22.65214029;4.266299353;40.95688701;23.98068171;15.34970749;-17.13842836;24.41294199;-1.800156;11.33051504;-4.080921202
23.9743368;28.70409057;27.78832195;-10.52366704;22.56233567;0.596907918;-16.07315956;-17.60281742;20.75154222;-22.34989282;9.630285722;43.72111101;29.52026694;15.48310232;-26.38742936;24.7594257;-2.036797859;12.58060324;-3.906973342
30.56611709;29.86214831;30.30166006;-15.64981045;20.26793192;1.078934585;-20.79095636;-62.66845953;32.14483473;-27.13473746;16.916677;46.20902066;32.82359391;14.49410697;-29.22569308;24.93695384;-2.063685113;12.25616344;-4.079028831
32.91995019;24.75385662;28.91924274;-17.26317956;19.7594484;0.765063728;-21.93988055;-81.24702378;24.86659208;-33.6396516;22.55521556;47.15134262;31.64815138;12.48906604;-22.48043731;25.46579278;-1.660593654;12.80365234;-4.696167043
31.46316016;15.49738301;25.249622;-14.11585359;21.60553644;-0.129182829;-18.23392487;-68.0479446;8.310204184;-36.05397483;23.52689453;46.00716268;27.01831471;10.30271063;-9.60253685;26.48773297;-0.677208499;16.40751704;-5.10335385
29.83274254;7.253247508;22.77468287;-9.363114619;23.65007813;-0.817229674;-12.89925247;-37.05312301;0.444751779;-30.29678388;19.98194219;43.76915207;22.5599926;8.866926965;1.122226007;27.80460331;0.595966607;22.67332229;-4.397763611
31.28813274;4.538943958;23.7337079;-7.718944014;22.98598776;-0.667064851;-10.83987021;-10.98132004;12.13385805;-17.71625143;14.93041876;42.13612487;21.47232986;8.40558216;2.842000353;28.77324886;1.270774645;28.29323725;-2.357568827
