Channel 1 - P4;Channel 2 - O2;Channel 3 - P8;Channel 4 - T8;Channel 5 - C4;Channel 6 - Cz;Channel 7 - Fz;Channel 8 - F4;Channel 9 - Fp2;Channel 10 - F8;Channel 11 - Fp1;Channel 12 - F7;Channel 13 - F3;Channel 14 - C3;Channel 15 - T7;Channel 16 - P7;Channel 17 - P3;Channel 18 - O1;Channel 19 - Pz
-2.694186278;-13.740933;-5.803262285;-75.58807615;-32.79854591;-19.26524401;-75.44519404;-34.5010159;-45.55627482;-11.72037159;-27.44829611;-31.66624527;-45.11030694;-42.44626792;-72.53747371;-46.11842886;-23.36152203;-17.61376149;-32.45788777
-39.42070187;-42.37144916;-41.89951354;-46.90620676;-47.80778997;-30.94261853;-43.40822805;-59.11996002;-79.86037817;-53.65958076;-54.0543082;-57.23161362;-64.45444457;-62.22291037;-25.53944667;-57.25258127;-54.46929444;-58.12323572;-55.66349044
-56.13420526;-49.28907936;-55.21146484;-2.146898158;-44.32357196;-28.75869063;2.025105583;-59.49921009;-76.80458331;-69.38082178;-57.64400066;-40.91940305;-55.81050883;-51.04618198;17.3519547;-29.11245864;-55.99717246;-65.86346687;-56.26639956
-45.54841512;-33.72489363;-39.62458874;31.69278284;-27.51258093;-14.32106725;34.63701536;-37.14438725;-37.82229773;-55.0080193;-27.77428888;11.53556727;-23.59788762;-15.89131993;33.00776688;21.7554533;-29.14927892;-38.78707685;-35.01813066
-18.26450739;-7.86784161;-7.956661334;37.28315767;-10.47253879;2.980591172;39.03195535;-7.964470295;10.71433153;-25.76;23.35247116;71.44196845;12.64842879;21.75551513;20.49771721;65.02751183;7.371060509;2.713211543;-6.516173156
5.64093309;12.21375847;17.99678683;17.99552851;-4.436281397;12.76646969;20.02888538;9.351926561;37.50775461;-2.983305173;67.68382286;104.7180343;31.8883363;41.08738294;-0.148986506;77.67100072;31.03320943;31.44025783;11.51426658
11.2935592;17.44737915;23.31635341;-6.797598142;-11.01202761;10.83561846;-3.076846614;6.394852704;29.83879942;1.906191521;79.26796067;92.75568867;25.9878193;35.83241812;-5.357119592;58.85513182;30.9451333;32.81691166;10.62303504
-1.241152971;10.42758904;9.588587252;-17.60415205;-22.13403355;1.395610375;-12.05082443;-10.16902582;2.190437234;-6.005834743;50.816531;42.65450915;4.292543154;16.73101675;12.71977777;28.03045864;13.74427826;13.36818548;-3.570471621
-18.99172299;1.185211684;-8.431290617;-9.038346346;-27.21100496;-6.973150724;-2.663082033;-25.11153813;-16.49831313;-12.26503756;-2.412278475;-19.12158275;-14.58178147;1.633898456;40.47649524;8.674049576;-3.634480605;-7.155949588;-17.24846584
-27.31342344;-1.679817683;-15.51229967;8.270455769;-21.46991701;-8.104860952;14.41367217;-26.76987834;-6.388799637;-6.82818408;-53.3252028;-64.00936992;-16.91795458;1.61438065;54.77095776;10.90506178;-7.746262968;-12.45781447;-19.65076508
-20.96068375;2.814325852;-7.471140663;18.33821856;-9.000748664;-2.427626889;24.12799772;-15.16185945;27.81410484;7.42428942;-79.99138168;-77.24163498;-3.069636056;13.8750767;42.24625293;26.11231364;2.001649139;-1.466564777;-10.67616853
-6.633123306;8.884091193;7.196520091;13.4203044;1.361524176;4.37727382;19.57071;-0.262659338;61.45650509;18.12599675;-77.0945248;-62.67514765;14.77810614;26.10719558;10.21470791;36.46996164;14.99532776;13.3461928;0.640144022
3.944134175;10.14175976;15.77108894;-0.574908826;3.412468904;6.598945445;6.433766574;7.249927477;70.09245877;15.03105876;-55.21814026;-35.75729668;23.44035713;27.66381673;-19.35038114;30.42487254;19.49029723;18.14742757;4.612037612
3.875377037;5.285955433;12.06634369;-10.40446199;-1.921217036;3.072809685;-3.228374327;4.712345831;48.47136504;-0.691797455;-30.62047816;-11.82307346;18.94828949;18.00941515;-27.21550645;11.36995817;12.21250033;9.349802215;-1.130868132
-4.215591584;-1.366081393;0.636459893;-7.259506078;-8.23624073;-2.46233398;-1.701311499;-1.326913388;13.34430788;-17.44788075;-14.239179;1.625597798;8.280569952;5.994946119;-11.26069892;-6.681138403;-0.102336233;-4.782567903;-10.5576159
-11.71810999;-4.343360512;-8.260462181;6.205665532;-9.491697239;-5.050613968;8.460058594;-1.761844967;-11.12664756;-23.28406949;-7.4910315;4.990968457;2.202317688;1.501645633;13.42253586;-11.59193949;-7.537618082;-12.69534546;-15.20800959
-11.89527555;-2.096089323;-7.842635076;18.98392579;-4.864851059;-2.800193504;17.68263032;6.698082775;-12.46343887;-16.06652518;-5.932924646;1.81415381;5.943872331;7.052537472;27.83164993;-2.771951397;-5.656894531;-9.874268729;-11.58305039
-5.146991399;1.816120702;-0.115055569;21.49363373;1.236705756;1.847356449;18.18018111;18.58231182;2.250661243;-4.994573315;-5.780058594;-5.302822469;15.52209724;16.32741336;24.14063064;9.655761498;1.39;-1.836685736;-3.637911416
2.285762289;2.176848969;6.743891032;13.29439578;3.50014489;4.628118683;10.38308743;24.34269774;15.17373311;-2.362170045;-7.248084484;-14.97522241;22.12175037;20.20833934;10.3368474;14.49081312;5.363663761;2.156362469;1.294158823
4.250348733;-3.12021873;5.994951678;2.488093874;0.311665158;3.279671205;1.777731615;18.40147304;14.44347234;-12.83464444;-12.66233085;-24.8661121;20.06498101;14.6784674;1.591315985;9.007643842;1.503023749;-1.723307714;-0.869850335
-0.287338949;-11.20707436;-1.907209135;-1.910482704;-5.255901982;-0.684726541;-0.173384247;3.745606499;4.013383145;-29.40464446;-22.21607967;-30.65471006;11.33508751;3.826633414;6.647524856;0.358172969;-7.576548404;-8.370058594;-7.662844102
-7.198266332;-16.68234637;-10.11827313;2.478260509;-8.536640044;-3.593962058;5.539477434;-10.51536679;-1.471824711;-39.25816143;-31.92226804;-28.05424833;3.175605262;-4.143327645;20.98805553;-1.681276876;-14.71162485;-8.920340315;-12.69892752
-11.48426488;-15.96242575;-11.53945657;10.33239215;-7.388276159;-2.967563524;13.16604148;-16.22666239;8.54013088;-34.34496035;-35.77193048;-16.27491774;1.475973121;-3.971974076;31.96291356;6.308224227;-14.79301044;0.420813902;-11.55454761
-11.63261464;-9.733575585;-4.667393843;14.30276222;-3.677913189;0.423061273;15.77570562;-11.89990209;29.66289753;-17.73057211;-30.11979055;0.47813097;6.022273734;2.691365278;30.57451957;18.6055359;-9.149558567;14.18322262;-5.580788731
-10.23382807;-1.6965856;5.716062819;11.81857766;-1.097705942;3.464990702;11.41898148;-2.660724248;45.52470413;-0.721643163;-16.4780148;15.28970422;11.56870928;9.443428652;19.29660333;25.82391639;-4.05076218;22.04759416;-0.442121535
-10.81422295;4.827718286;13.07773548;6.896486285;-1.587080434;3.580252412;4.458473662;4.872391266;42.11325181;6.363381306;-0.528947087;23.01387941;13.29392854;10.99538974;9.364618284;23.41229847;-5.002794792;17.99369312;-0.939697097
-14.23035407;9.203709039;14.52344635;5.736738826;-3.702486179;0.92958771;1.259138178;8.007310031;21.00105348;1.87769606;11.5532671;23.34967733;11.44003906;7.427710101;10.42758728;15.59223221;-12.05754673;5.95131811;-6.823161981
-18.0289387;12.85084006;12.39294369;10.54761246;-4.295316681;-1.928382453;4.417454157;9.19392712;-0.3482201;-7.061305069;16.44862933;20.12785936;10.97196706;3.382048492;21.92266705;11.46573768;-20.14865687;-3.250768131;-13.19115788
-19.13218996;16.74879928;11.1581654;17.38162754;-1.76974064;-2.449629428;10.70840027;12.56367945;-2.143875187;-11.38598022;14.51957052;17.69677459;16.74952818;3.415549433;33.62567881;16.96146537;-23.84409766;-1.151660621;-14.91300437
-17.06688348;19.80424556;12.90851506;19.83629085;2.189009329;-0.336301485;14.31949722;19.37903099;21.10295692;-7.501439025;8.368423529;17.651465;28.69832895;7.952601185;34.59050931;29.72157739;-22.08444404;10.89582364;-11.04731735
-14.59281772;19.7451669;15.62809776;15.04940025;4.033733704;2.359725022;12.17799498;26.59196602;54.5148485;0.842471385;1.010216399;18.55084709;41.31737286;13.34159105;22.49883868;41.19389602;-18.74672699;22.65736527;-5.444688101
-15.16898565;15.58837748;15.57587197;6.438334081;1.619381341;3.212999539;6.52183345;29.61649434;72.61671473;7.081664219;-4.890842486;18.40175528;47.90673321;15.59112822;5.427458771;43.84035506;-18.77677734;23.66141761;-3.220455668
-19.69322887;9.119631622;11.231702;0.736824322;-3.67314131;1.600950664;2.594548023;26.58037673;57.64471103;8.088659599;-6.939246516;17.23617919;45.77569621;14.10936913;-5.126216531;37.1296135;-23.55897089;12.2066592;-6.359593047
-25.58278624;3.763688011;4.98513229;2.096462306;-7.908234307;-0.86129043;3.7945957;20.14405679;12.52301856;6.469729608;-3.285469532;17.24847539;38.01221737;12.03566326;-3.63625103;27.36024383;-29.69408101;-2.978572441;-12.26798544
-29.03994168;1.771854644;1.022620951;8.590058594;-7.852970947;-1.908728183;8.742278819;15.32483611;-40.96734098;7.270666907;6.213390677;20.432847;30.56882533;13.06686543;5.651363268;21.86531958;-32.15565082;-9.890248314;-16.30998233
-28.40876869;2.348767857;1.455492956;14.16171646;-3.701733108;-0.700789461;12.7755132;15.3652098;-76.88081295;12.59590287;18.91681559;26.10186426;27.47029352;17.883841;13.27409424;22.84556161;-28.87602121;-3.212187517;-15.87419852
-25.5820408;2.530895607;4.307216353;14.1212568;1.057440406;1.504263963;12.30107131;19.2972424;-81.48182893;19.28074533;29.93304956;30.81926656;28.29822083;23.49711768;12.94965098;26.02375943;-22.65292469;11.24459897;-12.36661911
-24.25224065;0.054623987;5.199196182;9.188412735;2.465514055;2.607431207;7.958940817;23.17490887;-59.91774577;21.67113494;34.60958833;31.04125654;29.75916764;26.01330781;6.371856795;24.87049651;-18.76818735;21.2539438;-9.584567603
-26.65601266;-4.455660127;1.181117075;4.553404728;-0.83035648;1.628133492;3.825268766;23.63961774;-29.92535349;16.80501796;31.4332299;26.21346086;29.41394428;24.1693218;0.647153869;16.40205337;-20.52296626;18.0119689;-10.17877236
-31.72705816;-8.056524761;-6.731754928;4.984118049;-6.771670731;-0.442221124;3.567193162;20.55593476;-8.772081312;7.211165947;23.04733569;19.54955518;27.93290323;20.36795059;1.294750238;3.554339505;-26.62373351;2.950719364;-13.44266345
-36.18481777;-8.308186539;-14.48982477;10.49708372;-11.82695425;-1.622054437;7.154219784;16.52422487;-3.281650557;-1.130065918;14.40302831;15.69601495;27.93827614;18.33691659;7.384823571;-7.548763587;-32.57850928;-13.87640315;-16.25282077
-37.41797792;-5.688649;-18.43459417;16.44595777;-13.82428883;-0.79566584;11.06043454;14.01958438;-8.823674966;-3.688422665;9.393238984;17.19032702;30.84566919;19.64765582;12.98162462;-12.65776371;-34.69092329;-22.13875075;-16.06787071
-35.52735717;-3.261588243;-18.10495844;17.79933494;-13.24922552;1.275585284;11.61514263;12.99292361;-15.76641091;-0.712968955;8.603032056;22.65285553;34.95766288;22.31482563;13.08611247;-12.31747031;-33.06895078;-19.19627172;-13.15381647
-32.83928843;-3.826833735;-16.04848747;13.64064501;-12.12089934;2.682972032;8.337368184;11.1743925;-17.15751924;3.816881977;9.847551157;28.1388795;36.75220981;22.71997897;8.28320848;-10.44854193;-31.11837925;-11.27571186;-10.10660905
-31.58417401;-7.216782822;-15.07492513;7.855639543;-11.73524958;2.13139513;4.241646384;6.704193672;-12.2219765;6.354359947;10.77641326;30.39024738;34.17221421;19.039521;3.808641995;-10.33902715;-32.18770788;-7.371653605;-9.308702911
-32.01066717;-10.38;-15.64654867;5.514857085;-11.43179642;0.108532363;2.965679417;0.529820465;-4.73445347;7.057138395;11.11775107;29.21435887;28.74473201;13.01485037;4.162242126;-11.84798152;-36.47399346;-11.39573075;-10.77881907
-32.59681497;-10.33397375;-15.79094198;8.323224894;-9.43212284;-1.581487818;5.450307653;-3.778137646;0.839174781;9.171229357;12.61149672;27.12204326;24.39561683;8.456927578;8.601663174;-12.16941563;-40.89746859;-19.20721734;-12.3560736
-31.92817027;-7.290305336;-13.44888616;13.23089468;-4.833227245;-1.460214067;9.19784891;-2.779878919;2.057542775;15.23706658;16.85814627;26.7774382;23.91304859;7.858463468;11.96344621;-9.120650474;-41.90919024;-22.71722005;-11.9054831
-30.26864224;-4.88775253;-8.888952498;15.33778169;1.174199545;0.312194658;10.68040486;3.859648187;-1.091537575;23.78424716;23.18960128;28.59853856;26.28167317;10.17657111;10.13464639;-3.740339888;-38.632096;-17.24722855;-9.386604371
-29.26838829;-7.000015259;-4.82379668;12.35003906;6.002717008;2.120111118;8.591200834;12.7584927;-7.064096759;29.72455069;28.57984992;30.51918863;27.4334155;11.75916842;4.917148698;0.172976345;-33.57963586;-5.800370496;-6.856268699
-30.14773111;-13.81357251;-4.080176608;6.554383909;7.638116544;2.364194901;4.95234404;19.12129801;-13.5563426;28.27140287;29.71323777;29.91796115;23.90891868;9.561558518;3.306084288;-0.928014378;-30.44889112;3.241119054;-6.474781198
-32.20787836;-20.82192401;-7.000076294;2.633706294;6.120362093;0.869761143;3.148113681;20.0615795;-18.00447867;19.00954155;25.40392903;25.88426577;16.24066159;3.799624785;11.24025664;-7.499862767;-31.04383205;2.900255728;-8.441239307
-33.20812033;-22.0264897;-11.02546824;3.42274172;3.286491538;-1.017173191;4.782280155;16.29771488;-18.39483581;6.571135297;17.34150508;19.88597214;8.993236192;-2.238610517;27.18440672;-16.6186302;-34.00230022;-6.793339121;-10.79257415
-31.33880902;-14.91548236;-12.91063136;7.470675583;1.123771957;-1.679863076;8.264721128;11.07710826;-14.49856131;-2.676924413;8.719283491;14.46160618;7.260735054;-4.949181005;41.59172853;-24.24759317;-36.26245789;-18.83057065;-11.21705168
-26.95330194;-3.000565625;-11.58285267;10.52790336;0.269058706;-0.660682022;10.3619389;7.504627882;-8.572372886;-5.140718655;2.13207523;11.27794172;12.51366758;-3.260858209;43.5056398;-27.93790897;-35.78069819;-24.61143054;-9.158818446
-22.39518549;6.463885298;-9.059599977;9.493514548;-0.07357191;1.006477388;9.203795135;6.566263419;-4.421971116;-2.039918053;-1.472440177;10.25930895;21.29229832;0.830208781;29.31549729;-27.78149596;-33.06381013;-20.24824242;-6.259363415
-20.01126895;7.930548716;-8.579120147;5.213419217;-0.911482797;1.803465987;5.954835537;7.223556822;-5.005054727;2.39945576;-2.272212529;10.32559594;27.83925777;4.285264495;6.434989645;-25.26375998;-30.32520016;-8.967562451;-4.765063673
-20.1307943;1.766975752;-11.60888019;1.670470132;-2.232005903;1.108736309;3.65909452;8.016535589;-10.29007813;4.695797924;-0.532535449;10.77032542;28.4567663;5.620986115;-11.46118496;-21.52143222;-29.25950708;1.80972578;-5.421343635
-20.83883856;-6.255694398;-16.39530814;2.405034527;-2.957091739;-0.304242282;4.392106033;8.45267002;-17.21911021;4.505253442;3.59447494;11.86081709;24.01138498;5.769772796;-14.15547142;-16.71961283;-29.55546704;5.991501288;-6.819647408
-19.73675476;-9.767191374;-19.33186448;7.423209847;-2.067001419;-1.055190931;7.372232946;9.001700504;-21.96153206;3.906133225;9.270894114;14.1610954;18.69445015;6.640835449;-1.97615776;-10.84307266;-29.41679347;2.625557617;-6.781391583
-16.08312827;-6.901809688;-17.92694927;13.27392415;0.265054176;-0.45609279;9.739678164;10.05515431;-22.6250035;4.723694754;14.37706716;17.39311289;16.33436511;8.944023944;15.21721049;-4.694924025;-27.44140228;-4.455849692;-4.463733496
-11.39694147;-1.511158958;-12.78716728;16.05466569;2.678561057;0.883858788;9.230408916;11.1901051;-20.14893076;6.628676948;16.33511051;20.0923116;17.4804165;11.39260035;26.07229612;0.207419888;-24.02041093;-10.18852606;-1.217180622
-8.039496994;0.383950395;-6.971281601;14.55476954;3.80318171;1.671458305;6.256259481;11.60489857;-16.76772126;7.710785511;14.08752702;20.5078653;19.57737227;11.97213523;26.19033824;2.852864153;-20.98239186;-11.90842366;0.600967368
-7.126040467;-4.206040829;-3.410177031;10.8201448;3.491097207;1.153143089;3.498904955;11.23884583;-13.68802359;6.723906943;9.456914407;17.9695294;19.75843745;9.969951485;20.36444125;3.787493144;-19.89919168;-10.49212749;-0.241178245
-7.669945779;-12.75833186;-2.712764656;7.909870616;2.906818142;-0.195884323;3.435598864;11.26198524;-10.31272037;4.629019487;6.243045399;13.4782682;17.59783522;6.777008591;17.34976738;4.763665342;-20.67831947;-8.775719181;-2.73326174
-7.667019656;-19.40786747;-3.18706855;7.135544916;3.346030806;-1.13577736;6.09241339;13.18343485;-5.739064963;3.833554726;7.337921186;8.994492789;15.41174973;4.689158001;22.01131496;7.136268684;-21.71761554;-9.033250535;-4.535037131
-6.032830761;-19.74661406;-2.836341726;7.340978357;4.871082962;-0.822552012;9.064997457;17.24739899;-0.859892429;5.817345861;12.17035134;6.083005655;16.00253206;4.85183987;31.49688435;10.48575386;-21.39638848;-11.52245651;-4.068409012
-3.573953666;-14.16178947;-1.360208816;6.675566266;6.068711547;0.418144526;9.739698285;21.65997466;1.42295872;9.440671211;16.89746132;5.099351317;19.98365935;6.295905094;38.30583798;12.86535151;-19.46198035;-14.78767361;-1.878306616
-2.138376976;-7.096990874;-0.328286732;4.909844821;5.233919558;1.405381867;7.65022028;23.59654975;-1.35604147;11.64604198;17.55034806;5.505194531;25.07245169;6.968196288;37.18405958;12.57844395;-17.04588794;-16.94753411;-0.048739669
-2.804683011;-3.196154711;-1.480752831;3.903059299;1.970367231;1.19415917;4.831369034;21.34850945;-8.12172407;10.05317369;13.63101208;6.798809684;27.9096612;5.77370107;29.72983462;9.890019531;-15.38322287;-16.76480155;-0.250090942
-4.828636816;-3.803211604;-4.850346135;5.714344487;-2.225878789;-0.06935735;3.902254623;15.8334063;-13.65014943;5.16185314;8.950322322;9.017975066;26.7691445;3.692809569;22.8459059;7.028381476;-14.52444605;-13.9357064;-2.224613537
-6.307138653;-6.662941132;-8.508953626;10.21266469;-4.970428034;-1.300288624;5.67792499;10.10705274;-11.80188111;0.15642128;8.666081493;12.30840774;22.86073926;2.902000656;22.57678569;6.35403087;-13.29597583;-8.881334472;-4.078179229
-5.900441032;-8.657164354;-10.17957813;14.61696977;-4.773869875;-1.469111616;8.487432908;7.17669604;-0.530464677;-1.611080399;14.80306532;16.09394867;19.25109893;4.693270501;28.74299781;8.279721442;-10.55555288;-2.569128802;-4.070499832
-4.000308054;-8.79848138;-9.20869354;15.62113452;-2.12602409;-0.511597437;9.76681534;7.869715222;15.40070197;0.632470616;24.08280244;18.87949423;18.45143632;8.117623094;34.94025751;10.81849551;-6.55322318;3.501450848;-2.235304925
-2.300004883;-8.754544478;-7.074978508;12.28645773;0.977557177;0.665003845;8.413139587;10.46753483;26.66594744;4.377015827;30.13255397;19.14096182;20.68707226;10.62759182;33.82214781;11.20570447;-3.091565216;7.458669101;-0.349920507
-2.226750588;-10.66237581;-5.977859488;7.046130821;2.591614755;1.049498478;5.737622671;12.30472548;25.39841889;5.688859645;28.4432162;16.63819543;24.07931628;10.17053454;23.17882545;8.17905849;-2.264331679;7.643350062;-0.306636454
-3.708399628;-14.52655289;-6.812382754;3.78820925;2.123161865;0.442987658;4.193461233;11.89162947;10.6301513;2.055820534;19.98805337;12.918401;26.29478446;6.868449918;7.815680363;2.916845308;-4.827863621;3.448162242;-2.390899593
-5.351595468;-17.77158418;-8.373725277;4.615261211;0.377650113;-0.415859333;5.105324847;9.775052114;-10.95138779;-6.018612245;10.42403378;10.36978887;26.15487189;2.807884585;-4.139987696;-2.13325907;-9.573546906;-4.133064597;-5.022752212
-5.745087424;-17.39016383;-8.481576874;8.118106607;-1.486983243;-0.59993363;7.502592443;7.558298364;-29.47997022;-15.69508118;5.507404787;10.45880448;24.03147558;0.178857057;-7.315984259;-5.391040245;-14.17944168;-12.69569762;-6.154614741
-4.593878349;-12.65371633;-5.961539953;10.69687154;-3.019788294;0.109726449;9.089615579;6.137932926;-38.20489015;-23.88660821;6.584426694;12.58482926;21.06729443;-0.535217943;-2.657557046;-7.272803124;-16.76720727;-19.32772314;-5.017830803
-2.665506424;-5.837617036;-1.678659254;9.770340131;-4.601401791;1.023216169;8.401251095;4.821812347;-37.01575916;-28.97215907;9.936310374;14.54541017;18.16710366;-0.722863318;4.072519741;-9.342471841;-16.89106847;-21.76565859;-2.643951777
-0.757281198;-0.293320091;2.263785636;6.04768804;-6.665789628;1.211822722;6.130635568;2.08557228;-31.05259577;-31.0278795;10.4060091;14.26823937;15.60151795;-2.111076601;7.190279882;-12.39801362;-15.31078261;-19.26677811;-0.76295434
1.15895039;2.322061499;4.352008533;2.881934385;-8.921627361;0.406056725;4.428376369;-2.812358335;-26.13636039;-30.90682958;6.03767238;11.40037243;13.26981584;-5.011900646;5.204158181;-15.40307186;-12.99632623;-12.88895552;-0.179766082
3.707957996;3.093004111;4.807339898;3.310888241;-10.42575424;-0.7272471;4.868475112;-8.894491203;-24.86325812;-29.32582902;-0.338125265;7.488286462;11.07221037;-7.961916204;1.047244437;-16.35;-10.36382567;-5.127797488;-0.16286007
7.060498654;4.261669916;5.040697839;7.405335608;-10.47440986;-1.190345917;6.990236414;-14.07484768;-26.04053626;-26.7208065;-3.853898439;4.695258704;8.967261846;-9.028377746;-1.203396698;-14.26939799;-7.325002494;0.997047373;0.629011421
10.22632573;6.60889568;6.021898278;12.21818486;-9.427544064;-0.578586398;8.75540857;-16.75637508;-27.04067244;-23.62123114;-2.095777263;4.202680867;6.838023798;-7.519566487;0.038956051;-10.44522646;-3.852384215;3.189197152;2.633501612
11.57385488;8.390861964;7.182914399;14.30408212;-8.592797663;0.536627511;8.465990579;-16.99224101;-26.42213621;-20.77727419;2.762125609;5.590643722;4.558068344;-4.521694017;2.929141841;-7.564841425;-0.309443745;1.010518341;4.790156081
10.24381107;6.956078493;6.946972496;12.55501263;-9.16953282;1.122524947;6.345191294;-16.24282534;-24.55389519;-18.71902183;6.080465648;7.526054944;2.32532714;-1.838869932;4.358905355;-7.43982951;2.832627606;-3.73867529;5.483986139
7.161932516;1.586440806;4.40891131;8.919760997;-11.16881648;0.624084602;4.321308766;-16.05482942;-22.26705529;-17.24992856;5.135246532;8.937398255;0.830078125;-0.414872254;2.963017575;-9.320644042;5.519280093;-7.861288582;4.157343834
4.614859765;-5.175850957;0.553922516;6.519102472;-13.31131712;-0.534256691;4.233860852;-16.90493028;-19.43179271;-15.60704075;1.683626044;9.567813912;0.808686496;0.251110014;0.219595265;-10.38511072;8.188784082;-8.601990289;2.034326733
4.631433737;-9.184649905;-2.233952172;6.938729182;-14.0560104;-1.339936006;6.135406922;-18.17784178;-15.14104959;-13.34511802;0.283394548;9.563362422;2.158595496;1.200264812;-1.153125303;-8.069417567;11.17630003;-5.427789233;1.182839041
7.513853968;-8.071279668;-2.0662924;9.074736852;-12.89245379;-1.11230297;8.255134436;-19.11321218;-9.295799247;-11.11321813;3.822620744;8.765761288;3.449011502;2.600194704;0.170531697;-2.248142632;14.00117754;-0.453391966;2.684901066
11.74451901;-3.386135751;0.791040794;10.3936579;-10.77101885;-0.109480838;8.641724218;-19.66725111;-3.797888197;-10.38855804;10.33637057;6.632799925;2.573903288;3.308164746;2.937661203;4.62893723;15.36241539;3.01067202;5.56750566
15.26606063;0.531798436;4.010548795;9.303728756;-9.293653797;0.722567528;6.957184733;-20.41834304;-1.832995022;-12.16389983;14.14120359;2.971244376;-1.654368356;1.943688994;4.595788592;9.546205873;14.077767;2.916769611;7.525218056
16.9547254;0.160413066;5.061994048;6.466680419;-9.374078328;0.614507084;4.771536894;-21.67436621;-5.572581525;-15.7158256;10.49669882;-1.302566556;-8.187400341;-1.514161154;3.760742519;11.30486367;10.26138872;0.137982463;6.873589626
17.06995993;-4.162989148;3.297154894;3.993716154;-10.5281769;-0.344575471;4.103909733;-22.78100769;-14.23566041;-18.75052194;-0.191241843;-4.346425759;-13.97478732;-5.209557641;1.547853321;11.21975811;5.655200956;-2.071938429;4.040916886
16.53594236;-8.427420263;0.492046521;3.439653349;-11.37748413;-1.319728525;5.567571032;-22.45380186;-24.27375565;-19.10141322;-12.30913374;-4.634672368;-15.88325197;-6.661930211;0.527840858;11.61027631;2.651184973;-0.591201306;1.269914441
15.99541233;-8.3;-0.614518342;4.510500209;-10.87306836;-1.51081009;7.8227679;-19.93097516;-31.63097091;-16.66537831;-19.24335328;-2.25891277;-12.97449468;-4.828260283;2.26293129;13.5250239;2.672543559;4.93333142;0.756409242
15.60829313;-2.846579124;1.451087058;5.593226045;-9.140676293;-0.869830343;8.821410649;-15.8731929;-34.26141445;-13.8118954;-18.31025868;0.968301343;-7.339216236;-1.162383401;5.697159302;15.76248584;5.206178968;11.43575548;2.82294185
15.58443359;4.534005419;5.756071382;5.45584409;-7.235815924;-0.102153343;7.681107732;-12.08985518;-32.9518046;-13.64661518;-12.30809851;2.894753776;-2.7259409;1.36408817;7.940668559;16.01270668;8.290019531;14.433063;5.695659423
16.53793006;8.767882049;9.789250275;4.42722884;-6.101199857;0.025717823;5.467148805;-10.23952679;-30.0417844;-17.37110974;-6.598461599;2.80231832;-1.965316629;0.551124257;6.845040969;13.00936581;10.04342798;11.26134113;7.053127551
18.95014623;7.127840019;11.46421092;3.967315146;-5.71907591;-0.589666174;4.185678559;-10.63141124;-27.38358886;-22.92580432;-4.484653525;1.979773282;-5.18049361;-3.33677785;3.101515937;7.708548473;9.950378629;3.081061707;5.985913561
22.17221254;1.269133468;10.58018004;5.129479848;-5.228192627;-1.307889686;4.937753253;-12.19731253;-25.27984333;-26.20837205;-4.950804305;2.452884135;-10.11427515;-7.899585548;-0.104592529;2.4556509;8.851661889;-5.919802738;3.684457869
24.2336857;-4.345461892;8.602512279;7.455064889;-3.860646024;-1.370331676;6.935536541;-13.63034737;-22.98154261;-24.08382921;-4.498612377;4.882513607;-14.14284351;-10.64232214;0.221563825;-1.044533022;7.760854195;-11.52774392;2.314068129
23.17544174;-6.207362401;7.125929979;9.366733862;-1.797740842;-0.634225385;8.26451306;-14.59451889;-19.85783809;-16.87559883;-1.065799514;7.518757603;-16.20496644;-10.95833698;4.072150321;-3.085347101;6.657975837;-12.40421874;3.109126512
19.01416779;-4.526663748;6.462620333;9.64659644;-0.130513273;0.27853644;7.662415059;-15.84319504;-15.97027495;-8.364380596;3.751947402;7.31944456;-17.10353697;-10.38915222;8.023153095;-5.452153021;4.404085667;-10.70720527;5.346008781
14.37104743;-2.784909914;5.554793573;8.541543192;0.056927733;0.558661301;5.666619598;-18.13850362;-11.70972499;-3.271595345;6.196662782;2.475714471;-18.18100546;-11.04491137;7.891831982;-9.598691467;-0.124195662;-10.10125496;7.028416432
12.61677561;-4.633699141;3.152463162;7.424824901;-1.344441603;-0.028022897;4.088104653;-21.0588328;-7.282170554;-4.153940483;4.015898323;-5.761006376;-19.80914985;-13.66866987;2.544857428;-15.22767124;-6.712985076;-12.86238;6.615950109
14.70324426;-10.85481979;-0.905341688;7.366221529;-3.325055107;-0.908693614;4.322289155;-22.96391711;-2.925733674;-9.998250192;-1.282785256;-13.63737107;-21.16910052;-17.06133912;-4.273158297;-20.55148612;-13.53169496;-18.36958829;4.276986215
17.58196675;-18.8592389;-5.456741817;8.038880305;-4.574134259;-1.225321678;6.067629425;-22.3240617;0.279368543;-17.36073467;-5.807262648;-17.58964181;-21.4418797;-19.28745251;-5.944542288;-23.90391675;-18.21098877;-23.99812946;1.64806421
16.29783437;-24.91;-8.948381689;8.074669462;-4.541706989;-0.631278113;7.626142878;-19.26526696;0.132639755;-22.91780638;-7.022109223;-16.96446162;-21.08929866;-19.46362122;2.244880436;-25.13096676;-19.39281305;-27.4234803;0.420984965
8.698115418;-26.97660726;-10.59139267;6.564928014;-3.825475051;0.375345688;7.49060174;-15.82505445;-5.545975152;-25.40735905;-6.267659372;-14.51475715;-21.76646646;-18.4573786;18.96437833;-25.45691357;-17.45662402;-28.29161574;1.044796212
-1.201331704;-25.7935133;-10.67500644;4.243895498;-3.569912741;0.895779904;5.7436737;-14.47507315;-16.87540051;-25.72395221;-7.515811748;-14.17571572;-24.73552131;-17.8894472;36.62105549;-26.01444214;-13.86312506;-27.92175169;2.613962968
-4.907376106;-23.45754232;-9.835128348;3.117853144;-4.421737465;0.449936531;3.982853745;-16.05246173;-30.71355927;-25.53849668;-13.33129212;-17.86399944;-29.20842232;-18.42718326;45.68821762;-26.51486234;-9.768930947;-27.48696026;3.893928012
3.930724209;-21.08407441;-8.081763584;4.741044187;-5.93511763;-0.57887332;3.851219726;-18.90784109;-41.72303044;-25.82241873;-21.7493143;-23.8803278;-32.32563154;-19.00996208;40.85266751;-25.39478701;-5.167251713;-26.41592974;4.460087891
22.70388544;-17.7432376;-4.596931826;8.658744223;-6.887656025;-1.283227393;5.531089103;-20.13970537;-45.32345619;-26.35471435;-27.15750181;-28.20391341;-31.1137445;-17.77278419;24.71382292;-21.34449297;0.717917454;-22.50976443;4.938144309
38.85523981;-11.59230937;1.446089312;12.48687791;-6.179560752;-1.048247731;7.577486796;-17.98997339;-40.41524115;-26.19815237;-24.73193579;-27.60951182;-24.93241337;-13.85114396;6.288642848;-14.76197364;8.213225975;-13.75444717;6.236093881
36.97590853;-2.082059785;9.789727683;13.67924451;-3.549746395;-0.104100551;8.2293557;-13.3906253;-29.74989415;-24.37123647;-14.67619816;-22.07678783;-16.30231926;-8.415064253;-4.816277726;-7.691308917;16.31915252;-0.353927093;8.570970011
9.849529996;8.829364522;18.77418064;11.51989818;0.403067896;0.68458465;6.988243824;-9.282178978;-17.6961344;-20.13018566;-2.474376406;-14.60012359;-9.254976489;-3.95289877;-4.57861231;-2.210365761;23.01314726;14.68892529;11.19792001
-34.61959965;17.60092426;26.17159796;7.647515546;4.756448808;0.596340129;5.029360997;-8.190460775;-7.299739632;-13.00033897;5.265604299;-8.678603895;-6.439706183;-2.387100984;3.23667991;1.274289419;26.50190038;26.95994588;13.02466693
-76.51786854;21.43127568;30.52447271;4.688670298;8.793657747;-0.309432832;4.096037963;-10.06010044;0.983989508;-3.050009766;5.960369029;-5.634983437;-7.331385915;-3.638026146;10.36569938;4.205707877;26.35629922;33.00211909;13.47303186
-95.86866148;20.07180739;31.89465093;4.206260648;12.11179804;-1.265532186;4.913349036;-12.17957616;8.145755589;8.535748328;2.860216072;-3.94066322;-8.991569502;-5.838626043;10.39208066;8.277543332;23.59359646;32.02457007;12.79366944
-85.39580187;15.73212642;31.45420237;5.703068803;14.40142809;-1.499873481;6.571912022;-11.30418166;14.56370236;19.22999204;2.039903463;-0.955390384;-8.6820903;-6.941633863;3.492689564;13.47519355;19.71418135;25.92210529;11.63525316
-55.02199797;11.31714679;30.35390196;7.41354043;15.31890867;-0.919405799;7.417595342;-6.254415437;19.25193177;26.00448494;7.214532782;4.530068359;-6.078996509;-6.280182924;-3.892596345;17.59513545;15.58543617;17.83470281;10.39114108
-24.82796306;8.525898823;28.8823858;8.019053426;14.70397007;-0.157477071;6.5973598;1.108778737;21.15164789;27.08524172;16.8055524;11.13585879;-3.23760543;-4.780068359;-4.167909899;17.81928886;11.1156685;10.36814162;8.995759276
-11.58489408;7.235425553;26.58546765;7.685008602;12.93092252;0.040310019;4.830087891;7.254940039;20.95;23.39413287;25.60148115;16.02291955;-2.455101709;-3.796286956;5.417239851;13.08017593;5.884172612;4.559451786;7.315369845
-18.52135682;6.335088716;23.10218775;7.564102334;10.9295312;-0.487681069;3.710355225;9.497086047;21.15959157;18.29124098;29.31482597;17.23819143;-4.006196059;-3.761567487;20.44474967;5.1885357;0.034504706;-0.050910558;5.635314368
-35.24456107;4.981112937;18.84342268;8.389050504;9.668473079;-1.183996368;4.212176557;7.603375667;23.82827044;15.40283965;27.92491149;15.23301412;-5.789579962;-3.898155718;32.48225122;-2.281386319;-5.430097656;-4.599605641;4.642864124
-46.96491696;3.133242946;14.85270071;9.596337968;9.439727438;-1.313880701;5.783744535;3.369512504;27.82740421;15.96616313;24.9897232;12.32216633;-5.188826936;-3.158907746;35.33594151;-6.432645064;-9.188816393;-9.939092702;4.842280769
-45.48186659;1.157148516;12.01501821;9.845835513;9.576736509;-0.672710098;6.860684458;-1.197900915;28.62152323;17.78598985;23.84528501;10.66596282;-1.474579869;-1.389039942;29.61797959;-6.777405722;-10.43844592;-15.96365336;5.970078125
-33.81715881;-0.762944701;10.42278939;8.416100737;8.946898839;0.202056148;6.311984682;-5.348469341;21.54685482;16.8266179;24.37849618;10.58603869;3.398025083;0.461894954;22.09314528;-4.892600761;-9.265331763;-21.4071001;7.053050572
-21.95844906;-2.591877746;9.554713357;6.091644448;6.893671127;0.514793328;4.483767866;-9.477996811;6.344054419;10.39126334;23.3941204;10.64358281;6.317251317;1.276812589;20.26570281;-2.477125586;-6.311144704;-24.19065716;7.16144906
-18.13736943;-3.815713117;9.111200269;4.630811797;3.858761009;-0.051724279;2.890766589;-13.7798129;-11.00569848;-0.533321271;18.17624904;9.311668039;5.549586787;0.905759708;26.35866163;0.339144245;-2.186109999;-22.31755344;6.212473725
-22.90485411;-3.08208754;9.645725629;5.254364435;1.123241062;-1.025061832;2.851816957;-17.16116292;-21.36607128;-11.64769086;9.829016851;6.679174829;2.110995064;0.332917496;35.35746981;4.890865239;2.729145071;-15.05748396;5.064286787
-30.16139986;1.092749657;12.22755837;7.541619631;-0.173291917;-1.54792471;4.321204455;-17.64740063;-18.67791347;-18.20957165;3.126920648;4.625255683;-1.143862216;0.647531938;38.69988132;12.2145921;7.940134403;-3.811450098;4.761057378
-33.29966419;8.761677796;17.24036504;9.766598468;0.044616055;-1.13749517;5.966336917;-14.05518542;-4.640204374;-18.2268084;2.776443011;5.261015884;-1.84876276;1.789801418;30.86117503;21.29875444;12.45166432;8.037383929;5.584348291
-30.79849622;17.39183401;23.31241525;10.38169505;0.681039638;-0.116095944;6.390359586;-7.445222489;12.02907342;-13.58298003;9.306699829;8.956650219;0.152830585;2.344354021;13.85850831;29.03862284;14.96524453;16.50722925;6.78138584
-26.79588601;22.42993629;27.46287297;9.301665905;0.275789716;0.671505908;5.365106009;-0.932075772;21.47904513;-8.388395746;18.25999677;13.66145451;3.07087278;0.725476067;-3.709541255;32.09924601;14.71993679;19.00719449;7.243487599
-26.83829678;19.72754127;26.67089004;7.839268109;-1.911686116;0.596368191;3.963125456;2.205355377;19.37741717;-6.006940094;23.51905818;16.17291875;4.99577237;-3.229856699;-12.33235993;29.22273899;12.29854875;15.71479409;6.530151966
-32.94065299;8.424826689;19.90143202;7.40184713;-5.377394723;-0.22095879;3.510356633;0.70037581;9.315878145;-7.075028683;22.00848356;14.41797043;5.549059581;-7.73105266;-7.75451876;22.12748009;9.561108895;9.367377088;5.293214727
-42.13496303;-7.759358966;9.11855197;8.193820719;-8.760543411;-1.045743383;4.355928996;-3.937846085;-0.629971502;-9.792677976;15.83171876;8.987542004;5.913580195;-10.17735277;6.717829831;14.33076766;8.52578808;3.525215755;4.68941313
-49.25700988;-22.01702654;-1.560784486;9.126676824;-10.77136034;-1.191721476;5.590078125;-8.635222637;-4.175127491;-11.83603597;10.15809337;2.752174127;7.361357417;-9.11390011;23.01179101;8.906380891;9.958366546;0.452046308;5.304684667
-51.10345577;-28.06021268;-8.110597809;8.973171744;-10.92708474;-0.606764659;5.937134677;-10.92265032;-0.931457542;-12.09299839;8.823169572;-1.134602273;9.762193351;-5.36741712;33.63234029;6.919315446;12.79907563;0.041460522;6.585517281
-48.35852911;-23.67559809;-8.770775107;7.625117362;-9.624256408;0.130950539;4.963457744;-10.36572573;4.508763332;-10.92606875;11.43633738;-1.354155517;11.50351302;-1.378895404;35.51770678;7.526309157;14.95648534;0.432857459;7.326872976
-44.10301595;-11.96786743;-4.741725548;6.235461678;-7.662352005;0.371906556;3.473430545;-8.289368445;7.092438511;-9.184669408;14.27771247;0.838830548;10.89214029;0.722247661;30.13418059;9.272098536;14.8922271;-0.294340721;6.793083202
-40.80333882;0.528183517;0.954195163;6.11057448;-5.714678816;-0.019968833;2.744902054;-6.286644433;5.30560896;-7.25703768;13.87308923;2.675366628;7.730471287;0.689629753;20.8158245;11.26199916;12.74712553;-2.698092569;5.440489165
-38.66425946;7.695068143;5.538621389;7.428728382;-4.134226368;-0.584330783;3.338048405;-4.913365449;1.52582651;-5.14629058;9.9174331;1.859562321;3.618967497;0.090717056;10.28875649;13.30047108;10.11575505;-5.83283208;4.545040437
-36.51537837;7.240269759;8.015822566;9.037518769;-3.073526415;-0.731735835;4.591800608;-3.623196808;-0.903259403;-3.302382783;5.061311734;-1.934449227;0.719095124;0.73702508;0.417457863;15.21919728;8.68067763;-8.306231225;5.031956843
-33.87046319;1.583941951;9.231915609;9.549365436;-2.620684513;-0.305416307;5.263170266;-1.797041896;-0.771825293;-3.046547525;2.067022997;-6.991672061;0.095129479;3.022075312;-6.441917626;16.34968739;8.84207994;-9.521760531;6.557697256
-31.8712423;-4.22129576;10.62106563;8.690039063;-2.751646832;0.286581313;4.696244377;0.231616425;0.478623648;-5.798913505;1.192422915;-10.80097125;1.077126668;5.589608555;-6.887441788;15.79038035;9.450775905;-10.06626311;7.70602118
-32.20284719;-6.096422138;12.70504214;7.575629073;-3.209783387;0.476589475;3.426029295;1.155157498;0.795741553;-11.60913811;0.277794326;-11.6770206;2.102852016;6.543239722;1.694040665;13.18604162;8.817085065;-11.01935509;7.176969404
-35.22165604;-3.673378023;14.48743783;7.593164496;-3.57666214;0.084013906;2.663923128;-0.304965153;-0.309916189;-18.41260007;-2.643188529;-9.710759407;2.158575997;5.072355914;18.00731815;9.162885876;6.131329172;-12.88034121;4.9463181
-39.31548065;-0.357549772;14.1556613;8.915765207;-3.606711847;-0.515396869;3.158232289;-4.28476968;-1.665755751;-23.00815232;-6.801579313;-6.549198566;1.48389893;2.077165693;35.52294976;4.915852953;2.152530949;-15.06132338;2.371100471
-42.22372629;-0.683216158;10.54095038;10.10355075;-3.559537982;-0.75353173;4.497035501;-9.543340593;-2.213919512;-23.25802515;-8.767901548;-4.264072182;1.002644487;-0.668173168;45.17122231;1.335473579;-1.317060412;-16.33709975;1.129321478
-43.03395329;-6.769846297;4.261073269;9.287784939;-4.156439831;-0.419671954;5.496455475;-14.30328753;-2.431173169;-19.7825857;-5.265466243;-4.064756865;1.18203381;-1.977492795;40.99505453;-1.442709237;-2.663320291;-15.81781327;1.900413528
-42.85878456;-16.37373311;-2.297624258;5.955157483;-6.078563344;0.124936912;5.301856615;-17.44761555;-3.61016728;-15.64596162;3.712311701;-5.622821757;1.515962159;-2.027854826;24.72604846;-3.613146391;-1.405309023;-13.62928812;3.91025345
-43.48949388;-24.02718072;-6.212169243;1.713830646;-9.370422923;0.27447278;4.171957051;-19.1122444;-5.699060004;-14.12263502;14.27481899;-7.372338592;1.134769663;-1.857435877;5.377312844;-4.885288963;1.775846846;-10.80844572;5.691749972
-45.34668485;-24.64217591;-5.71363138;-0.743823049;-13.27528797;-0.251566046;3.22165981;-20.28968863;-6.295596517;-16.26766269;21.15257307;-7.578046038;-0.127921621;-2.193609888;-6.506319505;-4.247824481;5.746243353;-8.58940485;6.346314707
-46.80387256;-17.13949149;-1.269269743;0.314068163;-16.7026807;-1.123384305;3.37363953;-21.88686632;-2.551201158;-20.25094685;21.3214116;-5.516030225;-1.369479671;-2.779640325;-6.009593948;-0.761156467;9.661583961;-7.676618667;6.184623741
-45.66689967;-5.485077073;4.643283371;4.309356321;-18.97106611;-1.668785368;4.500428756;-24.0390049;5.282951009;-22.99850844;15.82348163;-2.026523638;-1.425498811;-2.811243031;2.971601988;5.24866451;13.18573834;-7.983432609;6.225835004
-41.46388502;3.757423249;8.959037655;8.811988386;-20.19156973;-1.456394949;5.552082236;-26.13931999;12.20481636;-22.78208787;8.513198111;0.943784957;-0.118165299;-1.987687387;11.09512209;11.7952683;16.21117053;-8.868564107;7.082090459
-36.29775133;5.747329371;9.78543455;11.36365277;-20.95012759;-0.670080566;5.54206024;-27.39754444;11.20603943;-20.61891121;3.048821821;1.555435941;1.321156751;-1.084614881;10.99270837;16.26069009;18.5376437;-9.568598665;8.296130982
-33.26956921;0.500702378;7.41788145;11.10474022;-21.57728897;0.057847203;4.46826637;-27.38588079;-0.958491742;-19.34580399;0.700803292;-0.742058325;1.21467089;-1.421472517;2.992826501;17.18300581;19.88120026;-9.535089413;8.753850547
-33.77419182;-7.44164649;3.989813483;8.937209672;-21.69954881;0.197583302;3.313611715;-26.20778695;-19.66863635;-21.16656092;0.495376663;-4.884578465;-0.986825507;-3.671031115;-5.342390535;15.31987684;20.15151708;-8.599618328;7.78207742
-36.14152929;-12.54369614;2.003374198;6.337992049;-20.54839384;-0.239131671;3.130766189;-24.35290469;-34.14101206;-25.71564753;1.001875844;-8.985831062;-3.986240097;-7.119967775;-5.462687606;12.99294215;19.63052634;-7.018139766;5.895606511
-36.97988428;-12.30868943;2.711769851;4.098640161;-17.82045823;-0.753172384;4.065031402;-22.52073393;-34.57818894;-30.21971401;1.784291524;-11.69445258;-5.586313611;-10.10942074;5.167564493;12.17353654;18.80701082;-5.386582496;4.466842759
-34.13112137;-8.737843814;5.420209279;2.151860736;-14.33141339;-0.833831902;5.221216704;-21.53779312;-19.59671181;-31.59763454;3.233355747;-13.0978417;-4.613291263;-11.31116221;20.93144849;12.91706834;18.01047254;-4.350135982;4.573149505
-28.61349085;-6.16968518;8.148859537;0.43380022;-11.80065882;-0.412112231;5.49356627;-22.21537863;2.070596699;-28.78555779;5.316154928;-14.45026731;-2.153928523;-10.72421202;32.46530983;13.51544817;17.21543803;-4.154640182;6.037586718
-23.76559522;-7.360820783;9.159773506;-0.355190785;-11.80255815;0.111228741;4.586782281;-24.97176721;17.36453011;-23.45771982;6.873711975;-16.90037939;-0.918961895;-9.523411709;33.99649342;12.25200081;16.20967744;-4.348111466;7.527491125
-22.30988076;-11.09916235;8.239308257;0.8930353;-14.64148182;0.262921;3.285198648;-29.34654293;17.95437279;-18.65872857;6.427360146;-20.22215758;-3.127329148;-8.928656582;27.66876621;9.199866702;14.92557197;-4.012974854;7.646928575
-23.96274886;-13.37059494;6.797270608;4.424182578;-19.02907465;-0.064886409;2.72761384;-33.84241811;5.620322287;-16.51337339;3.76128803;-22.63079356;-8.620564541;-9.136419632;21.42263872;6.413116576;13.54855237;-2.562636312;6.085503563
-25.76781914;-11.104103;6.701212997;8.741944285;-22.84359639;-0.537770948;3.362801777;-36.45070853;-10.01226565;-16.81312283;0.575344536;-21.96601861;-14.78963767;-9.266903856;22.26939853;6.255066843;12.25728451;-0.559956814;3.843217942
-24.88729851;-5.264881573;8.706760215;11.25224793;-24.42475347;-0.713894958;4.547439302;-35.71534138;-19.17065102;-17.47569813;-0.723463671;-17.43576476;-18.40700511;-8.324846626;30.50203209;9.284199992;10.88466482;0.248255827;2.365876132
-21.3475005;-0.495547255;11.67767579;10.17314921;-23.48;-0.459070273;5.147075463;-31.67383518;-18.65999957;-16.37642588;0.800323487;-10.59519798;-17.88688358;-6.240494909;39.52246567;13.57539518;8.951527997;-1.965002653;2.364510427
-18.2349314;-1.369401685;13.24;6.120058594;-21.03278746;-0.051345008;4.575860349;-25.97394439;-12.50999473;-13.06655473;3.458730347;-4.733931552;-14.19770849;-4.007772362;41.31035073;16.14632108;6.192590145;-7.467804713;3.329467203
-19.10154071;-8.277493903;11.45942821;1.834820385;-18.59197115;0.108668952;3.317269511;-21.00686759;-6.914079574;-9.11370014;4.064149135;-3.001307435;-9.846494389;-2.801969101;32.98214239;15.32111943;3.146209909;-14.08469231;4.101537475
-24.83643013;-16.49610448;6.341006881;0.0678586;-17.23983918;-0.10892166;2.460340555;-18.60882716;-4.584796644;-6.92562031;0.576728685;-6.527602416;-6.960153601;-2.923026361;19.1215533;12.01676936;1.166435951;-18.05692153;3.93138785
-32.75115575;-19.50498059;0.028610849;1.320393961;-17.23510019;-0.445999143;2.697398272;-19.17983626;-3.562123075;-8.019199864;-5.920153281;-13.78902112;-6.09874154;-3.570228679;8.134013241;8.848984326;1.626647138;-16.39097851;3.073384051
-38.67069683;-14.10648589;-4.503116967;3.424390097;-18.2024801;-0.52175817;3.713948382;-21.71607581;-0.917669318;-11.98787762;-11.65256613;-21.55360672;-6.584443635;-3.661612572;5.752447377;7.840771283;4.821274619;-9.150275689;2.432789745
-40.18338326;-3.252446385;-5.372893883;3.424800681;-19.5348496;-0.218071464;4.519958131;-24.56827947;2.90696942;-16.81153201;-12.74147147;-26.66604031;-7.679742902;-2.910907307;10.98281002;8.723880724;9.471686528;0.085068106;2.654869211
-38.23894025;5.833389964;-2.972911337;0.200393235;-20.63523484;0.191253586;4.391132889;-26.29884512;3.814442761;-20.18820719;-7.909656543;-27.49246032;-9.264131679;-2.111084939;17.56148161;9.288830602;13.37321581;6.187164627;3.518242038
-35.82257382;6.932233182;0.435512733;-4.464654042;-20.96627638;0.296108377;3.531734745;-26.13015081;-1.678035155;-20.93493043;0.752620815;-24.29;-11.34092848;-2.309765169;19.39054716;7.436029758;14.81852008;5.686419014;4.170445509
-35.04811781;-0.541586939;2.410996934;-7.349190362;-20.13737505;-0.051269633;2.847730449;-23.9507075;-11.86125692;-19.55604203;9.366933047;-18.6170119;-13.04380815;-3.624895665;15.29783798;3.099449345;13.74632585;-0.990292564;3.95146539
-35.34271145;-11.12833216;2.079307679;-6.564457622;-18.15833515;-0.57719671;3.060443537;-20.1826406;-19.87894767;-17.68226183;14.76449104;-12.43823119;-12.46575289;-4.84403526;9.328063335;-1.645856075;11.71382876;-9.83558052;3.026016809
-34.28630959;-17.37396352;0.682697551;-3.19647606;-15.65663957;-0.825878367;4.005791757;-15.72459953;-19.08606209;-16.81507144;16.02225296;-7.468888136;-7.905565417;-4.281015535;6.701928989;-4.36;10.70048757;-15.8826252;2.248933108
-30.19354786;-15.13613207;0.566524123;-0.344293886;-13.70168736;-0.578865303;4.781805856;-11.85013496;-9.130970521;-17.23423766;14.27419911;-4.822831055;0.345699429;-1.213513463;9.163811149;-4.308205881;11.68;-16.23453959;2.404194563
-23.96352645;-6.115925626;3.389492478;-0.369133645;-13.15061221;-0.062189337;4.604915564;-9.803445471;3.059113239;-17.81103354;11.51451797;-4.745609038;9.362931388;3.35946707;13.70179074;-3.000795401;14.06410866;-11.41766865;3.517820592
-18.46994997;4.038545025;8.898588784;-2.778850245;-13.92434801;0.256308457;3.567434179;-10.11415026;8.88951824;-16.87884736;9.593339217;-6.388446311;15.03737385;7.362437699;15.51289451;-2.75728966;16.38386455;-4.353234941;4.849979732
-16.07944638;10.19114186;15.15604143;-4.644665731;-14.84772391;0.094331728;2.578971502;-12.09147686;5.653376285;-13.58445017;9.875521891;-7.935405107;14.80657622;9.201916596;12.39622631;-4.59819683;17.56020043;1.954932739;5.538159501
-16.61233808;11.09286294;19.990308;-3.218939131;-14.33948945;-0.389326677;2.537052709;-14.04996917;-0.880859437;-8.747527186;13.09637399;-7.412826794;9.59117903;8.936329931;6.656926677;-7.340978531;17.6834668;6.129370118;5.288678052
-17.62207136;9.287551329;22.51739044;1.539961503;-11.5398938;-0.748264788;3.49429029;-14.33351241;-1.675262106;-4.522234229;18.8939921;-3.992722547;3.293612974;8.0713249;2.932329604;-8.683164069;17.71557025;8.412307975;4.513589454
-16.70623567;8.193877003;23.55521469;6.773479987;-7.016223828;-0.666243808;4.597598977;-12.4867992;6.838456519;-2.989812848;25.32358698;1.047252694;0.086460107;8.174939961;3.979288618;-7.285687661;18.48795081;9.41061342;3.852555908
-13.6922942;9.175015899;24.65399909;9.0558264;-2.437633988;-0.247483781;4.861283298;-9.637434483;18.43467007;-4.657690018;29.28333375;4.644510417;1.509017753;9.517960876;8.208060437;-3.99447862;19.94695373;9.058783184;3.579980376
-10.68493078;11.00098084;26.58659911;7.229109858;0.585943979;0.092076409;4.063446908;-7.665829428;21.72116616;-8.017940452;28.24369302;3.73377915;5.58160395;10.90080518;11.14230125;-1.117274504;21.30928269;6.867512578;3.461390114
-9.962993812;11.72995477;28.58888222;3.28534109;1.609011098;0.028167289;2.940614202;-7.71800204;10.34530014;-10.57913378;22.28184201;-2.489076508;8.547209408;10.77623257;9.48951027;-0.397354982;21.92598318;3.1562363;3.15662598
-11.70672771;10.91563369;29.02908305;0.575465496;1.530014648;-0.357409375;2.503978546;-9.238351008;-10.07335533;-10.62538538;14.60568261;-11.43566667;7.778718314;8.649099115;4.195951036;-1.469103334;22.00479192;-0.102208656;2.730351352
-13.68249061;10.01005859;26.98012994;0.971149921;1.729269324;-0.653586965;3.110686591;-10.36599976;-24.98944736;-8.315452167;9.633100409;-18.19865845;3.556132285;5.517631514;-0.260146344;-2.150068359;22.48454403;0.021682879;2.730878018
-13.19426805;10.72734413;23.34717405;3.472649402;2.90777382;-0.521275659;4.146016906;-9.445278819;-22.26574148;-5.230315056;9.789968438;-18.4273073;-1.53295433;2.988618642;0.208066442;-0.320250635;24.14680183;5.375824028;3.719922429
-9.521016239;13.10217156;20.48209341;5.398503947;4.59699985;-0.040335279;4.604226097;-6.438757296;-2.565587144;-2.790048828;13.6248327;-11.22908442;-4.830068359;1.871227131;5.544491221;4.226705509;26.76654975;14.86884516;5.672917483
-4.621506443;15.20883925;20.44115335;4.963569119;5.708064176;0.33559033;4.025415031;-3.045952247;20.31111746;-0.986602961;17.04245419;-0.11392031;-5.507646794;1.498836862;11.28985958;9.53128331;29.09965928;24.42868446;7.816563075
-1.487355583;14.86772132;23.24285265;2.858996316;5.582655654;0.191885523;2.920747176;-1.370375938;30.11540532;1.355605253;16.83132818;8.799277029;-4.661577203;0.370983129;12.1924409;13.00425766;29.78274929;29.13934083;9.092472933
-1.665915927;11.74907696;26.62849914;1.44283231;4.589501589;-0.441307946;2.295745853;-2.199999013;21.34879518;4.98732323;13.47020397;10.28205402;-3.807750309;-2.455698343;6.752417194;13.43796869;28.41910321;26.23981784;8.883195866
-4.183910624;7.881067292;27.69369753;2.385881294;3.742545785;-1.074368981;2.716084986;-4.329336361;3.870401504;8.877075012;10.60540679;3.018586989;-3.345728145;-6.444995673;-1.117070729;11.82998169;25.94275679;16.92536128;7.410442526
-6.753187458;6.029301579;25.19568048;5.028115885;3.710774178;-1.169090335;3.780324683;-5.511651276;-5.325777339;10.64991261;11.51464172;-9.723646036;-2.415181928;-9.926335913;-4.816223379;10.40441055;23.94223806;5.6831968;5.506225071
-8.014959844;7.362444952;20.65206043;6.996999516;4.145943945;-0.617282188;4.484816733;-4.267637182;3.381122335;8.803608882;15.78970768;-22.11947863;-0.15850201;-11.41201996;-0.088577918;10.71799696;23.47266094;-2.381713548;3.987333653
-8.662434424;10.45794447;17.21029668;6.489087721;3.974225962;0.145154645;4.14216177;-1.042179002;23.55147863;4.830306536;19.56228499;-29.16855927;2.950256099;-10.77630345;11.62887167;12.423656;24.27779939;-4.423914204;3.157875191
-10.40980836;12.47681357;17.08916127;4.02939288;2.427059834;0.502276523;3.007758777;2.265665574;37.3399987;3.023163507;19.44290448;-29.35647293;5.109488155;-9.333168557;24.18975076;13.62436722;24.98447745;-1.115807234;2.790274468
-13.86673227;11.4076477;19.68809241;1.994014246;-0.099416989;0.186211918;2.042933655;4.003491684;29.93248996;7.522281693;16.61342487;-25.10971136;4.655458446;-8.792248772;31.26832775;12.40938516;24.06079138;4.299703336;2.491773327
-17.45169595;7.417733503;22.04951193;2.296821436;-2.151360359;-0.494905068;2.039263549;4.24730246;1.90933679;18.73048182;16.77364996;-20.98370944;1.688080562;-9.981253913;30.88919764;8.272431602;20.79375012;8.254267444;2.068700741
-18.51211788;2.289426257;21.43386454;4.435734225;-2.258876151;-0.928808093;2.910624788;4.779226058;-30.75537542;32.28864392;25.04460674;-20.82786007;-1.71157875;-12.34702485;26.50515531;2.343822363;15.62996298;8.805932925;1.592356461
-15.70849101;-2.284791591;17.86846519;5.854714833;-0.063394053;-0.728174458;3.795279606;7.537107967;-49.13496853;42.05789499;39.80769007;-25.61762951;-3.062711339;-14.54230339;23.94529741;-3.584528476;9.776018125;6.191241652;1.206032159
-10.44982314;-5.829841777;14.34469483;4.448163953;3.409332394;-0.051150227;3.859787266;12.81527586;-45.98477235;45.1340728;51.36469235;-33.10287771;-1.641723469;-15.52003906;26.73405223;-8.335070944;4.470404653;1.996918527;0.941870955
-5.959402377;-8.670998005;14.22216949;0.939906621;6.553147748;0.559435086;3.056416823;18.74283262;-30.56235902;44.68797822;47.9626904;-39.32300219;0.636316175;-15.23106742;33.39330006;-11.92585369;0.437615487;-2.154510677;0.735194772
-4.706702096;-10.65937347;17.91166112;-1.213847373;8.380180505;0.660367171;2.14226939;22.53828045;-19.87942199;47.63113155;25.42374873;-41.02401281;0.51026582;-14.45467971;38.65527307;-15.15228924;-2.245459803;-5.436911713;0.561030362
-6.473092401;-10.62847643;21.86941211;1.378411923;9.119393119;0.27871085;1.959020869;22.5827601;-23.92646528;58.23673784;-7.340511867;-37.57788885;-4.037818083;-14.04041296;37.4919538;-18.66436262;-3.966179106;-7.800905284;0.476962154
-8.78272715;-7.403602816;21.26615073;8.822336472;9.757983665;-0.15087398;2.651838704;19.66951822;-37.27911546;72.68262625;-32.39185086;-31.32147702;-11.90252322;-14.24671103;28.86502383;-22.30381254;-5.272291301;-9.424733338;0.49097308
-9.283535961;-1.480019531;14.51809438;17.17143145;10.97966055;-0.203828206;3.548879668;16.43280602;-43.96452482;79.59515809;-34.57735925;-26.1246041;-19.22271948;-14.65778251;16.51121984;-25.11397957;-6.549978015;-10.23140469;0.423549897
-7.870619218;4.453929249;5.806130057;21.04454053;12.45063285;0.153099088;3.799399074;15.400608;-31.32538787;67.40544043;-12.64646131;-25.01885309;-21.83099075;-14.61228441;6.382096815;-25.88061691;-7.719967743;-9.837610264;-0.000469667
-6.575680009;7.102388701;2.774902179;17.66472062;13.07394898;0.557977726;3.164970642;17.1828667;-1.2455778;33.71886222;19.04237535;-28.31609632;-18.02983546;-13.70367982;2.719075295;-23.77312488;-8.070784643;-7.868247999;-0.826621866
-7.323326491;5.211371907;10.354503;9.036865383;11.980983;0.61147671;2.226635154;20.16108262;30.48185354;-10.50605485;40.12614093;-33.42090534;-9.701836032;-11.98133286;5.506488665;-18.74784021;-6.44527616;-4.307192677;-1.618962166
-9.683979347;0.970680443;25.24425317;0.437520195;9.395540662;0.251863987;1.824957778;21.84253784;45.93384668;-46.0111726;38.30918826;-36.52999938;-1.017182175;-9.827417525;10.88028135;-11.61684805;-1.875433584;0.394144014;-1.628123522
-10.84345861;-1.352596057;35.93069313;-3.572494066;6.620582597;-0.199496435;2.26685184;20.76904942;38.26298674;-56.84341664;17.41828863;-35.17741004;4.257438323;-7.732701755;14.00150255;-3.822478223;5.604285556;5.489539848;-0.380021973
-8.0195849;1.259923357;29.41321711;-2.369912441;5.138350506;-0.352624025;3.044436237;17.51840109;15.87872997;-40.6198149;-6.473647302;-29.94318928;4.933957436;-6.147602626;12.38246548;3.029209414;14.55021061;10.23022101;1.763267288
-1.25958833;7.959116582;0.584468489;0.811347173;5.541255273;-0.118818715;3.325383481;14.12110583;-5.081076104;-10.07073097;-17.52793958;-24.11902117;2.665503602;-5.383712665;7.53695612;7.775892755;22.5887342;14.08350244;3.624788156
5.949411281;14.42845254;-42.48111345;1.983675092;7.127053499;0.212717033;2.749579465;12.45467938;-13.20513221;15.40713223;-11.38202854;-21.49237474;0.344514768;-5.464275965;3.98104899;10.20011856;27.67471136;16.7913243;3.952847801
9.011875582;16.19195262;-81.79814473;-0.236729348;8.438358985;0.259005652;1.780791235;12.89154232;-9.059727296;22.25921593;3.284560659;-23.75290671;-0.063003928;-5.965543679;6.224656894;11.0882673;29.35675783;18.30845355;2.38308879
5.688032059;12.23572352;-99.82754744;-3.837547108;8.292233536;-0.083797572;1.279474416;14.16983601;-2.191763847;10.59562765;13.2689028;-29.34501467;1.266040012;-6.062472876;15.56337344;11.69543877;29.10963382;18.71395663;-0.161151447
-2.168023738;5.965944316;-90.15592462;-5.647335586;6.523029858;-0.531799728;1.692518962;14.45776261;-1.566974328;-7.753224226;11.87863997;-34.58592058;2.424874537;-4.930478666;28.64210097;12.89198362;29.36652595;18.15998583;-2.039746157
-10.04292565;2.649600315;-61.17586867;-4.41900516;3.957059846;-0.672600278;2.616885393;12.71209465;-8.036109139;-18.77976219;3.447747208;-36.23208024;1.33626869;-2.338440255;38.84152777;14.59647272;31.8305761;16.85787334;-2.070063477
-14.16477484;5.359542647;-30.2502715;-1.946447266;1.748122589;-0.351137321;3.150354506;9.324690985;-14.78698541;-16.02020313;-1.742840259;-33.62512472;-2.698719374;1.0164236;39.94373911;15.96589349;36.23481173;15.06033655;-0.403307709
-14.07204905;12.65;-12.54344729;-1.271097364;0.623579285;0.177637123;2.713219938;5.69540112;-14.41848596;-3.610943644;2.903572564;-28.89231248;-8.4529787;3.804318453;30.06078564;16.2264467;40.45047878;13.00862908;1.605119571
-12.36834669;19.72553889;-12.318162;-3.685064108;0.544778938;0.472759011;1.586293127;3.19462443;-5.819882874;8.584261616;14.59810956;-25.16026772;-13.46411377;4.900236379;13.363328;15.45417377;41.8821286;10.86232239;2.443089171
-12.12571514;22.01490204;-22.3709864;-7.303383956;0.903382976;0.302815822;0.668926401;2.353172161;5.104274092;13.08434319;23.99462273;-24.21668655;-15.42612456;4.189410052;-1.781600903;14.59787958;39.16236592;8.67246819;1.574687264
-14.30707046;18.24596739;-31.13105325;-8.548014251;1.010158772;-0.149648385;0.676391961;2.827339081;10.94084788;9.67837193;23.59102628;-25.38380499;-13.40208899;2.706511275;-7.475656588;14.67172823;32.97822999;6.447532149;-0.236514517
-17.33694072;10.78448297;-31.51719194;-5.27222195;0.5325177;-0.460028076;1.508156526;4.035331105;9.153956134;3.981176296;14.12601649;-26.33063494;-8.181651855;1.949682238;-0.991156641;15.81436557;25.54054494;4.285559947;-1.632013069
-18.89975232;3.421451954;-24.96966041;1.212017144;-0.324769077;-0.348687229;2.357513914;5.869529504;3.679123472;1.855801115;3.533083133;-25.01692793;-1.658857515;2.859625193;13.57856448;17.10419311;19.19114603;2.460856616;-1.766705717
-18.09770276;-1.218739814;-18.36853873;6.984145016;-0.917195296;0.072691416;2.45165184;8.891357186;0.726432803;4.77655775;-0.231448155;-21.16515313;4.327654067;5.230948312;27.98291299;17.39082992;15.17406121;1.350696674;-0.900579809
-15.97249316;-2.575636561;-17.19913714;8.525035802;-0.46280734;0.416989752;1.739516353;13.85111503;2.99810029;9.66157396;4.136656143;-16.1852424;8.964713592;7.978342766;35.14104912;16.45915873;13.32937606;1.209971379;-0.036238653
-14.08259505;-1.158622337;-20.86041784;5.342325516;1.55476457;0.385758901;0.90540347;20.89277903;7.647139032;12.53331426;10.99643071;-11.81423252;12.65852087;9.995100792;33.529713;15.44466308;12.70391801;1.971246503;0.011887941
-12.68512684;2.762932068;-23.68771156;0.077678039;5.034951517;0.041970955;0.714412213;29.04202634;9.608613752;12.30384171;13.79486768;-8.732228416;16.36499224;10.89299827;27.59054608;16.0001363;12.45226097;3.298025379;-0.716971883
-10.3750313;9.195876511;-20.2907636;-3.822105232;9.168553906;-0.257808067;1.30628377;36.39738583;6.975258937;11.42233745;11.63871179;-6.284238598;20.54745156;11.07033301;23.94304193;18.82983238;12.35581199;4.941981601;-1.471496765
-5.562299408;17.2331566;-10.37972088;-4.758778094;12.75798844;-0.202665226;2.086336243;40.98739342;3.333228667;13.25843227;10.21627106;-3.381937087;24.53827051;11.15892884;26.25405848;22.86919305;12.72806376;7.144585094;-1.539942303
1.642989418;24.25154934;0.962940843;-3.751350599;14.86461216;0.1807699;2.297073343;41.81627575;4.834926281;18.9296438;16.12186221;0.345533455;26.8376029;11.41077484;32.58223506;25.93652477;13.95485476;10.65581015;-0.897764876
8.997735864;26.95462852;7.536465356;-2.919356295;15.40510584;0.554120558;1.723820689;39.46641098;14.55088026;26.41160812;29.7881312;4.179425453;26.21572993;11.56566588;37.09402754;26.42758998;16.0712656;16.15143462;-0.181988832
13.65579957;23.87608764;6.98793174;-3.299530983;15.23709654;0.583378049;0.87631036;35.85564853;29.06194517;32.40274474;43.73989716;6.933727711;22.84105637;11.24583747;34.69605005;24.64121176;18.59929254;23.34810118;-0.063623505
14.32087292;17.18952051;2.300721263;-4.046628926;15.56654382;0.249299798;0.489796936;33.23761088;40.31809329;34.92996669;48.29359621;7.873832457;18.53481689;10.42904137;24.95650563;22.5310425;20.63535971;30.53767792;-0.626770503
12.07296121;11.81738242;-1.231506438;-3.622078523;17.02388385;-0.135716301;0.827794934;32.99849704;41.34070573;34.31758655;40.09893118;7.061241402;15.82007813;9.512285795;12.37869782;21.98618329;21.10530213;35.14529032;-1.320776818
9.130381918;12.01945914;-0.731304183;-1.662424796;19.08776217;-0.217898271;1.446582661;34.9527782;31.25446888;31.99741969;25.99023277;4.92907573;16.32626663;8.910899075;3.029678614;23.06307083;19.15650876;35.19897644;-1.498460502
6.718287473;18.01728489;1.930966069;0.378649517;20.35631265;0.070670452;1.638219446;37.55477855;15.87277773;28.76035857;18.21727607;1.709403625;19.66426755;8.614834402;0.316728013;23.74656286;14.63709944;30.77378378;-1.016868835
4.043887778;25.54912557;2.060987059;0.492824356;19.54520328;0.449471539;1.125316692;38.88010377;3.718587802;24.38833238;24.36661667;-2.537650405;23.63443277;8.181926775;3.137545824;21.59030748;8.449514693;24.2583126;-0.345606387
-0.652636996;29.01368834;-3.514647564;-1.902926351;16.49622249;0.5465736;0.342966553;37.74940159;0.720850634;18.94697437;40.0685946;-7.247258918;25.69503718;7.222550084;7.497824354;15.96399976;2.442879556;19.01909551;-0.106853598
-7.949995793;25.83109135;-13.48694681;-5.194547528;12.41258377;0.236451572;0.033739973;34.29770374;7.279848344;14.10834572;50.78148827;-10.81857388;24.68110677;5.922585904;9.885509208;9.008270495;-1.325064121;17.26320627;-0.497754963
-16.04243247;18.46226478;-22.95754169;-6.842145434;9.099157281;-0.250083008;0.53298683;29.69346485;19.04602957;12.67627434;41.88644744;-11.10326988;21.54206571;5.055515849;9.547205321;4.362477828;-1.669727318;18.65058133;-1.132527184
-21.70659057;12.34620873;-27.30313811;-5.612556496;7.755971373;-0.538179853;1.421142061;25.30105862;29.95933167;16.27500769;9.700817411;-6.904191134;18.56353388;5.371548867;8.119621952;4.538765994;0.978257674;20.7649092;-1.427498073
-22.69620984;11.40890448;-25.67641055;-2.731474972;8.231932229;-0.441779353;1.883287513;21.9296059;35.1256624;23.22431077;-34.85572494;0.629838019;17.65027153;6.843938271;7.488288876;8.974141203;4.771775188;21.13196308;-1.14354366
-19.49369543;14.89063373;-21.27615993;-0.829653579;9.289866671;-0.111633661;1.454964808;19.66681654;32.23139933;28.88193041;-72.69560788;8.07788115;18.93972271;8.455138963;8.087513887;14.31720717;7.562914541;19.17838393;-0.575498114
-14.87406693;18.17982079;-18.36218643;-1.551862126;9.642429931;0.127156533;0.464417705;18.28754488;21.80930365;28.74117883;-88.38809701;11.64946582;20.76432581;8.80240929;9.053214628;16.76413976;8.189226101;16.48537548;-0.237614135
-11.6510484;16.96189359;-18.69286854;-3.9636808;8.929328563;0.083670189;-0.247004585;17.76884867;7.118229084;22.02253122;-79.02318169;9.742542587;20.97610299;7.116103613;9.64281592;14.66726513;6.989318703;15.07577851;-0.378173498
-10.55608213;11.15056991;-20.36819467;-5.251733507;7.888918358;-0.137360527;-0.079849296;18.40601043;-6.396157807;12.73929859;-54.44750056;4.230123506;18.64458683;3.902613085;10.13975441;9.48145623;5.182332087;15.21080617;-0.798767244
-10.03979935;5.215058729;-19.85750224;-3.196426503;7.645569697;-0.265513439;0.782384607;20.42460416;-12.77026529;7.092987715;-29.71331319;-0.663738192;14.87844489;0.687840233;11.19569107;4.473572186;3.67;14.76212504;-1.129405424
-8.053324891;4.560760234;-15.28448963;1.715619619;8.730058594;-0.149628363;1.544061517;23.46961794;-8.405635879;9.06313188;-15.75166352;-1.225369697;12.17227434;-0.962663436;12.4270486;2.346908817;2.310655555;11.01188666;-1.248817326
-4.138216101;10.98203052;-8.132669747;6.429496292;10.61768398;0.084467945;1.525733577;26.49701668;5.295005784;17.61882652;-14.51376809;3.220355176;12.73984405;-0.413936502;12.11557282;3.631898082;0.305299433;3.58871115;-1.399062798
0.036006828;21.0135046;-2.058200711;7.683107616;12.10822973;0.159593196;0.783052826;28.26097542;21.78253149;27.70454022;-20.66233837;9.987294509;16.98975108;1.771483125;8.874752073;6.887738696;-2.66814977;-4.029463447;-1.864808513
2.082754466;28.56834043;0.000852972;4.635450975;12.1968575;-0.064217359;0.049468003;28.06125888;32.70077511;34.09;-27.0751615;15.09027332;23.16118463;4.382859092;3.961632303;10.22625;-5.668984193;-6.177809806;-2.551692862
0.904238336;29.64781956;-2.080004883;-0.450292386;10.74408504;-0.421480315;0.056974708;26.15146009;33.03433598;34.91736519;-29.56242081;16.03335046;28.31643591;6.415936635;1.712480666;12.71834109;-6.924421159;0.927668581;-2.935404181
-2.516685972;25.2022165;-5.929156281;-4.038485059;8.480334399;-0.568521065;0.85952799;23.4561614;24.50659299;32.21188022;-28.03326529;13.17544687;29.9938917;7.560809202;6.827201289;14.58786749;-5.284452172;15.67676002;-2.504859535
-6.156446881;19.8425617;-8.883973855;-4.1179043;6.428767229;-0.300957214;1.779263099;20.81293565;14.46418893;29.30186789;-24.66435792;8.77264921;27.46464841;8.041201007;20.12128876;16.30426969;-1.508231909;31.0625976;-1.311707501
-8.754812146;17.63118885;-10.06797228;-1.638499307;5.233398478;0.2328522;2.022462636;18.36662546;10.69428304;27.66035945;-21.54837462;4.729637286;21.89223498;8.092045743;36.33152061;17.63577563;1.83727533;38.70114843;-0.071099945
-10.69391407;18.60081799;-10.67445431;0.532735904;4.854874595;0.632428603;1.398978459;15.63693493;15.81974071;25.96129279;-19.71613585;1.095193771;15.45621891;7.619684813;46.51679222;17.62639945;2.022433422;34.27368183;0.364817634
-13.22868031;18.94181706;-12.49399172;0.147247248;4.746787618;0.584502258;0.488240942;12.22306576;25.45400675;21.99904726;-19.51745547;-3.412583818;10.12519735;6.350646054;43.9954499;15.50102919;-1.81342088;20.48593028;-0.257911019
-16.9365495;14.6205697;-16.18461104;-2.584555042;4.286925302;0.141028283;0.106265477;8.552781264;31.56476983;15.52170482;-21.12371056;-9.405776767;6.8664578;4.291663448;29.50115877;11.61012419;-7.844959523;5.295071771;-1.322495679
-20.95847479;5.283615558;-20.7821686;-5.337158386;3.155739248;-0.317926431;0.5674614;5.995109296;28.54693697;9.259933319;-24.30702479;-15.25697389;5.659740483;2.032441629;11.28276541;7.494683544;-12.69476021;-3.388527992;-1.83527128
-23.77881763;-4.896436765;-24.6589097;-5.769072564;1.498762246;-0.410518233;1.415512276;6.130101287;17.43770159;7.102361177;-27.88474433;-17.56908826;6.083058944;0.560598709;-0.424772713;4.95678037;-13.73574837;-2.710948314;-1.300327421
-24.75416922;-10.17084394;-26.84376982;-3.494160497;-0.125029725;-0.082228443;1.859098657;9.642515798;5.148342771;10.93584324;-29.83994162;-13.57975107;7.883587426;0.67939338;-0.594204773;4.894780021;-10.84089899;3.938614552;-0.203488009
-24.8352654;-7.544174803;-27.46879522;-0.265793029;-0.959688958;0.35293339;1.500585855;15.64737985;-0.60976686;18.86764454;-28.49700869;-3.691458724;11.05808834;2.452447677;7.282782436;6.830418375;-6.283122126;10.15229099;0.365103199
-25.677594;1.001168028;-27.10401145;1.664031339;-0.402774673;0.493199493;0.685862829;21.98774119;3.166548855;26.37645558;-23.95014821;7.952116177;15.43112844;5.080824737;14.41564416;9.421405985;-2.940019531;11.43348494;-0.33323842
-27.90410806;10.05947187;-25.84343939;1.490753887;1.591212073;0.200526673;0.164161565;26.36315786;12.87985558;29.4807808;-18.45552585;15.51512548;20.17485551;7.293266308;13.93028258;11.43580928;-2.254254776;8.045931205;-1.975691995
-30.17547243;14.74432142;-23.16060149;0.423323428;4.267499226;-0.28622439;0.386809864;27.55936995;21.26825213;27.40134954;-15.23754741;14.843204;23.80686433;7.980928539;6.303439207;12.38820731;-3.498096065;3.882230827;-3.361302709
-30.06044442;13.87205589;-18.68416896;0.471704815;6.251217435;-0.567687638;1.099687135;25.98247494;22.80306714;22.73254014;-16.46771616;5.869192198;24.84056346;6.69022304;-1.31254857;12.47702728;-4.755588912;2.689062726;-3.368535359
-26.05554131;10.11373528;-13.05537887;2.604495004;6.217104735;-0.428827228;1.599945715;23.18710311;17.53772875;19.23603086;-21.87507168;-7.523106439;22.70212237;3.737843497;-1.195245795;12.13120309;-4.64629635;4.945743961;-1.878305405
-18.99243072;7.419906098;-7.897842991;5.889149275;3.730325151;-0.00718676;1.405118656;20.7631602;10.74615171;19.17653085;-28.95204349;-19.93886309;18.21076928;-0.03391599;8.523636349;11.72806933;-3.32011385;7.884400841;0.13744438
-11.54682719;8.059725165;-4.779930269;8.280590353;-0.32154741;0.349724274;0.703344796;19.33693875;8.834055083;22.19322015;-34.50999747;-27.4710984;13.14395022;-3.675157054;22.39012648;11.69581199;-2.002988639;8.370891339;1.444171366
-6.2285163;11.53074476;-4.053140132;8.27694781;-4.121807139;0.390911919;0.166210752;18.30938705;14.58751854;26.19572131;-36.44521763;-29.36151606;9.071642358;-6.514662553;32.17251827;12.68003906;-1.661092723;5.992695887;1.571492114
-3.587283562;15.72328134;-4.635511124;5.994251626;-5.995288919;0.151190698;0.306279179;16.43114547;25.10680909;29.14485284;-34.63228093;-27.56948149;6.263531701;-8.37854041;33.45775902;15.31973282;-2.055026147;3.645412815;1.145618287
-2.176024434;18.85091169;-4.984006298;2.839108469;-5.452685217;-0.130966251;0.986741951;12.77694861;33.76991433;30.18720705;-30.63530586;-24.94754737;3.530468696;-9.582625146;28.75794626;19.60633998;-2.014084096;5.110466869;1.248638044
-0.233960898;20.36241973;-4.423982312;0.231268476;-3.441605645;-0.262864902;1.545256419;7.472365685;34.80155762;29.55848391;-26.68092645;-23.43510609;-0.772405745;-10.70942864;24.71551534;24.37035275;-0.623499629;11.66579618;2.386571221
2.485150493;20.36120858;-3.671814703;-1.416483347;-1.590976505;-0.264807158;1.416569554;1.736213752;27.34027112;27.86899432;-24.56022567;-23.32731141;-7.255123285;-12.26372833;26.0793779;27.53934188;1.789338384;20.56195008;3.991175136
4.421350922;18.5870811;-4.102630904;-2.633600968;-1.00599615;-0.302920353;0.669881587;-2.744988255;16.28451377;25.70285189;-24.90310214;-23.74351244;-14.65606033;-14.38031838;31.77036471;27.25705086;3.772789694;26.65286062;4.900149859
3.718351036;14.31945211;-6.422454957;-3.992962026;-1.531845487;-0.472925625;-0.045226921;-4.697413067;9.303177214;23.77521508;-26.99684789;-23.67307156;-20.40034383;-16.75864701;36.3383492;23.17891569;3.878503275;25.94;4.385321296
0.149489472;7.452430845;-9.904842395;-5.373319439;-2.032877026;-0.665845637;-0.098800984;-3.868089328;11.86841522;23.08178607;-29.20213003;-22.83100558;-22.26085393;-18.87126879;35.28086638;16.96499715;1.825596245;18.34020934;2.80960217
-4.316162184;-0.373321233;-12.82258921;-6.128901927;-1.414597892;-0.661429581;0.530188609;-1.038086743;23.4949319;24.45567124;-29.8966189;-21.88436822;-19.9372412;-20.2988637;29.31587734;11.4938431;-1.272214716;7.696922436;1.326048414
-6.87;-5.959567426;-13.65979303;-5.959130077;0.474642032;-0.363833868;1.225801594;2.508812891;37.7082011;27.72291155;-28.56536921;-22.03434799;-15.35027155;-20.94098954;23.72786789;9.253409784;-3.757053727;-0.783904167;0.886608935
-5.993810681;-6.309717903;-12.07695326;-5.546158405;2.789696531;0.057099939;1.299910549;5.700186531;45.93743287;31.33504279;-26.33097452;-24.21776355;-11.38046868;-20.95157568;23.38614548;10.97662994;-4.596280966;-3.672525059;1.440073242
-2.544992652;-0.721553179;-8.92582647;-6.220503002;4.467602744;0.276401023;0.630621994;8.138068465;42.9274363;33.12068386;-25.32783472;-28.32768869;-9.967318589;-20.49;27.97137418;15.38887347;-3.926780999;-0.888784277;2.024548695
1.071615953;8.48426285;-5.499120647;-8.843119099;5.118671949;0.094520444;-0.216290042;10.07177605;30.10179286;31.75614484;-27.07625576;-32.90156273;-10.98621745;-19.55186079;31.83073011;20.10636261;-2.662205901;4.998457415;1.660553953
2.835534675;17.27264299;-2.799183716;-12.88492494;5.248525336;-0.36658148;-0.498595873;11.96719445;14.52791822;27.7214668;-30.94722763;-35.61306912;-12.71007813;-18.06953934;28.7908651;22.95100086;-1.676205565;10.77072435;0.243659943
2.444097377;22.27883453;-1.404633758;-16.59163834;5.655329587;-0.743276458;0.025581322;14.00445701;4.104118555;22.80269861;-34.06341198;-34.5149577;-13.41;-16.20031059;17.79772023;22.81395732;-1.34132808;14.25626395;-1.352516074
1.004067564;22.48525716;-1.789513506;-18.20079199;6.591733874;-0.729806844;0.875023861;15.84629607;2.314972645;18.48310463;-33.08512134;-29.41468798;-12.76220337;-14.48724965;4.384876928;19.71795378;-1.722081724;14.81045862;-2.041167164
-0.418418705;19.08327112;-4.473104961;-17.24220808;7.477712179;-0.336134424;1.27917727;16.80279681;6.326388424;14.67132136;-26.80789529;-22.43033174;-11.93364803;-13.64207873;-3.485264789;14.37753997;-3.009681024;12.83486857;-1.465861366
-1.902337052;13.95724429;-9.629845064;-14.83963464;7.42719887;0.126891442;0.869745849;16.23947626;9.794799262;10.02493771;-17.59724102;-17.09330099;-12.34644318;-14.03553962;-1.778651092;7.787261805;-5.557570749;9.176897214;-0.291526484
-4.391841907;8.27435284;-16.49097085;-12.7539856;6.089795942;0.322919687;-0.000165972;13.9353853;8.189170151;3.686228695;-10.32492571;-16.31389733;-14.23191944;-15.30746211;6.437486735;1.077310407;-9.354208431;4.915576484;0.392337848
-8.399471236;2.336804044;-23.27053377;-11.96210733;4.009953822;0.178878563;-0.592155931;10.18244332;2.415525241;-3.174793962;-9.325512813;-20.47774942;-16.24976857;-16.49731027;13.68491229;-4.552261278;-13.47249556;1.329767698;0.003472527
-13.06715216;-3.473003897;-27.97646969;-11.94668301;2.151584626;-0.070882547;-0.454819692;5.635161087;-2.18860073;-7.635993801;-15.5154752;-27.077914;-16.52634361;-16.6974173;14.28833752;-8.113343794;-16.23478469;-0.432301202;-1.094073739
-16.61358861;-7.898039006;-29.62333469;-11.2654358;1.023372002;-0.1187898;0.187328621;1.083280388;-0.697283512;-7.193819122;-25.81552787;-32.31740205;-14.24181049;-15.75771363;8.802841973;-9.313515052;-16.25493134;-0.047657991;-2.003329026
-17.83550445;-9.239930738;-28.86057366;-8.898134517;0.239490742;0.123697789;0.674845716;-2.695563409;6.750968669;-2.093392557;-35.29;-33.65762988;-10.40963737;-14.45007813;2.984337118;-8.852759227;-13.64189066;1.475672726;-2.148248724
-17.25673673;-6.847919881;-27.41510271;-5.239693343;-1.028276329;0.446405367;0.54378601;-4.997285813;14.5260462;4.314914864;-40.33677884;-31.48025086;-7.161762249;-13.89081766;2.410180514;-8.133841523;-10.29805374;2.14242674;-1.780130957
-16.7714907;-2.315568309;-26.74159153;-1.923606955;-3.086783345;0.544965393;-0.049522602;-5.283747364;15.92341561;7.79776653;-40.54108948;-28.61144961;-6.112799837;-14.63359951;7.575552619;-8.421100079;-8.837655685;0.205617923;-1.693762476
-17.99998669;0.948304136;-26.9906696;-0.628735221;-5.15687033;0.316948225;-0.501560244;-3.387412094;8.909047523;6.412421278;-38.02779135;-28.07142642;-7.157103662;-16.1647114;13.72493626;-9.993778236;-10.77150333;-4.494873274;-2.444075833
-20.79869431;-0.173192909;-27.15954759;-1.831383569;-5.827551451;-0.028392248;-0.35945394;0.254608899;-1.685602386;2.021611125;-35.22196423;-30.79869671;-8.691112819;-17.25195614;15.39357404;-11.946274;-15.31614287;-10.14751096;-3.801716014
-23.29055581;-6.160804239;-26.25752104;-4.474248395;-4.25;-0.152569706;0.227422608;4.547843506;-7.654819591;-1.224448648;-33.07400719;-35.10551897;-9.058291104;-16.91453992;11.45908965;-12.84191847;-19.82673091;-13.98059751;-4.94841167
-23.44175985;-14.131612;-24.41263121;-6.772998995;-1.070021973;0.102385645;0.63350125;8.025207788;-4.004994609;-0.306724252;-31.09325014;-38.19772585;-7.99675787;-15.25192935;6.12765707;-11.77011509;-21.63694949;-14.06154031;-5.222158432
-20.81803698;-19.48634636;-22.8944202;-7.506012959;1.778968132;0.561234612;0.347763186;9.404424596;6.729163501;4.13437966;-28.72184468;-38.39994182;-6.881764567;-13.45073892;4.994601537;-9.030800768;-19.97022585;-10.63030399;-4.717369891
-16.976494;-18.90199093;-23.00845675;-6.814331226;2.385280514;0.862303729;-0.523408321;8.140019531;16.15975556;8.293141344;-26.38191429;-36.19307757;-7.570200788;-12.93422064;9.782827215;-5.949749051;-16.48246115;-6.003186596;-4.1847446
-14.15646372;-12.5640829;-24.85495705;-5.969364833;0.286335829;0.773303591;-1.317840013;4.665713312;16.57498495;8.358798094;-25.03294108;-33.26395177;-10.80720239;-14.30474137;16.57658651;-3.986712871;-14.02189371;-3.091708559;-4.323241725
-13.43396578;-4.027777711;-27.09252107;-6.353246847;-3.128991299;0.392259609;-1.398374576;0.208225733;7.112218511;3.747429253;-24.74030972;-30.55374851;-15.489241;-16.89042357;19.23734487;-3.807654219;-14.54769631;-3.544051783;-5.114603247
-13.9483715;2.201099885;-27.9606636;-8.430378943;-5.591873634;0.0549786;-0.724574845;-3.699290438;-5.456031831;-2.273835427;-23.92101061;-27.20654384;-19.34955986;-19.21576498;14.99855312;-4.968190638;-17.76833615;-6.740280708;-5.810948789
-13.81672649;3.646469619;-26.68604185;-11.4201402;-5.549331339;0.036438067;0.108586732;-5.752076001;-11.97697193;-5.093210852;-20.39870821;-21.52033128;-20.48435563;-19.98960838;7.18658599;-6.359097756;-21.47141004;-10.2499405;-5.590058594
-11.84500834;1.328556749;-24.04902104;-13.83581178;-3.147826328;0.316312302;0.400895425;-5.258497448;-7.915728352;-2.331758505;-13.59882988;-13.14738902;-18.52576989;-18.8431148;2.485823308;-7.016622904;-23.2095785;-11.38604977;-4.287989648
-8.493229037;-1.229405341;-21.63777667;-14.46604403;0.107330233;0.61411411;-0.038452584;-2.305799748;3.565598043;4.409558651;-5.858122421;-4.509899588;-14.64517894;-16.32746881;5.022069131;-6.710691706;-22.01925141;-8.835024044;-2.552331149
-5.309314276;-0.657392598;-20.48660359;-13.13124768;2.646379963;0.651239799;-0.74862355;2.291917272;14.74768007;10.96450689;-1.316874505;0.112420914;-10.54859913;-13.32062593;12.48524911;-5.974201029;-18.92150107;-3.378510151;-1.287012593
-3.471885223;3.837374774;-20.32246641;-10.74915998;3.983950137;0.395549633;-1.065183206;7.270019531;19.8032231;13.89612936;-2.928222221;-2.57479148;-7.359587609;-10.43128614;17.87857626;-5.666741583;-15.96471881;2.660769691;-0.894002844
-2.844730554;9.909244818;-20.05552752;-8.706649175;4.834059904;0.070947477;-0.734471655;11.40073463;19.03348777;12.9396108;-9.948940233;-12.26685925;-5.213511591;-7.87466163;15.6056465;-6.436379498;-14.67352556;6.847562547;-0.988783103
-2.370268542;13.66014019;-18.99280423;-7.959903716;6.228676515;-0.062223384;-0.12654379;14.04654738;17.5250086;10.72693272;-18.13415636;-24.85840243;-3.675807495;-5.78278217;6.713704463;-8.409512342;-15.11467379;8.04965638;-0.826049238
-1.305941637;12.22055459;-17.59578219;-8.440514849;8.499791663;0.058249894;0.138735214;15.47243289;19.81557431;10.26811337;-22.70668051;-34.99834049;-2.42180574;-4.498539766;-1.358172468;-11.21428384;-16.18209621;6.984447704;-0.029512321
-0.014578133;5.603810636;-17.04858506;-9.15828704;11.0159986;0.263121923;-0.210501904;16.62132606;25.54844591;12.44601838;-21.80604433;-39.52759014;-1.532847521;-4.463758519;-0.583041611;-14.2380003;-16.70231099;5.558210141;1.043309301
0.492329361;-3.301304457;-18.03911267;-8.961628712;12.82880327;0.336902785;-0.842582364;18.36503042;29.98878934;15.55596032;-17.62938605;-39.18585766;-1.246256745;-5.765920416;11.00648056;-16.94761692;-16.38338427;5.401987646;1.624620885
-0.222588187;-10.48048714;-19.92536607;-7.475127871;13.56582316;0.231899187;-1.147122749;20.68330549;28.7513698;17.02621583;-14.3602247;-37.36366859;-1.53120237;-7.805797542;27.38295767;-19.13233341;-15.88124592;6.567102277;1.24107995
-1.332506522;-13.10459529;-21.13704158;-5.556024023;13.7280963;0.101874209;-0.82916894;22.42229502;22.2437128;15.62470993;-14.6581653;-37.05530553;-1.962549872;-9.496324341;39.01319116;-20.97836713;-16.05168898;7.335986573;0.151556719
-1.415018978;-10.98644247;-20.52737318;-4.862099865;14.13332404;0.128346828;-0.206665247;21.96525036;15.62396545;12.24438134;-17.64113502;-38.55624229;-2.006240735;-9.933724109;40.16662672;-22.936498;-17.1097918;5.422984146;-0.879917828
0.044538949;-6.417361102;-18.47998618;-6.71;15.04247543;0.318253277;0.076371147;18.45277954;14.2281177;8.807069747;-19.93401735;-39.70309254;-1.415737457;-9.024805783;33.11158425;-25.42533376;-18.42425089;-0.165204258;-1.268278954
1.775053863;-2.653308606;-16.73917445;-10.96122342;15.79475795;0.481333368;-0.342698508;12.64816922;18.65838797;6.524255928;-18.69451195;-38.24405196;-0.372457259;-7.540812134;25.85990389;-28.52354796;-19.08735435;-7.9736395;-1.130531545
1.493166846;-2.074671868;-17.04560678;-15.77458413;15.31241834;0.419194718;-1.188138176;6.672066373;24.15539763;5.17553732;-13.90627247;-34.15246851;0.698938361;-6.531214826;25.42727867;-31.85674649;-18.74282353;-14.69363848;-1.178680914
-2.135201734;-5.096986396;-19.72707822;-18.54653133;13.0539904;0.144722346;-1.783162989;2.648387549;25.02838081;3.932290595;-8.042041716;-29.84945327;1.393403642;-6.567945238;32.1711046;-34.78689673;-17.95694074;-17.33793939;-2.077905752
-8.008356163;-10.31725719;-23.44811243;-17.51962632;9.594979705;-0.091599958;-1.671698415;1.217255152;20.21882717;2.71369866;-3.646064821;-28.19594528;1.414892196;-7.42501129;39.73606425;-36.7909954;-17.80953045;-15.52673118;-3.83538699
-12.99249714;-15.58649413;-26.30604676;-12.98256382;6.341605616;-0.015219948;-1.049659047;1.105901627;14.81747829;2.580039063;-1.216744624;-30.06838813;0.519276721;-8.410695337;40.45660275;-37.74109481;-19.01632833;-12.08382829;-5.748324662
-14.06312102;-19.21846463;-27.28595905;-7.181147521;4.628232378;0.405472777;-0.598115954;0.208982346;15.82023696;4.668019513;0.660331336;-33.64840744;-1.443756973;-9.006358312;31.67328207;-37.84753145;-21.26445387;-11.22363773;-6.94401122
-10.49817089;-20.62978977;-26.80844434;-2.937647352;4.947712744;0.892092993;-0.860745531;-2.573998723;25.61611086;8.675800586;3.220213219;-36.00046316;-4.266674023;-9.22807504;17.86824119;-37.30214443;-23.2777829;-15.43881691;-7.039770969
-4.322365364;-20.21117461;-25.96572252;-1.912806349;6.893874186;1.071178264;-1.73356594;-6.19458048;38.98772518;12.46388471;5.682063592;-35.49222764;-7.133162837;-9.418620994;7.087148493;-35.94092568;-23.58123152;-23.3790387;-6.374295359
1.341178746;-18.75070135;-25.25178443;-3.719197355;9.74081391;0.794226837;-2.539941077;-8.009449891;46.58447952;13.38739897;5.65392243;-32.92315475;-8.798943694;-9.722821223;4.723216319;-33.27248642;-21.42832199;-30.48726625;-5.656720609
4.583113598;-16.91514692;-24.0447733;-6.466792764;13.0478067;0.278652219;-2.630975184;-5.724431333;42.22855683;10.36292357;1.559518001;-30.4539835;-8.337463014;-9.79670694;9.655224097;-28.92811702;-17.25884117;-32.15670215;-5.375902873
5.729027361;-15.08663635;-21.3787888;-8.258286932;16.73132782;-0.064790018;-1.968791718;0.729724389;27.92649043;4.88464363;-5.246960644;-29.44316519;-6.005090163;-9.076644222;15.60438097;-23.2075712;-12.40682911;-27.16419139;-5.47637939
6.306222585;-13.49020412;-17.30299481;-8.477811796;20.60891;0.024784467;-1.16224849;8.871512264;12.24603328;0.00678886;-10.9707989;-29.26599736;-3.456061686;-7.39204396;16.35726836;-17.25769472;-8.303593344;-18.75057152;-5.526781935
7.041927841;-12.34542327;-13.50343215;-7.953165238;23.95603348;0.442343956;-0.922249268;15.19932958;3.355490711;-1.963005838;-12.44855291;-28.23442249;-2.882522006;-5.342339109;10.64023533;-12.67263317;-5.737300045;-12.39282101;-5.164929345
6.831850998;-11.85637477;-12.44519798;-8.005790355;25.62792228;0.815917106;-1.431663345;17.43473747;2.650300656;-1.176769147;-10.22674946;-25.71642244;-5.503570391;-4.019113804;3.01023446;-10.75022273;-4.635666408;-11.83636761;-4.400737902
3.706533487;-12.07927629;-15.58567268;-9.262470236;24.77230885;0.830539432;-2.199842812;15.78992416;4.430048828;0.04881437;-8.690188804;-23.32896868;-10.49072709;-4.214652757;0.372202269;-11.90417119;-4.429815022;-16.35561825;-3.54444537
-3.039255881;-12.83413025;-22.07562301;-11.20044457;21.57672819;0.490883844;-2.526686308;12.3832074;1.849309329;-0.734812504;-12.63307083;-23.8247912;-15.25744902;-5.733053145;6.924793647;-15.59214325;-4.646196778;-21.32890387;-2.892900979
-11.52535468;-13.74993431;-29.03582373;-12.70074005;17.38793735;0.097121724;-2.145601938;9.421108653;-6.14409491;-4.054860716;-22.83862706;-28.41764526;-17.06889671;-7.38720111;21.14439555;-20.70790454;-5.252187199;-21.69072868;-2.501048588
-18.11437858;-14.37112495;-33.24970598;-13.02405856;14.02104157;-0.031618709;-1.457213693;7.698849589;-13.12707876;-8.130078125;-34.43;-34.9044534;-14.87527431;-7.73634004;36.61256295;-26.06932504;-6.518633215;-15.63235123;-2.231943203
-19.86550929;-14.20745836;-33.01303475;-12.33588649;12.73379348;0.169820418;-1.147030477;6.580676549;-10.50626626;-10.38166592;-39.75485897;-38.51802358;-10.01275483;-6.031266614;45.77178705;-30.67748083;-8.564292106;-5.788997155;-1.98039264
-16.63132789;-12.73842605;-28.83811624;-11.39687421;13.61505628;0.484156252;-1.546586071;5.275288329;4.600415049;-9.476243398;-33.8864557;-35.20777243;-5.221632095;-2.672532797;44.06403896;-33.7419298;-11.0018497;2.843531531;-1.80670464
-11.05786846;-9.526434545;-22.69515;-10.815566;15.79876598;0.636782687;-2.328195556;4.098720961;25.76155675;-6.167181323;-18.52281043;-24.86177726;-2.700384931;1.125159204;32.15494434;-34.71959225;-13.01784644;6.508852991;-1.841588255
-6.49486228;-4.539463559;-16.59496939;-10.6132103;18.26038975;0.552606006;-2.810325963;4.485921971;41.31900773;-2.331603377;-1.141883532;-11.7806648;-2.642064579;4.162060972;15.40252101;-33.53638487;-13.85863146;5.028524518;-2.08491131
-4.559481889;1.478357795;-11.64274075;-10.47536395;20.52986631;0.404182811;-2.586529312;7.69149265;43.09599191;0.80205565;10.05752426;-1.798055974;-3.305152287;5.940377566;1.189754074;-30.83810814;-13.34728343;1.29449112;-2.342378771
-4.327989696;6.96896263;-8.058765866;-10.34741805;22.79263718;0.416060958;-1.896535241;13.35376437;32.65148874;3.585322054;11.60436746;1.838124395;-2.480379026;6.750795653;-4.498438911;-27.91225353;-12.00678524;-1.342454746;-2.398209092
-3.686348166;10.11982897;-5.753778032;-10.6737276;25.39623029;0.623021022;-1.401258044;19.28296579;19.90598502;7.216818088;6.521569087;0.616439459;0.815745571;7.202774494;0.222091986;-26.11178684;-10.66702788;-1.521615421;-2.258331819
-1.534328032;9.823327827;-4.704310363;-11.9406542;28.25793675;0.821182823;-1.57508643;22.79677031;15.21089884;12.06522261;1.30178531;-0.761614539;5.668518061;7.644685175;12.3262734;-26.08038389;-9.854238702;-0.323338045;-2.193510052
1.106685583;6.394493528;-4.818494707;-13.92808534;30.69817447;0.763572443;-2.278181189;22.57072902;21.30024289;16.64955351;0.708237913;1.632924356;9.994004179;7.924068559;25.47664766;-27.38376;-9.454726728;0.262496238;-2.489056238
1.979941506;1.432402744;-5.660713976;-15.47336345;31.82444943;0.414115239;-2.898980596;19.48971674;31.58846685;18.32695556;4.508786962;7.690495891;11.98776157;7.601102063;33.4518009;-28.93227971;-8.932720201;-0.767149203;-3.107560651
-0.39686907;-3.192584314;-6.579378643;-15.16769251;31.13024284;0.012011447;-2.926950644;15.80921354;36.00754248;15.24397744;8.442072446;13.31176872;11.19042552;6.367256564;33.65860534;-29.93734034;-7.918507012;-2.822605764;-3.596921402
-5.394050087;-6.509165099;-7.278955459;-12.53189912;28.82952094;-0.126894022;-2.420328447;13.35036687;29.44698744;7.970637605;8.238539683;13.70769159;8.523854533;4.319689183;28.55025828;-30.61681391;-6.648670011;-4.671869255;-3.383548996
-10.72462425;-8.838082818;-8.248154792;-8.654477656;25.69817567;0.104114313;-1.936899694;12.23441783;15.91506901;-0.567241325;3.247517928;7.316143074;5.499628858;1.925268228;23.78092506;-31.97285168;-5.834330376;-5.764166435;-2.238848151
-14.20484214;-11.05746131;-10.42115043;-5.602855524;22.58883465;0.494888253;-1.997959241;11.1468774;5.2314257;-6.886330781;-3.140744202;-2.732069358;3.319352158;-0.231136081;24.06955545;-34.71102012;-6.009509884;-6.548429036;-0.520862891
-15.24592383;-13.3636754;-14.14804472;-4.936455815;19.99532697;0.695880383;-2.588934266;8.783459927;5.177039232;-9.131130263;-6.300280949;-10.67800629;2.443984546;-1.703750558;29.58030444;-38.16585394;-6.888474135;-7.550964045;1.040053711
-14.85442038;-14.67577145;-18.34985389;-6.491511164;17.93697386;0.525884511;-3.163904656;5.147519086;15.51204099;-8.034492965;-3.898940707;-12.06441792;2.683100465;-2.314164899;35.57664414;-40.23437185;-7.322932057;-8.296101593;1.856465261
-14.31817955;-13.36536245;-20.79958125;-8.488076866;16.15232259;0.131664735;-3.151447659;1.580942877;28.45281318;-6.04783228;2.635924156;-6.549341589;3.48332793;-2.155905885;35.86675935;-38.59145509;-6.004030854;-7.359584351;1.881753278
-13.90420098;-8.833934377;-19.59736495;-8.950657199;14.38698695;-0.146964483;-2.492819931;-0.414364776;34.84366408;-5.444742764;9.569204654;2.325865366;4.15259243;-1.538177544;27.63872532;-32.40379912;-2.435917263;-3.724678406;1.571942045
-12.78265782;-2.579098499;-14.79123265;-7.304255701;12.56540514;-0.084749528;-1.712302123;-0.440484223;30.87296652;-6.876074808;13.72358795;9.915885133;4.044137688;-0.889828101;13.9937875;-23.24283236;2.572247553;1.773195699;1.468517866
-10.1806832;2.36704353;-8.761592551;-4.801812911;10.78729782;0.228699828;-1.451253527;0.588163094;20.18407343;-9.332825429;14.39933924;13.49520614;2.842716596;-0.603229001;2.04846298;-14.40079584;7.327894579;6.427880569;1.775956277
-6.601309826;3.453215032;-4.851396909;-3.395314968;9.225790743;0.47750743;-1.892014119;1.42364301;10.25854191;-11.28841467;13.10793393;13.37271486;0.89329093;-0.841316632;-2.140683398;-8.992905262;10.32509842;7.427211947;2.285077028
-3.876828951;0.590447713;-5.143460891;-4.004774404;8.029406719;0.413476698;-2.598869442;1.688421286;6.461413742;-11.94837109;11.79143386;11.70406546;-0.753035891;-1.422728791;2.001489111;-8.162631403;11.17625138;4.123740453;2.662855003
-3.894146109;-3.561498152;-9.063544096;-5.704715014;7.275237532;0.083980786;-2.919379497;2.159474428;8.53793782;-11.64928223;11.24922126;10.39723606;-0.848284341;-1.917077895;9.265799972;-10.64690806;10.70600907;-1.100241332;2.800736622
-7.045145764;-5.4239383;-13.90630036;-6.595712765;6.971800642;-0.215078754;-2.576059191;3.864758733;11.87687809;-11.29172183;10.97413128;9.906532806;1.15908321;-1.955725897;12.79386859;-13.94235485;10.15393935;-4.274079024;2.886663158
-11.72770553;-3.150515661;-16.86900746;-5.651138558;7.103510081;-0.215256289;-1.90794286;6.844487488;11.89814094;-11.47674662;10.19832006;9.608414158;4.480097656;-1.572563633;9.485721003;-16.14100637;10.12750138;-2.625143569;3.153918346
-15.33351529;1.958890754;-16.98113596;-3.892691526;7.707564779;0.076822149;-1.54740628;9.765614632;7.759843524;-12.11236774;8.968744491;8.98497025;7.215166249;-1.307452196;2.474795402;-17.08080235;10.13360509;3.39744995;3.581260186
-15.91936712;6.442482541;-15.44271631;-3.717596022;8.939679491;0.38971729;-1.835941412;10.82474373;2.653626766;-12.69544889;8.253583416;8.30030757;7.487785292;-1.937319397;-1.27001709;-18.06900776;9.045557112;10.41569174;3.865206087
-13.25251649;7.327337193;-14.22519472;-6.759377833;11.04598036;0.443884829;-2.516037349;9.216456951;0.96339603;-12.83799671;9.075325537;8.176259586;4.764631701;-3.969909318;3.625621131;-20.55190211;6.115646208;14.48146774;3.712901075
-8.538027529;4.369610241;-14.20947295;-12.02461402;14.18764492;0.213285298;-2.974779834;5.922028587;4.877524817;-12.46505698;11.50891237;8.649417801;0.385651468;-7.233922916;16.63031841;-24.83585021;1.721972973;13.68450115;3.175285268
-3.269279396;0.140618157;-14.44661791;-16.01093737;18.18445639;-0.054492365;-2.805468998;3.143304292;13.00870204;-11.53040327;14.40705048;8.794199461;-3.163444741;-10.86018948;31.33227977;-29.79751716;-2.732971892;9.116580848;2.67651044
1.719926934;-2.031649617;-13.10055453;-15.00319001;22.36627585;-0.079939805;-2.167881237;2.843155554;21.65;-9.631204514;16.04848218;7.409129451;-3.789510531;-13.69145354;39.67410934;-33.67994542;-5.681005213;3.689965546;2.670327862
6.283184118;-0.542616575;-9.182394838;-7.938186776;25.71326958;0.171742005;-1.624306243;5.549632718;27.31311828;-6.037607928;15.20437676;4.19691113;-1.09396432;-14.87422407;37.19448719;-35.27058699;-6.346942347;-0.048677422;3.217012378
10.29224272;3.556793466;-3.557050583;2.386864774;27.28268409;0.443174485;-1.617434002;10.26277952;28.63626841;-0.265918943;11.90994687;0.342056956;3.423342381;-14.27869329;25.58725905;-34.5864706;-5.126087942;-1.392635492;3.87979031
13.11906391;7.753960481;1.607088493;10.83872916;26.68340515;0.419852631;-2.080988623;15.32479329;26.6575371;7.224751894;7.521082125;-2.116421622;7.318432368;-12.52027474;11.14428442;-32.67584541;-3.191738651;-1.342254906;4.071702307
13.8840176;10.17254007;4.415356701;13.21977507;24.2738707;0.035398569;-2.537321119;19.38793136;23.73735007;14.83906676;4.076314124;-1.67110498;8.604237466;-10.60552872;0.678362843;-30.81540801;-1.718949522;-1.341091871;3.573433059
12.2702964;10.70321316;4.487692807;8.942155838;20.92851347;-0.438881784;-2.573295079;21.74938467;22.06319433;20.44498926;3.27845117;1.608768566;6.709245547;-9.422461042;-2.029020027;-29.72272693;-1.312774551;-2.097430472;2.764347087
9.102926327;10.31764659;2.878951526;1.186868584;17.53152566;-0.614967283;-2.233676602;22.08369952;22.51617009;22.44336542;5.530156771;6.168913968;2.552230718;-9.3409823;2.805386019;-29.2571915;-1.954084542;-3.331222515;2.338265416
6.060638763;9.443849799;0.890320314;-5.483837657;14.56211318;-0.330168626;-1.958170849;20.18723794;24.25274942;20.59707072;9.487731865;10.03792318;-2.089760143;-10.10163108;12.37878325;-28.68325144;-3.319608799;-4.328270505;2.721590201
4.65651121;7.132183002;-1.086587299;-8.222408652;12.05423808;0.196382904;-2.128169439;16.1876081;25.1013834;16.06089096;12.49650409;11.9613823;-5.436469146;-11.02597397;23.31589106;-27.25322053;-5.097035514;-4.584453156;3.681679061
5.276854244;1.941386139;-3.680687786;-7.446573787;9.906854838;0.539027045;-2.664787327;10.98391872;22.72136136;10.62347624;11.90162725;11.77;-6.40361762;-11.44066396;32.72384199;-24.78114736;-7.054309285;-4.027581943;4.464242123
7.027086958;-6.236320658;-7.606254923;-5.892312035;8.244887354;0.42314892;-3.074740558;6.243276942;16.12973684;5.717528361;6.6374152;9.908635216;-5.004169408;-11.10065853;38.17086585;-21.94659603;-8.937605981;-2.921638897;4.355248065
8.462113707;-15.21722597;-12.62890295;-6.149546709;7.517462215;-0.048419008;-2.914953739;3.616304457;6.740418378;1.866823928;-1.915594335;6.761846381;-2.390684309;-10.36536996;37.62393526;-20.16836066;-10.437094;-1.852788026;3.209578993
8.588106625;-21.58175762;-17.42591699;-8.699416171;8.268006484;-0.496916691;-2.240504465;3.66963064;-1.993135461;-1.140748829;-10.56605207;2.454215889;-0.427980356;-9.978860666;30.20974218;-21.01750482;-11.33313162;-1.8773486;1.527905724
7.392638779;-23.08043206;-20.48186583;-11.87621113;10.79166767;-0.601634324;-1.600024414;5.509741544;-6.473894941;-3.622020577;-16.23211002;-2.786862627;-0.773197335;-10.53664926;17.47251549;-25.35452932;-11.68209242;-4.417682725;0.050940276
5.634233118;-20.39369899;-21.21526916;-13.53594845;14.96175801;-0.366889892;-1.557370449;7.602121074;-5.306559332;-5.482195501;-17.88672437;-8.220587557;-3.799023369;-11.97299204;3.835663434;-32.6256528;-11.80741693;-10.50132086;-0.767571006
4.223542223;-16.65577764;-20.34495285;-12.89930369;20.31865093;-0.089369199;-2.167011191;9.196785441;-0.340092773;-6.224539612;-17.04529561;-12.68721161;-8.062089677;-13.47293957;-4.769347595;-40.82396351;-12.04275475;-19.60666792;-0.984536065
3.73756397;-15.02443387;-19.20934166;-11.06146822;26.26936308;-0.067185452;-2.892601372;11.07234225;4.624993576;-5.421130585;-16.30085519;-15.22321795;-10.92322788;-13.97488211;-3.793184709;-47.3202846;-12.45323449;-29.08775543;-0.960889774
4.329196498;-16.2933137;-18.67747241;-9.891234133;32.18448372;-0.322903777;-3.065574855;14.77250196;6.714271771;-3.179991136;-16.9688558;-15.65066801;-10.20302639;-12.98688585;7.174664206;-50.18697518;-12.84018977;-35.07071734;-0.972586129
5.880421;-18.55339119;-18.60017734;-10.38345769;37.35015952;-0.592480598;-2.486342677;20.85289291;6.250779845;-0.145391578;-17.75869705;-14.57036204;-5.855999603;-11.11861696;23.64718718;-49.18792456;-13.09448602;-34.66418366;-1.007262742
8.109754075;-19.14777894;-18.20115956;-11.88435163;40.94609537;-0.583246061;-1.628070526;27.70221635;6.48307922;3.023599618;-15.70176598;-12.73855286;-0.363756478;-9.838478036;38.20621279;-45.7193924;-13.60062396;-28.08492761;-0.896362972
10.55244769;-17.15406294;-16.94332737;-12.76779073;42.23593997;-0.256888453;-1.249037951;32.20474272;10.7980747;6.262538088;-8.750718635;-10.40526572;2.688435738;-10.50629375;44.22512767;-41.69094939;-15.25637646;-19.0045995;-0.600849794
12.58896544;-14.16298562;-15.02564397;-11.88941615;40.9317043;0.126429139;-1.746178264;31.97559357;19.59716917;10.21104669;2.02183896;-7.25355985;1.018126549;-13.3296696;39.27159506;-38.14233683;-18.93597864;-12.53024192;-0.335984709
13.68696813;-12.6544592;-13.08711686;-9.548882662;37.44489105;0.243766725;-2.814965268;27.40751775;29.48430719;15.58881116;12.54063663;-3.019512748;-4.694474195;-17.05076335;26.27373746;-34.63644271;-24.70548287;-12.00073526;-0.397234863
13.74986786;-13.46644331;-11.48275207;-7.193967816;32.73842432;0.006921696;-3.709672071;21.69921862;35.64301669;22.23351535;18.27940805;1.797837614;-11.2093852;-19.69025925;11.80188064;-29.88616859;-31.39073716;-16.80519379;-0.852513558
13.24737576;-14.73768332;-9.895707737;-6.203454461;27.79967283;-0.3534034;-3.868295422;18.60418725;35.6260793;28.59945083;17.35165386;5.872028007;-14.97934268;-19.87462784;2.423247026;-23.08608626;-36.92156271;-22.80480001;-1.40290084
12.92221896;-13.43455979;-7.696250937;-6.825862742;23.11390694;-0.496088732;-3.353807701;19.59196306;31.47015397;32.30596299;11.71366005;7.816314831;-14.57370479;-17.77969671;1.155187913;-14.83605969;-39.33208189;-25.07698721;-1.559272717
13.25177254;-8.223739625;-4.707264997;-8.13757371;18.58213797;-0.281730537;-2.742386594;22.74805976;28.27518531;31.567657;5.517876231;7.198813398;-11.42514632;-14.97136183;6.024672774;-6.877743199;-37.80280927;-21.03561695;-0.989110376
14.11666262;-1.120320428;-1.614312931;-8.96577449;13.98503901;0.09584525;-2.588436841;24.40075172;30.2321173;26.56909647;1.947372392;4.930664573;-8.386004137;-13.26058018;11.61331529;-0.864316204;-33.07538443;-11.80407335;0.264705598
14.98379408;3.718293953;0.426723898;-8.920249843;9.607811349;0.279161006;-2.960740988;22.19982895;37.20993814;19.7014974;1.077066969;2.630848227;-7.359090782;-13.45873732;12.74761356;2.791581469;-26.99915478;-1.117351399;1.86434146
15.44454342;3.21340768;0.672953451;-8.656699579;6.442384366;0.065802992;-3.452368842;17.10179655;44.63498683;14.28138959;0.4185117;1.428305494;-7.998838376;-14.98645922;8.097896386;5.014649149;-21.54705465;7.159140773;3.450179529
15.59808779;-2.087689287;-0.627635781;-9.211215415;5.690221773;-0.409135285;-3.618423108;12.57794298;46.7935365;12.48400729;-2.443039705;1.157610357;-8.520039063;-16.58255013;1.294441921;7.048911167;-17.93633507;11.00333347;4.839142177
15.8979606;-8.376577093;-2.504142367;-11.0399675;7.88;-0.787877976;-3.409819098;11.68482781;40.99258418;13.91248644;-7.424694651;0.599910778;-7.800879977;-17.45810923;-1.412776563;9.241360134;-16.32436978;10.52870744;5.984777287
16.59991119;-11.65447898;-4.143954513;-13.59451131;12.29205067;-0.796482779;-3.197509585;14.46033157;29.40985587;15.88706723;-11.79332388;-1.433621477;-6.817071721;-17.90030808;4.379075708;10.71824663;-16.10403357;6.906480479;6.794313322
17.37294325;-10.94916481;-5.577518318;-15.74543936;17.19786465;-0.470503546;-3.381675713;17.85466193;17.3758061;15.33154248;-12.3827199;-5.060967994;-8.016955603;-18.84025378;17.64617909;10.25142727;-16.46068487;1.192730275;7.050307611
17.52788906;-8.929354222;-7.520347871;-16.63482382;20.79943088;-0.106890716;-3.973148322;18.26247946;9.619305732;10.92863378;-8.293234952;-9.158455229;-13.07660966;-20.8206538;31.95837712;7.541675732;-16.80892456;-5.933770352;6.574161355
16.73368778;-9.37269831;-10.49735687;-16.23061063;22.19777325;0.002835405;-4.554304183;14.51263934;7.409246065;3.963282188;-1.834381183;-12.15815224;-20.97896667;-23.32976085;39.4327509;3.748898629;-16.94668201;-13.60790304;5.498429439
15.56281451;-13.67311978;-14.05656206;-15.19247355;21.69995424;-0.185988307;-4.661889231;8.793403143;8.537389739;-2.763983936;3.021350412;-13.13949919;-28.19779617;-25.13776171;36.03518924;0.741858896;-17.00238906;-20.31430967;4.353282222
15.26314462;-19.45160664;-16.84102915;-14.28160014;20.30792001;-0.462803351;-4.231329475;4.768943138;9.713878009;-7.089704653;3.379008846;-12.36059745;-31.02472759;-25.36236621;24.40373755;-0.333067846;-17.31731998;-24.29915698;3.797579521
16.80618663;-22.55048663;-17.54283681;-13.88355166;18.86974303;-0.574700026;-3.679573144;4.540567766;9.206468038;-9.001036922;-0.78306583;-10.89079613;-28.22957299;-24.3043159;11.97982935;0.052141023;-18.31475045;-24.7051743;4.14527871
19.95249227;-20.74392267;-15.96491198;-13.99953975;17.58153036;-0.452347534;-3.539268819;7.055335792;7.738368123;-10.30693681;-6.963766931;-9.738742947;-21.89355597;-23.25458263;5.700875563;0.218076389;-20.32055039;-22.47147321;5.064347371
23.16088131;-15.93381634;-13.27865217;-14.55511717;16.15462629;-0.244258546;-3.977074954;9.263761547;7.345847882;-12.75177187;-12.05048543;-9.199862118;-15.73449089;-23.36822464;7.20840431;-1.351086851;-23.33385581;-20.09797369;5.733801726
24.51790012;-12.81494367;-11.22188991;-15.58417168;14.36193304;-0.144905374;-4.641272114;8.932178128;9.504416783;-16.15184965;-14.12568738;-8.852250235;-12.30699439;-24.55213611;12.2236612;-4.830458036;-26.85795177;-20.23871904;5.388452794
23.01143982;-14.99523722;-10.86839044;-17.04037509;12.38650428;-0.195261212;-4.983215335;6.615695181;14.08841429;-18.17067386;-12.92946354;-8.039137018;-11.35172197;-25.36177332;14.50095654;-9.017257706;-29.94522743;-24.00942157;3.856445451
19.161229;-21.79169151;-11.95239602;-18.45314688;10.65345972;-0.250693229;-4.761208173;5.090762364;19.69339607;-16.0517403;-9.09725976;-6.332129614;-10.53702775;-24.07;11.09779076;-12.36173841;-31.5034469;-30.12821209;1.683283579
14.53675372;-28.45521561;-13.2558353;-18.89692447;9.365103224;-0.141982826;-4.266523589;6.799887577;24.65707179;-9.018646398;-3.275682152;-3.631546358;-7.793004537;-20.0601752;4.621079475;-14.08978686;-30.72864766;-35.43410299;-0.244804848
10.60112659;-29.76513735;-13.68489967;-17.49867528;8.25962923;0.134047761;-4.064656959;11.58157534;27.80620304;0.563044565;3.981898648;0.000526771;-3.150343711;-14.38457189;0.622898651;-14.45256938;-27.43458463;-36.45995123;-1.280316526
7.833414751;-24.13306056;-13.13244416;-14.17078658;6.88882419;0.386640037;-4.4867294;16.65665913;28.57343426;8.266081917;11.66203419;4.424438211;1.450893531;-9.010205307;2.431544613;-14.02220593;-22.12623063;-31.20488278;-1.365174851
5.77022313;-14.91983061;-12.46917718;-9.936588642;5.174258427;0.400768387;-5.331162462;18.83035547;26.84618769;10.21298838;17.96437786;9.246432663;4.061097931;-5.374359746;7.96201482;-12.86425692;-15.83944917;-20.28417174;-0.935702382
3.773172766;-7.950853576;-12.77427366;-6.459034057;3.674807313;0.146581378;-6.040963359;16.95344819;22.98133323;5.346659328;20.85719223;13.59911112;4.512244461;-3.4509103;11.43984209;-10.49742586;-9.879668891;-7.007811174;-0.52955168
1.729028984;-7.284313796;-14.5213511;-5.026776776;3.219534542;-0.172943031;-6.189678048;12.54437068;17.91488749;-4.206513073;19.23975544;16.27857939;4.459706979;-2.078561317;8.730880669;-6.723145852;-5.556748043;3.667409893;-0.446140408
0.044716502;-12.59198881;-17.37991347;-5.743753822;4.155139748;-0.2896191;-5.835749778;8.17702867;12.9331942;-14.75953671;13.75855562;16.37012257;5.686914703;-0.209984278;1.674294425;-2.462729216;-3.908619887;7.042526865;-0.703060719
-0.970723056;-20.03851126;-20.68148441;-7.553223471;5.87928246;-0.104790555;-5.435580798;5.22099931;8.968128446;-23.30802862;6.561911442;13.98954727;8.300369006;2.048919453;-2.60938059;0.394593993;-5.382878877;0.820308981;-1.23525848
-1.642863893;-25.62574359;-24.0141023;-9.068965487;7.156647982;0.222859035;-5.412299428;3.006459653;5.945199905;-28.76402212;0.174758315;10.50792898;10.55184107;3.540340903;2.680740725;0.262947023;-9.55653738;-13.45752501;-2.077180162
-2.783262131;-28.08854942;-27.36454999;-9.536057223;7.050148572;0.417795822;-5.783562444;0.082412893;2.942373716;-31.57929286;-3.642869168;7.916658666;10.52222128;3.209070372;17.93189401;-2.726908437;-15.1015732;-30.61755462;-3.324388328
-4.939080232;-29.08515953;-30.72412759;-9.165105746;5.717261836;0.329159343;-6.181766508;-3.73976593;-0.722359232;-32.51925766;-4.331648494;7.646987178;8.143693445;1.2727962;35.69728472;-6.456905353;-20.16727337;-43.9879205;-4.916790946
-7.748573689;-30.90674918;-33.62317273;-8.650161953;4.361334041;0.054815309;-6.228734228;-6.599831407;-4.356606526;-31.8751853;-2.271560376;9.646251315;5.630918985;-0.678295145;45.50543286;-8.122083002;-23.10345908;-48.59431236;-6.481621053
-10.0660042;-34.01644954;-35.14741409;-8.39520576;4.303046426;-0.160531872;-5.903163981;-5.928093695;-5.917016609;-29.72645361;1.633232042;12.39588214;5.751647438;-0.83221535;41.3717456;-6.199195091;-23.16377753;-43.66170377;-7.439300797
-10.82971135;-36.65623707;-34.53797341;-8.201187682;5.892572083;-0.15350735;-5.558818487;-0.777282887;-3.520911956;-26.70225388;6.139705813;13.88930761;9.322089017;1.353588979;26.15913975;-1.53796559;-20.76480473;-32.8352076;-7.344002373
-9.945338452;-36.72338883;-31.90161587;-7.698146255;8.161064079;0.016090173;-5.586539327;6.980468698;2.649782275;-24.1634772;9.799563442;12.88940065;14.12524216;4.565916509;9.368788451;3.317898879;-17.13840992;-21.89086435;-6.211931355
-8.40068663;-34.0127152;-28.38370779;-7.065335091;9.529262848;0.137005288;-6.045262076;13.77817885;9.792869454;-23.3281424;11.44320205;9.608644669;16.35108712;6.487594908;0.169691164;6.041294934;-13.62445844;-15.38898113;-4.575362076
-7.487516618;-30.62594664;-25.55176081;-7.252193968;9.02162134;0.057509821;-6.608418324;16.93964756;14.10505398;-24.01990778;10.96003906;5.427172841;13.54093067;5.45608207;1.183969671;6.129335782;-11.08003906;-14.45090861;-3.199482363
-7.788204184;-29.07908704;-24.37536917;-9.329345255;7.008201444;-0.167013216;-6.870058594;16.55;13.55868296;-24.30369496;9.677013852;1.98443669;6.686629206;1.651898489;7.708355152;4.968029816;-9.736865816;-16.97517761;-2.64533132
-8.784217687;-29.79887326;-24.53875229;-13.42291557;4.879638215;-0.328788953;-6.718102706;15.04069601;9.646735846;-21.65177102;9.650263324;0.367939222;-0.255203416;-3.0660303;12.476154;4.438491718;-9.446410667;-19.77529817;-2.963945951
-9.385241442;-30.33898092;-24.60248404;-18.17831715;3.934039305;-0.269701147;-6.425032927;14.91306051;6.558758632;-14.93126507;12.10200867;0.902116301;-3.11224606;-6.481106777;11.65272781;5.350707859;-9.960118907;-20.77698892;-3.703420324
-8.877346773;-27.18630947;-22.92473629;-21.37108257;4.385700956;-0.035499115;-6.377707002;16.6293653;8.299616064;-5.620876872;16.26425854;3.457163631;-0.386660677;-7.436045629;7.1524355;7.038100715;-10.95442033;-19.6419301;-4.200249049
-7.467912774;-18.75255894;-18.73121727;-21.3506422;5.273227238;0.167085541;-6.707240959;18.4893345;15.97226298;2.883469323;19.88494095;7.782146652;5.898422066;-6.318045226;3.862710056;8.33475754;-11.85529219;-16.74379945;-3.964449795
-6.026816242;-7.053222411;-12.65508242;-18.24407739;5.280751958;0.170916725;-7.169425202;18.48885377;27.2879994;7.505741363;21.29265398;13.46643097;11.9026764;-4.413308794;4.767042218;8.903120189;-11.79723207;-11.91131116;-2.94248723
-5.362110831;3.380994228;-6.451647969;-13.9398529;3.749637733;0.014568114;-7.38467243;16.37465315;38.44688833;7.579963567;21.28269131;19.61803891;14.73981072;-2.818089128;8.454291066;9.606348629;-9.970953497;-4.434948457;-1.532798416
-5.726707017;8.539800765;-2.110771313;-10.79592346;1.061418766;-0.08919546;-7.205768443;13.9683079;46.55989311;5.129444148;22.82082529;24.73930032;14.15173222;-1.815368627;10.97415181;11.55408087;-6.217388379;5.556672665;-0.360073242
-6.924826066;7.533629859;-0.892818559;-10.03499502;-1.838629613;0.040260124;-6.862973483;13.45095756;50.55430363;3.098035115;28.28268589;27.18767545;12.00276209;-1.083466009;9.913684623;14.72829615;-1.382792624;15.80297796;0.074805509
-8.738545398;2.819449601;-2.769423884;-11.05294028;-4.272477498;0.362427493;-6.748922073;15.20186403;50.20656137;2.97522503;36.39137933;26.08352824;10.33808387;-0.344123178;6.668453445;17.54390142;2.976023332;22.35825329;-0.30964259
-11.09259633;-1.889601112;-6.472977124;-12.13662138;-6.263651083;0.62773191;-7.047107434;17.23476619;44.92625592;3.777743097;41.90893515;22.02711544;9.773661051;0.245983981;4.800252627;17.89325346;5.454824068;21.96918807;-1.105547144
-13.72653808;-4.166284096;-10.05799715;-11.95650329;-8.246442065;0.59181054;-7.555125898;16.84878224;34.17522331;3.23977644;39.23826513;16.98793691;9.451367924;0.300376671;6.218864254;14.8766535;5.64340466;14.68326906;-1.643726951
-15.78138321;-3.877302202;-11.69141811;-10.60185082;-10.40212816;0.24302925;-7.869543052;13.07900639;19.54238869;0.212774659;27.61052007;13.29647644;8.312563235;-0.275092736;9.060761064;9.743066896;4.29927554;4.436567099;-1.417761984
-15.94475685;-2.20673047;-10.34197615;-9.351875559;-12.2954928;-0.166162795;-7.758406302;7.733822739;6.236009851;-3.781981645;13.4325832;12.37431079;6.358935089;-1.014723813;9.537534581;5.182020319;2.707408773;-3.18056861;-0.443786819
-13.31560224;0.014547;-6.104112146;-9.454483308;-13.17625672;-0.321405802;-7.371698464;3.993044932;1.471437779;-5.268453614;6.894063887;14.0995555;4.755449024;-1.175105575;6.152993017;3.494142183;1.74350402;-4.458944599;0.714224729
-8.356699463;2.973504049;-0.045624846;-10.999935;-12.67418179;-0.109420873;-7.094218842;3.692190904;9.666568031;-1.380523;14.40003906;17.26517738;4.788350937;-0.31684118;2.172655509;5.112326154;1.411905437;0.296787122;1.32446616
-2.993670714;7.023836528;6.32373147;-12.84974126;-11.2402473;0.287976981;-7.182981647;5.63374676;27.65837292;7.6923325;32.34837649;20.75536438;6.714355091;1.349864658;3.542401316;8.624170771;1.223029742;7.664338699;1.039308288
0.493336102;11.40905699;11.68769378;-13.64308785;-9.906984832;0.55012765;-7.533290452;6.449616448;44.27492786;18.34338074;47.66389774;24.48985355;9.543410172;3.162660132;13.57404267;12.15140059;1.0313948;14.15334247;0.208932596
1.078648309;14.13192403;15.35141058;-12.97490808;-9.550997333;0.485208283;-7.793672451;3.373034641;45.99464738;25.66754878;45.8241206;29.34800999;11.88025602;4.549510877;28.95866585;14.81631579;1.518551757;18.75157713;-0.324207073
-0.192125789;13.43897084;17.2991216;-11.71803336;-10.28521252;0.176731498;-7.717316839;-3.367806871;25.70609971;26.56642683;21.19424841;36.09498092;13.00899845;5.421236151;40.9719747;17.0452668;3.786030033;22.83848199;0.153859041
-0.963133308;9.718516444;17.96;-11.23320913;-11.49016693;-0.109742067;-7.411377944;-10.52750849;-11.50893293;21.61108602;-17.91426599;44.17491009;13.27784277;6.096187464;41.48116615;19.57414659;8.317196932;27.7534651;1.650137648
0.57942365;5.956180135;17.91427;-12.18659459;-12.42549174;-0.163737326;-7.240797697;-14.2109012;-50.26076062;14.39604762;-53.65951854;51.43226296;13.5617354;6.897992714;29.15792214;22.21247836;14.19768019;32.4829574;3.401162339
4.224337105;5.959420786;17.72133309;-14.01933645;-12.85792955;0.004938576;-7.472129267;-12.69145414;-73.82929694;8.981937868;-69.86152576;55.16901518;14.417196;7.857904804;10.85368297;23.62153232;19.37427087;33.87734525;4.417453345
7.869658505;11.50515208;17.86525952;-15.51389953;-13.14889566;0.21007019;-7.995137914;-7.450537049;-74.35913234;7.344781872;-62.13232573;53.90379835;15.72574793;8.804698273;-3.084628186;22.40012521;21.91786522;29.48436864;4.234345865
9.223900461;20.68520442;18.67795397;-15.91853527;-13.74782024;0.281822484;-8.394811424;-1.766715443;-57.22889021;8.578799149;-39.80302454;48.56727381;17.04884071;9.700311132;-5.885240451;18.52448772;21.3905406;20.51936516;3.269013667
7.70408514;28.95668314;20.16500427;-15.59943687;-14.58079096;0.217654148;-8.320211758;1.796587686;-36.60951992;10.1790603;-18.59826484;42.17253675;18.19867248;10.81;1.679450554;13.7871228;19.23874027;12.04631345;2.475582175
4.954892678;32.28063922;21.85320823;-15.62501068;-14.92289992;0.153867163;-7.813126053;2.895342305;-25.54191738;10.21533709;-9.782505631;38.06694367;19.36813464;12.45895257;13.15747004;10.70231294;17.8374411;9.686380422;2.559936697
3.535450844;29.98604629;22.8858978;-16.66003906;-13.91426948;0.200006104;-7.286896589;2.847342134;-27.67161525;8.715292437;-13.73334126;37.92573867;20.68259454;14.57089662;21.97777813;10.68251252;18.85533845;15.26646556;3.394731255
4.845300556;25.11402172;22.45071025;-18.19070963;-11.30737303;0.310220608;-7.164311418;2.809666758;-36.25380788;7.351354015;-22.02674118;40.88073452;21.68953701;16.46967314;25.8036758;12.96892155;22.15556985;25.04278792;4.129221555
7.999817715;21.95014284;20.31870503;-18.83246993;-7.818829334;0.324798452;-7.500253957;2.491011644;-40.49178222;7.863049521;-25.43273453;44.37676542;21.42219954;17.24060973;26.37752624;15.21785433;26.0384076;32.25369037;3.917693327
10.57270604;22.6835631;17.0872219;-17.51719634;-4.780681002;0.143206986;-7.934712468;0.546891109;-34.01805802;10.51761009;-21.07286443;46.09012857;19.12398023;16.43456582;25.88511873;15.29072732;28.59093737;32.20962336;2.665111409
10.57187531;25.82637088;13.87511182;-14.54795273;-3.35479266;-0.145527678;-8.022295245;-3.81727888;-19.25452586;13.7567199;-13.4318704;45.47589528;15.02789309;14.52099037;23.92855795;12.81868923;29.06747009;25.89223878;1.159564889
8.017463955;27.61035903;11.64137798;-11.57211271;-3.901463868;-0.315276687;-7.639326672;-9.609458216;-4.976201007;15.23647928;-9.350128805;43.83146361;10.43409989;12.63641697;18.2581315;9.327618428;28.24912299;19.09345122;0.466782801
4.870511228;25.19319308;10.63535773;-10.41923784;-5.923343402;-0.203735867;-7.097071857;-14.38106939;0.416803209;13.48598078;-11.86938047;42.93571012;6.903458839;11.75046394;8.46363546;6.908700615;27.58039786;17.71317862;1.082173639
3.457683647;19.0774065;10.41354394;-11.71796637;-8.520290561;0.122399613;-6.857853436;-15.88270796;-5.36561602;9.041880385;-18.10685688;43.43574051;5.182483865;11.89378007;-1.363233868;6.579886823;27.85322197;23.00150637;2.54293251
4.744166527;12.81312052;10.39349637;-14.41306661;-10.92350248;0.401346427;-7.114002306;-13.62759122;-17.64927013;4.312026873;-22.3809824;44.32344823;4.760771002;12.09077781;-4.324264977;7.653613029;28.52711835;30.60975599;3.816329818
7.826085736;10.25647479;10.44553123;-16.56963741;-12.7186842;0.393732992;-7.614188438;-9.066239786;-28.70117465;2.236976891;-21.29260599;43.92506587;4.449901801;11.08780563;3.943985912;8.521884784;28.21307482;34.19793198;4.128362998
10.90185103;12.60215338;10.97790835;-16.80159075;-13.7247911;0.09477693;-7.893873147;-4.326459176;-32.97051389;4.532175974;-16.21629089;41.550806;3.497575006;8.319933267;20.74598368;8.098572081;25.89501003;30.61226383;3.536750801
12.75144908;17.5459745;12.42449338;-15.1828402;-13.80640079;-0.252394543;-7.696723033;-0.690401356;-29.94670132;10.53198944;-11.41119825;38.36327157;2.282074259;4.363506106;36.96945968;6.695078247;21.89188072;22.40087039;2.788439604
13.45290839;21.1881935;14.61072466;-12.97671375;-12.88495617;-0.361647041;-7.201618429;1.90703125;-23.30465597;17.33740675;-9.964581814;36.63362285;1.986063974;0.540712664;43.08476497;5.671211654;17.80456315;15.69063921;2.622457927
13.87250296;21.09649364;16.63240539;-11.51636916;-11.12930304;-0.14939119;-6.851484097;4.098570411;-17.79961024;21.27069751;-11.42836445;37.89772145;3.51870467;-1.981727572;36.00287304;6.249035713;15.50606745;15.28163745;3.142482795
14.58370114;18.07275242;17.45099659;-11.22580026;-9.060531368;0.196256484;-6.945776776;5.940241311;-16.44922552;19.90207818;-13.05468885;41.50425627;6.590158203;-2.889275466;21.24313006;8.509342457;15.94888145;21.01562372;3.79332707
15.2908556;15.27813246;16.74504825;-11.55338136;-7.358003662;0.383497878;-7.371248881;6.578734388;-19.55829155;13.51810989;-13.02972559;44.82275921;9.709953449;-2.72405001;8.551825347;11.3388272;18.63724149;28.26307761;3.924965882
15.2430904;15.52795761;15.26330628;-11.73744232;-6.456281341;0.271377281;-7.712940972;5.062965313;-25.42139464;5.117409137;-12.35521918;45.08028164;11.11754065;-2.298548331;4.498745078;13.26326305;22.04973858;31.86991614;3.410975548
14.13973721;19.01185685;14.30644884;-11.6108954;-6.272874309;-0.015098701;-7.636147184;1.505991943;-31.60499694;-1.181483055;-13.5473544;41.4541513;9.919326672;-2.061486684;8.054116638;13.43042387;24.59554477;30.11796977;2.75941744
12.58648787;23.2759131;14.72187012;-11.69277826;-6.339657548;-0.206764277;-7.185835425;-2.560509499;-35.97131398;-2.45816538;-17.53803576;35.7758331;6.594908105;-1.90598408;12.55988291;12.01360135;25.39256892;25.48298341;2.626725156
11.64149441;25.39724298;16.25876627;-12.52947876;-6.262738574;-0.13274023;-6.734360222;-5.083428514;-37.30815709;1.36433379;-21.97803644;31.26096229;2.579967234;-1.467574768;12.07358145;9.882293705;24.42898088;21.88568342;3.187323319
11.8939113;24.46431831;17.85286232;-13.9623939;-6.121376135;0.137156051;-6.636707511;-4.958936162;-35.68412768;7.608024196;-22.84268871;30.23829466;-0.668889652;-0.551848948;6.464299863;7.967909859;22.20685899;21.1241361;3.937776978
12.96699495;22.23979842;18.59857357;-15.06269226;-6.439351789;0.372948524;-6.917477154;-2.879171699;-32.37901597;12.63230141;-18.06321636;32.63611141;-2.435160813;0.696194869;0.952676065;6.860827963;19.30394229;21.68007813;4.118316163
13.91556106;21.42308372;18.53397423;-14.84487521;-7.724410975;0.404130014;-7.273050944;-0.877041117;-29.10256178;14.1508269;-9.849352166;36.3454011;-2.909998998;1.950107131;0.795810661;6.813999612;16.19920629;20.78040839;3.379052658
14.11691933;22.98604924;18.5037569;-13.13578726;-9.959101952;0.270245568;-7.371779148;-0.953744048;-26.70204618;12.51111731;-3.398181563;39.03976131;-2.851160042;2.935396234;6.095729245;7.909419741;13.35258464;17.59955044;2.102308114
13.78212698;24.92316408;19.19534038;-10.80885055;-12.48828255;0.165116884;-7.160331236;-3.844518457;-24.30121522;10.09292402;-2.908257618;39.8747624;-3.10576401;3.471811738;11.50850196;10.06436607;11.27014984;14.48413936;1.103057915
13.59662853;23.67207911;20.23797137;-9.145831367;-14.41783983;0.234174028;-6.890606763;-8.737371294;-19.88666116;9.327058723;-8.299081544;39.68116394;-4.279555541;3.330795739;11.16854382;12.83797297;10.34803193;14.9326847;0.979207794
13.86547457;17.24390719;20.27230821;-8.859281;-15.20186997;0.422206503;-6.855422497;-13.92216943;-12.31839713;10.8290439;-15.48439784;39.63123513;-6.577976263;2.166703798;4.396737104;15.3160886;10.57734296;20.09384558;1.677391065
14.04498206;7.539167532;18.06322176;-9.604522546;-14.93845192;0.51962571;-7.09808167;-17.70171724;-3.298709366;13.02603672;-19.92593237;39.71290966;-9.724925738;-0.26859792;-3.045209373;16.36411627;11.40870837;27.03306892;2.624373934
13.18302974;-0.251219846;13.74730468;-10.37150697;-14.15655896;0.366281339;-7.378233972;-18.94708373;2.629595982;13.50432881;-20.30826531;38.50817628;-12.96205255;-3.736643992;-3.515530052;15.21765302;11.99748164;30.59146702;3.259057536
10.89077501;-1.067810808;9.072439654;-10.37591012;-13.32235744;0.020621282;-7.42179767;-17.22227975;0.716637838;10.99445239;-19.12811144;34.58192317;-15.24899986;-7.324825927;5.93291189;12.02714204;11.73390125;27.51800967;3.458864405
7.895268247;6.165571417;6.277464278;-9.65716955;-12.52128998;-0.269421179;-7.203660476;-12.80480059;-10.28263017;6.450078125;-19.8168015;28.27398222;-15.70543706;-9.754128393;20.6628184;7.919999137;10.6830861;19.42807724;3.488565377
5.559584983;17.22291714;6.442357673;-8.894160367;-11.57971477;-0.274788375;-6.97851005;-6.795240624;-26.18056021;2.412210549;-23.14749946;22.19514285;-14.08722552;-10.07100297;31.87201829;4.458910674;9.572473751;11.93150323;3.568759438
4.730328439;25.03198693;8.680708329;-8.673163498;-10.45713207;0.013357042;-7.021455819;-1.073803462;-39.13304215;1.189387175;-26.2813693;19.74711984;-10.9386964;-8.235864602;33.54218977;2.808551572;9.282451116;10.39780342;3.52091199
4.972857318;24.35611469;10.91656938;-8.922880303;-9.470592076;0.372015151;-7.329791284;2.289509783;-42.31905238;3.27162129;-25.3445594;22.69230198;-7.233704097;-5.133569402;27.08679007;3.134762634;10.17858021;15.6847707;2.862550682
4.979998417;15.40432205;11.66446221;-9.040277055;-9.065959398;0.535764759;-7.587955967;2.136256164;-34.32032454;7.152491444;-19.15185321;29.72718681;-3.723058331;-1.962360602;19.81723486;4.601346895;11.77020335;23.3241202;1.283992006
3.878428018;3.748855796;11.33308633;-8.562523822;-9.298585292;0.417396446;-7.452338799;-0.852278327;-19.95748587;10.59494897;-10.59675364;37.31316416;-0.488600638;0.543484202;18.60485874;5.937787051;12.96717511;26.93411552;-0.943791133
2.261137998;-3.418561846;11.90721837;-7.721246261;-9.518574794;0.165325464;-6.899156714;-4.258096347;-6.877515624;12.27277062;-4.328130098;42.21233988;2.929782182;2.465431577;24.15017971;6.209513787;12.78235065;23.21785364;-3.039567177
1.908552409;-2.011727475;15.19997454;-7.325922695;-8.646465074;0.015633248;-6.298795821;-5.278862472;-0.386897565;12.5153525;-2.738740154;43.75379265;6.943865337;4.386456034;30.64518212;5.335668102;10.99871198;14.59045118;-4.238899057
4.284473128;6.568903943;21.09950172;-8.057012955;-5.93369673;0.082755516;-6.121545469;-2.530798153;-0.339407506;12.68609011;-3.904066099;44.02498781;11.38018102;6.7138072;30.94156516;4.077366279;8.3257401;7.332458902;-4.333375966
9.042949065;16.89679728;27.29944615;-9.814851034;-1.641984338;0.280766548;-6.525867962;3.004088199;-2.242311916;13.83461659;-3.430261844;45.8381519;15.47184538;9.216184546;22.68926944;3.524468283;5.912233247;6.695354368;-3.757024849
13.90504276;23.45495305;30.8082474;-11.73833205;2.937966729;0.436077913;-7.206236616;8.653454615;-1.451898763;15.77716501;1.335420596;50.11396955;18.38229996;11.13576946;10.24771416;4.375938167;4.529449245;12.76868136;-3.159857803
16.17352021;23.9927862;30.06055473;-12.90042376;6.224874971;0.469296754;-7.654377145;11.89200261;2.976918662;17.30872894;8.47398335;54.78826797;19.78253352;11.7335707;0.945122749;6.424879356;3.983057446;20.29792247;-2.867128797
14.74316433;19.98969325;25.94385337;-13.06158384;7.336040037;0.463139108;-7.610863137;11.96704557;7.746355245;17.26862036;12.67468647;56.11902611;19.95890585;10.78284591;-0.898092702;8.574704449;3.182248226;22.56804621;-2.711549844
10.960628;14.38114233;20.94514377;-12.79734329;6.596128921;0.551174338;-7.299671327;10.12669181;8.266965435;15.50244176;9.576598505;51.37775181;19.37264177;8.623988445;2.960897013;9.442763194;0.866019106;16.38642662;-2.362793914
