Channel 1 - P4;Channel 2 - O2;Channel 3 - P8;Channel 4 - T8;Channel 5 - C4;Channel 6 - Cz;Channel 7 - Fz;Channel 8 - F4;Channel 9 - Fp2;Channel 10 - F8;Channel 11 - Fp1;Channel 12 - F7;Channel 13 - F3;Channel 14 - C3;Channel 15 - T7;Channel 16 - P7;Channel 17 - P3;Channel 18 - O1;Channel 19 - Pz
109.7116458;59.13553409;65.63703847;-77.28250504;14.21490698;17.96764987;-59.37876797;82.80213462;65.16825069;59.5011978;104.1487759;51.4524769;66.12654077;47.87196017;-54.28161627;72.44348437;56.23330065;90.70199397;43.42806173
78.59;48.45726579;37.3789865;-33.11737593;14.48015053;-3.274747282;-25.59142301;30.34142218;37.39654991;26.12499798;51.32917901;14.90288376;39.62435795;18.14293035;-16.99569922;42.49605791;37.29477409;46.78020972;-4.952175271
26.49968064;34.95075384;3.013077308;27.4523621;22.49775774;-16.72990747;16.40667611;-12.83544481;14.0877119;-6.833279952;4.302939069;-13.91401263;12.22278063;-4.624238291;24.18339345;31.71222144;33.87060819;7.683012062;-43.26138993
-21.60317218;33.20879774;-24.27646685;64.39059644;34.47697001;-15.95148266;42.81276657;-27.98485808;7.206517626;-19.28934936;-9.701940164;-19.078191;0.800152233;-8.291662845;48.48698415;49.63662195;49.64359027;-3.934283534;-53.42076617
-48.71078327;44.11631458;-38.07769721;59.45244706;42.5345906;-4.72033941;42.33;-16.80848092;16.13554146;-9.060078125;10.32661422;-4.174181759;7.785943522;5.555109238;47.49037426;83.63395417;74.0092911;12.55344673;-37.30110736
-52.99201226;55.74641663;-39.94572108;26.48197866;41.06520989;6.80561285;22.57335914;3.658657385;29.79042656;9.668552211;41.43898035;13.69218028;22.20032168;24.04892663;29.16825463;107.1393085;90.40485342;38.13488472;-12.71551225
-43.96897383;54.77483574;-35.48167249;-3.342503296;31.30858381;10.16357798;2.427381796;15.94822255;35.77403745;19.54318819;56.17658742;19.26117549;30.2196964;32.836803;10.50462807;98.52766807;88.44475324;50.71796073;1.139725674
-32.79581175;38.37334914;-29.31205687;-7.31286382;20.51770692;4.466488205;-2.871835567;14.41646846;29.3;13.51865956;43.26283431;10.61779733;26.11044451;25.93733769;4.807647263;56.93327726;70.59330604;42.06677608;-2.93742398
-25.02717812;16.73404123;-22.84;13.0599457;16.51831611;-4.119706632;7.857225925;6.163940262;15.57852541;-1.602183296;13.93111483;-1.835747957;15.22087498;8.837688933;13.2653265;3.503509473;48.91184123;22.0749442;-17.58789388
-20.42804903;4.621015584;-15.57110916;37.28791167;22.08434492;-8.195928442;23.1926284;2.042046665;4.794294955;-12.79111885;-9.315828164;-6.428524518;7.912611374;-6.676246224;26.32970276;-32.71;35.33878559;8.353512862;-29.49413592
-17.59520258;9.435333382;-7.727650268;45.26918221;33.51368143;-5.127610403;29.94510924;6.81482785;4.248803459;-11.95053745;-10.92948317;-0.786171379;10.4844984;-11.46269545;32.69911114;-33.89040298;33.549692;10.96209339;-30.92570492
-17.53912176;25.68848405;-1.274495559;33.46780825;44.22971058;1.516031431;23.8618221;16.70659552;13.67995776;-1.28610331;7.254626216;7.078899562;20.62403764;-4.989358967;28.23083867;-4.070433391;38.33200027;25.12978126;-24.78649928
-22.61132244;39.93553327;1.516113349;15.26285627;50.17852186;5.696481855;11.79080017;24.91761682;26.64283022;10.42241296;30.30636255;7.186354187;30.2560251;5.576329907;18.04492303;35.53854505;41.84285645;37.11645599;-20.11758854
-32.50764462;41.47081659;0.320182713;7.266419887;52.55903954;4.20278059;4.605632396;28.55638791;36.01288327;16.09263915;43.70112563;-2.695905883;32.39951211;11.62340453;11.10217915;61.97670385;40.76031476;37.03094187;-23.11516556
-42.22152819;29.83892715;-2.530298387;14.77769905;55.8903031;-0.996093811;7.711845336;30.0563532;38.95;15.55207769;43.99010265;-14.81523473;26.04746665;9.438685956;12.48733034;65.0267564;38.39700276;27.12189874;-31.78935336
-44.87;13.61321544;-3.714673622;28.71610252;63.38629336;-4.97389511;17.19798363;32.2756108;37.77681218;13.8262107;38.6186099;-18.37768361;15.69617398;1.967322586;19.82277457;50.99673895;40.73024859;18.8152383;-38.40873107
-37.32159947;2.502999933;-1.542364299;35.28293265;73.73256217;-4.325191408;24.20015787;32.99564728;36.82242251;15.16421203;36.93036006;-9.220915313;7.015929877;-4.635605074;26.18987989;34.83171174;50.49724207;21.8903269;-36.83921996
-23.42037147;-0.001512368;2.782314521;28.61887396;81.97044408;0.078883977;22.95860157;25.23191447;38.32502195;18.84490508;41.4286715;6.363642405;2.894446314;-6.253833422;26.40330381;28.05348629;64.65102332;35.713508;-27.97159087
-11.42179739;2.402310968;6.335534901;15.17822369;83.61224796;4.217829373;15.39859483;4.021604286;40.75263067;20.44034988;46.8002747;16.83021878;2.799325333;-3.532334267;21.09409754;31.86018879;77.01832027;50.03306783;-18.66101446
-7.445840287;4.014135562;7.026156524;6.856036289;78.41883949;4.621321853;8.692033435;-26.40038711;40.56050318;16.78926052;46.37468755;14.87154841;4.932213611;-0.326895742;15.46026911;39.33660648;83.33840809;54.11134808;-15.55744355
-10.52253669;3.053101957;5.312776538;9.997792703;70.67437332;1.269441363;8.552128009;-52.42300822;35.57375726;9.598673953;39.09315921;3.012785849;8.40587186;0.209867566;14.30768615;43.16646518;84.10913759;45.82919673;-19.50556054
-13.60786623;2.957493683;3.685014619;20.37045429;65.81717334;-2.702806196;14.41404622;-59.55612024;27.09074542;4.204773987;30.38840778;-9.167063834;13.41560701;-1.683970827;17.95712659;41.65107948;83.06027202;32.91994353;-25.29
-9.759120241;8.418482445;4.482443272;28.01477946;66.2944008;-3.961057915;20.49658841;-43.44466768;19.08418041;4.764870491;26.67012048;-13.32661624;19.85163802;-3.048789042;22.42729184;38.51131902;83.13855671;25.7690119;-26.56623176
1.882557393;20.31062183;7.997231078;26.79072205;70.00509764;-1.823993894;21.32199653;-14.2937288;15.29490185;10.48213385;29.145376;-8.838998792;26.34502939;-1.271594984;23.35478106;37.87966469;83.89250022;28.53409724;-21.383597
15.46104507;34.32423655;12.4307916;19.64675255;72.40255838;1.423867777;16.51669817;9.554628841;16.60143346;16.38611583;32.95730905;-2.182190935;30.9755854;3.387555116;19.95335372;39.77890262;82.48525847;36.33458705;-13.54716828
23.52599478;44.3696357;15.57902339;15.15163741;70.29868966;2.800048828;10.74781737;14.38801369;20.66904958;17.88367615;32.23626266;-0.391175266;32.87288309;8.041694208;15.56977658;40.22989044;77.03277597;40.45;-8.988391291
23.25479023;47.41215282;16.64863533;19.0262088;64.19513009;1.280170188;9.218523538;0.432477602;23.99120217;14.83554691;25.96587555;-4.715179774;32.92619758;9.830654185;14.58278791;35.49095311;68.90593369;36.35868861;-10.64694347
18.28718589;45.33847618;16.61782333;28.72444009;57.43695229;-1.501249027;13.01275151;-19.40257703;24.59171732;11.44676137;18.94447473;-9.976899619;32.80858323;8.499406106;18.56613292;26.17861566;61.82951178;27.35850981;-16.34094694
14.74572685;42.46512006;16.94905178;35.90483456;53.22537422;-2.947326305;18.4114473;-29.98999734;23.26158839;12.17313894;16.9967897;-9.761472863;33.37137704;6.590058594;25.07097615;17.36626257;58.75047065;20.96;-21.1491461
15.26140187;41.35724301;17.94380885;34.21736257;52.16111774;-1.896708272;20.51780094;-25.13415075;22.47474639;17.47202171;21.20194098;-2.435755562;34.14784716;7.134933194;29.89527192;14.58926717;59.50692744;21.86708784;-21.81489612
16.52769169;40.94683602;18.29450827;25.10785586;52.254521;0.457237297;17.69434236;-10.83177453;24.00457468;23.27558464;26.87201817;7.424289373;34.4601765;10.9520872;30.6437124;19.37971031;61.43451814;28.11436108;-19.17682383
12.59178798;38.47705598;16.25727591;16.42941008;51.06558686;1.830167792;12.81607076;1.095424358;27.26995809;24.59857006;28.4018295;13.243796;34.77894528;15.93627868;28.42759051;28.24392865;62.16543123;33.58677944;-16.73925221
0.822526641;33.05886555;11.38835162;15.34543473;47.89305512;1.003122836;10.41713482;2.964189206;29.80606243;19.94894853;25.28379407;12.28433225;36.57956552;18.91787318;26.39422813;35.80774691;61.80660228;34.08256757;-17.07169812
-14.94546408;27.17895824;5.268278356;22.08120108;44.15247932;-1.128970611;12.51864218;-3.53180151;29.48980026;12.57630903;23.13813218;7.846007528;40.55909613;18.39662893;26.62906137;39.18614058;62.37869519;30.99132022;-19.49713845
-27.03138607;24.62185974;0.513558329;30.05304253;41.88468357;-2.494424773;16.94243466;-10.43269533;26.65198446;7.541967388;28.12321892;6.046219734;45.10778992;15.74437373;28.29113906;39.75104216;65.1411185;29.23393542;-21.06152135
-30.03417326;26.83688008;-1.141119027;31.97718545;41.98662855;-1.804986032;19.48677193;-11.33485654;24.19882415;7.359617044;39.54777818;10.26705432;47.1097143;13.88899938;28.57050419;41.00911941;68.55808986;31.73025007;-19.62546633
-25.07970545;31.34961409;-0.101058454;26.26314304;43.80200253;0.292922976;17.81456287;-6.734605527;25.42471612;10.12998902;47.87688786;18.27703769;44.93611222;14.73130959;25.46273494;44.83281677;69.11132694;35.96320447;-16.03934771
-18.52428015;33.89303073;1.53379532;18.03126305;46.24681785;1.881562652;13.48282945;-2.561178289;31.14321512;11.71569756;41.08345423;24.4338992;40.88411247;17.61103012;19.79111017;49.61589061;64.43022678;36.1361419;-13.37898565
-16.39499711;32.34886708;1.749252839;14.16673216;49.1409339;1.56565793;10.38323468;-3.889092298;38.51409046;9.829271357;14.88235823;24.78076819;40.07780258;20.12222017;14.68613052;51.96204731;55.88356291;28.9957082;-14.04225315
-19.53439999;28.75948268;0.275464588;17.14993432;53.29202746;-0.278175446;11.15949188;-9.89648741;42.77427826;6.269209624;-21.68946189;20.41366939;45.76947939;20.43808476;13.04580901;50.17201758;48.1033938;17.75881093;-17.46825452
-23.5871216;27.37428862;-1.213716756;23.21475969;59.20368866;-1.905698008;14.90253485;-14.5883689;40.78171619;5.319366299;-50.75202112;16.26094647;54.72216564;18.97430859;15.24035586;46.15682436;45.65438881;10.18172793;-20.5864213
-23.49741759;30.40292016;-0.504741039;26.19647787;65.74661476;-1.832450575;18.12445772;-12.36659923;33.65469441;9.806934771;-57.49230855;16.59937012;57.32236006;17.87415375;19.00236151;43.92141302;49.68830055;12.19643128;-20.53821315
-18.20388154;35.42014898;3.278546889;23.26044503;70.30478354;-0.168619804;17.98564733;-3.227344614;26.25376022;18.339519;-40.58944959;21.41436418;43.74955528;18.82015291;21.45631153;45.98048863;57.46582962;22.73207091;-17.15255352
-11.28817336;37.0345333;8.80131907;17.24532202;70.57246156;1.529382002;14.78458207;7.070745727;23.62805354;26.09507596;-13.05202316;26.71745274;12.25603361;21.22806958;21.41862489;51.0123956;65.01392804;34.43284876;-12.95673415
-7.246992487;31.61545354;13.31650328;13.72077502;66.55195341;1.700122405;11.52288164;11.86390172;27.04600112;28.39062069;7.240892512;28.26465489;-27.08610626;22.55436864;20.01667997;54.95217338;70.34474448;39.75093498;-10.80823767
-7.107419444;20.99733127;14.5243779;15.75470087;60.92202957;0.169115705;11.07926392;9.038940754;32.79254431;23.96813421;10.01777929;25.18468387;-57.12;20.53409717;19.28730332;54.58949591;74.26677818;37.08054996;-11.37587803
-7.567609154;11.77902784;12.12455637;21.29690375;57.2447012;-1.749364265;13.6389102;2.361556906;34.90677907;15.42806538;-1.294089891;20.3763362;-64.33199905;15.37963978;20.19387654;50.43226295;78.253877;31.57907599;-12.74363264
-4.389700316;10.5626117;7.983944828;25.42724077;57.35414648;-2.473772672;16.66654544;-2.188021928;29.90620727;6.85587882;-13.96828514;17.6342832;-47.98819648;9.927113867;21.87244999;46.22375087;81.7815306;30.10257498;-12.39463329
3.290436748;18.97572718;4.887892703;25.1294154;60.05961248;-1.550570736;17.32053035;-1.556193424;19.79916516;0.96442655;-16.71407787;18.35117889;-20.73945991;7.484265641;22.65520842;45.50606119;82.11856145;34.92237335;-9.660499954
11.91829327;32.53565872;4.817639808;22.02098696;62.253155;0.025493651;15.02143201;2.29547258;10.86641558;-1.922343807;-8.047017641;20.74707771;0.023018906;9.164491734;21.7652169;48.30225612;77.10816731;41.86220908;-6.369513727
16.78223875;44.17833291;7.91964541;20.54856916;61.50880329;0.792204501;11.86148201;4.853814647;9.007742495;-2.720048828;3.85969424;22.01299209;3.760796939;12.99018682;20.04332359;50.92892179;68.27494391;44.38624021;-5.149982964
16.47923091;49.43025099;12.73035614;23.47434215;58.01770881;0.153101564;10.59356093;3.448385126;15.27620334;-1.913222563;8.845583286;21.06598733;-7.154855353;15.5589276;19.07043462;49.18958282;60.8340578;39.76818295;-7.004100854
14.26807145;49.04022451;17.31317473;28.98220402;54.29537037;-1.150903376;12.12754775;-0.518760751;25.18834656;0.845623671;3.186613953;19.28806938;-20.99197423;14.87646447;19.58631904;42.19146836;59.87286551;31.68434125;-10.38471497
14.89853929;47.27818559;20.41985711;32.15852957;53.00040986;-1.806525752;14.81207707;-3.29801412;32.39762885;5.667014293;-7.934223729;18.79344957;-26.44110809;11.97123616;20.74087753;33.44512746;65.80817181;26.94836419;-12.57316624
19.83364252;47.82293631;21.93181425;29.49881297;54.76932032;-1.169617333;16.0611343;-2.519115121;33.73457177;11.29881746;-15.26818054;20.21092026;-20.76817275;9.963306239;20.89451402;28.25937599;73.50375684;29.47894135;-12.04339934
25.44473439;50.94588306;22.46871286;22.28407156;57.86834602;0.169971058;14.74245758;0.715047002;31.44110685;15.39821081;-13.09404742;22.30443018;-10.37003906;11.43129662;19.21389116;29.64496658;76.54818332;37.03397584;-9.651020561
26.10030158;54.15905431;22.65604014;15.70968131;59.83283507;0.983096782;12.13143211;3.21382459;30.74354068;16.17485082;-3.270402127;23.74052853;-4.207588805;16.32365888;16.56331199;36.17570446;73.38114714;43.58365389;-7.634963245
19.47617727;55.22230828;22.68878023;14.51767831;59.56293534;0.559893157;10.63479569;3.008673727;34.87568859;13.92024846;7.110579877;25.0157317;-6.138273483;22.11774773;14.84379716;43.48297572;69.5932733;44.96213883;-7.450538393
9.166621531;54.41085909;22.4664627;19.01819931;58.04466128;-0.653564717;11.54569788;1.278253223;41.9393768;10.96049069;11.95179842;28.31346495;-12.4214437;25.96972218;15.3589988;47.90060581;73.4178095;42.48675175;-8.480692315
1.975865222;53.92214712;22.03962293;24.97669581;57.17062705;-1.506155115;13.91331303;1.047931905;46.52736563;10.02039122;10.9;35.16779717;-15.81914386;26.94812312;17.67278173;49.03478374;87.3788571;41.25064621;-8.784211492
2.127266737;55.17895109;21.84303729;27.35110604;57.83907608;-1.228798;15.50523051;4.006104902;44.91338728;12.41647366;8.949492207;44.20515618;-12.15396828;26.49600999;19.97207906;49.18648433;103.2123915;44.84406001;-7.104267063
7.59597389;56.8231269;22.40935934;24.49973579;59.09762156;-0.138147558;14.89496684;8.600342341;39.28030309;17.53279656;11.68545999;51.46848835;-3.566090028;26.88507597;20.59436366;50.47190478;105.49636;51.60743743;-4.190102413
12.01802429;55.52978782;23.77330574;19.22934105;59.08721179;0.679600875;12.72393184;11.32402836;36.88269998;23.7314456;20.37167772;53.48592693;3.940786052;29.13251522;19.36015739;52.50013127;82.63666731;56.04145815;-2.151637827
10.61237256;49.07854446;25.14510471;16.00143845;56.88030413;0.38842273;11.02142886;10.01647994;44.13597441;29.57335251;30.87866632;50.46274797;5.995226408;32.17873324;17.57014265;52.79287792;37.27868978;54.08241701;-2.432821982
4.797239474;38.91460139;25.2967773;16.99628198;53.49664454;-0.825791078;11.28425213;6.039975326;60.13267576;34.2273544;37.11880374;46.48715622;3.372001701;33.89155179;16.74731385;49.46024013;-12.46195935;47.21454099;-4.315723228
1.190512557;29.74726878;23.51318824;20.53117345;51.13063428;-1.931447125;13.1227318;3.228410351;75.17285668;37.09334286;36.05835266;46.14921747;0.668085235;32.86039481;17.30090991;43.47820758;-43.16087182;41.38382087;-5.421563726
5.681269031;26.28493248;20.37583764;22.98976348;51.24212526;-1.993637866;14.69173052;4.536227526;76.36130741;37.61745295;30.28587299;50.32766671;1.74979923;29.39550909;18.2880387;38.25747919;-41.07344457;41.54487627;-3.855508379
17.78963232;29.70847093;17.61062022;22.22394098;53.19393566;-1.010053711;14.44470725;9.47298272;56.7634425;35.93148806;26.13649636;54.9691383;6.287677351;25.03;18.40194227;36.73383851;-11.20747691;46.88831685;-0.104041313
30.44450188;36.74043927;16.89072272;19.25502386;54.65365232;0.110830154;12.55304473;14.65524376;21.43834672;33.66708495;28.76236461;54.26943898;10.39936359;21.20510925;17.21239662;38.60011753;26.25466561;51.34590116;3.060503964
35.56218887;42.0045489;18.39494839;16.9093192;53.4410376;0.38303068;10.698037;16.87673633;-14.43472125;33.59036466;37.76181733;45.75575023;10.53024932;18.40228301;15.52090456;40.30649109;49.61556384;49.13244568;2.698685901
30.6081632;41.71997455;20.31898801;16.93648317;49.25659061;-0.387633491;10.48015064;15.77990478;-34.44078975;37.62620935;46.57186274;32.87104399;6.825780131;16.33120582;14.57121632;38.01461431;49.4352833;40.28186462;-1.891443476
20.38148779;35.88925323;19.96520666;18.44;43.85104704;-1.476747916;11.951286;13.69463837;-30.78381289;44.70258121;46.24656997;22.63352723;2.895013686;14.65456342;14.92125192;30.98938397;32.70088617;30.91361383;-8.489110644
12.51292385;27.61864729;15.80714968;19.01577853;39.55038878;-1.936528252;13.61435267;12.99388133;-8.396792765;50.69013709;31.30794746;20.19141717;2.281708749;13.29896996;16.04602542;22.41872627;15.25599229;27.72836503;-13.54110228
10.83550849;20.59907172;8.987120055;17.33333119;37.43409262;-1.44976711;13.84496734;13.69551562;19.15807088;51.26763002;3.942630224;24.8780242;4.967107195;12.05263834;16.99202267;16.86798854;9.170292066;31.70700074;-14.69704295
12.71828377;16.98136603;2.92213356;14.56607431;36.69021625;-0.566961707;12.38594109;13.70356725;38.62567734;45.75662276;-26.25324595;31.13821517;7.148733978;10.12973575;17.38112678;16.5502278;14.90773589;37.03596466;-12.25193446
12.79395762;17.04989328;1.068133597;13.27906967;35.59705723;-0.145972267;10.53998063;11.35977621;44.4397032;38.45050592;-47.10348201;33.4441274;4.543433871;6.567198154;17.74332664;19.66060486;23.54346947;36.66238549;-8.471949322
9.484923617;20.25230121;4.422341382;14.89064134;33.18753907;-0.546759454;9.923393596;7.562295734;39.98299829;35.58490989;-50.54965902;30.80631599;-3.700048828;1.407068951;18.83674555;22.20470939;25.996491;29.59772686;-5.562842854
7.849275324;26.07809232;10.74196805;18.20575345;30.14299507;-1.331771326;10.96969324;5.063640715;33.0303857;39.92472971;-37.23014468;26.89896718;-13.9252215;-3.494199445;20.6340729;21.65756343;21.07670066;22.94114173;-4.048405799
15.36405067;33.86292587;16.23555744;20.47276543;28.21587335;-1.724928469;12.56679384;5.458649634;29.64781167;47.649111;-16.07814517;25.84445848;-20.68541365;-5.236292423;22.03115389;19.18793714;15.95372515;25.9118226;-2.78351538
33.80649615;42.04777364;18.49094001;19.96897707;28.77039552;-1.370405408;13.12911954;6.987153814;31.04946627;50.94433867;0.943294734;27.72826943;-20.95580884;-2.09985714;21.68295991;18.50469715;19.42536745;40.47097683;-0.336083227
54.56584137;48.17806862;18.26746377;17.62619606;31.72134723;-0.668429548;12.07718254;5.844515808;34.78155221;44.94803175;5.79327853;28.2325931;-16.34038895;4.502987177;19.28261105;22.43035792;34.20968422;56.90993203;3.612431712
62.5247426;50.19956398;18.57891298;16.09822385;35.70583714;-0.379270475;10.34980011;0.306402949;38.06500055;33.32821194;-1.323932399;22.98134186;-11.55690357;10.33747375;16.0941292;30.32752892;54.71697081;59.32518371;8.008109402
46.59016126;48.13201854;21.74196572;17.11074588;39.21985251;-0.878240723;9.500552933;-6.249434844;40.04688191;26.98041898;-12.92055586;12.65881164;-10.59447126;11.24568737;14.13841957;38.67620064;71.65822093;37.68629913;11.32574187
8.929272531;44.49906074;26.94430963;19.61101982;41.69103842;-1.767802071;10.24496437;-7.054354488;41.51174582;35.63895633;-19.65545404;3.892114486;-13.71172097;6.62674398;14.62187425;44.19294149;79.08535943;-2.8963891;12.66866443
-34.72748163;42.77178591;30.68274984;20.54636196;43.65051687;-2.21553195;11.80982944;2.056676983;43.23085516;58.56623304;-16.47371928;4.4611556;-17.52249445;0.555680671;16.92213856;46.56388726;77.89070625;-43.64378216;12.12367799
-64.64842555;44.83115579;30.0554236;17.66030025;46.0331118;-1.710653898;12.6669568;17.25832213;45.09926244;82.33647599;-5.364935098;16.58546398;-17.78924321;-0.823428389;19.02914197;48.26632324;73.37397708;-64.04752814;10.28162472
-69.7148424;49.47113181;26.19950974;11.76846277;49.34425339;-0.544544623;11.94833837;27.37434542;46.87024015;88.82102524;6.822999815;34.16737785;-12.50655526;6.032150669;19.11646667;51.71456267;69.74385605;-55.6111913;7.617486674
-53.82641337;53.25192512;24.52466501;6.371633736;53.38894262;0.426079066;10.23073706;21.43497906;49.24285628;68.26533164;13.55232237;46.82139761;-2.970652965;18.95870155;16.95088553;56.52778165;66.72589648;-27.08;4.401045063
-31.68586733;53.11782887;30.69647849;4.848731704;57.61530861;0.520780929;8.985949702;-2.09268218;53.49162658;27.52068109;12.86577679;47.7429051;7.586680426;31.23757933;13.98564885;59.66420172;61.05258604;2.604077714;1.098668433
-17.71202581;48.7397092;44.99701436;7.674205977;61.56206074;-0.184070633;9.229768479;-32.02651528;59.40119779;-13.53025796;7.908754517;38.97710027;16.33377012;36.39007813;12.10750471;58.47334989;50.96582927;17.92386765;-1.37867487
-16.71882394;42.77817882;59.7253006;12.10802736;64.93641812;-0.94748143;10.61936238;-50.79037956;63.44564116;-35.3924216;3.873887635;29.62076508;22.2802054;32.97462926;12.13801443;53.8436265;39.21858163;16.53862058;-2.082026171
-22.90622821;38.96386117;62.67167127;14.6056505;67.36891155;-1.030125264;11.80461392;-46.41115729;59.64454983;-32.37404673;4.106245136;28.38007813;26.07721008;25.58141805;13.35098581;50.29228308;31.64916023;8.329272332;-0.840339496
-26.73032505;39.58430317;45.21725668;13.78977022;68.30329789;-0.329890113;11.6734692;-21.26400289;43.50857279;-15.81138594;8.298143003;36.68125599;28.84768319;21.19644325;14.34325787;52.51538144;32.57776601;5.632006892;1.324725878
-23.25196031;44.25764704;9.589977573;11.38398366;67.33785305;0.569471199;10.33111941;9.37300638;16.51629967;-4.678100763;13.63575688;48.02757899;31.22156119;23.83414111;14.41491748;61.24676774;41.17739498;13.16512027;2.75094216
-15.26420083;50.6424602;-30.40302872;10.3944903;64.78626663;0.950623863;8.937309789;28.14527906;-12.66503311;-10.94486226;17.36013198;53.91760762;33.17315482;31.7143595;14.20866392;72.18077294;52.04490025;25.49908104;2.337822289
-9.556300344;56.15858268;-56.62626618;12.29402821;61.85839148;0.597189449;8.599563391;27.6513972;-32.06125653;-31.02322598;18.46164399;51.0528874;34.39288302;39.11231588;15.05595201;79.19226087;59.40874633;33.07082726;0.39770106
-10.43492735;59.2303441;-57.52359943;15.77695232;60.10050035;-0.055154032;9.373640951;14.55224647;-33.36214479;-49.60013114;17.50159333;43.63609059;34.62090908;41.14415222;17.63960401;79.26027252;61.24459759;30.75687372;-1.631227129
-16.30132064;59.34534329;-35.34847017;18.12851741;60.40393284;-0.356332337;10.28144743;2.968358022;-17.25104207;-52.27883584;15.41945626;39.05633969;33.722299;37.43411951;21.18428587;74.81433634;59.83118838;21.62145241;-2.41483855
-21.74339803;56.45930315;-4.628037599;17.83666511;62.35761507;-0.041377314;10.2846524;2.843465882;6.852357552;-36.71382288;12.85956081;41.14744317;31.71273387;31.76997317;23.91982798;71.34351121;58.60705995;13.30349388;-1.83411682
-22.60589419;50.76630497;17.17362705;15.99197729;64.50554076;0.557184118;9.272280132;12.65940305;26.67647038;-13.65675361;10.56945907;47.22439695;28.9261237;28.41032742;24.45809137;72.30198536;58.48923467;10.98970675;-0.986974925
-19.26892295;43.20607493;20.37503173;15.2189849;65.32998916;0.853645033;8.14129019;21.92582477;34.55952066;2.197068881;9.974836784;51.45974163;26.14817043;28.52274483;22.94419668;75.88630805;57.11887228;13.41901543;-1.078510324
-15.50837889;36.03127361;7.952637874;17.19856578;64.17994204;0.565415753;7.923020999;20.70586554;31.33476254;3.584982073;12.7159813;51.17145893;24.36705852;29.8677358;21.03542798;76.7383925;51.62756033;15.08699946;-2.219955125
-14.5078944;32.41383352;-8.259847023;21.11797256;61.45411071;-0.039469338;8.799906723;7.920508417;24.22350522;-4.892186351;19.11699039;49.75422122;24.13048089;29.71572338;20.72465337;71.22268289;42.17145819;12.07185747;-3.26626725
-15.95542286;34.83892707;-16.64566749;24.46923216;58.03856506;-0.416657268;9.937778835;-8.27242479;20.75100654;-12.1780906;27.01445523;53.01916259;25.02676057;27.9767316;22.92817539;61.51544524;32.73621867;5.887780234;-2.886901322
-16.77391689;43.24452197;-13.34373827;25.40168056;54.63442108;-0.264835774;10.27522738;-17.73230197;23.40718256;-10.72851838;32.47347934;62.00993341;25.88944175;27.39584513;26.87774888;54.51822902;28.23621075;1.947587803;-0.915216122
-14.48077654;54.38541017;-3.229348205;24.39812752;51.5954442;0.202050074;9.513573511;-16.60502502;28.79309418;-2.491747379;32.33051861;69.2047719;25.72662131;30.54442722;30.669861;56.11810622;30.39739291;4.322149621;1.286460611
-9.825864244;63.18430451;5.385800961;23.7093165;49.2714941;0.475261606;8.378085775;-9.610946519;31.30166649;3.667474707;26.64019265;62.64087946;24.61249151;36.5501371;32.45986232;65.67727741;36.15021778;11.79613746;1.864408344
-6.249696101;65.40450761;7.498459617;25.10199316;48.27;0.244496651;7.919004859;-4.916763839;27.98990581;0.244391261;18.84611913;35.62751788;23.65551561;40.99732471;31.43366483;75.84769617;40.11343882;18.85684477;0.068739551
-6.786658343;59.97598009;4.348363251;28.05999657;49.12643276;-0.303918905;8.521737153;-6.595090671;20.78209024;-12.26508293;13.32162201;-5.749961891;23.9351348;39.57420294;28.02463285;78.3853705;39.12194823;20.6412535;-2.985462261
-11.35608184;49.50994279;0.94174307;30.14940034;51.57385746;-0.659734803;9.555545608;-11.41682734;14.63828774;-25.75022562;12.28633624;-44.18784679;25.3253029;32.35830385;23.4688321;71.26356496;34.88389962;17.27894758;-5.099940307
-16.87324991;38.75660471;1.036812706;29.22559637;54.22250667;-0.465813991;9.978385788;-12.50743734;13.60129366;-31.05292775;14.76116198;-61.65484249;26.38469025;24.58952649;19.16239484;60.84142426;32.42732907;13.70011391;-4.697280959
-19.91680694;32.06099742;4.119727164;25.42538693;55.28188092;0.145481255;9.317687534;-6.195287339;18.04953999;-24.88905815;18.39053778;-51.3207327;25.60843977;22.62886374;16.19580276;56.79348559;35.64438394;15.13612828;-2.019506348
-19.40377492;31.36169839;6.671131264;21.07478435;54.01960464;0.663999959;8.104954993;4.284563564;25.11007813;-11.59;22.21384372;-21.89255153;23.02467465;28.23848287;15.13;63.79213933;43.76432196;22.39815305;1.175527299
-16.90919282;35.75205527;6.10440373;18.58691396;51.76549651;0.652821275;7.366116794;11.50125346;31.41916832;1.061383905;27.42670876;8.917933727;20.617307;36.34456199;15.91133203;77.10693639;51.78695311;31.13341082;3.125006507
-14.5982915;42.583142;3.570039063;18.31727254;51.35909136;0.123965868;7.657473587;10.36787345;35.64166836;7.787537324;35.03989549;26.65874695;20.95869741;38.901324;17.90326463;86.30205902;54.50398584;35.62883562;3.464959891
-12.93901043;49.2436776;3.089874408;18.41090748;55.11627136;-0.494815177;8.554993652;2.577781853;38.72163169;8.627579494;42.58243397;28.78779852;25.04479393;32.18275565;20.13370596;84.29930121;50.69387852;33.69517617;3.348363461
-10.40674277;54.52519875;7.891036673;16.8262711;62.74701706;-0.754336311;9.068991323;-4.944388675;42.02412586;7.052969366;43.53599741;23.68367144;31.19613497;21.28973219;21.7727002;74.07867726;43.9959376;28.32255081;4.247518892
-5.361378971;58.85624358;17.28577552;13.64852318;70.97604564;-0.568226945;8.584786887;-6.019568371;45.34758713;5.998171692;31.23062825;21.89768789;36.13170635;17.26095335;22.59855916;66.76190006;39.84418659;24.79995374;6.546841707
1.828132109;63.38752313;26.88330724;11.44451582;75.46133354;-0.243940592;7.441969302;-0.197589173;46.71874117;5.66321514;4.834716895;27.3912593;37.48855753;28.08338448;23.0739179;71.9409818;41.13539304;26.04318094;9.167303504
8.538366893;68.58946033;31.94299787;13.1498202;73.790701;-0.157056743;6.611982559;7.560822487;44.13727674;4.595303446;-27.56912363;35.66896295;35.73185741;50.42787467;23.87593566;88.0638102;46.2168917;30.33568561;10.51333731
11.83477664;73.36160696;30.96736808;19.27151869;67.33841359;-0.392335552;6.783095985;11.88217672;37.64205755;2.230659123;-52.3;39.33071148;33.80471802;69.29462309;25.18905392;101.4167114;50.65268507;33.34020949;9.865464068
10.84741342;75.40749984;26.53012231;26.94552466;60.48498467;-0.688053391;7.714996404;11.85339274;29.79080686;-0.026949548;-58.34689131;35.34932778;34.73626821;67.12769832;26.35622383;95.66636004;51.01796016;32.31643941;7.985928853
7.438866077;72.80698022;22.81997353;31.86105319;57.66468956;-0.719336024;8.467574793;11.29271602;24.05041332;-0.223663518;-44.78291428;27.55969345;39.17091442;36.47881077;26.26626053;65.13744727;47.44971519;28.56514912;6.439817082
4.616431344;65.75241252;22.18897587;31.56316617;60.37856976;-0.43327316;8.286449878;14.36421309;22.39566311;1.930792517;-21.57403454;22.7052675;44.87096602;-13.08908086;24.24653967;21.27823923;43.00979773;25.89293955;6.272499155
4.164932707;57.03477226;23.6750557;27.37598961;66.35389688;-0.107392928;7.312915345;20.85902494;24.04878196;4.533121981;-2.835120715;24.2732116;48.57435982;-59.49740125;20.74441168;-13.48929196;40.75703357;26.65530539;7.212904224
5.565563538;50.56950323;24.53943659;23.30047938;71.39741378;-0.075728363;6.451765188;25.76142727;26.2794355;5.266478733;2.556714339;29.97757095;48.59813944;-81.48913462;17.18133559;-20.60510467;41.24457739;29.20654637;8.057243034
6.970405407;48.74168735;23.14959392;22.78832859;72.47293881;-0.389489011;6.519124984;23.68354851;26.47451773;3.626434009;-4.001790374;34.90601572;45.99021267;-71.70566325;15.01985207;2.028686405;42.49455206;29.27827562;7.830343356
7.128217402;50.52239237;20.48269503;26.0732434;69.70878166;-0.745159102;7.466316107;14.13010322;23.76279198;1.199731728;-13.6524174;36.81421803;43.33615794;-40.51537403;14.75361582;39.13104557;42.15063086;24.12299127;6.672665368
6.451952729;52.04301016;18.97889562;30.2258278;65.98958636;-0.759994819;8.406896153;2.629187494;19.05336256;-0.388605476;-17.97903352;38.05054553;42.35898624;-8.286946551;15.62400386;69.3466568;39.6644035;15.58127202;5.70243784
6.418079491;49.52317848;20.00490577;31.76621141;64.67326619;-0.342521962;8.427478797;-3.56180653;13.79600474;-1.729672997;-15.39012413;41.98536056;42.43468995;8.034563578;16.27825413;80.00535064;36.59708556;9.058687581;6.033262561
8.100236825;42.41403759;22.43829964;29.55285257;67.28095136;0.192569355;7.433436955;-1.513548604;8.767021056;-5.555452481;-11.05180452;47.42204903;41.27087703;4.608059815;15.80966688;74.24667968;35.01690688;9.061110525;7.836981394
11.29572269;34.11362805;23.73764796;25.55824774;72.7927723;0.385313996;6.24518294;4.925094018;3.905247274;-14.07301736;-11.11086214;46.96301826;37.08836488;-9.42201793;14.32929731;65.8059401;35.68882838;15.16135577;10.23103551
14.8927061;29.35457172;22.44637054;23.04948093;78.77768065;0.040442442;5.851568121;8.515233355;-0.94627318;-26.22346626;-16.7015074;32.11521462;30.39367387;-20.48476445;12.65758677;66.56906365;37.748233;22.09674863;12.00299132
17.81604572;30.16166316;19.68322551;23.89166985;83.21690178;-0.582824539;6.504494022;4.892741982;-5.423315283;-37.81960029;-23.05605504;1.657337373;23.86980468;-20.51615894;11.4950468;77.31247527;39.97482973;24.15637813;12.48758527
19.46285536;33.78475466;18.12509323;27.29214351;85.59370016;-0.976411159;7.485842675;-3.817960335;-8.939256599;-44.9261771;-24.25389254;-33.95325988;20.55926723;-11.19618165;10.8480283;88.75594682;42.22835424;20.17042782;11.8819732
19.36026218;34.69495663;19.40376128;30.88522142;86.66565919;-0.806260058;7.761139004;-11.17945361;-11.60075231;-47.54465516;-19.05289428;-56.95486003;21.87837987;-0.504706747;10.19412801;91.16198054;45.54724209;14.69637668;10.8710342
16.84687834;29.3831282;22.43059011;32.97280338;87.45217343;-0.182876195;6.923480572;-12.34452998;-14.62234739;-49.90852498;-12.34317797;-53.36118451;26.96165388;4.557109851;9.162413226;83.68780223;50.82981164;14.1709922;10.03907737
11.61986595;20.04755271;24.37173466;33.83914578;88.42324364;0.448839559;5.569652534;-8.305532446;-19.46510608;-56.54122593;-10.78131314;-22.9328496;33.58177136;3.063531758;8.036593052;75.2659551;57.48582739;21.20509401;9.618752505
4.855332789;13.75246089;23.48531519;35.05886117;89.43636188;0.688611824;4.771953308;-4.666099096;-26.20190194;-67.29931295;-16.47815324;19.4835399;39.64;-0.327108672;7.584594714;76.27464204;63.52233206;32.00106463;9.676780443
-0.465958778;17.20945414;21.13654946;37.6141066;90.19314428;0.487849678;5.130078125;-6.132345347;-32.62215801;-76.10518498;-24.47308313;52.5277671;44.0316345;-0.105784487;8.374474757;88.26606473;67.13214483;39.37486895;10.36466933
-1.046869204;31.16077426;20.89212044;40.68667293;90.61295159;0.127531325;6.257494396;-11.84719511;-35.24757994;-75.24371885;-26.46165367;60.85164861;46.53224255;5.446216668;10.22912563;100.8366121;68.33297953;39.05321743;11.85080036
4.148259964;49.08560961;25.26328389;42.28920055;90.78754863;-0.08178055;7.147826028;-15.94680226;-31.8404193;-62.14;-17.73015395;43.08815046;47.27488767;13.26491663;12.34018711;98.86288669;69.04281044;33.86319129;13.97925706
12.45865381;61.67063928;33.00969464;41.15052619;90.69951215;-0.081534772;7.067453144;-12.95375056;-23.47529672;-42.82793927;-1.358052832;10.61235187;46.52039309;18.35629676;13.93737158;74.67699511;71.37757507;31.86273942;16.0902089
19.00311956;63.70554681;39.66807893;38.09131416;90.10095179;-0.070792977;6.161122202;-3.148858618;-14.2577316;-28.55986253;13.96577633;-20.72724438;44.80768661;17.73989626;14.88809716;35.45296803;75.63699312;39.39356743;17.34419156
20.39955;57.8263245;41.15665718;35.57088434;88.69376248;-0.252766133;5.24754394;7.038955441;-8.533349297;-27.6321827;20.70110598;-39.40144504;43.00281929;12.37994709;15.67701178;-0.359833048;79.82249315;54.49207653;17.37578899
17.71730909;51.94400174;37.377433;35.72265295;86.36998251;-0.585983238;5.032662174;10.17207499;-7.598831814;-38.80707748;18.09902605;-42.09961199;41.90227303;6.055896412;16.81088889;-15.19405836;81.2102748;66.32233422;16.68071662
15.781258;52.43913919;32.44815267;38.54152618;83.20694408;-0.792593149;5.483857912;4.039775424;-8.624334123;-51.86214945;12.09084057;-32.0674666;41.69398886;2.554872116;18.24120881;-4.103981628;78.65750951;61.88515467;16.28459036
18.9;58.86217372;31.05086615;41.75994519;79.23547155;-0.623123769;5.926372769;-6.495222607;-6.936186723;-55.23636147;9.775221314;-15.20344746;41.92735745;3.44443795;19.3716815;22.49440141;73.63109937;35.5491192;16.88287158
26.50436026;64.69397933;33.99427173;42.50156472;74.33369575;-0.124434284;5.734593938;-13.66826478;-0.088012181;-44.96240998;13.39743489;2.573998483;42.18191247;7.693731823;19.64500711;46.70378479;69.05948813;-5.580886651;18.19319268
32.84797661;63.52426854;37.14606006;39.33184162;68.52925228;0.354733892;4.945500329;-13.30748604;9.521362661;-27.88851975;18.91284762;16.00151702;42.77446121;12.78739146;19.13298367;55.39459432;67.02757218;-44.72208369;19.16046974
31.75471434;55.21216874;35.1566622;33.09141541;62.52693481;0.445102627;4.218233752;-7.940501574;15.83172598;-16.63342313;20.06191785;20.97387017;44.58266897;16.15455407;18.53921332;47.8380549;67.33554022;-65.16270028;18.92176623
22.77665075;46.46658369;27.01346264;26.02199545;57.88297978;0.079241297;4.193894343;-3.897162823;13.5332802;-20.17186914;14.1219586;16.28088205;47.86828981;16.10101179;18.58607391;33.87773039;68.13141513;-60.15976386;17.70803199
13.15115264;45.1325983;18.31032454;20.11720333;56.39328502;-0.438268804;4.873162659;-5.19721314;2.454733374;-37.20493983;4.290231789;5.487616405;51.18800709;12.23446732;19.35966202;25.14523712;67.95151339;-36.37200531;16.82723409
12.84777653;53.16806873;17.42862213;16.11172943;58.9264407;-0.684058203;5.602312476;-9.842527285;-11.54265025;-57.0648039;-3.121443501;-3.697768666;51.79604196;5.67721403;20.24181986;26.56653374;67.26204692;-8.827202218;17.63449214
25.84726498;64.74;28.02795177;13.73854546;64.54638911;-0.47368712;5.677680843;-11.84404005;-20.08608839;-67.02932991;-3.879677207;-3.700157173;47.76341471;-0.992246971;20.50094522;34.22936697;68.09337803;8.756961179;20.31309851
44.74031651;71.51369585;44.00405895;12.65463754;70.72079567;-0.010610899;4.997027356;-7.00777315;-17.77010491;-60.38889333;1.265066763;7.408884825;40.24398131;-4.481413249;19.97436919;40.1311937;72.11588961;11.64486643;23.53671073
54.00894597;70.64828233;51.88467025;12.91573858;74.63511091;0.300797271;4.147330862;2.962989643;-5.60130109;-39.7617944;8.237336855;23.66284157;33.65060933;-2.322488979;19.18110149;39.12481497;78.91621775;5.043258107;25.38661085
40.74365239;68.09079522;39.97319366;14.49837567;74.73572835;0.208385556;3.851327605;11.9312678;10.03314645;-14.30299642;13.82844197;34.85557178;32.93414547;5.507609085;18.76439818;32.44158821;86.03264642;-1.367534511;24.82446543
5.164220468;73.4186996;7.790633985;16.47068652;71.38672902;-0.179327014;4.294503746;15.0519856;21.9068906;6.149415877;18.17855861;33.98770611;39.73396171;16.11012589;18.84332637;25.65477693;90.71546874;-0.78504542;22.50337826
-37.43605734;89.96884927;-31.65478476;16.90962229;66.19699242;-0.503616464;4.959994359;13.40415887;26.48165947;15.67076597;23.17198489;22.79240594;50.61221163;25.03139991;18.97078321;23.56181329;91.86;6.670678405;20.21788617
-65.69219559;108.8688233;-59.28123122;14.04050392;60.62744695;-0.474281734;5.118338751;13.04421779;25.17792991;13.41974518;28.49737935;10.64084226;59.28632494;28.83794196;18.79550433;26.47607611;90.47813958;15.39769836;19.43069741
-66.13243679;113.2371558;-62.21549599;7.874707571;55.04069295;-0.110486023;4.507536064;19.1025866;21.92600624;2.25660134;29.61590901;7.336143825;61.46805779;27.18926814;18.76448899;30.629379;88.45188208;19.31362522;20.10090649
-42.02540348;90.627686;-42.17455868;0.94243044;48.93525092;0.297845266;3.567972928;30.26985135;19.46461571;-13.08535989;20.33040547;15.46572252;58.35114251;22.89067553;20.04758506;31.75050034;86.84911493;16.33083758;20.79206595
-10.61804057;44.37278862;-13.85055922;-2.767217616;42.06909383;0.452562105;3.020272547;38.95789396;17.55981831;-27.2230906;-1.635117304;28.58086957;55.44619152;19.85033435;23.54815899;28.53530515;85.37316699;9.259778571;19.96220598
9.093423069;-5.722736796;5.43088692;-0.193447425;35.40460448;0.286599919;3.189581029;37.44398613;14.35749957;-35.24208303;-30.79124819;36.74605004;57.21418174;20.44316988;28.7984249;23.3167995;83.34546069;3.135357955;17.34957068
8.94388197;-35.13636647;7.121986429;8.651603836;30.95348658;-0.025739518;3.710726212;24.79654273;9.25463746;-34.35332821;-55.59448742;34.81278993;61.83101567;24.20334311;33.82379817;19.85051587;81.12020666;1.514327352;14.30447433
-4.497212985;-30.84454126;-4.222218653;20.30580643;30.53568053;-0.270067139;3.884222791;8.367007163;4.42683241;-25.44668452;-65.149474;26.41721661;60.95650791;28.6689304;36.32903952;20.3672126;80.41492393;4.572147618;12.81488372
-16.80866208;-0.092169207;-16.21902476;29.595417;34.4002789;-0.395834201;3.340797918;-1.782733386;3.485710189;-12.9404471;-56.17446224;20.31007813;45.66833497;31.49318618;35.38319426;24.21161501;83.08490179;9.980300773;14.0489373
-17.33909492;34.87080025;-18.80206293;32.41726341;40.81573329;-0.528507022;2.387357685;-0.907979946;8.402931609;-2.214590537;-35.0938269;22.21683724;14.48776529;32.02675838;32.21702857;28.73;89.37914767;15.281727;17.5833136
-6.491055043;52.1462755;-11.28285983;27.85510571;47.00531565;-0.792265072;1.713327694;6.870880645;17.45317666;3.868751141;-13.80536654;29.3529317;-22.98182356;31.18157805;29.38013763;31.25635086;97.26998668;19.58976172;21.85024024
6.269861836;44.24953686;-1.426308171;18.44364686;50.78761303;-1.131926043;1.740800392;12.63671434;26.08757138;6.524286666;-2.366189838;32.53847663;-50.51648178;29.93853898;28.86128992;30.54452664;103.5294676;23.40217779;25.31175884
11.03227711;20.91417467;1.819310655;8.60724475;51.77860642;-1.322274963;2.235186601;10.81098358;30.11596684;9.092886062;-3.766811461;24.33610742;-55.43661167;28.01011324;30.68347908;26.90391832;105.6886344;27.11588913;27.34663097
5.208285595;-0.364881784;-4.403550507;2.33558747;51.3675879;-1.168851635;2.54349029;4.146688469;28.58657921;13.06207571;-13.83463063;6.327764858;-37.37275659;23.95495861;33.10847777;21.51075505;103.2798143;29.88338689;28.21436802
-5.511795536;-7.854670457;-15.25533516;1.412978366;51.5639343;-0.713323771;2.232040859;1.080087891;24.03583503;15.67354425;-25.23607288;-10.8643296;-9.101776055;16.69479937;34.20944636;15.78620753;97.48311033;29.97148101;28.33601489
-12.90499412;-2.719757862;-22.87523676;4.999140893;53.54848881;-0.240987507;1.515787241;7.737158514;20.05950198;11.69656119;-31.98269527;-15.23973289;11.45204613;7.094806181;33.39648666;11.19981345;89.7673528;26.31023259;27.69336177
-13.18946111;4.690273554;-22.90704951;10.52946557;56.87394959;-0.064888993;1.065177192;21.768713;18.4108832;-1.683649128;-31.54611445;-2.741041263;12.53582904;-1.852561104;31.5696108;9.151448813;80.94122131;19.78823196;25.92490497
-9.38324884;4.964385211;-17.43917861;15.26641644;59.76684346;-0.267799506;1.363487634;33.72571223;18.10302801;-20.99332282;-24.41330469;19.29462261;-4.606797497;-6.563708937;29.8669804;10.50257644;71.45638515;13.02836839;22.95445573
-7.649711928;-2.75859479;-12.39638421;17.64319901;60.29054125;-0.628853504;2.216960177;35.03764724;17.09731329;-37.33355;-12.89553387;37.37554482;-27.73468876;-5.024857389;28.30370326;14.89717012;62.42409102;8.682990852;19.45055318
-11.38078356;-11.4795346;-12.13579581;17.77110596;57.65925548;-0.802965747;2.887329835;25.65451636;14.82752089;-41.86640824;-0.623369605;41.62291912;-42.34050629;2.031169957;25.71504608;20.53996773;55.99283355;7.583012828;16.58030408
-18.29007813;-13.61576453;-15.99168112;16.9641239;52.94174908;-0.601112859;2.740949867;14.46213097;13.11735181;-31.79120695;7.671746037;32.40730689;-40.6095044;11.7517121;21.16579189;24.93068703;54.32287288;8.252577652;15.21324886
-22.7426258;-7.865658301;-19.40754446;16.65452755;48.71635018;-0.134955306;1.82458755;11.81527797;14.5851381;-12.07317025;7.470146845;18.94759792;-24.77316958;21.01133025;15.49034948;26.26078081;57.85739322;8.204855078;15.28238029
-20.89975411;0.206169676;-18.22380615;17.3986696;47.77375201;0.287958765;0.836645044;20.56030294;19.98115499;8.340685956;-2.869544249;11.50458489;-3.728368888;28.03937874;11.31611487;24.50387816;64.50854063;5.980689836;15.8952445
-14.06209902;3.714666967;-12.22329007;18.60587758;51.50270888;0.416405485;0.513039823;33.48339122;26.94299083;22.53439238;-19.92878618;13.67153133;13.46491457;32.72806742;11.20382362;21.3536765;70.77519816;2.289699302;16.11184512
-7.49349639;0.645289533;-5.072217723;19.14377037;58.88225644;0.23679416;0.982416685;39.65636007;31.44473472;28.97882429;-36.03944246;20.64867723;22.30905414;35.69256443;15.34231918;19.03616742;74.12786632;-0.642318336;15.69739674
-6.045256949;-4.895478522;-1.110118778;18.34561004;66.80390003;-0.055961975;1.672556271;34.30111967;30.83562441;30.06695456;-43.61732831;24.1657667;23.40619387;37.13953154;20.9;18.8980445;74.74737643;-0.948977873;15.1834623
-10.47236194;-7.118558366;-2.009505728;16.6197504;71.72611866;-0.245715573;1.845075116;23.46071852;25.93215923;28.12878671;-40.35063496;19.45307183;19.98744619;36.60522636;23.90982896;20.79105972;75.1;1.32499118;15.20924147
-17.39370733;-4.248159222;-6.049828677;15.14256965;71.76703904;-0.260419821;1.264642239;19.06014004;20.40777891;23.24572555;-31.11464141;8.596306318;15.27893902;33.72179933;22.37738754;23.55778212;77.62796303;4.237969293;15.77794339
-22.51542785;-0.140964068;-10.17817463;14.85421756;67.88915863;-0.179374791;0.395236599;28.32294859;18.0116504;14.89341549;-24.52904517;-1.819839043;11.46215343;29.18734553;18.04964891;26.03685925;82.4807853;5.467923145;16.14054842
-24.06359368;-0.45350058;-12.63729355;15.59869182;63.2824537;-0.106896787;-0.042138186;46.7169604;19.92545819;5.126540099;-26.32395357;-6.081221199;9.838587264;24.90273661;15.18117164;27.71663841;87.23097301;4.059735552;15.43892015
-23.56553163;-7.034601193;-13.7988182;16.19808006;61.24835822;-0.056871918;0.26878423;60.92470757;24.31598143;-0.968685827;-34.62140581;-3.0752204;10.86961813;22.96090584;17.08003906;28.65783124;88.8280242;1.009590934;13.5336048
-23.71779201;-15.77941633;-14.82075998;15.49069403;63.01352622;0.036745532;0.966620575;59.8202875;28.17246805;0.749846134;-41.13411519;4.140668924;13.67188448;24.20093723;23.18305932;29.04367297;86.11842113;-1.687835093;11.2554421
-25.59986202;-19.95583538;-15.83371199;13.49319713;67.05082712;0.208249227;1.364352823;44.29709308;29.63613878;8.285498485;-37.70299983;11.59735992;15.92075049;27.49356764;29.15550391;28.98473464;80.78273044;-2.63710472;9.825721506
-27.76781105;-16.03371674;-15.6115713;11.63939627;70.42036503;0.37946493;1.082440581;27.28976405;28.86859532;12.66449184;-23.17101528;17.11978691;15.16590977;30.4144124;30.11802482;28.7910328;75.94240667;-1.943841028;9.929610216
-27.79500922;-6.820268362;-13.01144081;11.76384516;71.11109628;0.410645157;0.370933674;23.33445334;27.06957046;3.948374802;-5.051138671;20.38940774;11.05007813;30.88862071;24.49608813;29.29449539;73.71841207;-0.778483814;11.23486121
-24.58515482;0.844550335;-8.60136846;14.58846893;69.57554476;0.245080578;-0.165297155;35.93649954;24.98244685;-19.77646784;5.578044721;21.24627162;6.441914287;28.61266079;15.37183491;31.63579409;73.87810261;-0.145255626;12.75081564
-19.27929607;1.745252454;-4.665686238;18.9899613;68.2907818;0.002118188;-0.159120588;53.30939736;22.49692459;-48.22066646;2.14581473;18.7457521;5.854220259;25.19560598;8.179840197;36.43559155;74.64529076;-0.025098097;13.68549239
-14.08338177;-3.654611688;-3.384236864;22.75350636;69.77010762;-0.092562599;0.179175231;56.57180549;19.60965999;-64.53827782;-12.58363262;12.30329305;11.79073935;22.91291337;6.558140538;42.98107437;74.75820381;0.384431698;14.04333418
-10.3012985;-10.13980596;-4.840659496;24.2714728;74.68348735;0.100090637;0.294572709;34.40531222;17.45040361;-57.83821877;-28.62098309;3.643148071;21.88067491;23.00078506;9.686112844;49.25507261;74.75839979;1.671984242;14.47255198
-7.451039878;-12.54842682;-6.8003989;23.78469606;81.57462729;0.483048648;-0.139350805;-7.273077873;17.92664146;-32.96885915;-36.06641176;-3.005148201;29.57995417;24.75402791;13.23057431;53.03927207;76.27614956;3.488881948;15.55940492
-4.154725175;-10.02472838;-6.593369016;23.08614699;88.23510155;0.763431005;-0.866041281;-48.37901068;21.99696141;-8.859052771;-31.94208152;-3.516153212;28.51886937;26.08228164;13.06924452;53.39646478;80.01183207;4.827250352;17.24683757
0.221267466;-6.02719208;-3.441759959;23.90465815;93.36739027;0.669684056;-1.263552306;-68.33260302;28.21954697;-5.257939065;-21.46602747;2.587995347;17.39946089;25.09686531;8.709586523;51.3969316;84.40510585;5.032959371;18.90293953
4.806067319;-4.395142419;0.902738824;26.36081522;97.01804643;0.174215858;-0.940078125;-60.03149426;33.31223315;-27.38905861;-13.21845425;10.9890485;1.515877698;21.55337965;3.624351964;49.44498496;86.41956959;4.543249844;19.94075236
7.995407013;-5.343988498;3.808309855;28.8772606;99.52961216;-0.465199234;-0.143031708;-33.80280002;34.70062059;-60.67164047;-12.35320002;15.47105198;-10.56124542;17.10450891;2.300949445;49.6336634;83.93577631;4.561798542;20.37884376
8.887614506;-5.198618749;4.153719222;29.66949825;100.2714662;-0.885746606;0.421888769;-8.922731895;32.96588011;-80.47090418;-17.18490028;12.95948885;-12.74898482;14.20372287;6.489396918;52.33747168;77.69915745;5.89039284;20.79897786
7.947316655;-0.125904598;3.198166611;28.49996215;97.70975855;-0.879482279;0.216266559;0.325047192;31.77523919;-70.13293828;-21.43976981;6.53089982;-5.28201759;14.47294977;13.72073676;56.08795271;71.04823245;7.996166442;21.73121603
6.327622552;9.632826502;3.102512295;27.04512266;91.08473434;-0.528325743;-0.631933492;-6.462546058;34.8717817;-33.70603563;-19.87685836;3.498370056;6.187062983;17.69515851;19.22992321;58.7835034;67.54670373;9.274910946;23.04300802
4.663263283;19.08316403;4.555685364;27.3833599;82.21397668;-0.117898816;-1.426179027;-17.85519248;42.42351533;6.502832972;-12.56840571;9.672731318;15.16675046;22.08990335;19.62481132;59.26286212;68.47700327;8.422501637;23.92445991
2.650556245;22.25911034;5.920643423;29.8202769;75.42455467;0.084638033;-1.523168526;-20.80996515;50.00132747;25.80038602;-4.584120188;24.28315807;18.69626051;25.58348939;15.3130762;58.03704796;72.27351477;5.7701879;23.53246441
-0.133993047;17.3455693;4.949840923;32.02431928;75.02392414;0.004659649;-0.918273707;-10.59052602;51.54194675;14.40545397;-1.686940513;39.81784756;18.14879434;27.11020168;9.853303092;56.69225489;76.26244501;3.357775357;21.76080704
-3.074782337;8.707601724;1.60310297;30.48956787;81.97620566;-0.238101809;-0.256720404;6.819953877;44.26173215;-16.65920062;-5.70386695;47.20866564;16.42111503;27.05400397;6.967720942;56.54348782;79.06272474;3.550791123;19.47438131
-4.372500096;3.952710187;-0.814723485;23.38313176;92.54496448;-0.469527706;-0.251773673;20.5007538;31.51077059;-44.83389806;-13.20376527;42.43141923;14.56426182;26.65271412;7.763834331;57.67493709;81.49169077;7.28171737;17.99204576
-2.315125287;8.342790895;2.285100143;12.51406904;100.4154693;-0.60288002;-1.034334516;23.09013916;20.88620326;-52.6415441;-18.31908581;29.35233508;11.09669518;26.95478775;10.3310488;59.1268615;85.25549033;13.37707522;18.22448706
3.110873465;21.06359078;12.87970306;2.67074028;101.0412187;-0.666062726;-2.025994371;15.34626872;18.68797241;-38.94140406;-17.37873834;16.60198447;4.472224741;28.1557681;11.76978406;60.01414777;90.76763454;19.54212363;20.13295482
9.877370342;36.22517574;27.91021569;-1.403188095;94.94833188;-0.718563755;-2.453989864;4.133045501;24.94363186;-17.24125205;-11.86139829;11.00233111;-3.938387154;29.71637687;10.73444935;60.58356357;96.24127009;24.15987692;22.87404014
15.40637963;47.5097929;40.73776751;1.792340135;87.30247667;-0.761388263;-2.042578497;-3.473665099;33.04295232;-3.92766645;-7.632095163;12.73863025;-9.576808791;30.982254;8.348095668;62.25148975;99.00301059;27.36090751;25.43007813
18.72474735;52.52681229;45.71536291;9.545855003;83.91913398;-0.733884543;-1.25473074;-4.908487487;34.49616164;-6.408747463;-11.13023257;15.93368883;-7.873684164;31.67070827;6.918241582;66.48010863;97.87228605;30.47080233;27.19124894
21.30658586;53.5092424;42.32837476;16.91056257;86.79278083;-0.593523916;-0.867721057;-2.52552992;25.26040488;-19.77780048;-25.11889304;13.8922778;1.687118809;31.83112222;7.787380166;73.31299787;94.38148477;34.38892839;28.10144292
25.63557426;54.29140984;35.465636;20.09121237;92.69891094;-0.388822261;-1.271687412;-0.447096433;8.789252973;-32.80339868;-46.64186101;4.655883196;14.2610458;31.4587922;10.25663943;80.755584;91.5976428;38.41786774;28.41163779
32.56479558;56.57232217;31.46982675;18.71283664;95.98882189;-0.2434623;-2.128775469;-1.064265618;-6.479207579;-36.86207486;-68.27789342;-7.495158642;22.56095815;30.2956735;12.419344;85.6496872;91.49158767;40.67375907;28.38
39.82015943;58.72818141;33.14767001;15.44990036;93.29710988;-0.259121005;-2.697138685;-3.818588299;-13.15046854;-30.52935312;-81.8374994;-15.51816357;21.89582368;28.14564165;13.00929355;85.61289156;93.2024971;39.78455141;28.18267619
43.23409692;57.90062428;37.85899324;13.60553623;86.32464308;-0.426094119;-2.516200227;-6.444976961;-9.767448575;-17.67064964;-82.4365058;-15.0417643;13.37030651;25.45349329;12.54455289;80.75959821;93.84223468;36.3790776;27.99044128
40.00949256;53.1583873;40.25015319;14.6966009;80.45489797;-0.626081021;-1.823564569;-6.969531921;-1.048141751;-2.720262046;-70.85074578;-7.433283488;2.763526964;23.50489502;12.78084588;73.93271042;91.23617629;32.96981651;27.98241304
31.41682203;46.76801946;37.25526138;17.80933917;80.39034871;-0.726690855;-1.325387702;-4.807456349;6.267925782;11.78781689;-53.01597384;1.647745325;-3.871297542;23.82361114;15.04;69.1133365;86.19181617;32.18298886;28.18378284
22.53097218;42.50284369;31.02590888;20.85457497;86.40602993;-0.684081829;-1.537090789;-0.663150248;8.409097518;23.97456577;-36.97210844;6.695349413;-4.291995661;27.04912941;18.94747994;68.94425619;82.17669786;34.72912169;28.29483748
18.90082105;42.6118692;27.20404982;22.35695778;94.22724005;-0.56598579;-2.303800161;4.022826115;6.603322429;30.61280844;-28.84504973;6.141339301;-0.755716046;32.16390925;22.6874242;73.0173794;82.49742118;38.77912914;27.7807556
22.59219973;46.14695305;29.97804425;22.27767451;98.49729446;-0.482694397;-2.942232891;7.480721929;5.084810357;28.02;-30.00501978;2.719836524;2.785527235;36.8294878;24.5107675;78.16569261;87.30660482;41.27042995;26.27190384
30.71152917;49.98525901;38.20971113;21.51612474;96.89319056;-0.494911624;-2.874345933;8.032235082;7.234543592;15.92003906;-36.95045439;0.586816421;4.266538807;38.77696099;24.15063134;80.65438771;93.05242909;40.09575843;23.97741053
37.65370598;51.46;46.08767721;20.96700857;91.57453907;-0.579648945;-2.172029063;4.904019788;13.11533055;0.313737649;-43.90972097;1.824321784;4.841889884;37.30733667;22.93289505;78.7837369;95.01262538;35.46406887;21.70642615
39.36590727;50.22948293;47.88807059;21.17938108;87.01641322;-0.672580315;-1.512485511;-0.856559033;20.0260289;-8.708554995;-46.48369273;5.083510848;7.173162468;33.75525255;22.53882386;74.02746736;90.96725488;29.49305444;20.38329682
36.26858243;47.90115198;42.80709486;22.73826405;86.28130619;-0.732588087;-1.579943503;-6.358150639;25.02643414;-3.879647516;-43.99452165;7.107213056;12.52604595;30.49568264;23.52615145;69.82653478;83.05911808;24.5706562;20.40241804
32.50748895;46.02929869;35.63253809;26.51937003;88.88948297;-0.761889231;-2.451379398;-8.388347828;27.01714785;12.87981029;-39.12756016;5.560227276;19.32601002;29.19410053;24.86613819;68.90274211;76.32677438;21.91214975;21.3631417
32.14682502;44.45932175;32.52156154;33.02879803;91.84241115;-0.770412137;-3.517332446;-5.750078125;26.833994;30.52357951;-35.3858356;0.813105639;24.28391108;29.61647606;24.83728843;71.15067237;75.06727978;21.33797884;22.4339699
35.41552191;41.48105635;35.42724478;41.14304366;92.57287221;-0.735776294;-4.006016329;-0.531150818;25.83343255;36.37854702;-34.40304366;-4.541443581;24.91073244;29.90474503;22.47026679;73.80616962;79.87109411;22.08947182;23.04704412
38.16012159;35.49556109;40.07548879;47.59317034;91.08470597;-0.614513088;-3.640590344;3.12480499;24.66642182;25.68564829;-35.09487404;-7.763757977;21.2395624;28.0940475;18.33731473;73.82558387;87.52378296;23.65130214;23.31403796
35.14954315;26.58583796;39.53466161;48.3040308;89.51378053;-0.401190967;-2.849926891;2.178094375;23.39344055;5.525119425;-35.02900615;-7.861289327;15.54076091;23.69925107;14.10137554;70.56999939;93.61689252;25.80030849;23.7902492
24.75455701;16.64642647;30.62255662;41.15813257;89.77770479;-0.171326838;-2.36239523;-2.674458757;22.53306761;-10.3375782;-32.59171669;-5.931769124;10.6278022;18.18037082;11.28794123;66.51039469;95.64999127;28.09049069;24.80755441
11.24;8.170499838;17.69149215;28.19153094;91.64927937;-0.047806993;-2.562123686;-7.275260316;23.65815634;-11.7892634;-28.03369109;-3.936375398;8.306461506;13.9947123;10.31623864;65.21810617;94.27052217;29.64634735;26.01192987
2.526265594;2.965617943;10.14355103;15.18;93.0521842;-0.102318964;-3.182737588;-7.284557844;28.64529566;0.331650101;-22.66680274;-3.023353109;8.955061921;13.00880961;10.50083983;68.23704646;92.02603236;29.76839776;26.57686053
4.651039226;1.893023587;15.06875607;8.376351909;92.23138709;-0.275912607;-3.590948414;-1.88536387;38.06684334;15.73656126;-17.24557391;-2.669319111;11.97661016;15.43471039;10.86994803;73.5885988;91.01376007;28.83338911;25.94193667
16.79340649;5.487552541;30.63208839;10.48619199;89.70141131;-0.401576574;-3.377733354;5.308028122;50.11682888;23.50921013;-11.27777667;-1.147837166;16.26679817;19.93337114;11.01105124;77.47206772;91.44713644;28.4027056;24.40619725
30.61900739;14.32629467;45.72954104;18.85280187;88.09413309;-0.328262357;-2.714732981;9.179851171;61.06611377;20.82641267;-4.01032605;3.132660797;20.34260634;24.606052;11.24558645;77.95871188;92.07429976;30.05684925;22.98562936
34.85312188;28.30522124;46.86773229;27.34482416;89.96252462;-0.051330678;-2.170523694;7.615279636;66.99980817;14.46483304;3.927343263;10.38812957;22.57912193;28.04537182;12.0933477;77.41463984;91.70861537;33.78948011;22.58875013
22.3555002;45.29741272;27.65551702;30.64802051;95.46279801;0.263148445;-2.181945825;3.738428705;65.67338869;14.16561091;10.06263253;19.11816587;22.03078039;29.80036312;13.60226352;81.00234931;90.35022001;37.51994261;23.20835581
-4.899848058;60.69259074;-5.941961022;27.77710075;101.9641908;0.390941411;-2.676735084;3.738553794;57.45228793;23.68177492;11.64520822;26.85971841;19.44454017;30.2184676;15.18;91.77280374;89.01862793;38.52107767;23.87186393
-36.31674478;68.93509138;-38.55872546;22.22402208;105.9526882;0.215739315;-3.180878589;11.81693939;45.12626476;37.02938929;8.103174074;31.57049552;17.32778341;30.05232336;16.07387541;106.1466578;88.70408661;35.80238985;23.45660128
-58.50329549;66.55046795;-54.71323079;18.80589564;105.6357854;-0.181651064;-3.284952098;26.35765669;33.00429578;42.90150299;2.15067678;32.79639283;18.38837216;30.14494007;16.06255588;114.086739;89.54074085;31.33381798;21.7002678
-62.84;54.65;-48.09258649;19.83184471;102.1338967;-0.579664461;-3.019922743;40.60390846;25.64062079;33.4420614;-1.754756526;31.858935;23.18460936;31.16874734;15.74138617;105.0722462;90.87356835;28.71223652;19.51843675
-50.09771145;38.91185897;-24.68165926;23.60499457;98.43318078;-0.768944612;-2.796615252;47.47942975;26.24484169;10.28507177;-0.615199999;30.8498467;28.98900116;33.26735549;16.12323277;76.25320568;91.91267214;30.0937447;18.30717093
-29.3674487;26.71125499;1.921819373;26.24311371;97.14940535;-0.680473805;-2.983354085;44.75730832;34.9966467;-16.60199746;4.850114734;31.00570711;31.2995753;35.70706832;17.83971371;36.66995912;92.17089248;34.03785822;18.78929305
-12.22974728;23.15407013;19.30186057;25.08037439;98.96634629;-0.398771031;-3.533827244;36.46638438;48.14757609;-35.77410764;10.8771708;31.58607933;27.27396568;36.95268397;20.5567236;3.560409522;91.30581116;36.50245925;20.38642194
-6.02270526;28.60656382;23.04909814;20.76459016;102.7783034;-0.071552921;-4.020672229;29.52594851;59.08888016;-41.20640268;13.7851548;30.21947233;18.41894097;35.454252;23.0728016;-7.616527435;88.79550653;34.59560382;21.6746596
-10.37647396;39.24621981;17.55254351;16.45827283;106.9959626;0.193513138;-4.041659544;28.49099369;61.64479976;-34.37064015;12.90963374;24.73404437;10.05948982;30.8091632;24.07227146;7.132174837;84.14400415;29.95133561;21.55909437
-18.78663474;50.01166175;11.23503683;15.07329469;110.6371218;0.363126731;-3.613418768;32.68578669;54.01051273;-21.11113628;10.78818115;15.30249286;7.598977838;24.39345787;23.02459883;37.81866825;77.69794909;28.31595373;20.17821078
-23.63351004;57.7446811;10.30744001;17.02404204;113.3656959;0.440457452;-3.179696737;37.78214606;40.53814927;-6.938471735;10.44238765;5.216225004;12.3807339;18.71630218;20.59434265;67.11180361;71.2814748;34.80222398;18.77201977
-21.02529923;62.42246428;15.39205506;20.31361721;114.8646399;0.419809565;-3.220877573;40.03733976;29.4777549;5.352716218;12.22746672;-0.652630475;20.56603444;15.72880988;18.24029652;81.51373652;67.69897785;48.20106648;18.63015995
-12.4178981;65.96339254;22.617065;22.59432811;114.5556232;0.29236953;-3.820945026;39.29684782;27.63910655;14.86372417;13.20203915;1.017462543;26.10898751;15.35730296;17.23395376;79.18527956;69.04626421;59.35378936;20.01543754
-2.528663219;69.87028205;27.42426861;23.15946911;112.1304252;0.09332036;-4.585970163;38.26122283;35.6407864;20.7975128;9.773932962;9.385220005;25.48966866;15.61174565;17.75348583;69.1386018;74.97911872;56.06062647;21.96354045
4.358678183;73.64707865;27.84112008;23.08691997;108.28736;-0.075877651;-4.984796825;39.0713383;47.49214506;22.24218821;1.381812217;19.4115133;20.31496291;14.43039417;18.7105419;63.02801978;82.44515827;31.8835087;23.09840101
6.842822251;75.12571629;25.07161659;23.61645799;104.6580578;-0.09964021;-4.800592711;40.73900615;55.16721839;19.72102889;-8.136925123;24.77846097;15.65414051;11.82240947;18.50253411;66.14991897;87.39321877;-7.5120018;22.74599128
6.171135562;72.30142778;21.67343142;24.51957211;102.6665754;0.052724966;-4.29104698;40.08990528;54.79798819;16.32994238;-12.9729566;21.9551215;15.60158322;10.30052118;16.2284892;74.39934923;87.36552247;-45.84229374;21.41439673
4.173536685;65.17031851;19.29062356;24.15736387;102.2597238;0.270403321;-3.92999434;35.45768074;49.52022924;16.41491834;-9.751842693;12.58018497;19.90905984;12.80861253;12.51247715;78.8961132;83.03747172;-65.45850624;20.29298368
1.499678948;56.13147758;17.77699606;21.21404605;101.8258415;0.355772101;-3.982746933;29.50386135;46.49422697;22.26099505;-0.272470973;2.376998147;24.52830793;19.56841975;9.273986882;73.93263695;77.50869401;-58.37607586;20.26680078
-2.344090845;48.61243603;16.04;16.38188821;99.65191723;0.166382017;-4.303020213;27.96238433;50.42402831;31.61803669;9.767515913;-2.728988428;25.4295283;26.63367016;8.504849939;61.63072622;73.92407328;-31.32168953;21.30273447
-7.50958163;44.87668939;13.488096;12.21248736;95.76373602;-0.264047469;-4.517507499;34.66079737;59.04126522;38.61881939;15.03441013;-0.561968788;22.20412079;28.02191518;10.87474534;49.82874119;73.33313049;-1.076397257;22.6611815
-12.59470484;44.57935056;10.70142214;11.05150719;92.4012653;-0.729476808;-4.402466228;46.82942114;64.64027007;37.8076457;14.27266535;6.088885916;18.26370158;20.47176619;15.20003906;45.44519551;74.43867159;16.62692715;23.62925713
-15.12118958;45.15471143;8.864769538;12.8713904;92.41421366;-0.987631823;-4.092394346;55.14758491;60.71686331;28.16138029;10.48265434;11.78895374;17.60172719;7.28937389;19.2356294;49.09482914;75.25590508;16.74864857;24.05766336
-13.45583128;43.86330581;8.650529357;15.08988621;96.72838118;-0.927164548;-3.936179178;49.48708145;48.20074864;13.82064433;7.692495484;12.51922696;21.19350739;-2.296064727;21.25583558;55.30131975;75.10570015;6.48435039;24.25831094
-8.442898359;40.11678068;9.633996442;14.74820018;103.0614079;-0.637798457;-4.153991258;26.57120146;35.68791992;1.000419672;7.374626395;8.466324208;26.33393335;1.138880802;21.23860194;57.70968903;75.17184286;-1.769316554;24.47710697
-3.098960574;36.36895755;10.73406266;11.21946916;107.2143644;-0.333973982;-4.628016349;-6.298084192;32.85600066;-6.233180243;7.696346364;3.578969994;29.37982152;19.83438952;20.7205139;54.55091011;77.19884918;-0.200602122;24.55029726
-0.37323748;36.72559077;11.21832084;6.970767799;106.1369056;-0.199189971;-5.020558945;-34.7662128;42.08121384;-7.840820001;6.071147193;2.399769422;29.14880631;45.20237955;21.4179618;49.69322256;81.58350804;9.318653244;24.11695617
-0.762749166;44.0082719;11.34131821;5.519809741;100.3628601;-0.274179;-5.096917603;-46.18352661;55.23581426;-6.16073139;2.396707721;6.664979125;27.67040161;61.32525182;23.71761556;48.65410917;86.63949659;18.14816487;23.14868318
-1.867376634;57.25374389;12.05577276;8.255857603;93.78;-0.464150603;-4.940985108;-37.53556958;58.84050803;-2.7736873;-0.249863284;14.18803307;27.63205047;54.19103513;26.28490797;53.32597335;89.74786516;18.74772161;22.19098784
-0.414331827;71.56824902;14.07044535;12.95619144;90.80657293;-0.636726141;-4.863019245;-16.94545916;44.0791348;2.903548661;1.73323891;20.68343685;29.19155476;20.96346948;27.14794269;60.12399714;89.41838643;10.86429964;21.97132934
4.844224111;80.74821921;17.08940785;15.47307618;93.15158564;-0.715634222;-5.096753177;2.200058594;14.06311446;11.98960431;8.892191323;22.95446615;29.57718403;-26.95709746;25.38442046;63.10591239;86.48145505;1.273101738;22.68
11.80139646;81.07273823;19.89694042;13.2802719;98.66753057;-0.698701626;-5.579652279;10.15013524;-17.39114807;23.30037631;17.66035699;20.97668822;26.19157304;-69.50282473;22.00080878;59.21232758;83.40301987;-2.191942689;23.63160372
16.43785528;73.64708993;21.22549851;7.804943584;103.0931448;-0.610651255;-6.021956309;6.406491736;-34.75524159;32.48337689;23.05881182;17.45436201;20.25681241;-88.9223626;19.2359705;50.98418169;82.35236958;2.941492248;23.73314624
15.92015549;63.54036663;20.68793214;3.385593027;103.1920171;-0.459893342;-6.188625718;-1.529162957;-30.94762154;34.545951;22.89692503;15.4798731;17.01662119;-79.41488176;18.83826595;44.41020595;83.69337191;12.15849206;22.44209717
10.81315191;56.23803041;19.01187906;3.607301317;98.817319;-0.250481551;-6.116894799;-4.706941081;-11.36493694;27.91;19.66747592;16.32960387;21.46676;-49.60307008;20.74286677;43.83854009;86.11806901;18.12022291;20.37199981
4.583653398;53.96434141;17.40331415;8.153847732;92.49363117;-0.029584768;-6.061901998;0.626569415;10.63648969;16.38277789;18.26447698;19.11817915;33.0415186;-16.72670814;23.24417053;48.38708516;88.14732875;16.83560565;18.93730838
0.847495754;54.59591349;16.58668708;13.00781423;87.18481118;0.097494809;-6.231332375;11.0405577;22.86566164;6.957907372;21.43111656;22.34367013;44.41755658;3.418147343;24.48043829;52.88764192;89.54530192;10.67772843;19.25631188
0.695692036;53.93545904;16.32248768;13.96520756;84.22499202;0.026379838;-6.574629891;19.45548671;21.23220178;4.908355769;27.04907717;25.71768636;46.52868601;4.55783011;23.92643836;52.41982442;91.36359645;5.998968131;21.22562721
2.304787158;49.49725419;15.78463331;10.45055824;82.94263351;-0.249864477;-6.835365686;20.92927905;10.21406415;10.06537453;29.88949329;30.45122365;36.29475185;-8.33;22.61465441;46.45040256;94.64073282;7.651001245;23.58377446
3.016843959;42.75780064;14.44322588;6.188376085;81.89296406;-0.596281312;-6.814126072;16.12163986;-2.085179202;17.30017561;26.45281663;37.56833363;20.40038551;-23.70286606;21.96612077;39.08936126;99.01405404;15.06902963;24.93712326
1.938444335;38.06833619;12.66348276;5.930897169;80.33974183;-0.802977869;-6.579671775;10.09895518;-9.589865486;20.75123301;18.58453068;45.71089564;10.99314655;-30.89798986;22.37688938;35.45112395;102.5523738;22.96361112;24.86585526
0.723885681;39.15335663;11.47381476;10.96970558;78.71849857;-0.728842194;-6.41419361;7.897121889;-10.55538586;18.27964259;12.42566603;50.67168446;15.82124963;-25.72834166;22.92450018;37.44222607;102.9902452;25.69864935;24.14233454
1.892275236;46.10449387;11.68439615;17.47331031;77.96763453;-0.412191717;-6.539803656;10.5702409;-6.125117168;12.60779316;13.3404933;47.74861343;30.61196941;-11.52520011;22.50360869;42.59738596;99.30321437;21.55637182;23.88445877
6.266385663;55.35426234;13.13719147;19.48144188;78.62622733;-0.053714779;-6.893890746;14.72242616;2.145858499;8.537497381;21.18846747;35.67243495;40.57642474;4.02239828;21.31;46.72284374;92.32899964;13.5660794;24.43530126
11.91147334;62.60491179;14.80408593;14.36633818;80.56757317;0.123795071;-7.181881425;15.58808059;13.09183846;8.918178603;30.24994654;19.13250636;30.98230362;13.69532717;21.15780059;47.72803863;84.06554692;6.698650791;25.02126388
15.59121633;66.19368443;15.73072319;6.142661883;83.37573592;0.033390368;-7.168165447;11.00649857;24.88851125;12.82419446;34.12320676;7.366875085;-0.833202803;14.40018149;24.10169107;47.1387136;76.44616004;4.154578106;24.53049178
15.47173771;68.01888924;16.03477449;3.392334171;86.67839298;-0.2221476;-6.925756955;3.158519731;34.21810769;17.17513499;31.4030804;8.909506522;-41.50122449;8.056283499;30.421438;48.07586317;70.70825832;5.787763558;22.69872843
12.6548944;71.2543931;17.00847553;12.84525573;89.94632513;-0.438782953;-6.790546062;-3.138874109;37.43019012;19.92505382;26.99945913;25.649095;-69.44754205;-0.173030244;37.77084001;51.78451945;67.69605021;9.448638389;20.56307777
10.15418333;76.85855196;20.06094925;33.4;92.0791057;-0.467365104;-7.043817749;-4.096144484;33.1372064;21.74539598;27.62908898;50.48026558;-69.20735226;-4.969537304;42.45223682;56.08775142;68.39073534;13.43864676;19.67427895
10.2211889;81.95448779;25.25832612;55.44125748;91.56115549;-0.31420608;-7.617143483;0.290329465;23.79581257;24.77545209;35.26397319;70.82337448;-41.78861958;-3.585881784;41.9897663;57.289435;73.71797191;17.64375716;20.70885132
12.41911541;81.59240503;30.71461091;66.47354862;87.48445761;-0.11558574;-8.112632507;6.395220677;14.41729885;29.85737487;44.48973442;76.24960499;-3.56589994;3.052217805;36.98126186;53.7901786;83.51215934;22.5819603;22.74518723
14.16730025;72.53727788;33.54693669;59.27936651;80.71455192;-0.020222749;-8.145588832;9.760394038;9.150108929;35.05912306;46.64594126;65.21849606;25.13419363;11.23963166;30.69549581;48.01456709;95.60263872;27.77541314;23.94841654
13.23960397;56.008415;31.86829073;36.78448739;73.99881334;-0.08085843;-7.706419757;8.32244728;8.57438409;37.00606438;37.68056403;46.10105363;33.04758108;16.76458596;26.69643326;44.71243287;106.1934485;31.43043432;23.15818811
9.914464841;37.17793923;26.32983768;10.17431133;70.52115093;-0.234864422;-7.200097656;3.681112512;10.04429214;33.85859816;22.94883023;31.47447605;23.29902471;17.25909065;26.39012448;46.98101067;111.6993186;31.91993425;21.00060233
6.778324873;21.91574622;19.90007813;-8.291244932;71.78162436;-0.371817313;-7.105024177;-0.397849554;10.68498562;27.19754288;14.18082384;29.56571401;8.237960604;13.31142928;28.41579553;53.48770567;110.8296333;29.56793958;19.47544079
6.327022447;13.43169439;15.86303922;-12.62084522;76.45615192;-0.418777119;-7.546140288;-0.968843976;10.23529872;21.03923779;20.22673724;39.01128078;-0.969114469;7.769428211;30.21847074;59.40539292;105.2778034;26.75892323;20.27452434
8.556914435;11.31213425;15.46492707;-5.661987083;81.24381332;-0.375229096;-8.171065368;1.925147523;11.11977705;18.78071072;38.76280956;50.80482479;-1.531481312;3.782727585;30.32212678;60.33461621;98.39527443;25.96635692;23.24100989
10.80581614;13.24053575;17.04617339;4.299283565;83.10201125;-0.286884265;-8.454728738;5.489046049;15.78028906;20.70835869;56.07900117;55.88922301;1.742775958;2.911474562;29.33912194;55.85276424;92.88947261;27.42248071;26.33718586
10.08344949;17.45505111;17.43208586;9.851479127;81.1089615;-0.200955729;-8.169130801;6.544147898;23.9051956;24.16124079;56.05;52.38987593;2.976891113;4.50709237;28.98320184;49.6466119;89.40723631;28.72598773;27.23038523
5.825384562;23.66999017;14.58197045;8.994428491;76.54590493;-0.147568034;-7.596101485;4.167943249;32.28154704;26.07194008;32.06031557;46.60904177;1.022540936;6.61469424;30.16349377;46.17724681;87.05955235;27.01395991;25.19861421
0.528345985;31.91768613;9.423193974;5.108236808;71.36487893;-0.150057678;-7.284777279;0.587566709;37.46636119;25.57657158;-7.074946851;46.80467056;-0.332100904;7.564191235;31.99986861;46.8457174;85.18505995;21.872262;21.73744284
-2.420328902;40.84674855;5.351641071;3.190594449;66.57661304;-0.23077381;-7.565355641;-0.345116405;38.73855725;24.4696752;-41.92603001;54.77466288;2.922086855;7.026229645;32.66174412;49.00985746;84.5293523;16.2474457;19.33146574
-1.837785105;47.50030423;5.700499855;5.697290322;62.00870936;-0.387899876;-8.254821107;4.045534755;38.4933757;25.30031235;-54.76533616;62.49250355;10.35546892;5.873656859;31.18938518;48.63399048;86.6018448;14.25760672;19.4225252
0.070270125;49.09446054;11.1341403;11.0392993;57.45277859;-0.562034224;-8.82110148;13.25289739;39.70287803;28.97365187;-40.61808309;57.36205518;16.96952738;5.197700517;28.52837691;44.13396908;91.7772476;17.6278831;21.30041541
-0.331489465;45.28907331;19.04631175;15.35675691;53.82063014;-0.639604749;-8.859148216;23.82264182;42.93904098;34.00833214;-9.424129393;32.66490719;17.59907092;5.431195386;26.75139808;37.96512328;98.06631335;23.92160518;22.84476421
-4.591336377;38.82195199;25.47251615;15.71815988;52.92104749;-0.516979372;-8.449840734;31.59638396;45.92850182;37.96527039;21.5665756;-4.998750208;11.66366709;6.270568439;27.16303372;34.56197377;102.0417581;28.34357732;22.44527618
-10.21576652;33.75915468;28.0019272;12.18051747;55.8792222;-0.189788861;-8.078440414;34.28171798;46.1355549;39.59132578;39.05558665;-37.88944185;3.891446553;7.274171625;29.07312835;36.50803246;101.44;27.75065121;20.41815609
-12.20513158;32.72116572;27.35336462;7.399243332;61.69096501;0.207210784;-8.188595547;32.51950304;43.79137051;39.69761493;40.54949918;-48.38599737;0.387959647;8.417538889;30.44221651;42.36840058;97.22174417;23.39897946;18.7
-7.029170273;35.33716004;26.3719745;4.440757152;67.46442604;0.45936625;-8.777702861;28.84175093;42.15380299;40.08856058;32.87718317;-31.46456064;3.581300981;10.02690691;29.85657825;48.08920978;93.06044613;19.88713365;19.12239444
4.215103037;39.0607945;27.34;4.602428982;70.40370462;0.403736344;-9.399779563;25.5228618;44.38909449;41.68;24.96780534;1.031557575;10.43672277;12.20044744;27.99328814;50.65089326;92.37369782;21.05264895;21.80404998
16.19265775;41.41648452;29.90838368;6.742000393;69.90417206;0.041704561;-9.56998503;23.07305518;49.93600761;43.60554433;21.19544129;27.99266033;15.30011601;14.36766838;27.1270886;50.65153059;95.30450219;26.37653702;25.06290186
23.10604182;41.63689006;31.43611888;8.361678791;67.88828167;-0.453396869;-9.200618751;20.46596321;54.12526496;44.08391015;20.00456124;33.28666906;14.66694386;15.50523825;29.0112202;51.49202839;98.37703909;31.17682276;26.88025402
22.87319818;40.45270891;29.47354173;7.505481069;67.03116643;-0.843644885;-8.673495737;16.71166304;52.01218004;42.15249081;17.58402547;16.2984453;9.698201393;14.86439983;33.02569309;55.93380177;97.39434543;30.61561904;26.5837608
18.37253161;38.64658584;24.24123959;4.144599746;68.44491015;-0.972535703;-8.488289538;12.29604978;43.24609726;38.62732646;12.42575499;-8.837089598;4.554322127;12.53587163;36.36302464;63.20714421;91.25673926;24.10193985;25.26698589
14.84615385;36.07717609;18.87375026;0.205581684;70.90281468;-0.846795201;-8.81250636;9.173399611;33.28659349;35.45315562;6.698317859;-24.35065455;2.386221529;9.317548285;36.25031747;69.38203051;83.33218731;16.14622538;24.64506152
15.69457092;32.20732547;17.04392329;-1.699598449;72.2576503;-0.604402836;-9.343388347;9.252219994;29.16612769;34.12190712;3.825178913;-21.63990859;2.70351933;6.032278168;32.34403944;70.76566141;78.92509029;12.72475921;25.46599929
20.10854849;27.47290227;19.8583199;-0.003386891;71.64427337;-0.406160015;-9.60109144;12.6110681;33.00385726;34.62932099;5.102596132;-6.221826515;2.309405668;2.990680868;27.17705771;67.29924964;80.7894083;16.19723121;26.95788993
24.30277169;23.84779336;24.67606797;4.732611053;70.31394073;-0.337667528;-9.376343505;16.96476401;39.05352942;35.82941227;8.660559964;8.219301875;-1.355908873;0.140230064;24.1786484;62.82731683;86.56154822;23.2422194;27.7745743
25.05052596;23.71351307;27.02451784;10.10815086;70.27424578;-0.385579798;-8.918721177;18.95367159;37.52523508;36.69574034;11.50507405;11.22463864;-7.68201998;-2.292358677;24.91011666;61.86289279;90.57583614;27.74313981;27.46265386
22.40170947;27.90097761;24.21453589;13.42815487;72.07506416;-0.483976386;-8.696610542;16.41636257;22.60081424;37.21;12.40148955;3.149389832;-13.40775858;-3.444740388;27.87574129;65.66232147;88.76633206;26.18629561;26.96729711
19.37116037;34.75999864;17.72731574;13.50927458;73.99158997;-0.575108603;-8.957376707;10.03419886;-1.989353758;38.06727438;12.72506865;-6.583572931;-15.50957428;-2.327430949;29.9176491;71.17920565;82.4548452;20.78772793;27.62045825
19.10308607;41.26329978;12.30109361;11.46640146;73.55468318;-0.633460154;-9.498376873;3.166189842;-24.90321841;39.58696216;14.54196213;-8.253885302;-13.67606176;1.100781611;28.95888553;74.00563835;77.47689362;17.44946657;29.56422217
22.13286704;45.22018774;12.28413482;9.815443626;70.04379591;-0.649192245;-9.859944129;-0.054009604;-35.51381156;40.97695066;17.94616903;0.101001644;-10.16836441;5.317566468;25.70341249;72.80028138;79.02661342;20.23678286;31.21683272
26.09823132;46.55935345;18.11141461;10.46069267;65.45955941;-0.607292292;-9.757739267;2.843634232;-31.88540571;40.71975019;20.43020372;11.84601658;-7.429503698;7.905609946;22.85642357;71.12982807;86.54764257;27.32585769;30.5
27.9671863;46.52293342;25.78247778;13.09436863;62.82242271;-0.495403866;-9.349798562;11.15455181;-21.65023493;37.76438543;19.11552873;18.15429807;-5.868961457;7.238898054;22.63617095;74.6419293;93.39239332;32.27150388;26.86297395
26.65344249;45.71567838;29.863915;15.36606192;63.25957591;-0.334755675;-9.088443334;21.22744816;-14.93914604;32.46705451;13.85383387;15.66096075;-3.918352353;3.878450405;24.83830949;85.51516327;92.12080592;29.76290882;22.22162754
23.70089007;43.19113099;27.67896886;14.8327679;64.72819696;-0.196618923;-9.294345474;28.2374537;-15.39727793;26.49222144;8.183191402;8.778332025;-0.147650759;0.393524968;27.16625664;98.81224098;81.26911813;20.83776562;19.73317941
21.59204263;37.77007813;21.32748752;11.16235477;63.86933145;-0.174512461;-9.849861617;28.5771831;-17.14891797;21.82841629;6.910132897;5.1001025;4.79580565;-0.453396116;27.46897873;104.2905354;67.60721504;12.6646009;21.24306441
21.39356459;30.39116154;15.89520737;6.664653997;59.47371002;-0.323120125;-10.29994627;21.74277593;-10.55866753;19.75963462;12.14307538;8.359304414;8.478534245;2.217739095;25.80723536;93.04984677;61.27982899;12.62648193;25.57824038
21.94345144;24.85621392;15.31476838;4.485367416;54.20866196;-0.609614476;-10.27167212;10.84003906;8.060642251;20.4773601;21.17936146;15.25117157;9.049633716;6.801568076;24.44650135;64.38927077;67.31667553;21.64346886;29.31460533
21.24007813;25.5175824;19.29506548;5.817198123;52.5708243;-0.918537404;-9.826386298;1.353549367;31.34643172;23.31189288;28.2592028;18.71759667;7.414186178;10.65493003;25.7748089;27.66612815;80.65991219;32.77919221;29.55475704
18.60584394;33.43247449;23.88403045;8.541524434;56.56014233;-1.111011151;-9.416829975;-1.472053256;45.27672604;27.09769409;28.9623696;14.4993349;6.942936773;12.41253795;30.0381691;-2.598424154;89.57714123;36.89190045;26.40018821
15.5114262;44.50014749;25.20012678;8.731150132;63.09206871;-1.098485327;-9.482564147;4.485138503;39.87528899;30.39695287;23.71219829;5.023681759;10.64932138;13.15808221;34.96093253;-15.21852808;85.46697348;30.86538844;22.89847979
14.26895972;51.9;23.12670236;4.04951972;66.05869373;-0.884302175;-10.04925502;16.6723686;17.48080922;31.81788065;17.48866171;-2.728285074;18.18447106;15.35417535;37.62128234;-8.671647916;71.14997862;21.21207677;22.35917136
15.86732517;51.42478605;21.63448847;-3.742166046;61.81633787;-0.554868708;-10.69581804;28.8843487;-8.387199614;30.74756231;15.94445402;-3.30244449;25.41343074;20.39667071;36.92203097;8.911866399;60.05318098;19.28296974;25.30492896
19.07758787;45.29487522;25.12466872;-9.51295035;53.32419747;-0.237369887;-10.91989554;34.74997626;-22.80604725;28.23746899;21.06872544;2.68356546;27.27787421;26.97164807;34.4653715;25.70964935;65.67166871;31.38108402;28.829225
21.7714743;40.7614005;33.63707753;-8.505726846;48.68669765;-0.053032809;-10.57237384;31.83503451;-19.98427228;27.14337087;29.87329475;9.477565438;21.84696841;31.82356663;33.07675232;33.68121543;89.06;51.85403794;29.15894943
23.2468198;44.08660926;41.08777029;-0.251438191;54.51073648;-0.081011276;-9.973432632;23.62674982;-6.191127092;30.80170544;37.03177332;11.58355403;12.30800709;32.46308336;34.32182844;32.48480112;114.8662848;65.44595658;25.34204971
25.25366746;54.79050452;38.6202125;10.58579321;69.43460721;-0.330882133;-9.615582112;17.61471585;6.764365455;40.67501268;39.14740215;8.65707312;5.149410756;29.51118143;37.23190682;27.75999323;120.6190692;57.92904853;20.7109222
30.46745339;65.37210652;21.12238855;17.32470593;83.84121812;-0.723303888;-9.731952657;20.21257193;11.488708;54.60279109;37.08453606;5.522761657;5.718278687;26.46315587;39.33112365;25.84305835;93.56531479;27.13023197;20.40496497
39.50731713;67.31846099;-7.885043528;16.00217214;86.98845072;-1.09480065;-10.12037282;31.74456419;9.885061974;67.3085051;34.55476812;7.370441025;14.33904922;26.75042419;38.97676828;29.16694642;42.48370285;-14.30643582;26.60243858
49.14781515;58.62818619;-37.05682915;7.999896542;76.27458349;-1.248189468;-10.36857873;45.18865662;9.303676719;73.29699928;34.35560582;14.4910945;25.74402664;30.39543368;36.8645393;35.4518205;-5.490478423;-46.86818757;35.41481304
53.63755262;46.25749585;-53.79956192;-1.45197595;60.77498965;-1.045945014;-10.25516482;50.10487339;14.09860244;70.31025442;35.59742455;21.30212922;32.16163055;33.19399216;35.33967357;40.54799344;-22.2037552;-56.98767995;38.51657485
48.51225161;40.83032031;-52.3255015;-7.497937323;55.25265392;-0.50232276;-9.947538809;39.52806512;20.60659896;60.79260339;34.33575575;20.63155744;27.94215349;29.507457;36.15542031;42.11314899;1.824151615;-45.19081537;28.95662665
34.07906292;47.59698011;-37.50236351;-9.018157186;68.63461834;0.190822077;-9.818864082;15.19794062;20.22984311;50.1547667;27.09187998;9.673516107;12.79977024;16.78720267;38.72192493;41.12903498;49.72045235;-23.89830736;7.029015479
15.77643997;61.260234;-21.60526461;-8.462957369;96.0202431;0.740996414;-10.06801879;-12.69816753;7.839940028;43.08022641;14.29337441;-7.354669107;-8.09306066;-1.69228481;40.44856655;40.40830363;88.66897648;-7.356878366;-18.45951659
0.948449368;69.46690328;-16.10748953;-8.705914243;121.0756264;0.904433585;-10.51037238;-31.41736917;-12.20256335;40.6811106;0.723553803;-21.9684116;-26.89515891;-18.28126157;38.92295687;41.76557828;91.33816973;-1.964789936;-35.02579915
-5.661332481;62.55;-24.23156458;-10.08242358;127.5663993;0.620632404;-10.74279586;-33.35537325;-28.14510325;40.61687948;-7.477234448;-27.22303574;-37.01015564;-25.82440913;34.05869629;44.40174715;53.16907811;-4.143103907;-34.38202069
-4.440469243;41.57748274;-39.44062611;-10.44754988;111.2863989;0.045376016;-10.53003906;-20.37353269;-29.67650191;39.85479059;-6.945469276;-21.96219537;-36.08818103;-22.48290121;28.38080037;45.75840354;-6.47342736;-6.185546034;-17.82745611
0.189910513;17.84085829;-50.74997631;-8.102457874;83.03690623;-0.541135119;-10.04645474;-1.95003418;-16.13752663;37.60520473;0.777850212;-10.57573284;-26.80672363;-12.94754782;25.20951387;43.90077797;-59.29483101;-4.055492593;4.708455662
3.353808501;3.97200206;-50.8464785;-4.563724209;60.31463179;-0.892417905;-9.737327607;11.30977559;2.853859617;35.92154787;10.57916913;0.820608149;-15.24337738;-5.136966696;26.21672387;39.26664275;-87.57490827;-0.235271965;21.28052359
2.909874269;3.996023504;-41.11592575;-4.123429578;54.34550191;-0.920597155;-9.918774267;14.14716839;14.91042933;37.53284074;17.30664236;8.289692404;-7.69989452;-4.82611193;30.22030861;34.31575539;-94.00371411;0.18932905;25.4750806
0.022007978;10.65604971;-30.12865657;-10.13322955;62.68811398;-0.716808216;-10.48248221;8.7934558;14.21847242;42.87351241;18.73871958;11.23395209;-7.542670789;-12.10392463;33.95343794;31.51832169;-95.79453221;-4.2339423;19.67337942
-2.817451144;12.21494872;-27.01562848;-21.25824148;72.89180947;-0.46884836;-10.98176711;1.859773846;5.028846901;48.93792097;16.00121305;10.85272967;-13.72110885;-22.04215575;34.01027255;31.54315192;-109.1340978;-9.085722347;12.13057566
-4.273106103;2.823904617;-34.81170064;-31.42287972;73.61764274;-0.340538745;-11.02711908;-1.182999493;-3.235373904;50.99503207;11.67176549;8.169536428;-21.86269461;-28.73661971;28.53865968;33.23204478;-136.6825883;-8.150078125;10.47767917
-5.042470277;-12.53568834;-48.60174677;-34.11015137;63.77259934;-0.388663626;-10.63402529;0.26358108;-4.651585669;45.78140309;7.533951945;3.615342092;-27.36693508;-29.4942816;17.85091367;35.25499206;-167.2701464;-0.006164814;16.55921223
-6.673647153;-22.8152163;-59.5133968;-27.65832717;52.32704945;-0.555171423;-10.20665393;2.348880446;-1.679925155;33.63065873;3.824610342;-1.967517073;-28.53370018;-26.14952764;4.136534832;37.75366484;-186.6180257;9.264462867;26.07322121
-9.710587818;-21.13986604;-61.23771827;-16.90141087;49.58322002;-0.720680893;-10.17181193;0.39638059;-2.278749741;18.00273862;0.187751609;-6.641202808;-27.5483811;-22.9470837;-9.143578005;42.25397548;-189.3920813;10.33077368;32.64983011
-12.97711522;-11.40880149;-54.11516965;-9.359694169;57.78220859;-0.776862283;-10.59544527;-7.399296653;-12.12465428;3.051199734;-3.015752105;-8.24118855;-28.54916347;-23.05625346;-18.01458657;49.76502789;-182.7641046;-1.426977246;32.83683093
-14.59814251;-5.215698201;-43.99310374;-8.920581375;69.13831366;-0.679610713;-11.12806531;-18.87646269;-28.92395311;-8.709645807;-4.524860741;-6.098852135;-34.18375574;-26.53700588;-19.19373332;58.86682978;-179.3906724;-21.15484317;28.23936372
-13.71393798;-11.5330147;-37.19405193;-12.39774834;72.74541708;-0.46558486;-11.32429719;-29.73404054;-43.76133854;-17.01395403;-3.32229854;-1.72448596;-43.33558235;-31.06082803;-11.76014453;65.94842115;-186.512988;-37.45995234;23.63480877
-11.26152727;-28.12490525;-35.77308442;-12.15275311;64.17429692;-0.231582803;-11.04228557;-36.43435346;-48.22;-22.79674037;0.092392664;2.530760067;-51.87993164;-34.33289571;1.590199764;68.02772904;-200.5168493;-41.02346524;23.01128685
-9.126616495;-42.44107773;-36.68588854;-2.789362356;49.47729376;-0.084792528;-10.56093697;-37.96588791;-41.10941172;-26.86507041;3.682398501;5.669159674;-55.90147893;-35.94213414;15.04541333;66.06298302;-211.0457769;-31.87602749;26.74744461
-8.488750993;-41.69764459;-35.16533982;13.76872449;40.32724627;-0.080601756;-10.315636;-35.62141547;-29.18237994;-29.4986401;5.302406967;8.817546808;-54.71816872;-37.15676275;22.42330474;65.5861437;-210.4976015;-19.24518527;31.84540622
-8.892505268;-23.85307404;-29.26146005;29.36697421;44.61965755;-0.177091791;-10.50200991;-31.60951158;-21.5058222;-30.9486719;4.356155232;13.55204198;-51.15091436;-39.1328296;20.84032634;73.14510822;-200.5155091;-14.03391966;34.57969837
-8.868543881;-0.172927918;-21.76169978;36.22381443;60.50041534;-0.240021973;-10.91226047;-27.86705028;-22.44927651;-31.85377127;2.169268332;19.30754965;-48.80704729;-41.36807811;12.74414245;90.48669588;-190.1774977;-20.13777316;33.23736792
-7.488541765;12.99160663;-18.01858756;33.54264564;78.53101636;-0.112814127;-11.14762367;-25.69820158;-29.08;-32.86309557;0.706198591;22.68510329;-48.76852788;-41.8921193;4.462718515;110.9387095;-187.9499613;-31.71430225;28.94947564
-5.388897479;6.585981444;-21.58056864;28.40082898;89.65218993;0.276210437;-11.0013066;-25.83275724;-34.66608761;-33.84868355;0.800085449;19.94012398;-48.66385852;-39.03709619;1.898748611;121.6696688;-194.6388197;-38.44855873;24.38483993
-4.294185315;-14.64683531;-31.21479043;29.94858887;91.94225509;0.835038456;-10.65192311;-28.25255741;-34.76407408;-33.74116832;1.556341532;10.78368315;-45.02722042;-33.17615101;6.36721486;111.4608297;-203.2914332;-34.18447156;21.69623892
-5.443432462;-36.5806689;-41.6588955;41.69465044;90.72595517;1.3217633;-10.48822456;-31.79282847;-30.51796795;-31.45963153;1.521726357;-0.133859286;-36.86682813;-26.81601308;13.76028696;79.12120964;-205.7199656;-21.68171251;21.35885399
-8.327615389;-46.99654726;-47.38612532;58.40263306;92.663992;1.462860136;-10.73168187;-34.21574037;-26.658263;-27.1712969;0.517710814;-6.066000967;-27.15550932;-22.85469293;17.81014633;36.32368048;-199.6645641;-9.797371163;22.48692853
-10.88982297;-44.29623687;-46.34155;70.27425731;99.53457283;1.114931164;-11.21302895;-33.28183739;-26.48373149;-22.54772592;0.297876263;-3.468739875;-20.71408363;-22.41166058;15.00467655;1.971975909;-190.4013141;-5.880591;23.94733914
-11.05794942;-36.84920101;-40.82165961;70.90279634;107.1699713;0.368589737;-11.51703789;-28.35053882;-28.57720666;-19.52146791;3.179673641;4.766698108;-20.21093048;-24.03109935;7.325155391;-8.830078125;-185.7289618;-10.00010271;25.16734603
-8.312942612;-34.35177129;-35.1016577;62.27947753;109.9941451;-0.479289856;-11.36796329;-21.20893284;-28.17741522;-18.58150975;9.717150944;11.37490452;-23.8266488;-24.92168675;0.657239728;6.084213433;-189.0482375;-15.66919186;26.12014734
-3.967156363;-39.10878302;-31.97760959;52.71048421;106.5436223;-1.076861542;-10.90180177;-15.13168378;-21.85494626;-18.32343172;17.57973106;10.81889888;-26.7801936;-23.20276031;0.179599825;35.07127945;-196.6470654;-15.94016475;26.8478078
0.048730702;-44.60740186;-31.02237412;49.62577767;100.7581857;-1.203403569;-10.56959136;-12.5637695;-11.2562817;-16.9378873;22.95335705;4.367303087;-25.48096893;-19.30643095;6.436961781;60.73885696;-201.3235571;-9.268974763;27.21114226
2.805617268;-42.00285266;-29.6939712;53.6089127;98.0091844;-0.878655166;-10.74946832;-13.1439022;-2.579093531;-14.40140764;23.57134846;-0.468724796;-20.63162225;-15.41645387;15.17285373;71.23567032;-198.8406343;-0.174539062;27.13956599
4.986839265;-28.3141269;-26.01332345;58.77301525;99.79392483;-0.333941254;-11.41025373;-13.79163131;-2.13524744;-13.17957859;20.82658981;3.927426361;-16.4524995;-13.47894689;20.88030647;66.81786037;-191.4138375;5.396273994;27.01313335
7.973558672;-9.1;-20.38904171;58.93472093;102.2080998;0.129678199;-12.12568628;-11.07128633;-11.56730649;-16.38313834;18.91509309;18.60780812;-16.68246035;-13.50491261;21.0461106;57.39687347;-185.3403377;5.452381158;27.616839
12.23;6.324139816;-15.14246572;53.89301736;99.72210474;0.30662968;-12.42712013;-4.168313512;-26.39751046;-24.69918426;21.40466554;36.67562986;-21.00666892;-13.61233483;17.67406727;53.56228104;-185.1874307;3.231374939;29.54028257
16.44049617;12.45870947;-12.38328873;50.03176165;90.80165903;0.181956607;-12.18542254;3.862611805;-38.78826976;-34.86488229;28.00413529;48.62137881;-25.2617284;-11.76134725;15.09486483;58.27688248;-189.8750868;3.549685008;32.5055522
18.22839384;11.24054685;-12.24077703;54.51479968;80.11463854;-0.086375526;-11.69442267;7.742250489;-42.22238473;-41.41826969;34.46019459;49.93349446;-25.31607295;-7.675024457;16.15964374;65.48113163;-194.027626;7.965922909;35.28072115
15.95230115;8.96384679;-12.96911082;68.09566487;75.08830988;-0.274253783;-11.39804966;3.501086923;-34.79616598;-40.63075842;36.03719678;44.38342601;-21.02424303;-3.24265013;20.06207449;66.11756237;-193.0870066;13.38901525;36.38518858
10.15016072;9.885857965;-12.67531489;82.96230145;79.6782035;-0.221319688;-11.51349776;-8.568345334;-19.39168858;-33.381516;31.8553187;40.06992442;-16.41293233;-0.958326857;23.40553523;56.23340908;-187.3665568;15.32760983;35.11310989
3.455770848;12.57872229;-10.99846454;87.83144117;90.78710615;0.083531778;-11.87804188;-23.63887877;-1.45064643;-24.36627623;26.23137615;41.75373227;-15.68348358;-1.63319795;23.29372533;40.47271304;-181.4048258;12.52526141;32.09794372
-0.985067525;12.12565769;-9.228538686;76.33139236;100.5277176;0.498814063;-12.1321266;-34.95139626;13.66142049;-18.12132908;25.3330651;46.49;-18.67095764;-3.331548385;19.66684479;28.32969024;-179.4290323;8.435023183;28.97917374
-1.415480487;5.671256241;-8.861151883;51.88767309;102.464621;0.805994441;-12.05156239;-37.5275318;22.2752788;-15.24242343;31.41102784;46.76645398;-20.25188969;-2.584727049;15.04543736;26.524524;-181.2995445;8.032787443;27.4160538
1.683998514;-4.143360919;-10.02181652;25.23116185;96.56807458;0.825256531;-11.72760447;-30.62607523;22.94659893;-12.20066258;39.37802466;38.52342934;-14.77978741;2.896526769;12.24670032;33.85657985;-182.7365786;12.96472003;28.15239175
6.288057966;-11.10106507;-11.26445947;6.714766378;88.8;0.513868193;-11.45446048;-17.62427393;16.514243;-5.070631679;39.21966081;26.61797283;-1.85107143;12.09727994;12.28240371;42.57974151;-179.5373835;19.72065995;30.72851913
10.36573859;-10.7816477;-10.93339071;-0.33837709;85.89557817;-0.005259036;-11.45597645;-3.766745548;5.942738041;6.093205788;23.28932376;22.03670103;12.01392523;20.9355801;14.17079405;44.85012259;-171.7232192;22.769428;33.91188399
13.04133087;-4.305308896;-8.809370071;-0.304518511;89.89914884;-0.505077315;-11.71299855;6.597542252;-4.416373651;16.31885323;-6.677402708;32.34062561;17.94482864;24.87961503;16.44404954;38.76758454;-163.6226907;19.89629721;36.43767113
14.63205703;2.972582617;-6.483031108;-0.211306599;96.97090444;-0.777158401;-12.03284391;11.72691973;-10.4069462;19.43571655;-38.49;53.30122997;12.09859661;22.09816657;18.63095502;29.20572956;-159.7398961;14.73782795;37.5646947
15.81594475;6.446281566;-6.053066563;-3.766957836;101.1177753;-0.746803269;-12.26237216;12.54150218;-9.910302994;13.48351129;-56.04546881;69.57521054;-0.584889684;14.79449075;21.287052;23.19044867;-160.2943392;13.91539392;37.22657724
16.82913497;6.205341377;-8.272399053;-9.365626141;99.32692298;-0.50974137;-12.42003906;11.43111175;-3.726224152;3.062132426;-49.48929282;65.15931912;-10.00554371;7.674460843;24.78697144;24.04140123;-160.7596779;21.13020738;35.8792655
17.38900517;6.391491685;-11.77992443;-12.96586799;93.66406906;-0.265070754;-12.62309096;10.69703941;5.278526372;-3.74992591;-21.97834501;35.99994209;-9.302400704;4.644873324;28.37758664;29.14422571;-156.077735;33.54691654;34.24729539
17.25867237;10.86320298;-14.10279251;-12.46706485;88.81947389;-0.186636101;-12.90314861;11.40433911;14.19901108;-1.638683928;11.87060025;-5.350124264;-0.87397131;6.187117833;30.64703639;32.79064048;-145.7972718;43.91601261;33.06327962
16.76134813;19.49824333;-13.56227796;-9.41607068;87.58389902;-0.317907438;-13.11953591;13.06398578;21.7289834;7.703564779;34.94502853;-37.30821537;5.592467486;9.352506955;30.98864888;31.18916414;-135.3013036;46.72710675;32.79090962
16.66346696;28.65628214;-10.45522373;-6.9099367;88.32;-0.559675381;-13.07751727;14.19698359;28.15869304;17.00867464;37.88381371;-43.7564513;1.946100549;10.34164765;30.4701068;25.2466921;-131.6698879;42.90706737;33.37245759
17.53045956;35.14256983;-6.569038762;-6.289834021;86.48913178;-0.753946927;-12.74368399;13.47935727;33.94805592;19.47147199;23.73017239;-24.59973709;-10.18666646;7.67323417;31.00164338;19.09985001;-137.6058319;38.73321144;34.16816517
19.23653714;39.54847659;-3.570706712;-6.115975554;78.69241027;-0.799420041;-12.33599177;10.83723689;38.37897928;14.38635676;4.325820753;5.384666229;-19.36072451;3.51404714;33.42138569;16.25130534;-148.7929799;39.843569;34.24624873
21.19670295;45.47014585;-1.746146352;-4.327704321;65.68549724;-0.715249957;-12.17328516;7.753618486;39.69375307;7.651556814;-8.316719674;28.00328752;-13.48516942;2.155400681;36.37193602;17.01855274;-157.1906693;45.82659284;32.95086485
23.15677758;55.24098194;-0.144879252;-1.128872293;51.97446996;-0.613668259;-12.40151737;6.420808195;36.69644788;6.735164906;-9.262058446;34.22876166;8.859257447;6.786588346;37.28446459;19.35512905;-157.5557626;50.56073105;30.39287726
25.71664042;66.44999432;2.155896638;0.645205504;42.61430458;-0.612061318;-12.84784457;8.170280351;30.34325769;14.37030465;-1.840784224;28.52093635;34.64326605;16.97634828;34.80642872;21.7309446;-151.5723782;48.29512673;27.46517152
29.86478532;73.04389585;4.95944697;-1.647084571;39.97727836;-0.755487822;-13.15235329;12.30091229;23.73881173;26.26207322;6.961817785;22.65495013;44.32633052;28.69604366;30.45974235;24.90476343;-146.0185025;39.96497142;25.29613024
35.69256816;70.50862976;7.085057247;-7.149374847;42.86280551;-1.002220051;-13.07542808;16.3452909;20.32384175;34.61432903;12.4956422;25.15928067;26.21036455;36.79742405;27.78243653;30.75529975;-146.64065;33.51503422;24.50627448
41.38699958;60.5091664;7.569343227;-11.2463804;48.08699883;-1.268382904;-12.70945147;17.81312154;21.65174257;34.36583642;15.078948;35.19007813;-13.77349733;38.09416854;29.43061663;39.45140339;-153.1806743;37.0711392;24.83497857
43.66216547;50.44154542;6.736846642;-9.145354025;52.78797718;-1.483504055;-12.39991208;16.20461467;26.54259211;26.89395929;17.89976668;45.03310779;-54.82628242;32.90425351;34.7135693;48.05523108;-159.9165768;50.43013176;25.44280831
39.74404207;47.78432508;6.060963123;-0.32415025;55.64356488;-1.612051919;-12.44031871;13.65375655;32.22757469;18.3231475;22.8095656;47.8777343;-75.03242083;24.21069439;39.87715333;52.35850012;-161.0984099;62.60877004;25.65274385
29.62794701;53.95808349;6.885425751;10.32085335;56.65201852;-1.63745595;-12.81207654;13.47125914;36.43148504;14.24741752;28.01522909;43.56935395;-66.03262923;15.38706183;41.11328624;50.54861635;-156.2560855;58.69715953;25.52034756
16.78784946;63.11290086;9.17052675;16.06773868;56.43194653;-1.542159453;-13.20293069;17.52438846;38.6715161;15.53278153;29.59181234;37.67714269;-37.87451888;8.313852293;37.77958946;45.27741711;-150.5080005;31.45377044;25.75186802
6.463624443;67.04301;11.43647634;13.84398575;55.96864474;-1.315155694;-13.28682842;24.4738661;39.90452001;18.55722174;25.23761742;35.55800056;-10.92475664;3.105868353;32.96268862;41.91392363;-149.5884298;-11.47290365;27.03238587
2.498173391;62.00118026;11.98748744;6.806026142;56.71608329;-0.982186013;-13.01198235;30.39104915;41.16082745;19.16274499;16.8130536;37.34214502;-1.475639573;-0.780913112;30.76108843;44.22107377;-154.1903237;-50.99350412;29.33132072
4.987045742;51.47890864;10.32878049;1.619693305;60.28363209;-0.621880892;-12.638289;31.47243072;42.55746382;16.4746583;9.394988286;38.3762222;-11.8641357;-3.342011233;32.58680812;51.21743312;-158.935782;-68.79369778;31.78596367
10.57641731;42.63082541;7.522996446;2.705228071;67.41072787;-0.337711753;-12.4947899;26.8690435;43.47784618;13.25525227;7.622056445;34.30286883;-31.60122514;-3.839522166;35.76324533;58.121891;-157.1223851;-59.41454665;33.28755511
15.27003906;39.70589956;5.217174912;8.482280088;77.00455016;-0.19678441;-12.68177516;19.4718892;43.44674242;12.88100191;12.33298061;25.70096772;-47.14100486;-1.672494195;35.76406412;60.66913973;-147.0707822;-33.24244201;33.3073235
17.58344161;40.44992019;4.27765432;12.9456551;86.38536;-0.183185309;-12.98849787;14.03950442;42.59828002;16.07864461;20.11803486;17.83814545;-51.79239981;2.65968332;30.23090935;58.96797823;-134.2608769;-8.441644369;32.29744265
19.49896895;38.6232015;4.273703662;11.16476405;92.94478897;-0.208565265;-13.09644069;14.08564479;41.21858794;20.48420047;25.92591409;15.78992486;-48.42033774;7.50319117;21.26647699;57.36514991;-127.0750394;1.745722061;31.35183735
24.37615741;30.1578656;4.190622159;3.768409491;95.99482525;-0.176838473;-12.87687867;19.81653391;38.98411028;23.17965933;26.49792399;19.51370731;-44.30768772;11.02598838;13.93376414;60.33306377;-129.6979229;-3.20876861;31.41308043
33.47945345;17.22354195;3.571880023;-3.630101;97.15193623;-0.053256703;-12.50989154;28.45286331;34.98537705;23.51266622;22.05091223;23.49650093;-43.83158966;12.38546741;12.18891515;68.05479043;-138.4149456;-13.37572626;32.65779558
44.04239637;6.516237412;2.924464765;-5.550373342;98.77664735;0.116608142;-12.32114373;36.35983293;28.86840866;23.41346326;15.35047646;21.41044385;-45.41252294;12.07929008;15.73408109;75.77789564;-144.7036153;-17.76566229;34.50734869
50.65385359;3.452923876;3.011520005;-1.657061297;101.7830696;0.249869341;-12.49225577;41.1603165;22.14086858;25.05075834;9.437560472;11.68717051;-44.5443828;11.21810464;20.48517728;77.69214758;-142.5578122;-12.85736478;36.17432042
49.04564819;7.630122608;3.813180388;2.92452786;104.8163368;0.291217622;-12.9102565;42.37804379;18.182052;28.35502991;5.996870709;-0.881233667;-39.18440289;10.42245319;22.19209664;71.99186032;-133.6868122;-3.878946013;37.23618834
39.2926804;13.53525177;4.303104795;2.346205773;105.5950529;0.244838232;-13.28475477;40.64815998;20.40582615;31.02264014;5.307492431;-8.879417219;-32.19482173;9.352876128;20.01562442;62.62705773;-126.004907;1.064003636;37.76929748
25.80313858;15.5038035;3.373028958;-4.421885768;103.1694997;0.15313301;-13.411556;36.71018756;29.65923069;31.02486898;7.103318177;-8.095466003;-28.81021033;7.270968442;16.96804827;56.13498911;-126.6720572;-1.741988883;38.00947472
14.08457959;12.0910426;1.027416501;-12.29585733;98.90770416;0.052293008;-13.33335826;31.24347544;42.84982908;28.97655334;11.04053271;-0.555629544;-31.85307646;4.070132721;16.9463464;56.31364775;-135.7314919;-9.06818615;37.92874988
6.980657712;5.965048109;-1.408098534;-14.30665205;95.18532547;-0.047312554;-13.2571873;25.42246211;54.09327164;27.70263107;16.27019362;7.50357341;-39.26642977;0.780043945;21.09548459;61.40960857;-145.8916338;-14.36706356;37.16085933
3.534875579;0.083957403;-2.411269534;-7.66155243;93.00704484;-0.138885195;-13.32459688;21.13688626;57.85206752;29.13437507;20.87877008;10.64579857;-46.07356096;-0.975897315;26.76227537;66.20489546;-148.6449905;-13.72438254;35.35498624
1.337313657;-5.370841929;-1.696829024;3.740886095;90.96491591;-0.186474803;-13.46708286;20.12505106;52.05458331;31.58740331;22.32365604;7.910409211;-48.68411055;-0.143737629;29.91291405;66.97450368;-141.4115855;-8.831868112;32.62287575
0.041705072;-11.81681045;-0.476606809;12.58992171;86.78463944;-0.129410828;-13.48776843;22.52277236;39.19928213;30.52350017;19.03334977;2.446736113;-47.48216122;2.967559344;28.7687059;64.76074618;-129.5585653;-4.83898087;29.64590582
2.501278904;-18.12396201;-0.098009356;14.3319361;80.17442329;0.064150558;-13.28316194;26.24264097;24.87167344;22.73069487;11.98711938;-1.893630024;-45.51596065;6.933481055;25.36501609;64.05809862;-121.6652295;-5.541529875;27.30867425
11.94807314;-18.50022275;-0.264788434;10.77804884;74.16846658;0.338376999;-12.97772231;28.12766338;14.76314695;10.31042426;4.715639253;-3.630951917;-44.88170332;10.2685792;23.66192962;68.27700116;-122.2579672;-10.32413372;26.14831226
27.33601317;-6.016065144;1.292763073;8.029838417;73.26133992;0.549676225;-12.82741804;26.25519211;11.99676883;0.422639908;1.280513789;-3.894744706;-44.46077294;12.37752822;25.95510368;76.29835093;-128.3059997;-15.2217209;26.07410175
41.19246581;20.27312808;6.97387524;10.69936765;79.5590829;0.547570921;-12.97712157;21.53417746;16.05935572;0.200522386;3.512477879;-4.273270681;-41.1982982;13.63513887;30.83112504;83.32901599;-132.3321059;-16.63922606;26.57559073
42.86736971;51.20482502;16.64061641;17.67334471;90.28583331;0.286054979;-13.30820758;17.10322822;23.55653328;10.71960364;9.60313468;-4.829950908;-33.62538621;14.63838127;34.46987235;85.17950711;-129.1905992;-14.19429574;27.21324481
25.75214533;71.55605775;26.5790198;23.20318306;99.17689493;-0.123530232;-13.53529656;15.84197692;30.15991969;25.2805163;15.26394458;-4.253405717;-24.15571865;15.40607252;34.0661586;81.86254348;-120.5207647;-10.41636146;27.95013946
-6.714981707;70.50898492;31.45;22.25777605;101.030768;-0.47092276;-13.47251598;18.00804272;32.80114729;33.97773951;16.73815113;-1.680462163;-17.8211248;15.3013451;30.27499919;77.10618927;-113.1514429;-8.104680853;29.04063172
-41.32926801;50.36066356;28.04632778;15.24130094;95.78062765;-0.582682009;-13.21754061;21.03;31.18841663;31.19399644;13.51708957;1.993799344;-18.42162466;13.74051738;26.53;74.34468194;-113.1259921;-8.055469328;30.59833456
-62.43362036;25.62111265;17.86743157;7.790403106;88.56670815;-0.435456751;-13.06758691;21.69365214;27.9035883;19.93015157;8.801249963;4.850634029;-25.45186812;10.99521846;25.93054498;73.21331948;-120.6941373;-9.0557788;32.26065688
-61.62890003;12.25043922;6.223057726;5.827228138;85.54350519;-0.160420131;-13.23278024;18.8774491;26.82420771;9.314166466;7.368847189;5.997703507;-34.46654491;8.288180608;28.54131065;70.15747853;-130.449682;-9.626655062;33.29156119
-43.06042563;15.43911838;-1.599335387;10.3083325;88.81754309;0.062513935;-13.61418826;14.49036109;30.53462836;7.298269609;12.29582814;6.705719626;-40.48396607;7.021886695;31.49210967;62.75;-136.0668086;-9.455601273;33.08341048
-20.40898545;26.227962;-3.976564301;16.35396189;94.76685076;0.135199041;-13.86833972;11.82915432;38.3270774;14.59638927;22.64222325;9.235558464;-41.43816382;7.778322858;31.68809676;53.48266496;-135.1731123;-9.151739079;31.66129218
-7.693924386;30.1292623;-3.29088283;17.50278979;97.19717428;0.094913777;-13.71768441;12.84804133;46.44077279;24.80193001;33.47408209;14.33260238;-38.86389327;9.958264963;28.61954817;48.9325711;-130.2099322;-8.931877627;29.76520445
-10.44182602;20.53271788;-2.681580691;11.29667007;92.69211168;0.057073156;-13.22696573;16.76645736;50.80463234;30.30684858;38.14141626;19.89616247;-35.62288371;12.37618113;24.76620371;54.43790448;-125.1069256;-7.956155236;28.41175855
-23.27620141;5.170225854;-2.207481626;1.311599363;83.64761093;0.105345645;-12.77867979;21.17714541;50.43946532;28.75181008;31.57613259;22.40130841;-33.05315357;14.2837227;23.33625247;68.89031192;-121.3910544;-5.170214753;28.2467844
-35.01890519;-0.364472318;1.788340219;-6.000607652;76.46367011;0.225946181;-12.74794194;24.49714108;48.59919179;24.51080349;13.02402089;20.03574525;-30.14769501;15.91426961;25.46332468;84.65349912;-117.4885797;-0.69222551;29.16043073
-36.91880185;13.29459998;12.98274307;-6.714306757;76.47126934;0.336689452;-13.15963025;27.36764874;50.06225299;24.24603413;-13.03133088;14.70500995;-25.22921538;18.06521718;29.36121955;93.23689027;-111.550184;3.963729519;30.4272773
-27.84750616;39.98047087;29.94290995;-2.319853955;83.85173412;0.374378407;-13.64439249;31.62857324;56.17369204;30.76514943;-38.2874043;10.88037636;-18.22629197;21.09340411;32.05719012;92.02547143;-104.5690671;7.318753432;31.23617273
-13.3194183;62.12071749;44.33420825;2.196530924;93.80721101;0.354573088;-13.75142768;37.85676471;61.77604239;40.68058411;-54.02321865;12.07834601;-11.26558617;24.23986458;31.99095623;86.06738675;-100.3214897;9.559960733;31.20641335
-0.241695761;65.28359672;45.03060965;3.024033081;100.548948;0.348546295;-13.35131203;43.9536838;57.5021169;47.72061939;-55.14446821;17.99370767;-7.08136358;25.94783302;30.10989783;83.13342667;-101.9271435;12.39108678;30.5417509
7.797267476;50.66255948;25.90039774;0.611604232;101.5589424;0.402930642;-12.76788653;46.42058406;36.8772523;48.40283795;-42.85871862;24.83945366;-6.860039063;25.00207753;28.61828551;86.37046691;-108.3796665;16.82262497;29.7772323
11.22685251;34.31226377;-8.459226855;-1.433167174;98.6768793;0.482909878;-12.50935368;43.44439753;3.215219871;44.82441572;-24.23023515;28.62677841;-9.54994007;21.60289853;28.73793286;91.27293886;-114.7038448;20.99746058;29.36799026
11.69377275;33.27824531;-43.8781583;-0.246701944;95.57350096;0.498227187;-12.82530598;37.03038068;-29.68435102;42.21161177;-8.399247934;28.49291215;-13.10157451;17.49063292;29.65226509;89.95660746;-116.0280277;20.68069214;29.43425867
9.237970162;50.40978284;-64.60054218;3.454961343;94.27332749;0.392090535;-13.47854856;31.99747518;-44.9907082;43.80397967;-1.418934249;27.1565284;-16.21907743;14.95237905;29.55320922;79.01874705;-111.9736296;12.79132024;29.79967594
2.376630743;71.25450865;-62.84382236;6.246351017;93.86340831;0.209438004;-13.9374259;32.33819772;-34.00148651;48.01571824;-2.956513438;28.18150065;-18.87561726;15.39332467;27.65867778;63.72147985;-107.1468615;-0.829885328;30.21655653
-9.221194427;76.22050654;-43.28565731;5.55784254;92.17104188;0.073702468;-13.82457325;37.89486263;-2.909580459;50.47506376;-7.228179607;32.5850314;-21.31652808;18.47752901;25.17953254;54.31492539;-106.9596147;-13.20187127;30.56146475
-22.5408783;57.81434635;-19.43611331;2.358411734;88.37380507;0.082298288;-13.23081685;44.25842173;30.39615806;48.77974776;-7.694607118;37.84765835;-22.94782103;22.4148822;24.28462794;57.47133818;-112.4213731;-16.68092126;30.86631167
-32.22616089;27.95330529;-4.685055639;0.290204172;83.85317931;0.209126223;-12.62244509;46.15573427;47.80777102;45.17126476;-2.171963699;40.14579315;-22.60595418;25.14914278;26.06362872;70.52859286;-118.7631071;-8.998486958;31.2175495
-34.38406075;8.605038969;-4.409453599;2.056126592;80.58238283;0.305362959;-12.43003906;41.59951147;42.61910977;44.35527939;5.542736897;37.72518555;-20.0925256;25.60487988;29.44251159;83.97375128;-119.4439926;4.309914082;31.6516503
-29.87868541;13.4209244;-14.27286379;6.558458336;78.90532663;0.210142569;-12.68572941;33.3722265;22.8279087;48.48906681;8.910429095;32.40510692;-17.22579748;24.17992851;32.08334646;90.09105414;-112.1368026;13.75262904;32.13323648
-23.90670636;36.098967;-24.99036564;9.637987242;77.18118642;-0.113304693;-13.02425412;26.66800766;3.982515999;54.3375802;4.276878001;28.00275557;-16.83308641;22.24673235;32.41699663;89.74275493;-101.2507511;13.36053425;32.59230202
-21.83135631;55.72104812;-29.29106195;7.86317719;73.84224866;-0.529155971;-13.03375572;24.97522084;-2.519286139;55.79345862;-5.684116632;27.23947518;-20.12948674;21.10643106;30.9184065;90.58939173;-94.46678143;5.603122225;32.941134
-24.69243963;54.76989113;-25.94478367;1.867382531;69.83901839;-0.814467317;-12.63026516;27.68872762;3.488808191;49.87099266;-13.70577745;29.88185961;-24.86927472;21.15886308;29.49678101;97.92309981;-96.14249307;-0.767006574;33.04263351
-28.3303121;34.44540025;-18.73249816;-3.966403345;68.79;-0.816370178;-12.1195803;31.28411636;13.47765076;40.63327923;-13.63786624;33.51882253;-26.42850332;21.83010057;29.66378089;106.6951678;-103.4261702;1.475674989;32.6954256
-27.04124262;13.9609097;-12.31402155;-5.342748309;74.17651055;-0.559090291;-11.90166405;32.69839242;19.28345642;36.88364678;-5.497128964;35.91267946;-21.46621531;22.22338136;31.23855816;103.1739547;-108.6748939;11.17371102;31.72368266
-18.70403787;14.1082178;-8.797821429;-1.984796431;85.80783232;-0.218646199;-12.09860232;31.73137274;20.38930708;44.89159328;4.450297592;36.63959121;-11.20795546;21.93448699;32.74109903;76.40010718;-106.1811041;19.17803556;30.16493593
-6.923426277;38.91813534;-7.376423551;1.962312463;98.80371328;0.010686035;-12.44989571;30.42385677;23.12325778;62.13359674;8.851077146;36.75248866;-1.256754876;21.36284611;32.96221494;30.19105605;-97.27247394;16.2554685;28.41470209
1.750895522;71.06506842;-6.388444271;1.534907772;106.3986375;0.049763055;-12.56579212;30.34560057;32.85202672;77.65576423;5.465388435;37.24623143;2.38672346;21.24833167;32.11293287;-15.46345043;-89.18262333;1.994301634;27.15137829
3.188864281;85.15138783;-5.340039063;-4.59786684;104.5973861;-0.034103518;-12.2970152;30.70395321;46.58028092;79.29933411;-0.885909502;38.08387796;-1.980039063;21.80956385;31.46677592;-36.67750389;-88.60247205;-13.31619018;26.99919895
-0.998798877;67.96237317;-5.077990441;-12.81417178;94.99557648;-0.11102111;-11.87425337;29.2774053;53.13887929;62.25130122;-2.488160706;38.60696559;-10.33800876;22.26831837;31.95175405;-22.96522867;-95.60724586;-16.29193178;28.11089302
-5.04713678;28.97719564;-6.423128057;-17.57158815;83.4910276;-0.10649582;-11.6879465;25.24935521;41.53777958;32.22878757;4.333972814;38.49;-16.17834793;21.33163816;33.17043947;14.29375342;-103.3848871;-1.7617913;29.98
-4.102151466;-7.341330716;-8.994051822;-16.15164147;75.95621411;-0.051597502;-11.91536796;20.9162141;10.77674763;1.07672047;15.42506005;37.9013332;-15.77987089;18.42044928;33.83094718;49.7;-104.0546126;21.81862758;31.68548198
1.700803903;-20.82205838;-11.4716898;-10.97043021;74.3402612;-0.029940587;-12.34542155;20.12875682;-27.24958039;-21.27635846;21.62767233;36.72714823;-11.0661954;14.64620245;33.09738346;62.34213421;-95.44326454;38.10926813;32.46536628
7.687569022;-10.54219975;-12.90200308;-7.467840272;76.11907793;-0.07921295;-12.56862826;24.53104515;-54.68049577;-32.02846995;16.16985338;34.16198849;-7.606469708;12.47214405;31.42948156;50.37613353;-82.85060821;35.76609198;32.23187467
9.094286377;6.2550065;-13.57091595;-9.443865682;77.11418456;-0.143063047;-12.35925813;31.16979987;-59.44018139;-34.4811888;0.549436526;29.78331446;-9.542561324;13.92622981;30.03635761;30.11178663;-74.33212193;17.96619483;31.6144184
5.400894628;9.430446565;-14.52987218;-15.84625337;75.026216;-0.120489473;-11.89394958;34.25615254;-42.99113058;-33.02137408;-16.11;25.3027611;-15.91387105;18.58349908;29.54655699;20.77110454;-73.7972489;0.225896872;31.42493257
0.572952735;-7.759995311;-16.33864424;-21.63726195;70.78832075;0.031019228;-11.59759266;30.15065759;-18.60046979;-29.37474189;-23.91074341;24.58030338;-21.58580269;23.16157346;29.36093723;27.89279334;-78.06382221;-2.373613949;31.88624823
-0.992077079;-34.38265481;-18.43464142;-21.83130485;67.00354185;0.234424493;-11.75064559;21.28379822;-2.061921152;-23.29327187;-19.71685324;30.45366263;-21.86957083;23.66061575;28.47060069;39.25233861;-80.30591413;11.67305482;32.21572269
1.003257078;-51.85546122;-19.8529744;-15.25516882;65.22087864;0.336406771;-12.21697174;15.02672707;-2.112948287;-15.94507574;-9.229744774;40.27614042;-16.63412133;18.90891561;26.94291333;36.3986997;-76.50556687;27.97261386;30.97820831
2.147842117;-48.90129139;-20.5211125;-5.122974695;64.50091823;0.226052472;-12.54827978;17.68972269;-16.94754885;-11.47831882;-1.997346212;44.69908197;-10.21467103;12.71245585;26.43625696;11.67112068;-68.89916271;27.4562643;27.0857875
-2.468290328;-29.08950179;-21.6197992;3.601191101;62.28500477;-0.069717185;-12.38043888;28.42819671;-37.68641444;-14.26729304;-3.628967558;32.88092892;-7.256926929;12.18668659;28.95649493;-23.89440432;-63.35540948;2.650419099;20.79066424
-12.86933113;-6.042160385;-24.38124568;7.549107504;56.54034226;-0.399033058;-11.76773092;38.65294268;-54.58702694;-24.18033242;-11.70386151;1.961292965;-8.320039063;22.50139317;34.8572806;-48.39349742;-63.36246826;-34.23842606;13.90570681
-22.72178742;8.056762324;-28.38461169;6.411316744;47.31819422;-0.603019461;-11.15052396;38.35606974;-61.21139821;-34.9514053;-18.56285753;-36.48993105;-9.251939364;41.45507342;42.01278574;-45.8804061;-66.48795044;-58.68549646;8.942562459
-23.70899668;10.46202104;-31.18696975;1.984515065;36.69373396;-0.645611882;-10.97844042;24.77095493;-55.22818442;-38.37339464;-18.25254695;-60.065157;-4.892895432;58.38063323;47.1133369;-18.18468613;-66.82081357;-51.73379815;7.613910146
-12.50919885;6.755998866;-30.0540138;-3.674079837;27.48497531;-0.647016926;-11.32104718;6.123031664;-37.94976929;-31.46767407;-11.4815427;-49.23609974;6.267447125;59.45460674;48.00863374;17.51387474;-61.17157761;-14.80882498;9.675699539
5.542019317;3.623904288;-24.49359635;-9.229005459;21.83367138;-0.787631498;-11.81127229;-3.420309949;-14.69137867;-20.2680836;-4.441196786;-2.45101396;20.67293005;36.81811794;44.96096783;42.31790228;-53.05247556;30.21198423;12.96571919
19.66435619;3.171396779;-17.21651854;-13.8479918;20.36233345;-1.154573306;-11.97064765;5.539044909;4.844069285;-16.08730982;-2.878798553;59.3;32.71274026;-4.583477727;39.73417488;48.48586641;-50.28780298;56.17313103;14.74053667
21.64911382;3.536377303;-12.27395414;-16.77503193;21.97613515;-1.652393793;-11.62641255;29.4228807;8.945483062;-26.58484236;-6.945860964;103.9642901;39.33336913;-47.8523985;33.65784662;41.4362463;-57.97783705;49.85930542;13.50686596
12.39405293;3.694115557;-11.64463136;-17.53835109;24.23803594;-2.051502897;-11.05244459;52.7886612;-9.972028024;-48.95787284;-11.44251787;109.3703233;42.09012013;-73.14433086;26.89160883;31.11298505;-73.0904912;20.9716916;10.1247069
1.532756982;6.430347287;-13.21322828;-16.39468674;24.4671118;-2.140078125;-10.71636886;58.58078109;-48.84992051;-71.36809994;-11.0399556;78.67104105;44.99170225;-69.40440526;19.77981313;22.11794381;-85.87792367;-5.607948811;7.368099036
0.139238669;15.95753774;-12.20526638;-13.92756709;21.51395749;-1.864361911;-10.86615327;40.15163592;-92.88477868;-81.93509642;-5.494714963;38.11153792;50.41503481;-41.0173696;14.63369385;11.91320569;-87.37836445;-8.22167904;8.136711132
12.07780477;32.64627183;-5.246469189;-9.622215733;17.29547113;-1.353098041;-11.32584161;6.094238926;-122.7653975;-78.02991446;0.067504283;17.79575359;56.9932116;-4.752720837;15.23984445;-2.314105698;-76.73102884;16.13121929;13.44853929
30.76050214;50.65621664;6.258456766;-0.879465861;16.51745761;-0.814763358;-11.67384195;-25.68865196;-126.5126703;-68.07682291;0.087080835;29.42038187;61.24659561;20.92723922;23.40224471;-16.28807746;-61.94867466;50.18461539;21.55425398
43.87290693;61.55948944;16.5014667;15.6752816;23.80232448;-0.395029685;-11.63089167;-40.12662192;-107.4129212;-64.3086351;-5.930039063;57.9312285;60.99970373;26.83920273;35.32326861;-19.38339641;-53.37644715;68.96011711;28.81955852
42.42838022;61.04363989;19.50545639;40.5699362;39.66040368;-0.106852518;-11.3024074;-34.30917697;-81.48954384;-72.61810419;-12.65078453;73.74626162;56.99681585;17.03906958;42.04851703;-3.8227233;-55.42278652;56.83345139;31.86719008
27.26513469;52.43961631;14.00755417;68.25055214;58.58736314;0.121545547;-11.06174233;-17.53531725;-65.87110424;-88.08635852;-13.83319983;56.28862333;51.20982437;3.799723183;35.3635613;26.29120339;-63.62268696;17.18343965;29.62770933
8.271846015;43.54636567;4.972607183;87.81375196;71.84171862;0.336663154;-11.19179994;-2.94;-66.93204018;-99.77796913;-8.438811861;10.63602869;44.01156989;-1.90872829;15.25791916;55.61859991;-69.3551705;-31.00511868;23.99027624
-2.706479195;39.51537537;0.249632771;88.82791089;73.90732886;0.49317993;-11.61927618;2.293999614;-77.54640225;-100.340713;-2.040073242;-35.60861311;33.82529385;2.751113908;-7.822372307;68.88232351;-67.7994254;-65.79548882;18.64727299
0.260151614;38.38466176;4.775890086;69.05897705;67.88520369;0.493164337;-11.98435343;0.811289271;-85.30231517;-91.91646291;-1.768130398;-52.67239565;20.30939336;12.68242841;-19.66182294;63.53046237;-61.96625141;-74.89724726;16.88565474
14.16019512;33.4528971;16.79461973;38.35450734;64.69581558;0.295164599;-11.97760425;0.999738463;-84.20693814;-83.36244758;-9.156537519;-30.32182892;7.909688614;20.63393089;-14.14496351;52.19;-59.28224036;-60.49140362;19.72380274
30.3801924;20.23586701;29.0543152;14.76236069;75.25830896;-0.010040703;-11.63147599;9.165734402;-79.3998898;-81.61022998;-17.67302588;15.59893771;5.100217405;23.14094145;-0.781932001;51.78568937;-63.92141665;-34.94735254;25.51384241
41.17685522;1.358996963;34.08914234;14.32404743;100.8569089;-0.236186468;-11.29724994;24.46294772;-80.6294268;-85.13686943;-17.92689274;56.05795146;18.02827348;21.99589057;-0.107025316;68.1923833;-71.86551722;-12.01069085;31.14177605
44.29069483;-15.34823153;29.55441962;40.90965754;129.5579663;-0.232113809;-11.32660799;40.04369903;-90.53821245;-85.43816681;-6.559995385;70.3069638;43.02729361;21.01730075;-28.33076531;89.969773;-73.22450176;0.353430329;33.9416855
42.86145684;-23.80608904;19.66272098;82.98776489;142.7909411;0.000367761;-11.74566622;48.6195627;-99.04487709;-75.05360948;9.101701676;59.19036537;65.14724617;21.87198103;-82.30051803;97.3739655;-59.95679331;1.958406312;33.06701359
41.66398834;-25.03057285;11.86067765;119.7118924;128.316074;0.306601971;-12.21586568;47.55022035;-90.24198232;-54.77270969;15.56163302;41.05146316;66.13636034;22.94444097;-137.500567;79.50755049;-32.51502928;-2.240148413;29.54111316
43.08540756;-25.64968817;11.45495262;132.4544086;90.04460768;0.506566035;-12.31804478;39.81945367;-57.02927786;-33.47509204;3.980682541;35.17096901;37.47887245;21.90529004;-162.8153042;44.86954782;-0.067223665;-6.50027323;25.16427448
45.70468475;-30.91638334;18.18234764;114.5227324;46.74279211;0.546743724;-11.90890535;31.09894015;-10.87023149;-20.79370708;-21.46554273;46.82950661;-11.3074785;19.00558023;-142.3995922;15.72944967;25.45796791;-7.587154099;21.20242372
45.85827233;-39.01496462;26.95037886;73.50113856;19.92116015;0.543114249;-11.23968275;25.97007813;23.08581416;-19.26445426;-45.15518762;65.33426558;-56.61869374;17.5581161;-88.11121789;10.52902719;36.31888096;-5.764307054;17.8172028
40.46258108;-42.49583639;31.78480041;25.80304867;19.74928776;0.66758165;-10.74225063;26.11333935;23.44146269;-22.96204499;-51.0463596;74.90048028;-75.44930231;20.94165093;-32.03760655;29.00040237;31.67376906;-3.683282396;14.5371137
29.05887903;-35.93237901;29.9220119;-12.34378322;39.53930685;0.966270804;-10.67902582;30.79182184;-10.61700166;-23.59597737;-34.67854489;68.12025437;-60.57277232;28.96310033;-3.780522297;52.61825507;15.23076348;-4.109795019;11.232766
14.18931702;-22.63044118;23.32689389;-32.07701978;62.55737174;1.269330672;-10.96012954;37.96294082;-56.96371915;-18.24178157;-6.465061796;50.95111322;-24.90959633;37.19408225;-9.501075589;60.01421821;-8.580486605;-7.708231814;8.680809066
0.418851319;-13.5285682;17.04049596;-34.08195121;75.14705332;1.289444708;-11.26809307;44.61665766;-85.61576718;-11.56052855;16.49414198;36.37593051;8.240922743;40.19892273;-28.95042516;44.28841075;-35.97685454;-12.15343144;8.164625608
-7.326814422;-18.40735462;15.85521454;-25.93849109;75.52467307;0.851632028;-11.35469214;46.72418706;-80.28467997;-10.67449488;23.454257;33.40141341;21.57351896;35.90494107;-32.82349842;17.74354726;-62.38813266;-13.3730675;10.38197626
-5.672775303;-36.91952693;21.50349569;-16.92053882;71.9260705;0.075046161;-11.23650461;40.23174234;-49.89510477;-17.82914518;17.32854592;40.8921956;14.30053401;27.1813592;-6.649218256;0.555249526;-81.44035722;-8.495915234;14.56309342
5.451755897;-57.77126783;31.79014606;-12.89133407;73.12728174;-0.65407448;-11.12962956;23.51298565;-21.16281046;-28.05652521;10.54631653;50.3669024;-0.574990845;19.16033696;37.81152359;3.592348655;-87.28131301;1.365499195;18.62389285
22.03105122;-67.46632198;41.81653356;-13.35067173;80.49413509;-0.92349807;-11.21146741;-0.392416467;-18.04544831;-34.26322985;13.41524522;53.88035407;-8.839141698;14.72271348;72.56677741;20.12447312;-79.23147977;10.78771574;20.40588367
37.11898163;-61.38326606;46.49927468;-11.89500259;88.38897513;-0.581721551;-11.44637872;-24.21741708;-43.91802191;-34.93427379;25.16;49.6168685;-6.543943016;12.28249424;76.33715047;32.86353075;-64.25114176;13.0271322;19.16484662
