Channel 1 - P4;Channel 2 - O2;Channel 3 - P8;Channel 4 - T8;Channel 5 - C4;Channel 6 - Cz;Channel 7 - Fz;Channel 8 - F4;Channel 9 - Fp2;Channel 10 - F8;Channel 11 - Fp1;Channel 12 - F7;Channel 13 - F3;Channel 14 - C3;Channel 15 - T7;Channel 16 - P7;Channel 17 - P3;Channel 18 - O1;Channel 19 - Pz
29.82204346;84.75236775;86.77467459;28.72440126;79.31958623;47.99553438;23.5391094;84.75698933;80.46245431;62.94431577;84.05884439;130.0856306;76.15484732;97.76444972;41.5233793;127.4861347;79.80776056;101.4537765;78.51206811
38.93560954;50.87804162;101.4899884;4.130150446;70.51796;48.07437664;1.864704834;81.57894842;93.69836367;51.25407835;112.4827927;112.3360177;84.43848439;91.34233994;16.98789874;109.6816969;66.90385174;103.2471888;76.84231755
25.13307967;-5.895732997;78.67139841;-16.04934393;42.55671745;30.21536114;-14.00264283;31.81730816;60.95519676;6.856888118;97.52528379;57.48572301;55.97397876;53.32680622;-10.63221018;49.67087321;29.87719305;67.68;47.55546083
-5.581262423;-64.20066462;32.29195464;-19.34200806;15.70024777;5.284766612;-14.39908425;-32.82858138;5.102788806;-44.14804748;54.61508542;-6.077692537;9.323662394;6.139067551;-24.52910229;-18.91718831;-10.79766111;16.72750753;8.555477937
-36.28669354;-102.4051498;-10.39566038;-6.282032145;7.095937247;-12.64303668;-1.119238035;-74.83550956;-38.08348565;-73.47945025;13.40450414;-46.4119163;-27.80827518;-24.59254501;-18.49149;-59.10669192;-34.9643345;-20.75288572;-18.22374576
-50.82640353;-111.1254269;-27.23346771;10.80598841;19.49445212;-15.67229278;14.93910444;-76.23941226;-44.96896628;-69.95272509;-3.205263145;-49.07867286;-37.02054225;-27.12716993;-0.478238888;-54.88857541;-35.87798312;-28.57892573;-21.35718022
-44.44992289;-97.43960646;-15.11153018;17.57087871;41.13073144;-6.458654276;22.52739186;-47.95026677;-18.82471056;-45.08614681;7.316345258;-24.97263564;-20.03721137;-9.722026032;14.3375163;-19.94770662;-22.59313278;-12.2202083;-5.983297389
-25.81676654;-78.41195447;10.2043601;8.234217306;55.97393784;5.146907341;18.14733217;-17.69895059;15.70837261;-21.86331742;29.43513756;-0.023915097;5.18378959;7.863414561;15.25749257;14.46956967;-10.91135458;8.307283951;12.21817157
-9.520078125;-69.02773112;27.284934;-10.88312154;55.86693443;10.01927287;7.501603854;-7.761824616;32.71558299;-16.58199886;43.84226983;4.591760212;19.06215451;10.08234163;3.405778988;22.57372871;-10.77498434;14.82741252;19.54901062
-5.3059771;-73.10267297;24.70721182;-26.98483267;45.34533318;6.003418437;-0.096511234;-20.16916819;23.50401504;-28.24244405;41.71634031;-13.32491349;14.25512919;-3.630477331;-10.47788847;0.879230015;-19.92332185;3.620575108;13.4618914
-12.09098821;-82.89611347;7.58996576;-30.61978527;36.28080053;-1.87044277;0.698545744;-39.42259392;0.014441583;-42.73770871;28.79405064;-38.16363925;-1.1358812;-20.46926958;-15.3521038;-32.38308127;-27.85021607;-14.59153372;2.08346507
-20.58768994;-86.54335497;-8.79992232;-22.00047918;37.52458535;-6.537018383;7.762823826;-48.08179134;-17.53977868;-46.71180638;18.13915892;-50.61461874;-12.08484619;-25.70877783;-8.551739092;-53.07282402;-25.7291936;-25.57065204;-4.177432631
-21.5662936;-77.13546437;-12.10127883;-9.470716493;48.07424801;-4.75323586;14.29893472;-41.1610757;-17.35955855;-38.73013347;18.94142756;-42.80218502;-9.124795854;-14.29152846;2.856085744;-49.29102253;-13.78206944;-23.4647733;-1.347116638
-12.88825091;-56.97893354;-1.901088782;-2.160932769;58.71671008;0.95582285;14.94163295;-28.06862733;-3.630451775;-28.8781836;30.28234087;-22.91087303;5.064893075;6.23594128;8.529747087;-28.69146226;-0.489015556;-14.16201006;5.960297921
-0.169221824;-34.88440007;11.66923215;-3.094945459;59.99179718;5.236785946;9.896465636;-22.31931181;9.658143059;-28.41629046;43.49964758;-6.963202021;19.19445714;22.65567141;3.464307953;-11.00039233;4.890977204;-8.488346067;9.776738361
8.596579245;-19.5403753;17.38124453;-7.978345355;49.57359874;4.711992743;4.022913612;-29.21813939;11.74138398;-39.39189044;49.75945904;-5.547501595;22.99176342;26.38600213;-8.191137093;-12.81229162;-0.185846764;-12.05325003;6.162544647
9.508662364;-14.22669117;11.94170587;-9.892725467;33.32167039;0.505918787;2.223675535;-42.14856678;3.37744467;-53.3312065;46.29209986;-16.38516895;14.7067949;18.84804949;-16.80003906;-36.3305128;-10.07167852;-20.60563978;-1.663653494
5.150970196;-16.18424937;1.449736623;-5.448214996;19.85289482;-3.291367031;5.364427091;-49.64047188;-5.824693155;-59.56091921;37.07148587;-27.87276111;1.00857969;8.456014744;-15.01251279;-69.38133999;-16.08455668;-24.34841369;-6.645648937
1.582287121;-19.99646293;-4.950402259;2.725353861;13.64946672;-3.457570387;10.03842306;-45.99995874;-7.334345673;-55.18389659;28.64582423;-29.50377916;-9.498012002;2.801431145;-3.295011167;-95.08569916;-13.54265705;-16.8592491;-4.252932127
3.059126773;-21.63930266;-3.04401539;8.781897792;12.3540637;-0.293577141;11.93835306;-35.94950807;-1.378057354;-47.63437465;25.12724162;-20.05055316;-13.03374202;2.921194279;10.90878963;-103.1197658;-4.909011656;-0.726893633;3.764743728
9.038070973;-20.19431867;3.696039433;8.925568172;9.929787235;3.01280564;9.614035968;-29.76148001;4.229809319;-47.67722205;25.98515715;-7.200803605;-12.25714653;3.927822602;19.23;-94.76593136;2.996779421;14.65977261;11.19889141
15.56445342;-16.73327191;8.300553255;4.55283353;2.430816288;3.434863006;5.409583224;-33.87384091;2.311845903;-59.30223372;27.47394337;0.029487512;-12.3067082;0.525352365;18.53539838;-79.62869146;4.806664763;20.83902987;12.80696934
19.26320264;-12.18929572;7.07233798;0.81985767;-8.665519555;0.727674651;3.079821509;-45.46832962;-6.374644029;-75.61930287;25.94201914;-0.982287493;-15.53996565;-7.909690517;12.46556957;-67.95552993;0.464873811;16.75649192;8.50152647
20.1736672;-6.353118259;2.717664772;2.147391205;-18.1044277;-2.586571358;4.444591242;-55.39978788;-13.48065827;-84.43283955;20.58846013;-5.05094384;-19.72510529;-16.98103858;7.649378848;-64.58;-5.641158995;8.783013724;2.905996619
21.08198251;1.382086038;1.302934384;8.584410044;-21.65279333;-3.624071938;8.021997309;-56.32920669;-10.59003906;-78.62044516;14.17538097;-4.59099858;-20.80271711;-21.44732124;8.092499416;-67.95545294;-8.901213555;4.830368008;1.05571238
24.30420125;10.64064275;6.145159894;15.96423305;-19.75984252;-1.662652042;10.61081033;-48.68872265;2.990762414;-62.2947009;11.52029859;3.429953615;-17.15189663;-19.852574;12.30143015;-73.41798028;-8.161129398;7.955646006;4.18830885
29.08090684;19.60512059;14.33756634;19.47146401;-17.07731878;1.399878544;10.18395747;-39.56;19.17900247;-47.48573031;16.50914624;15.08538222;-11.26231246;-15.53738277;15.09382262;-77.22409518;-5.95592596;14.75110488;9.13651441
32.02033648;26.00680904;19.0503246;17.47841339;-18.49799942;2.879687818;7.492256895;-36.02874379;27.69413102;-44.30137135;28.96476556;23.31233519;-7.440415975;-13.43467254;12.17411869;-78.4462953;-5.640636566;19.28434086;11.47731933
30.16697624;28.70102002;15.50899903;12.51728443;-25.19179389;1.669851196;5.130372448;-39.1817927;24.46355452;-53.0023616;43.13157615;24.17659429;-7.913993461;-15.74138342;3.589216035;-78.24511197;-8.30067932;18.59675015;9.401000358
23.87913625;28.46233521;5.328387589;8.819122762;-33.85890607;-0.944148284;5.113092079;-43.82922724;14.62489772;-64.54646194;49.34058634;20.00754991;-11.01825698;-20.28291145;-6.529379943;-78.02941477;-12.12194369;14.85897562;4.9391165
16.86234906;27.35962985;-4.5921915;8.692894405;-39.56096061;-2.592133146;7.19170424;-43.67040892;7.782451087;-68.75724336;38.96398871;16.95273447;-13.02707617;-22.77575242;-13.34275464;-78.24025243;-14.45513574;12.67631792;1.764072451
13.22494997;27.27043764;-7.618600844;10.79874692;-39.59391399;-1.948392577;9.292495994;-36.96993243;9.879729515;-62.8763721;10.37149473;19.47737917;-11.76655124;-20.75135018;-14.83857707;-78.36042196;-14.44545942;14.44305655;1.794763208
14.05603289;28.71581986;-2.594990858;11.59833786;-35.28193122;0.223137608;9.497377228;-27.82485608;18.69899035;-53.28420006;-28.0597782;26.74953307;-8.599568702;-15.6460921;-12.78649461;-77.60651328;-13.81771696;18.13620352;3.677695472
16.4775995;30.80416421;5.620290929;8.566684551;-30.54035654;1.920053711;7.705806835;-22.36358755;26.50483737;-49.33723578;-60.88341637;33.82617557;-7.016725615;-11.39688077;-10.72877762;-75.50904056;-15.23241678;19.41677033;4.318845475
16.0168752;32.12070775;10.50999185;2.391314374;-28.72295782;1.75073603;5.564543399;-23.64349597;27.04498375;-55.04490534;-73.77657297;36.18200148;-9.267460983;-10.99892184;-10.9874295;-72.07724893;-19.79621466;15.87629788;1.875608456
10.31309998;31.73176726;9.235033832;-3.614070684;-30.41139244;0.088448637;4.884485304;-29.74171182;20.60285919;-65.87047276;-62.20053901;33.37241255;-14.23066173;-14.11450645;-13.17419017;-67.73555174;-25.94040659;9.414697186;-2.549350836
1.049782783;29.570683;4.446473144;-6.262830544;-33.68623952;-1.419660701;6.058620678;-36.27069426;12.9463781;-73.18136313;-34.57545606;28.76480238;-18.48871715;-17.68595537;-15.15194708;-63.2443112;-30.57439325;4.60349015;-5.940929914
-7.46477259;26.12122219;1.328416823;-5.053515054;-36.22442912;-1.422893869;7.856519397;-40.53831588;9.629631751;-72.14911125;-7.276701081;26.00703237;-19.55319727;-18.78852165;-15.28892264;-59.56188649;-31.44505265;4.618481837;-6.070187999
-11.79078043;21.88854313;2.759092732;-2.455465978;-37.21547215;-0.045873838;8.647291252;-43.43085149;11.07068783;-66.06598849;5.534413416;25.7365237;-18.20442983;-17.10833924;-13.93374869;-57.52314738;-28.69857876;8.481547056;-3.399934961
-11.9188376;17.1890179;6.891822084;-1.802697825;-37.56855514;1.338920175;7.853522878;-47.5832998;12.75897158;-63.37669651;0.345353422;25.50689831;-17.75319387;-14.96228076;-12.92446976;-57.4419211;-24.43711244;12.0557962;-0.576765435
-10.76308866;12.35589301;9.093998285;-4.618635049;-38.55109871;1.44138435;6.346868165;-53.96341726;10.06508846;-70.11644241;-14.78985978;22.71861557;-20.89152737;-15.04758936;-13.71447359;-58.97320135;-20.7887714;11.7863647;-0.083625698
-11.1460863;7.999069413;6.288822525;-9.547333687;-40.31047982;0.224349755;5.538627467;-60.3148869;2.974985429;-84.31530933;-27.1451341;17.54265634;-27.03118394;-18.0367119;-15.82265191;-61.43239158;-18.18150838;7.752227922;-2.180346911
-13.0243456;4.894819438;-0.231768369;-13.64184307;-41.63223913;-1.124208503;6.082822714;-62.93971704;-3.667111305;-97.08680861;-28.632297;12.96925395;-32.59998614;-22.09332758;-16.94323332;-64.32448706;-15.22806525;3.339893198;-4.869821163
-13.47878164;3.459026203;-5.912045076;-14.81835725;-41.04390229;-1.324418498;7.365168278;-60.06946213;-4.55989514;-99.37814326;-20.64775034;11.94906578;-34.08360405;-24.5710788;-14.62209873;-67.55673236;-10.23295387;1.988916229;-5.769262262
-9.531622298;3.232038668;-6.816853921;-13.42751702;-38.18338666;-0.170226465;8.155977168;-53.62650886;1.133774722;-88.73904256;-11.3780461;14.40616525;-31.10480437;-24.26578866;-8.159641142;-71.07074656;-3.008234419;4.083075842;-4.150078125
-1.28145435;2.93697839;-2.816343612;-11.74656084;-34.22443206;1.315022074;7.74963574;-47.75079739;8.89052988;-70.76367791;-8.423908683;17.06157143;-26.77518796;-22.25233132;0.700650594;-74.25754237;4.541716402;6.814143248;-1.408681131
7.556365481;1.290266752;2.597680363;-11.95843433;-31.07139702;1.822283852;6.546590415;-45.47227668;12.77414206;-54.51648696;-12.9173214;16.37872924;-24.97787707;-20.71319519;8.735760934;-75.88159674;9.626086551;7.033288672;0.28553025
12.41677319;-1.910620348;5.461708176;-14.36684451;-30.09163828;0.910741508;5.615472697;-46.52887193;10.6267827;-46.09765013;-19.53631625;11.97571956;-26.96751315;-20.93580587;13.08325458;-74.87025031;10.72703247;4.350410531;-0.149688208
11.70840091;-5.300987956;4.535931511;-17.2738556;-31.42652419;-0.653943443;5.707396024;-48.15538669;5.798780296;-45.51784774;-21.72;7.302895143;-30.28162472;-22.26901076;12.69321264;-71.45011304;9.096103168;1.55668671;-1.953280434
8.316669106;-6.676970335;1.823080716;-18.48158463;-34.27981844;-1.627415072;6.630879313;-47.91;3.876102357;-48.74259877;-17.29543046;6.801057752;-30.92652807;-22.85653368;8.603923246;-67.54187322;8.352876959;1.959065265;-3.371570228
7.243269222;-4.661575907;0.254818374;-17.05271788;-37.70613091;-1.381280375;7.498434164;-45.85147592;7.398003925;-52.30975146;-9.87693652;11.96222167;-26.94408729;-21.37423567;3.161700512;-65.72154099;12.22999539;6.095718498;-3.197009117
11.20322793;-0.117304357;0.901733336;-13.86679352;-41.11745269;-0.388404622;7.550264652;-44.16919392;13.36580288;-56.1742509;-5.322406471;19.7970359;-20.28597245;-18.20387814;-1.113532901;-67.24745881;21.83638506;10.90763972;-1.605511533
18.01206468;4.030921154;2.285756362;-10.64296805;-44.18816412;0.280755983;6.788656862;-44.83464769;15.82234598;-62.59024706;-6.673809325;25.15325089;-15.40629721;-15.08788305;-2.397797065;-70.66141366;34.30011495;12.22359007;0.307748198
22.34039791;4.902968411;2.244752755;-8.429196907;-46.53313651;-0.059147223;5.896312512;-47.63105545;11.21764662;-72.64707981;-11.93820306;24.93838207;-15.78492803;-13.67815273;-0.013292827;-72.32051238;43.91870858;8.394919404;1.674003864
20.70084191;2.422191805;0.382347207;-6.930640905;-47.74721877;-1.138246597;5.582679977;-50.41462809;1.763979302;-84.06;-16.28164279;20.59839538;-21.27670596;-14.2803863;5.386343721;-68.83098394;45.36274343;1.836734116;2.536746806
15.41439069;0.439572047;-1.333031285;-5.190575617;-47.923648;-2.039057761;5.977955989;-51.24732214;-6.241669046;-92.39564819;-16.37506337;16.72112202;-28.36775493;-15.79535571;11.84389891;-59.75390999;37.02049012;-2.927518858;3.510029297
13.61722547;4.628443267;-0.410812751;-2.858709999;-48.10333148;-2.043936934;6.58542144;-50.26084555;-7.684093815;-94.61105941;-13.05126778;17.03331043;-32.92739596;-16.74943951;16.55799559;-48.47600366;22.25390737;-3.017473843;4.879524792
21.25320705;17.87003906;3.66371439;-0.752214203;-49.9572059;-1.23846023;6.769364397;-49.42526074;-2.861367125;-91.67375778;-10.21852393;21.33122511;-33.07286861;-16.42212878;16.97350118;-40.32350825;7.535179419;0.537231592;6.118043694
36.50693396;36.26387024;8.728391337;-0.11451552;-54.61430074;-0.3640838;6.305690289;-50.45173362;3.022903129;-87.8964359;-11.3006196;26.01543653;-29.92745114;-15.14812307;12.2257276;-39.05048644;-1.499467944;3.948977303;6.322611465
48.44568047;49.35128666;11.819426;-1.263851142;-61.42637263;-0.115163631;5.52894945;-52.87948629;4.61984966;-87.54178735;-16.38916161;27.66708914;-26.02969283;-13.71953399;4.086820162;-44.18439802;-3.489300955;4.134838227;5.145887302
43.21197409;45.70090973;11.94703487;-2.995240615;-67.78280026;-0.548781883;5.006630326;-54.25778863;1.213035329;-91.55575213;-22.34884082;26.37821883;-23.09937545;-12.60340152;-3.494759697;-51.24553262;-1.862837857;1.375623696;3.298693844
14.20544411;20.95913015;11.15762869;-3.477656872;-70.44186841;-1.118596801;5.069202548;-52.36722613;-2.722242584;-97.03914384;-25.43429717;25.75482727;-21.12767822;-11.72785765;-6.417059246;-54.82788507;-1.972625857;-1.142039555;2.097758467
-31.12117159;-17.21339699;12.76535895;-1.971191671;-67.64459262;-1.244275306;5.590019531;-47.47138065;-1.676120854;-99.66581769;-24.01804363;29.47714997;-19.29094933;-10.92868133;-2.998462873;-52.41696473;-6.862019483;-0.374491607;2.427300874
-73.6190822;-51.72019984;18.23966515;0.2349761;-60.49177491;-0.854934788;6.14366717;-42.47615665;5.704146949;-96.89955203;-19.32722815;37.41461919;-17.46668526;-10.46982325;4.600991889;-46.21286143;-14.799231;3.760342603;4.029851674
-93.41;-65.6464644;25.56262566;0.75188435;-52.42233918;-0.412988595;6.352151388;-40.72471255;15.01782879;-89.49855929;-14.0475093;44.80303259;-16.72456688;-11.00068468;11.33658185;-41.60751559;-20.51450094;8.31825927;5.744479737
-82.42449703;-53.07694772;30.65160089;-1.662289348;-46.9753081;-0.43360633;6.126623581;-43.29260184;19.62014951;-80.48498927;-10.34794302;45.42557538;-18.3234344;-12.9081837;12.32305434;-43.34144692;-19.31069826;9.979015672;6.463723281
-49.7909122;-23.57589968;30.71191246;-5.455753067;-45.36077234;-0.975006815;5.658462474;-48.13174033;16.28235555;-72.82998023;-8.925442606;36.31017914;-22.26843028;-15.67383632;6.114623064;-52.01647334;-10.95118426;7.916532699;5.967732149
-16.06263725;3.406212176;26.58729026;-6.940369092;-45.63334567;-1.573536179;5.232112847;-51.8046484;8.126522165;-67.80606066;-9.364435962;20.12090268;-26.91579516;-17.92587074;-4.043912194;-63.39224093;-0.279798461;4.280415315;4.953980098
-0.098621584;10.91932761;21.98068376;-3.133356146;-44.16183999;-1.665839455;5.030714882;-52.29258348;2.257935948;-64.95985396;-10.91549343;3.313485941;-30.09707424;-18.29231628;-12.06029494;-70.95393403;6.026559224;1.9677271;4.328700268
-7.621861536;-4.722092707;20.17949046;5.337705441;-38.39307333;-1.095589988;5.050984298;-50.45677896;4.051344266;-63.1347441;-12.79853488;-8.400355437;-30.78184177;-16.4315348;-12.89794751;-70.00250021;4.174516101;1.898183043;4.456948385
-29.15770993;-32.36585868;21.19708465;13.80670232;-28.8974792;-0.246350664;5.137124492;-48.95538675;12.90429661;-61.34025472;-14.05824779;-13.63738805;-29.78969774;-13.39564635;-5.972147883;-60.53694967;-4.140058594;2.416963579;5.023925431
-48.19117958;-54.64412172;21.95257581;16.42356934;-19.16399511;0.299067883;5.085746283;-49.65516532;22.99757555;-58.87199087;-13.66657152;-15.31791167;-28.94984927;-10.9793815;4.323283571;-47.08823729;-13.19771972;1.354426509;5.530697631
-53.12522296;-60.29561236;19.41695598;10.45200087;-13.25953138;0.247729117;4.77104989;-51.85168022;28.30946953;-55.06993516;-11.21693786;-17.47410129;-29.52587287;-10.51221999;11.41742871;-35.73945577;-17.58478895;-1.350073242;5.853921005
-44.34615098;-51.03516159;13.90066136;-1.236417882;-13.05160868;-0.197512679;4.240048828;-52.84520621;27.51934943;-49.39693591;-7.629762772;-21.83919437;-31.34220481;-11.99771267;10.84442953;-30.38393029;-15.98928029;-3.185917575;6.294445785
-31.90348629;-38.19403268;9.347162233;-11.59465188;-17.00639772;-0.564569818;3.716500738;-50.33870273;24.6085411;-41.93126366;-4.920788906;-27.0106917;-33.32124394;-14.2310678;3.103010881;-30.64837855;-11.6070288;-1.453353271;7.097068664
-26.54332676;-32.42749059;10.05128297;-13.95710041;-21.37882786;-0.531650309;3.475845166;-44.56432408;24.76220159;-33.67347442;-4.840760302;-30.49289249;-34.78955404;-15.76754334;-6.826848819;-32.68530734;-9.101761084;3.685209781;7.983198668
-31.49253842;-35.15522703;16.50585868;-6.464780997;-22.82888386;-0.15998077;3.643864065;-38.31904396;29.31200964;-26.11255636;-7.403567557;-31.41286852;-36.22145669;-15.9809646;-12.8950592;-32.11419219;-10.80508483;8.586013227;8.249104128
-41.10546822;-38.70366975;24.17720513;6.878139439;-20.49739394;0.23079919;4.068121748;-34.88760708;34.34239829;-20.27164183;-10.69865046;-31.35044522;-38.68757224;-15.4265376;-11.89753511;-27.0563811;-15.28816386;8.968324284;7.425481609
-46.63610995;-34.6813861;26.75882543;19.20619977;-16.09827761;0.379471362;4.399756121;-35.56933107;34.39099555;-16.10927406;-12.37206441;-32.67647485;-42.56657936;-15.28964353;-5.228276669;-19.28908858;-19.28581714;3.932666934;5.898523456
-43.8270437;-23.04437954;21.57703069;25.47104672;-12.17106761;0.281688237;4.363905849;-38.76584632;28.09287012;-12.90920915;-11.59717439;-36.14866131;-46.82048907;-16.39638938;2.558255361;-12.89941164;-21.07551208;-2.6150723;4.839520673
-36.04854988;-13.56402066;12.5975108;25.27139053;-10.00609654;0.115555518;4.00851951;-41.23503101;20.60245741;-10.30579871;-9.753302663;-40.1115497;-49.62;-18.55549642;7.120180759;-11.49468322;-22.24874839;-4.915642246;5.36659232
-30.81357476;-17.82695893;7.99718166;21.97371798;-8.843861615;0.018844296;3.693974369;-40.39621856;20.05748729;-8.85739279;-9.097155027;-42.03;-49.82290747;-20.70690017;7.135572975;-15.90786278;-26.3035104;-0.521044455;7.569775854
-33.03253096;-38.27;13.55971558;19.30480976;-6.770160501;-0.033218642;3.790153903;-35.89551735;30.38340007;-9.431916711;-10.56278282;-40.84556573;-47.96498111;-21.72951411;4.663321031;-23.88142438;-35.30168623;6.895017892;10.22913283
-40.81051143;-63.98050309;26.84371972;18.47870259;-2.32383006;-0.136054823;4.326341856;-29.42627384;46.24240267;-11.87524966;-12.7272696;-37.89632316;-45.8283816;-21.2848982;3.082920621;-31.77935064;-47.53548781;10.07868107;11.53888523
-47.14925869;-77.97996215;37.04407899;18.1370601;4.613860423;-0.275854908;4.92477606;-23.24091537;54.85028817;-14.3279445;-12.98948471;-35.55578238;-44.93262586;-20.07631635;4.348733854;-36.97034666;-58.28481973;4.527818383;10.33793018
-45.87486795;-71.18459258;31.45547167;16.72264001;13.25310901;-0.282133359;5.120550186;-18.66468662;44.28785276;-14.151258;-9.955806734;-34.95252218;-45.28184391;-19.35036286;7.58931776;-39.12023475;-63.09290312;-6.674217328;6.920925275
-36.73450055;-51.94847326;4.390156454;14.74746015;22.96187279;0.011282453;4.806141591;-15.64398429;12.68351694;-9.946290372;-4.819264616;-35.02305192;-45.47584275;-20.01832474;9.89405968;-39.50730816;-60.83781186;-14.22798412;2.822227194
-25.55523049;-42.56447978;-37.79031349;14.64687585;33.71337772;0.552910355;4.380961555;-13.36209391;-28.59996536;-2.946607937;-0.366360196;-33.85881139;-44.06399452;-22.03468556;8.485613933;-39.01070376;-54.06958895;-10.01499409;-0.239294925
-19.603566;-63.89335146;-79.38224176;18.27540477;45.36434625;1.04281826;4.42110769;-11.15938717;-60.69967242;3.626739243;1.55105842;-31.04364318;-40.90951262;-24.46875834;2.620068359;-36.50554212;-46.42577303;5.015608974;-1.445334242
-22.14908132;-118.9075529;-104.2178243;24.434472;56.52499333;1.155363347;5.132100127;-8.981140917;-68.49180403;6.945973709;1.725866402;-28.60905404;-37.34318444;-26.19546136;-6.010574794;-29.19560428;-39.40693701;19.23894359;-1.220831691
-30.57843128;-187.6434881;-104.7960158;28.97027461;64.43408597;0.833206985;6.093050504;-7.168736298;-49.85489409;6.759017327;2.800516881;-29.45407973;-34.99231496;-26.67752554;-14.39416877;-14.98737768;-31.28538649;17.40108553;-0.684861939
-39.18603024;-238.1393091;-85.67111836;27.73335443;66.50879782;0.376962811;6.577735525;-5.983447865;-16.71555697;5.446150621;6.606536135;-34.52285288;-34.35398752;-26.24061833;-19.87082713;4.666729617;-19.04713353;-8.163798942;-0.735202579
-43.89349117;-246.2315918;-59.27821433;20.02078271;62.63541186;0.223562534;6.209720617;-5.350148981;12.70378432;5.814415443;12.12275597;-41.4080428;-34.37722018;-25.61731902;-21.28247478;23.70934154;-1.655263463;-50.4904226;-1.489626031
-44.87520468;-210.4950703;-37.63139524;9.458341046;56.2327056;0.588816139;5.356829045;-4.983672736;25.04035637;8.543420734;16.09824405;-45.94137944;-33.38190358;-25.09874679;-19.13271387;33.51847673;18.20759005;-90.94354103;-2.427142742
-45.24515756;-152.1443391;-25.82077839;1.336204937;52.74223964;1.282891664;4.857170548;-4.698016025;18.91581873;11.61663301;15.95174944;-45.61015292;-30.45435925;-23.97251116;-14.99516881;27.3105109;35.48074743;-110.7377401;-2.982196424
-47.47734122;-100.6046536;-21.33068392;-1.522848193;56.18116554;1.862207534;5.270105898;-4.596850215;3.781102859;12.3553928;12.34085167;-41.7692761;-26.09467198;-20.76631369;-10.68638664;4.368338588;46.13701619;-103.0456727;-3.034085051
-50.99085103;-75.40699882;-18.61089644;-0.898095177;66.16187826;1.98589058;6.321125483;-4.992287017;-7.8666107;10.26551944;8.921571022;-38.45488381;-21.63585561;-14.23624991;-7.561264088;-28.68;49.93990232;-77.05953528;-2.909767601
-52.9562612;-76.77532364;-14.63956984;-1.439945454;77.75886969;1.668053636;7.088236909;-6.101699013;-8.944314227;7.998366289;9.309835066;-38.60065626;-18.07705586;-4.445869109;-6.052227916;-60.66792922;50.36360846;-51.18943679;-2.974405137
-51.30012603;-90.00230212;-11.07890303;-6.489807846;84.59218923;1.218275092;6.819415885;-7.697034558;-1.187453706;9.273103971;13.88502716;-40.99337489;-15.43204543;6.867016646;-5.529715955;-81.37938715;51.77899155;-40.47741377;-3.218403674
-46.93052277;-98.49625086;-11.82876585;-15.01328525;82.99223253;0.945380373;5.658838469;-8.933918492;8.030255262;15.36015754;19.36899294;-40.95902519;-13.11030894;16.98973538;-4.623833963;-86.55184126;56.1370301;-47.28791557;-3.210510035
-43.06111539;-95.02654612;-18.59068372;-22.30773439;74.15222274;0.903246067;4.584325067;-8.583311355;12.16360036;23.24476924;21.67641641;-34.57878594;-10.82547117;23.60443917;-2.035322328;-79.44300432;61.66934148;-61.51431468;-2.451026763
-42.27882136;-83.65876891;-28.46190654;-23.9133847;62.65244292;0.899871934;4.550612229;-5.745183174;10.05598221;27.38957433;19.52362916;-22.86400326;-9.051831638;25.93398706;2.499538784;-68.14079828;64.45115325;-69.29707238;-0.827237136
-44.1062234;-72.96450806;-35.65109813;-19.37165886;52.56753787;0.735240393;5.587555832;-0.777165853;5.537071668;23.97459849;15.50053332;-11.86773747;-8.55365486;24.91368127;7.740019531;-60.44495116;61.46710923;-63.22493135;1.197717327
-45.35345131;-67.531499;-35.87911778;-12.57527907;44.28779764;0.423153536;6.705166073;4.212078287;3.177797604;14.20065243;13.58151588;-7.92894845;-9.474913476;22.33350757;11.4710743;-59.57367772;52.81777286;-46.6040953;2.815553366
-42.98993401;-64.84038872;-29.80417466;-8.395918493;34.60417071;0.181050183;6.759024146;5.978681368;4.167076085;3.774357894;15.36152007;-11.64273584;-10.9479811;19.62041797;11.86670955;-63.22758135;41.55647227;-29.49055247;3.363415689
-36.94442726;-59.03569981;-22.62382949;-8.520861452;19.94811356;0.204373625;5.531422328;1.929583737;5.709292778;-1.252029142;18.5692063;-15.91061232;-11.69280202;17.13407168;8.800674393;-66.2187923;31.52335117;-20.47807209;2.737176716
-30.26738827;-47.16566153;-20.1077602;-10.14209667;0.087349867;0.45254032;4.022096516;-7.854147261;4.098858536;0.94687353;19.34494844;-10.65601554;-11.09975378;14.39105332;4.094779609;-64.5630554;24.93587956;-20.85836093;1.455004065
-26.44037474;-32.003668;-24.16610043;-8.666405458;-20.81809647;0.662006605;3.612386614;-19.88120829;-1.490351197;6.664909443;16.19469813;8.643034593;-9.771057432;10.89472155;0.397602334;-58.18596736;21.44116106;-25.11124592;0.338030705
-26.18524262;-19.27104049;-31.40112186;-2.088050329;-36.75844145;0.582285922;4.802638038;-28.79539322;-7.919451574;9.690817401;11.7914431;35.19507957;-8.960561617;6.822941654;-0.569970168;-50.61740266;19.0698545;-26.35703591;0.021017938
-26.61803282;-12.2658114;-35.71876654;6.83085521;-44.04847191;0.214335973;6.673935109;-30.6341491;-10.66659504;6.197577672;10.66909375;53.20014417;-9.384904786;3.029190337;0.87251305;-46.25857715;16.13467219;-21.82396647;0.606372424
-23.56884464;-8.989006749;-32.92619593;12.55822163;-43.84673797;-0.17616863;7.627447631;-25.710561;-7.827149768;-2.470235349;14.75613078;47.70863284;-10.50635543;0.431642899;2.712980793;-47.39122878;12.59169994;-14.12249372;1.675187668
-15.13490853;-4.308957996;-23.79177502;11.32148274;-41.08046952;-0.289183087;6.799544243;-18.87325341;-2.033205274;-11.2933471;20.99387385;15.50745621;-10.99323411;-0.641615007;2.75592437;-53.0005555;9.956122206;-8.054738205;2.63271311
-3.460354638;4.933311575;-13.35352694;4.287285735;-40.7146332;-0.055521243;4.884732922;-16.53794943;1.459855303;-15.99121342;23.63176914;-30.95519858;-9.98279252;-0.613842938;0.119794672;-59.93585653;9.975512922;-6.283869452;3.139215605
6.745412243;16.53696441;-7.196488614;-3.364115078;-44.34122618;0.303977372;3.573733299;-22.28402189;-0.981046756;-16.63673239;19.46712601;-70.04801357;-7.995269046;-0.267785485;-4.364159399;-65.20775146;13.10268081;-7.590779669;3.312318994
11.68424917;24.31015887;-7.634622872;-6.699657719;-49.64260522;0.47525009;4.05336995;-34.11736391;-8.301577269;-17.52060801;11.24701525;-83.89276082;-6.609863973;-0.207474868;-8.993833774;-67.61126478;17.88313995;-8.730794958;3.545182919
11.07281482;23.03546567;-12.56948496;-4.992245273;-52.84905813;0.320279946;5.905719214;-45.52069704;-15.4553307;-23.46331215;5.732658277;-69.06030053;-7.102754885;-0.624075851;-12.44394805;-67.69844565;21.72513042;-7.708603953;4.076126607
7.874724169;12.82052626;-17.54693526;-2.020739403;-51.94571429;-0.023431387;7.438090829;-49.70267009;-17.33050042;-35.63705091;7.719856176;-37.80407765;-9.191329418;-1.443071854;-14.39362006;-66.57905531;22.59411052;-5.362002435;4.661426872
5.645394462;-0.747706338;-19.09632625;-2.530078125;-48.01079482;-0.29034238;7.197129977;-44.04388532;-12.69410126;-50.221811;15.36039715;-9.263171355;-10.97771378;-2.538506196;-15.19683545;-64.86070311;20.51786157;-4.026875841;4.657881386
5.869321859;-10.63933197;-16.72236222;-7.972624151;-43.85820535;-0.330350498;5.312347919;-31.54775555;-4.933953227;-60.81928487;21.48285772;2.999704761;-10.18259803;-3.687403983;-15.14047615;-62.62799966;17.80292786;-4.831871298;3.511571384
7.409619162;-13.22258532;-12.32385975;-15.21886599;-41.47199993;-0.220657094;3.416839889;-18.36155575;0.939731288;-62.60284369;20.37437413;-1.433279819;-5.696199459;-4.310919258;-14.09783668;-60.18823958;17.61256606;-6.321396041;1.294908073
8.168320253;-10.13146467;-8.005627018;-19.29721746;-40.57796086;-0.157681294;3.166156169;-9.395530764;2.455482751;-55.08478146;14.11666395;-11.77917142;1.733833178;-3.410383941;-11.84779235;-58.50801257;21.67240346;-5.727596238;-1.166686475
7.171454573;-6.070304106;-4.376560205;-17.71869031;-39.4756702;-0.253892578;4.68529258;-5.396196957;1.499110799;-41.80572876;12.13190562;-15.19898454;10.07961431;-0.038939462;-8.582775237;-58.59200009;28.65068585;-1.689562563;-2.757620294
5.181528731;-4.769440686;-0.673873181;-12.61484679;-37.14913374;-0.444607701;6.396964078;-3.499205617;2.319008805;-27.74827811;23.1026783;-6.058173823;17.25544149;5.857144565;-4.942778431;-60.21496063;34.55438386;4.1316834;-2.830450572
3.535940691;-6.469347453;3.750587773;-8.88;-34.57734749;-0.585699699;6.452225761;-0.435337713;7.508747511;-16.70698784;45.50894972;11.13861251;21.99789395;12.88741019;-1.471201836;-61.30123513;35.21320073;8.100969731;-1.682347606
2.609841249;-8.612561548;8.239815146;-9.997155942;-33.99099496;-0.624977349;4.488453838;4.460123427;15.46855101;-10.25483177;65.37144258;26.42525659;23.93666257;18.58220708;1.901969396;-58.92576697;29.33723356;7.489756513;-0.346906951
1.518227543;-8.589198476;11.16643528;-15.18317071;-36.74911502;-0.6580247;2.070019531;8.879375244;21.55499125;-8.226916131;64.69804132;32.39129726;23.20317321;20.65733186;5.666298847;-51.52583976;19.92261514;2.721494384;0.170596866
-0.700388857;-5.896747514;11.46065188;-20.2523774;-41.78127587;-0.805075285;1.324870679;9.88608495;21.94658301;-9.515688754;35.25511757;29.34560557;20.22538776;18.39929915;9.860749187;-40.63709899;12.69058306;-2.950993769;-0.37642122
-3.726709901;-2.009382499;9.797670651;-21.32088332;-46.04254998;-1.040445519;2.964002252;6.769726567;16.91280418;-12.32834568;-13.0207637;24.18114844;15.91455394;13.17324923;13.39285838;-30.5239448;12.34074915;-6.06612876;-1.361577236
-5.929703503;1.496001207;8.194208839;-18.05861479;-46.65014889;-1.168741509;5.515484981;1.923905161;10.68131701;-14.22907743;-56.47954515;24.44301464;11.80289314;7.631099316;14.4554042;-25.61432151;19.17845447;-5.666803747;-1.86581615
-5.812572505;4.544353328;8.26918367;-13.71130943;-42.91661452;-1.000497755;6.563108027;-0.916655373;8.00886232;-12.85417574;-72.89131407;32.43202337;9.581167285;4.147429738;11.9979664;-27.49631529;28.65706238;-3.877750746;-1.445575969
-3.533855328;8.39314108;9.746687534;-12.01962807;-36.62980156;-0.569099733;4.942375075;0.513395583;10.3654672;-7.456249185;-56.44561438;43.64908545;10.08719774;3.571349506;7.069311887;-33.80180121;34.35743363;-3.966269787;-0.424954362
-0.909302806;13.99822105;10.65866273;-13.85047366;-30.47716706;-0.164780716;1.893561138;5.502718466;14.93234946;-0.156087052;-21.39400763;50.30676192;12.51830741;5.095764353;2.651239444;-39.96333163;32.3376651;-7.597057114;0.525059057
0.272635226;20.5874455;9.191280007;-16.49690399;-26.06361611;-0.120346021;0.039763112;11.23096587;17.16692615;4.594907505;8.433875445;46.92979123;14.69616498;7.158483254;1.733439998;-42.56;23.67108107;-13.56251013;1.108310658
0.080015869;25.83591758;5.563901801;-16.17017625;-23.18129932;-0.524730756;1.027976763;15.02173228;14.64511126;2.642817792;16.27143525;33.90896248;14.42180764;8.546228746;4.969258713;-41.62867267;13.34045874;-18.91727756;1.726225858
0.567456035;27.49582159;2.178590522;-11.41544324;-20.75416536;-1.129044777;3.958884629;15.985428;8.884513242;-6.734258922;2.757802754;16.7778867;10.98463876;8.868857592;9.868600364;-40.10281376;6.478294324;-21.404673;3.057807991
3.871964109;25.01293828;1.74473248;-4.466569944;-18.37355461;-1.5460375;6.101578699;14.87894961;3.711536422;-19.62145227;-17.19459229;2.209943998;5.648427822;8.244625389;12.41640591;-40.90045383;4.963781507;-21.07997355;5.256702426
9.916225244;19.73727342;4.906159989;0.563084278;-16.91071844;-1.571590639;5.3367741;12.74876431;1.780628813;-29.46778956;-27.52773481;-6.162255557;0.722995991;6.744765714;10.02045224;-44.16690283;6.925066863;-19.86965693;7.536002575
15.91596621;13.6499399;9.437940848;1.03253434;-17.6526212;-1.335060081;2.140477044;9.917396396;2.395485503;-31.15408348;-23.27228379;-9.325645512;-2.010967792;4.255147061;3.476988465;-47.07471361;9.13918916;-19.63880865;8.618187603
18.37311407;7.830175628;11.79760988;-2.142134048;-20.8148168;-1.140187536;-0.751632466;6.269525914;2.499795277;-24.27186684;-12.58359438;-11.24416088;-2.255228156;0.87328619;-3.662306461;-46.39135167;9.880802475;-20.55700192;7.748141738
15.94287063;2.019365527;9.797496432;-5.236690782;-24.8485058;-1.151929674;-0.786034338;2.301362337;-0.199936031;-13.21815942;-8.106863339;-15.59883009;-0.867577685;-2.671266954;-7.820874773;-41.57354632;9.595474747;-21.15837465;5.393775946
10.61042219;-4.438872849;4.188498512;-4.456018159;-27.2169076;-1.236266649;2.040603982;-0.455123751;-4.917383814;-4.059371606;-15.73892748;-23.28723763;1.241607571;-5.174004379;-7.96970275;-35.57785933;9.028810019;-19.91917453;2.949297774
5.992417937;-11.26424332;-2.108204429;1.617163874;-26.00570188;-1.114765489;5.091902862;-0.377235995;-8.415912428;-0.495501588;-30.20197325;-32.13289066;3.84882792;-5.734008179;-5.943352095;-32.48701572;7.064825523;-16.84697016;1.604027795
4.150583143;-16.81996865;-6.347301305;11.51880994;-21.05410236;-0.683329935;5.457591357;2.687339313;-7.985534327;-1.791435664;-40.40042366;-38.57864399;7.117511341;-4.525589774;-4.375253008;-33.88033022;1.000737229;-13.63134257;1.318927188
3.74788661;-19.08379233;-7.799568267;22.17249744;-13.7984224;-0.167892849;2.669198748;6.829057306;-3.995973133;-3.899207976;-39.16999462;-39.96313844;10.6886697;-2.815808667;-4.197859236;-37.16072553;-10.33881427;-12.23876968;0.84015219
1.290593452;-17.27596202;-7.588946315;30.50602631;-6.156151738;0.065176577;-0.758981712;9.297365632;0.364326562;-2.589025344;-28.83951917;-35.94106466;13.25728897;-2.082813727;-3.972558306;-37.5482325;-23.38066753;-13.23197424;-1.180794771
-5.545341103;-12.85543114;-6.950704575;34.29846192;0.524656537;-0.117371961;-1.567524537;8.677779224;1.96443616;3.848289162;-18.30099136;-28.44377906;13.28521733;-2.895100729;-1.583653708;-32.31;-30.1465496;-15.32639109;-4.882537405
-15.45821681;-9.086370568;-5.79381102;32.35489408;5.729928364;-0.429833778;1.202767546;6.126117451;0.597046057;14.04706693;-14.85714549;-20.53238632;10.34641827;-4.477273962;3.383438103;-23.68945584;-23.26658032;-16.5825795;-8.863028803
-24.21792508;-9.422903015;-3.067040424;24.76741035;9.413829054;-0.392568829;5.180690337;4.452310182;-0.818325884;25.02173582;-18.29691986;-14.96667489;5.848803463;-5.337364481;8.91287679;-17.84917846;-2.524092658;-16.17228457;-11.1946962
-28.01037428;-15.71649401;1.449452799;13.44398004;11.68206502;0.20238277;6.721053983;5.739795329;1.073237822;34.11342115;-22.0965502;-13.19864734;2.302835221;-4.432008613;12.26028782;-20.39730621;22.461281;-15.13698482;-10.98767387
-26.49683334;-27.24867049;5.874533848;2.075530409;12.89750043;1.023438356;4.274768437;9.561865738;6.907368419;39.9914376;-20.04561288;-15.09038704;1.581281655;-1.901041776;12.51917128;-32.03167622;36.66964436;-15.43838475;-9.17040984
-22.84;-41.01182549;7.097265859;-5.334941302;13.87349526;1.428142519;-0.028614932;13.38737492;13.8637911;42.43173087;-11.982306;-19.28745541;3.573031304;1.185670606;11.5512453;-47.91876979;29.14718743;-18.11521542;-7.770112862
-20.66706721;-53.0110939;3.356892291;-6.936773176;15.56400495;1.033027785;-2.175909758;14.80649481;18.02596716;41.6285314;-3.604295261;-23.98441895;6.358182926;3.737760282;12.22744561;-61.40957801;0.992553324;-22.18756756;-8.248162423
-20.766298;-59.98381601;-3.781402123;-4.577654809;18.21167525;0.113896136;0.052672304;13.53058385;17.67117544;37.8588744;-0.979011474;-27.75059364;7.731950502;5.332217869;15.49571593;-69.04870761;-34.32306527;-25.35048373;-10.28314998
-20.62676164;-60.83635714;-10.17529511;-2.639029608;20.71599437;-0.571496665;4.873736448;11.3160457;14.47587158;31.61328338;-5.095827349;-30.08232018;6.756187457;6.096338233;19.07427076;-72.68281814;-59.20011273;-25.95945211;-12.04414185
-17.32835707;-57.17050834;-12.36574583;-4.470809179;21.096298;-0.435824951;7.924123958;9.914761377;11.58161586;23.71131609;-11.40515667;-31.44080212;4.072430009;6.043093671;19.23297726;-76.90858881;-63.22191804;-24.64049112;-11.73167478
-11.08764302;-52.53585437;-10.67305481;-9.153191824;18.03089453;0.379937624;6.20038666;9.073946053;10.43266797;15.04050746;-14.42551115;-32.76682286;0.902877168;4.680430921;14.25734652;-84.13013032;-49.53979187;-24.08016018;-9.073216408
-5.946891724;-50.59245959;-9.221233665;-11.64962402;12.29784289;1.08185524;0.968809471;6.65049615;9.476908156;6.145520525;-12.83550261;-34.76519908;-2.141202468;1.43478865;6.424743506;-91.65986726;-31.85349815;-27.02591013;-5.503621772
-6.580582691;-53.06349855;-12.47512001;-6.864455335;6.704584174;0.921229034;-3.149554712;0.921392905;6.046517105;-2.798498515;-10.27571104;-37.42071192;-5.262526204;-3.449045982;0.444991628;-93.62589125;-24.42834416;-34.04443058;-2.912387073
-13.85408993;-58.72129469;-21.05558445;5.424673696;4.22090232;-0.087589017;-2.299863111;-7.048630606;-0.383823497;-11.4734153;-11.34829598;-40.06746614;-8.615680957;-8.483236371;-0.502177951;-86.25292227;-32.58310114;-42.86316531;-2.08723894
-23.23647321;-64.20373937;-30.57247771;19.12781121;5.662596972;-1.10876448;2.942738112;-13.43835413;-6.858295093;-18.88485388;-16.87351353;-41.93;-11.46;-11.62666497;2.381156494;-71.94800527;-50.34035371;-49.88332101;-2.219999223
-27.90120139;-66.27247223;-34.8502534;25.7765096;8.909030133;-1.20281558;7.833420771;-14.49638254;-9.141978154;-23.5170535;-23.02962841;-42.67894175;-12.42928767;-11.69949901;4.535327874;-58.36448883;-66.20420943;-52.69106231;-1.855314213
-24.17917497;-63.99146622;-31.06740545;21.12929845;10.52049358;-0.211951842;7.654420666;-9.882659967;-5.667921067;-24.27810715;-25.12178136;-42.5222967;-10.83266485;-9.333828818;2.273456176;-52.78822454;-71.95801267;-51.56419688;-0.346913954
-14.68236368;-59.20187534;-22.37996786;8.996740398;8.570882814;1.012250364;2.171459942;-3.449656798;0.514533912;-21.47835082;-22.17946785;-41.75076175;-7.679398984;-6.524016056;-3.547100896;-56.31481974;-67.67096575;-48.79;1.559642698
-6.185653912;-54.87666126;-15.49704172;-1.349977684;4.323855704;1.319198295;-3.818027664;-0.406109635;3.990425891;-16.8720178;-17.76682602;-40.16807123;-5.16705865;-5.026332387;-7.971874435;-62.76551513;-59.77954895;-46.42891156;2.557026503
-3.893259011;-52.62349149;-15.01586653;-2.554134607;1.233657507;0.326428806;-4.63717515;-3.014498125;1.780879232;-12.55357595;-16.12361165;-37.00970606;-4.80170671;-4.943336346;-6.470997029;-63.5232238;-54.83630389;-44.46876432;2.197585621
-7.050310592;-51.3786549;-19.36091876;4.652102218;2.038011411;-1.132380666;0.974315041;-8.507468414;-3.603870586;-9.579538804;-17.45998387;-31.57151993;-5.812627093;-4.771322893;0.408395351;-54.51;-54.5533573;-40.99470472;1.479248612
-9.873293139;-48.43103489;-22.05621832;11.90969521;6.448076816;-1.666589997;8.307428799;-11.22323238;-5.958806999;-7.523004743;-17.29182357;-24.10028014;-5.536058404;-2.932657571;6.738706306;-39.57902091;-55.91475852;-34.26357618;1.925812073
-7.11399024;-41.96434654;-17.49945639;10.36620917;11.50470927;-0.587986904;10.62126927;-7.345712866;-0.85206727;-5.347938317;-10.90442139;-16.12128603;-1.736994591;0.566945642;6.078321539;-27.43301491;-55.38701503;-24.86698153;3.952970367
0.711238668;-32.93210145;-6.284549757;-1.339726021;14.32760935;1.353330755;5.314847421;1.770532949;9.990150359;-2.733253686;1.144918266;-9.706797558;5.109277134;3.933425568;-2.491894547;-24.54032034;-52.86953919;-15.96720617;6.111535403
7.354083009;-24.54227032;4.799946036;-15.21053281;14.77788198;2.505152598;-3.265771579;10.66194609;19.59048491;-0.51101821;12.0941728;-6.058344595;11.82462896;5.154250866;-12.73329329;-29.90924245;-51.76358024;-11.16155501;6.113405467
6.462812042;-19.65413876;8.464009788;-20.18030814;15.52982079;1.757454802;-7.290946426;14.41258703;21.58559024;0.25625273;14.28461123;-4.493124893;15.15624781;3.990300488;-16.10403265;-36.08025077;-55.41649195;-11.61657449;2.904933417
-2.073319384;-18.28531122;3.511304318;-11.54733474;19.35303082;-0.35515308;-2.478191091;12.86963072;16.06260839;-0.385050908;6.364410825;-2.805986349;14.83229525;2.483732964;-9.377983447;-35.48865206;-63.55754694;-14.92768604;-2.06147682
-11.01771254;-17.48676943;-3.632103441;4.549923067;26.03399319;-1.958097299;7.561304379;10.60250289;9.938016615;-1.028053463;-4.386370104;1.031020715;14.10537391;3.278659566;1.692739814;-26.80931268;-72.19142543;-16.88710722;-5.681881693
-11.51305953;-13.88293568;-4.266269297;15.83103129;31.88243403;-1.424379795;13.95043976;12.4646405;11.00552806;-0.258632609;-7.530260721;7.03897185;16.8508708;7.059493089;6.513164164;-15.89569007;-77.05074669;-14.91573187;-5.671905447
-1.034814939;-6.804337618;4.66793103;14.12210494;32.55;1.076991306;10.33799896;18.62199182;20.56473016;1.574605166;1.402959046;12.81060341;23.49383705;11.4285874;-1.290901092;-10.52116993;-77.32303414;-10.34364612;-2.584208579
13.53689946;0.747113784;17.11275782;2.432872918;26.82582755;3.502338631;-0.905895254;23.65373568;31.33351254;2.095174274;16.19577759;15.09805089;29.53781923;12.51342506;-17.55180104;-13.44411762;-76.09486114;-7.452189805;0.51180061
21.04716236;4.336920309;22.43;-7.530165187;17.96987725;3.568470794;-9.997774005;20.94180649;33.14259995;-1.119367388;24.45445479;12.40782886;28.59949625;8.239581904;-29.99226719;-19.80633024;-77.03474378;-9.802454704;0.639069248
15.56025149;1.813780473;14.58395977;-5.670605492;11.17637157;0.813743355;-8.091036404;8.83373529;22.01870628;-7.788262652;18.16153067;6.59790524;17.91311577;0.537822848;-28.1716105;-21.21615685;-80.42182527;-16.79349598;-2.32241447
2.05154388;-4.649281747;-1.884399952;7.187143945;9.246588848;-2.731710682;4.326395051;-6.858189541;4.718649518;-14.07814479;1.240587852;2.002576731;1.653146715;-5.643378008;-12.85289278;-13.13711615;-82.38914089;-23.5144652;-5.210795831
-7.225231968;-10.08670769;-14.77003906;19.45680491;10.35242974;-4.037973621;16.73541696;-16.66699561;-5.910105696;-15.06983085;-13.00601076;2.439438661;-11.28413623;-6.078399095;3.590019531;0.713971348;-78.40253462;-24.44424458;-4.147951944
-3.374635389;-10.7527281;-14.25495979;18.95889387;10.07491116;-1.660966015;17.10632216;-14.88529365;-1.57193041;-9.02646652;-13.17106012;8.227139969;-13.88960153;-0.858413085;6.972960659;10.83128242;-68.04150522;-18.28809054;1.861585087
10.32204814;-7.304569299;-1.839559388;4.648955548;6.032151835;2.733203365;2.927096825;-4.497730664;13.69779696;0.146455122;-0.288756807;15.59903947;-6.845950806;5.249597105;-6.344545669;9.370308748;-56.66608488;-9.918609514;9.389957354
19.524434;-4.365164995;9.874786225;-10.69496107;0.816856043;5.375409508;-14.9878974;4.799915965;25.84133989;4.973924874;12.00486938;19.26253254;1.588278254;6.331158955;-25.19;-3.501129547;-52.00245639;-7.321882478;12.73842098
10.11057987;-6.615642401;7.300617212;-10.33262502;0.17728062;3.38342786;-20.27918995;4.361790593;22.25355258;0.174988422;8.936945342;16.45230947;2.167252759;0.203480004;-31.98341952;-19.54303596;-58.0522886;-15.3555533;8.416196656
-18.97082756;-14.5313516;-11.914673;11.32809924;7.593190705;-2.556032739;-5.024447702;-5.947981033;3.436063859;-12.17517099;-11.33879472;9.493207455;-7.238058199;-9.211647006;-17.83663862;-28.65236621;-71.26377908;-30.97883772;-1.529118579
-52.08516391;-23.35822961;-34.88112674;41.05331223;19.95950311;-8.083770168;21.48688468;-16.81296681;-15.17531511;-22.62729356;-33.32170133;4.746502483;-18.76641517;-14.14173424;7.968012173;-26.22558582;-82.34210199;-44.00108528;-10.19268602
-66.62885535;-26.44264303;-41.94788826;54.13955301;28.63309279;-8.029814469;37.36534639;-16.27034797;-13.83107549;-20.42356136;-34.46011364;8.343164089;-19.9114677;-8.455686295;22.80758179;-15.85909778;-82.63996329;-43.51622731;-10.38444907
-49.56830292;-20.54379381;-21.90141054;32.46124083;25.67534021;-0.304051403;23.86273588;0.688231479;15.93411679;-1.727515233;-3.134021944;21.48889402;-3.525396025;7.528829261;7.333213558;-5.708882733;-70.40348544;-25.85182382;0.080652752
-8.337844462;-9.071500033;17.80042591;-20.33190061;10.42172492;12.0527275;-19.37229388;27.08732957;62.76579791;26.10801467;49.76400477;38.60846311;25.16233436;26.42797415;-38.53472025;-2.100150648;-52.22911254;1.624993464;16.25574036
32.62870135;-0.637497473;54.17919082;-78.68136403;-9.234576971;22.30164397;-71.59867548;47.56958464;101.154943;47.91060233;95.56804606;49.82;50.31679636;37.87370658;-92.95262148;-5.819435047;-38.75;23.89265437;28.77242553
47.75115026;-3.7169688;63.62;-111.0506191;-22.27284244;24.09792258;-103.6998556;48.27903379;107.7767798;49.92743135;106.3865473;46.4529437;55.37069684;34.57655903;-125.6629507;-13.52988132;-37.77636429;27.01504174;29.63841178
27.25014149;-20.95777629;37.87103119;-100.5825125;-22.40705545;15.55282029;-97.39236091;26.14235687;76.93494113;28.8372685;74.12873151;26.42692436;34.18896422;16.54712092;-118.0727168;-21.86561543;-49.60058542;6.747137135;17.29645604
-16.76914824;-46.80820632;-10.27767793;-55.50567146;-11.86997247;0.640317625;-57.01248662;-8.687347451;24.35219244;-5.493897231;16.15912918;-3.581254061;-4.296259011;-8.797734844;-75.24746541;-29.56888962;-67.13679887;-28.36976503;-2.207446826
-58.78;-69.83435868;-55.26244793;-2.225378838;1.952505393;-12.85318682;-5.680270494;-38.47949821;-22.71537559;-35.22091868;-36.14524625;-30.43793935;-41.05310397;-30.21527148;-21.44793299;-35.55955912;-80.02812314;-61.18594865;-18.41483919
-76.02101202;-78.24700776;-74.49674794;32.91563389;13.79633114;-17.46732947;30.59746426;-47.6142134;-41.47708763;-44.1643567;-57.07662848;-40.30253319;-57.89698568;-37.66536438;16.68007813;-35.60453856;-79.70850898;-74.71969524;-21.86191641
-60.93329937;-65.65075675;-60.5511863;39.39073287;24.85062092;-9.874877085;38.84740705;-30.36040952;-24.96;-25.97852055;-40.47691643;-25.26374732;-47.18651598;-26.50881256;26.42782137;-22.50273438;-62.84604524;-60.52851562;-8.696814694
-22.52990145;-34.38075482;-22.5951038;25.1454314;39.85527588;7.540998282;24.20134542;7.031490878;17.23175797;13.35827823;0.527895123;12.07444738;-14.75462917;0.396050538;13.64264489;8.230483727;-32.44283557;-22.53364387;17.51848392
21.83272295;4.832773701;21.62776899;6.507312798;59.47710752;27.82815974;2.424774112;49.85442691;66.65997886;59.02349289;45.1064403;58.34191257;24.40719539;33.15325653;-5.618242184;51.08100766;2.925609729;24.97873646;47.19586824
56.71433153;36.77515309;56.05141294;-4.861895457;75.51814778;42.55680618;-12.47235901;81.46973649;105.5399178;94.07257912;77.40947092;94.31120793;53.97913706;58.03210779;-17.93261398;88.91615697;31.45169012;63.69729536;68.50929348
74.12132107;48.08524792;72.15076001;-7.644657005;74.87080071;45.52107838;-15.76752519;89.99295166;122.6798673;106.1609593;91.84538665;103.6576878;63.194196;63.125438;-19.59154048;101.2072458;42.23247785;79.12384727;72.31692568
73.22459539;33.84807578;69.13639406;-6.689612822;50.56166731;35.67596111;-10.73553034;73.22305483;115.3036534;92.21013919;90.35981962;81.94095736;50.41332807;44.78667643;-14.30048755;78.30907861;30.66582051;66.98334346;56.6372143
57.92945652;1.380786336;51.74114368;-5.243156371;10.99419251;18.11010865;-2.484337426;40.41174167;89.07167356;60.02471963;77.61044957;40.89400651;23.31344688;11.49307922;-6.398771117;31.51702303;2.629905706;35.75905527;28.7181279
35.75714524;-31.6415636;28.77056065;-1.896966862;-21.70508553;2.278001401;6.108940592;9.530505289;57.38729294;26.08185239;59.49735446;4.346462627;-3.754522449;-18.33162211;2.718688313;-10.30921184;-26.13300454;3.783144574;2.914702908
17.58090545;-45.29831906;12.05810231;5.291857639;-25.35816767;-2.309306767;13.22498728;-0.333462724;38.23892351;9.1029739;44.68597777;-3.74035049;-15.04731299;-25.22052782;12.07898926;-17.72539661;-37.16696049;-8.925424452;-5.831879269
15.00528573;-28.49178989;13.09192817;12.82188767;5.650387377;8.738148553;14.85204479;20.87155829;46.72442643;20.84751374;44.11732963;26.58867263;-0.637251046;-0.314976725;16.7789305;19.22007813;-20.22090393;8.850290243;9.652817165
34.04941963;13.34216028;36.52594798;11.43365011;53.76680892;31.45243816;4.993231638;66.77423031;85.36750587;58.33314303;65.13950239;83.49355742;37.16753648;47.4441173;8.432986285;82.14322303;18.79099251;52.03616144;43.36077033
68.73459718;59.55710808;74.39303746;-6.51175345;88.17589313;54.64880731;-19.00562983;115.556372;138.7980776;102.8686325;103.4225002;137.9541547;82.49914744;94.37789741;-17.83360657;134.2077874;59.14494495;99.94719078;77.82272981
100.9211759;85.30550934;107.0381647;-38.00876819;85.31684303;65.60182144;-50.58823777;140.7397771;179.0293584;128.5537376;140.5452078;159.5685824;112.5361175;114.9989402;-55.59096914;143.1009278;76.74729155;126.4058995;93.2379023
109.4539884;76.26416982;113.1296542;-67.70036882;45.37413759;57.36403205;-74.37474884;126.5240276;180.8336582;116.8709511;152.4717418;134.5735498;109.9539093;97.3411011;-86.88326985;101.6935217;59.09456967;114.5444893;79.15469454
84.10350774;37.68051126;83.63176859;-76.95969833;-7.648332117;33.19272561;-74.96607282;78.0421307;138.186441;68.71310123;125.2471522;74.54888787;73.9919491;50.60123074;-92.44440788;32.13564716;13.73620101;67.43593553;41.27400104
34.33936639;-8.696090075;29.71750106;-57.74132443;-42.67405387;4.906118626;-48.53456688;19.01065581;69.86498312;5.304928684;66.66881287;9.540115102;22.16611338;-0.504815414;-65.85255726;-29.28845325;-36.06578807;7.167009678;-1.580291926
-14.81754047;-38.26413914;-22.55660283;-20.06455963;-42.89480991;-14.15592734;-7.732308205;-22.61749609;8.765607832;-43.87303021;3.803973194;-30.44658333;-19.83994582;-31.29181915;-20.27245203;-55.67504448;-66.01484897;-37.99564107;-28.88492533
-38.40370995;-38.78528866;-48.52168437;13.79011599;-16.07943857;-17.11205052;25.31504395;-31.76287471;-18.69142606;-58.97863611;-33.66034318;-33.466104;-34.12314268;-32.11886056;18.9008338;-45.00225735;-65.84740135;-50.51681326;-30.86230721
-27.91025407;-16.83624268;-40.95205508;24.76560835;13.2263448;-7.156768306;33.75824484;-14.40902553;-8.749089766;-41.60967666;-32.86552059;-11.12238418;-21.44162356;-12.70050982;31.1525255;-17.67493173;-44.43742505;-33.44310976;-13.6066554
3.63419404;8.641982514;-14.03353991;10.45334358;22.89133548;5.54040233;17.57539964;8.673204952;19.48179599;-12.33075976;-5.589586579;11.82600715;0.839144951;6.766796451;15.01908102;0.544446831;-21.81267012;-6.570758139;6.412061565
31.83250572;20.54819549;7.883596554;-14.02512963;8.819551036;11.27400618;-7.123221065;17.73491028;39.51274995;4.276136615;21.60096395;15.84131022;12.26365563;10.67612388;-11.72822144;-3.185348076;-14.44720317;8.169412593;14.25431919
38.65159713;15.01387849;8.257567267;-28.28890546;-14.39951532;7.177395741;-20.63766096;7.57799254;36.6;-3.699577336;27.31272067;-0.433589268;4.166070385;-1.845392871;-26.15737789;-22.29985163;-24.74481447;1.577031021;6.196502035
24.25632201;1.999468089;-10.60341963;-22.28213802;-27.04099196;-1.879152963;-14.2841011;-10.90436022;16.17994108;-28.86587466;10.06667981;-21.59298123;-15.20193876;-18.58796399;-17.50394149;-39.26808348;-41.86489358;-18.17659769;-9.433551219
4.339668866;-4.383261454;-31.47629648;-2.913091776;-20.33827229;-8.040125418;4.265607288;-21.3969707;-3.679426306;-52.03929513;-13.12343639;-29.21062615;-28.7571086;-25.36676361;5.737761789;-40.79887936;-52.09553872;-33.78287383;-20.06873531
-4.04870979;2.441302601;-37.24244839;12.98566527;-2.353057626;-6.839780252;18.61778203;-15.88786792;-8.302108432;-57.4296528;-22.25119813;-16.70361011;-24.99239347;-17.30899726;24.05648165;-27.55407629;-49.94159499;-32.91544908;-18.80608218
3.737306941;17.04942352;-24.52818907;12.97976912;10.13117368;-0.242602674;17.49802012;-0.433124532;2.655695227;-43.76033716;-10.79252524;6.170078125;-7.051318419;-1.644541309;23.24170637;-11.67966146;-41.32887034;-17.19616219;-8.807255046
17.53298061;27.69594303;-5.207214576;-1.284081402;6.058762658;5.669816172;3.364307748;11.09871346;17.52299275;-23.46821791;10.05669235;22.05999522;10.53800361;9.370292889;5.368200591;-5.588224719;-37.24205793;0.458798505;0.56214827
22.44329063;26.75882286;4.643835833;-16.5403028;-11.24501412;6.049438424;-10.80919119;9.428416621;24.56496645;-11.75085421;22.00959949;20.36289826;14.28556109;8.868277428;-14.02821259;-11.86656028;-43.84849803;7.177173695;1.980205826
12.23460421;17.04907056;-1.510505949;-19.6846958;-27.78211215;1.125871289;-13.13991588;-2.218629258;22.04829949;-14.80527511;15.55253071;5.414081624;2.803312729;0.432035154;-19.43553322;-22.25289067;-57.48951762;0.547447494;-4.175074273
-5.409347642;8.975187902;-15.77184963;-8.583121387;-31.00856148;-4.445877403;-2.678405389;-11.15997001;17.53434387;-26.34054652;-2.387526632;-7.782388523;-12.52302446;-5.906335394;-7.861972716;-25.60092142;-68.30659397;-10.21530736;-11.05922118
-15.83970662;11.36514695;-23.36631428;6.93629471;-19.86126897;-5.846078881;10.60836162;-6.364496759;17.9398379;-34.11423341;-14.94648601;-6.301082191;-17.41813046;-2.742268255;9.79596886;-17.52881763;-68.89184474;-12.77010721;-11.83691818
-10.1861986;23.89579216;-15.65222021;14.05926817;-4.644241041;-2.162931223;15.06792152;11.95100983;20.57068087;-30.21486621;-9.907787145;10.16697319;-6.598103407;8.475752697;18.84943066;-3.735171508;-60.42172186;-2.331324155;-5.579266727
7.180409973;37.41128951;2.677200298;7.783980624;2.356272;3.113508103;7.422794501;32.29106349;14.39099157;-16.57050459;10.16579124;29.46267095;12.24401218;19.13851056;13.19245977;5.223026776;-51.28576827;14.40285323;2.321933496
22.63263003;41.58666222;18.02369377;-5.577665008;-2.916465074;5.358143851;-4.958711408;41.25447654;-8.913318506;-1.992082648;30.49372373;37.23989672;25.30051908;21.21366156;-0.509928673;2.781841136;-49.77023021;25.05325709;5.189508286
24.91817586;33.29975439;19.65217329;-14.57161052;-13.75158717;2.838523889;-11.07704113;34.2974969;-44.16399004;5.655995236;36.62100491;28.59213155;24.17472423;14.14581531;-9.697256927;-8.609106628;-57.22606937;21.89874165;0.911123411
14.28025865;18.76944189;8.472851581;-12.51506548;-19.29608768;-1.972062345;-6.047879126;18.95352357;-72.95935442;5.080844901;26.08403981;11.52257757;12.28952033;5.077890498;-7.178013801;-20.04690844;-67.37187097;8.013288298;-6.444231275
1.449153068;8.011730591;-4.459912656;-2.496731893;-14.0764191;-4.768292316;4.991293987;8.148951666;-76.40209497;0.741868113;9.65702304;-0.139672669;1.154355023;2.494989549;3.16874399;-23.61788928;-71.92207506;-5.681131838;-10.39432525
-2.163579808;6.606183597;-7.913679467;6.353699058;-2.193924328;-3.235771737;11.90440616;9.562919243;-50.40867553;-2.557011431;1.807189831;1.973768979;0.224409686;8.988341598;10.75597857;-18.3128649;-67.43504457;-9.573595116;-7.676820704
5.716952279;11.7124229;0.045652603;7.364360182;6.923965413;1.050304289;8.692237376;19.98732659;-10.54076289;-4.052798342;8.904841869;14.71996359;9.265564675;19.34637767;8.211726439;-9.830434955;-57.59036134;-2.844432938;-0.814438783
16.80342855;15.31862317;11.13938621;1.801744763;6.954224174;4.200029297;-1.438222974;29.02938654;18.55160984;-6.444207867;24.97272912;27.19423793;19.50093961;25.37634812;-2.2122335;-5.079681773;-49.34300664;6.815470601;4.423003164
20.03264253;11.48024257;14.81420902;-3.235675373;-0.215697314;3.522142558;-9.32601407;28.46563632;21.18365374;-11.52762529;37.79474922;30.45432198;21.96796748;23.05393782;-11.20621686;-6.424804924;-46.68866245;10.50652519;4.185551806
11.41290017;1.193209879;7.673736987;-2.044246877;-6.824990328;-0.178381837;-8.204473541;19.03871218;1.77932314;-16.85616236;39.43557531;24.68532827;15.42321122;15.78929479;-11.17102845;-10.40241293;-47.55426044;5.842536621;-0.283046474
-2.675682567;-9.003353187;-3.85849548;4.242325456;-6.446931431;-3.475727215;0.42389927;9.148875312;-19.80391393;-17.06399375;32.11888138;18.01015421;6.954996988;11.1732039;-3.028901545;-11.45660838;-46.28405226;-1.492527021;-4.115852976
-11.28417233;-13.00390605;-9.592912086;8.923803413;0.539665921;-3.46729939;8.468604815;7.117966215;-24.69432928;-8.816816446;25.11391892;18.6179145;5.169656968;14.25055802;4.981056251;-7.009461165;-39.20544616;-3.329115661;-3.396171707
-8.355506168;-10.23656305;-4.599291239;6.304921945;7.875238329;-0.32289133;8.699323312;14.08952588;-9.584662834;5.332104996;26.17315319;27.47021618;12.31742461;23.20758738;5.147501644;0.549364393;-28.22574936;3.452316815;1.36138459
2.514923178;-5.611407601;6.83157925;-2.683003444;9.516233739;2.992056884;1.137680323;23.63897751;12.17189046;18.08715398;35.21898516;37.86899759;22.36384172;31.04360562;-2.554360233;6.314684834;-19.38239582;14.05147149;5.864944594
11.8756952;-4.826366957;15.46223651;-11.06759771;5.203689993;3.469927632;-7.242898581;27.9765543;23.0251551;22.90018069;45.25159625;41.81957054;26.48507769;31.53837173;-10.50872941;7.207040714;-17.80157576;19.84328135;6.080426498
12.96766934;-9.528102216;15.38910293;-12.10226054;0.570012207;0.756022785;-9.000274954;24.87134839;16.11101406;19.08152001;48.85239826;37.18300712;20.87433292;24.26539486;-10.57075479;4.290497629;-23.55496595;15.65011643;1.906359975
7.253411782;-16.5710565;8.806151852;-5.454211807;1.915903246;-2.617173137;-2.896433291;19.12146336;0.002360386;12.0302937;44.20842363;29.24704213;9.922895948;14.5080697;-1.704121154;1.289214403;-31.89182213;3.865464981;-2.806249468
2.224772991;-21.61556495;3.264099085;2.385947825;10.49391982;-3.592432066;5.203879858;17.5670316;-9.979646561;8.423662769;35.81919738;25.61312704;2.189075625;8.514870679;8.804434291;1.008165407;-37.36341647;-7.875073487;-3.807899373
3.885016873;-23.36038121;4.340833107;3.920162215;21.36205381;-1.35761448;7.827450251;22.48321937;-5.582897318;10.69949136;30.18881207;29.29789461;3.001476538;8.450393447;11.66561339;3.045943617;-38.05630176;-13.09102711;-0.288467051
10.96859546;-24.38057123;10.59423699;-2.528695781;27.63371716;1.974889797;2.663021661;29.47107272;7.68699111;15.70485471;30.87487164;36.32241358;10.29692535;11.31763606;3.796164911;4.729306734;-36.34722611;-11.24229727;4.467497601
16.12217636;-27.96438839;15.25899252;-11.14632508;26.1901783;3.341440751;-5.501958937;31.6856208;16.44491381;18.48945012;36.86618959;39.76140919;17.09785961;12.36107265;-8.87100911;4.120647958;-35.90324766;-7.038025768;6.133346786
12.79135361;-34.20924444;12.81184884;-13.69052726;19.85365786;1.518960751;-9.28273967;26.40241968;12.06035288;17.49157547;44.4763503;36.30212696;17.99311387;9.52767683;-16.41569687;2.113162039;-37.97155305;-5.444285317;3.274302784
1.399508536;-39.32979428;4.155521726;-6.848673606;14.40090195;-1.79834968;-5.418561849;17.82643504;-1.471390445;16.15031347;49.84333983;29.20717612;13.60716808;4.930829333;-13.32346072;1.624128443;-40.38839132;-7.214727289;-1.407000612
-10.82476372;-39.04300994;-4.333067555;4.616897893;13.4120547;-3.578654103;2.39114893;13.51884343;-11.30301273;19.39134104;49.60458741;25.03843708;9.223491988;2.284637783;-2.931172985;4.690629808;-40.00923919;-8.889296494;-3.597610536
-16.1575043;-32.93934606;-6.834924025;11.73919228;15.64087341;-2.218384887;6.995562144;17.64161238;-7.474427845;28.31256893;40.34856016;27.30583572;9.251582012;3.029785957;5.7563825;10.2495851;-36.04952137;-6.852851132;-1.33425999
-13.06363217;-25.63949435;-3.470058594;8.878716763;17.00573452;1.022815562;4.334413312;27.10977571;8.05166283;38.20524666;19.37818574;33.01420816;12.94359876;4.919414185;5.841584623;14.75702726;-31.07754707;-1.33028438;3.208832549
-7.249592049;-23.35750471;-0.022812713;-1.602110629;14.97805836;3.197016522;-2.958885944;34.12059123;23.06643879;42.05860395;-12.21677828;35.35930524;15.35110962;4.342112798;-1.953842906;15.18745401;-28.71286146;3.53729762;5.707111452
-6.252434421;-28.69761168;-2.350156293;-11.47826827;11.08228119;2.357432345;-8.087219052;32.80856782;25.8158125;36.61029476;-46.70415015;30.1107362;12.43834503;0.059649674;-10.58634467;11.75348933;-30.22809432;3.5539966;3.625905149
-12.55502652;-38.25387089;-10.75418409;-13.619191;9.206741324;-0.687075837;-6.345415301;24.12419268;15.07751846;25.50178906;-71.12395747;19.77270946;5.333920776;-5.295642532;-13.20448477;7.886632519;-33.29352827;-1.454839772;-1.45476943
-21.43142474;-45.22204675;-19.57673911;-7.691740318;11.48616575;-3.128102563;0.627007333;14.70066419;0.757760254;16.54837758;-74.16754532;11.60070815;-0.444918099;-7.482073986;-8.884156684;7.42721618;-34.09841762;-7.253805263;-5.216353395
-25.33597201;-44.85107878;-22.36750615;0.163305242;15.82817314;-2.714647204;6.413371703;10.89127952;-5.225607354;15.38579429;-54.45528627;11.17077483;-0.167099888;-4.612090906;-2.703565838;11.42690462;-30.91570799;-8.9160777;-4.423108599
-20.7276289;-38.07633663;-17.78248876;3.073781388;17.58671367;0.216792658;5.69972637;13.4167912;0.599991666;21.05209049;-23.42227296;17.32134758;5.400989307;0.90331813;-0.609617234;17.30201148;-25.79282993;-5.216624327;0.243015055
-11.13704105;-30.30639776;-10.7097698;-0.645900182;13.92901422;3.065036949;-0.915684234;17.35545726;10.78;27.36978662;0.865822429;23.1321608;10.31237839;4.343957034;-4.092103564;21.02830862;-22.74149738;0.371144692;4.839170508
-3.832367319;-26.60105049;-7.58566996;-6.522321895;6.803587594;3.322235705;-7.517417659;17.25802798;14.36912069;28.79560999;5.532429449;22.17685901;8.748755089;2.894042646;-9.438269099;20.46628952;-24.02108606;2.99729625;5.66132258
-3.289266083;-27.55860514;-10.29367085;-8.432683325;1.581150615;0.81762265;-8.260218142;12.51521794;7.310999884;25.40025616;-8.30370666;14.48315432;0.603918903;-1.731000632;-11.79619555;17.01183529;-27.90687485;0.997426768;2.418951202
-7.474894906;-29.41586551;-14.38007813;-4.29258657;2.384442025;-2.172091868;-2.619222416;7.965570876;-3.683130744;22.47751987;-26.7994661;6.816126639;-7.807925172;-4.681523729;-9.827320747;14.29033492;-30.04326295;-2.530760558;-1.719717979
-10.23501984;-27.97842493;-13.31368786;2.205136074;8.244005859;-3.013276232;4.228443114;9.189657738;-7.165394539;25.21987788;-34.11026505;6.938306868;-8.783682304;-2.209230969;-6.479715272;15.14834166;-27.25413224;-2.603940705;-3.148821203
-7.411452557;-22.60534676;-4.862712094;5.172005537;13.62304104;-1.086840527;6.157356087;16.89124826;2.665199933;33.44393364;-24.29567297;16.88190994;0.287567354;5.023164334;-5.403310041;19.53140443;-20.43814806;2.95907968;-1.101586871
-0.930041504;-16.61147717;6.387491372;1.980432455;13.01388632;1.705641961;1.614018164;25.6758194;20.59653638;41.33390794;-5.051425617;31.16140903;14.64568991;12.50774146;-6.822751402;24.90021113;-13.95371445;11.35266881;1.784405737
2.951047669;-13.89486562;12.85447661;-4.397551972;5.650265995;2.728507113;-5.084698852;28.54899833;34.78476596;42.5655351;9.455095062;41.45936397;26.05674446;15.80427294;-7.159122962;28.57431002;-12.00514304;17.12233409;2.053745238
-0.391590855;-15.10973859;10.73133941;-8.17969696;-3.795954252;1.034292156;-7.770593103;23.1861235;36.84434862;36.16;10.44491177;43.58332075;29.44040474;14.27951866;-2.925820948;29.83411965;-15.18768559;16.90608863;-1.264438577
-9.294651337;-17.04497163;3.507529681;-6.021021447;-9.165555;-1.790954636;-4.037925052;14.27597443;28.63148997;27.61321929;1.178139588;40.55010126;26.46716919;11.34806657;4.933789213;30.04639361;-20.17003906;12.28254734;-5.687082293
-16.81278264;-15.76664131;-1.085776142;0.072701344;-7.970039063;-3.111173953;2.647637869;9.657718553;19.87800155;24.07172792;-6.86251407;39.20772737;23.17862847;11.07999636;10.79741926;30.97303228;-22.67853558;8.194244942;-7.517289664
-16.55784867;-10.47451594;1.974493578;4.700833887;-3.288217712;-1.674655924;6.189802126;13.52186718;19.12239229;27.80431441;-4.526047929;43.61652866;24.03370236;14.32122717;8.970039063;33.00385924;-21.04733736;8.469957422;-5.226270107
-8.151208085;-4.310689436;10.47289004;3.966595269;-0.844434596;1.234075295;3.426784804;22.64859443;26.25393684;33.93976417;7.047662375;51.24599378;27.85065986;17.87472362;-0.843057499;34.94580162;-17.21012968;12.57324809;-0.881728978
2.566264998;-1.24772512;17.0395383;-1.184871684;-3.952191042;2.971245748;-3.058303105;29.05295002;33.24737217;34.73720148;17.86458477;55.39372581;29.21569842;17.47262127;-12.3886568;35.42244942;-14.41935952;16.4833611;1.671212301
8.665847981;-1.992316954;16.03092833;-6.120879395;-10.80771667;1.953356552;-7.381905163;26.78405496;32.08563314;26.76172793;18.36728816;51.54629946;23.88881254;11.8098329;-17.55522439;34.4126524;-13.96101894;16.74249494;0.211121256
7.925481753;-2.959472828;8.944492534;-6.932570991;-16.4229625;-0.895800993;-5.75442577;16.97462649;22.41473207;14.55709454;8.21294665;41.83616371;13.16023893;3.951559563;-13.07898548;33.37589778;-13.96597062;13.79211002;-3.954355143
4.143133018;0.373408836;3.327065444;-3.961526924;-17.31326624;-2.988021118;0.121271861;6.789706576;11.932059;7.32926472;-3.230944968;33.49932038;3.175353434;-1.177982358;-3.370224112;33.79079863;-11.38800483;11.4623817;-7.257133321
3.024135219;8.606408993;5.999709057;-1.255330953;-14.65003906;-2.426816363;4.70465429;3.278283421;9.291794256;11.28010233;-5.069253339;32.67835144;-0.126498142;-0.966679059;3.194902839;35.46111161;-5.229178252;13.15143566;-7.08977349
6.653508007;16.66475658;16.64441583;-2.599041019;-13.06549716;0.27498577;3.743036639;7.53266038;16.13536952;24.14653121;5.472230213;39.10927204;4.112416153;2.793315026;1.399704619;36.22169926;2.087926208;18.37943304;-4.019240172
11.73201308;17.28459537;27.61618429;-7.897888145;-16.26597195;2.675131136;-1.852198734;14.15443745;25.53967281;36.70153482;20.3550795;46.41721325;11.2564305;5.717501018;-6.498399042;33.47201446;6.586216914;23.06298245;-1.024905841
13.12241516;7.203897208;30.34313965;-13.26054584;-23.47941575;2.628853668;-6.899174934;16.26850045;28.22909871;40.00414234;27.29443188;47.71243462;15.38733501;4.832421196;-13.05409464;26.36748289;6.197296735;23.32974728;-0.564884271
9.236014626;-9.178634559;22.76227719;-14.62655177;-29.96904054;0.225748845;-6.737243055;11.50632141;20.84331726;32.28202836;19.89767495;41.49369888;14.19598188;1.121329269;-12.43543124;16.90163364;2.642213912;19.2866618;-2.258482901
4.054402752;-22.11276708;11.23056722;-11.49280003;-31.15568995;-2.321064984;-1.497412746;3.738049571;8.802839126;19.76673306;2.791253902;32.71339659;10.23656778;-1.637515149;-5.610861764;8.982635706;-0.059959685;15.10075521;-3.349421099
3.732863869;-23.29527202;5.188453586;-7.260284613;-26.64924505;-2.712635816;4.047345611;-0.703787254;1.340058594;11.11017942;-12.32239392;28.27517624;7.766680458;-0.573711859;0.740293911;6.154836242;0.824412476;15.16890442;-1.485029653
10.84123611;-11.84207385;9.231162216;-5.926915849;-20.59846525;-0.654068342;4.877590692;1.330501754;3.363102395;10.450342;-15.9582507;31.15516976;8.458733179;3.489482167;0.563437246;9.560527384;4.291642576;19.88503577;2.837365215
21.61241377;5.303263721;19.48116148;-8.27876702;-18.08621214;1.907825739;0.317538016;7.378797429;11.51673655;15.01492532;-7.566540057;38.34533209;10.09050133;6.717197631;-5.803160427;17.4251335;6.522355376;25.03354874;6.512024173
28.90332317;18.72542726;27.29183641;-11.18540595;-20.80970921;2.594561334;-5.376429465;12.08272428;17.76900048;18.81309877;5.472570132;44.14194799;9.263347344;5.733115252;-11.75829635;26.19814195;4.377033227;25.55664058;6.604278532
28.34158733;23.2279629;26.84300196;-10.67394499;-25.8518646;0.775815027;-6.937676504;12.24003906;16.93029092;18.51907577;14.79336809;45.43135539;5.258326459;0.641529687;-10.44289621;32.4663961;-1.678817593;20.33275847;3.121596134
22.14038068;20.60198565;19.88933901;-5.88365113;-28.51830894;-1.881227909;-2.90704616;9.420851128;11.08564898;16.00686482;17.35324233;44.02625833;1.086637678;-5.171073893;-1.204888169;34.51954103;-7.869929578;13.5024774;-0.824624707
17.09690073;16.75231636;13.6559495;-0.132068657;-26.58409103;-2.979636167;3.060019531;7.870133877;7.024266155;15.47931367;15.90533226;44.12125921;0.593341618;-8.203463608;9.408420483;32.88761905;-10.37549869;10.92409702;-1.702425471
18.53141168;16.17833338;14.06921158;2.008464832;-22.127433;-1.6141649;5.565433033;9.934273672;9.359781722;18.3687528;14.27073594;47.62027093;4.414597218;-7.966590805;13.17830591;29.77;-8.627405294;14.83297042;1.298789566
25.60321502;18.65430322;20.55433699;-1.022906703;-19.41162122;0.809590204;2.40591048;13.53357853;15.9677721;21.26161415;12.73726486;52.01912268;8.851841982;-7.134811656;7.405678203;27.69211571;-5.67884304;21.58284768;5.515557533
32.1924236;20.55259965;26.96674437;-6.150344314;-20.87542327;1.909439265;-3.445359775;14.16478416;20.03394193;19.10797966;8.226803802;52.94068836;9.028747781;-8.618155498;-2.667452327;27.99;-5.3350549;24.69696882;7.14894464
32.48962422;18.98053031;27.51321331;-8.297981389;-24.93458588;0.570577272;-6.601267495;9.519647908;16.68884768;10.75548521;-1.230577249;48.82913954;3.544937005;-12.39053235;-8.41546623;29.92376259;-8.665946305;20.65248369;4.594451728
26.18754972;14.62681916;22.03644052;-4.978657321;-27.54548406;-1.988001198;-4.206766271;2.218856812;7.861419126;1.340009766;-12.63704026;43.11293868;-3.798081199;-15.18487882;-5.328219786;31.13687064;-13.06085431;12.21976279;-0.230758125
18.58750333;10.80544668;15.82350521;1.353338658;-26.00061969;-3.324957488;1.471807901;-2.14638115;0.674534425;-1.263018048;-19.20342652;41.47729549;-7.072337545;-13.480999;3.223737367;29.5089625;-14.65178576;6.232443924;-3.721194189
15.61937644;9.942866989;14.30863158;5.419882996;-21.41498906;-2.049405713;5.168108505;-0.043787638;0.823916642;6.782864953;-16.01299122;46.58578079;-3.502481047;-7.04560036;9.267534925;25.3116001;-11.85511384;7.627533702;-3.850740088
18.42879094;11.10997965;17.79433654;3.88359983;-17.62787266;0.847026418;3.474173373;6.542551775;7.172777658;21.25694549;-4.974129491;55.20382533;3.868714893;0.380032959;7.518138899;21.83618995;-6.771668651;15.02096862;-1.862945123
22.54608263;11.03724568;21.22671098;-1.533605866;-17.57651431;2.847668932;-2.034604671;11.59222338;12.73758521;32.51899908;5.916168811;60.64053764;8.726377599;4.106134957;0.060872391;23.30192287;-3.163238577;21.82703843;-0.862595806
22.3965848;7.593760581;19.26100351;-5.460946625;-20.51734817;2.192300692;-6.267023294;10.33644457;11.27628697;32.93644613;8.903535252;58.52739719;7.097478305;2.627536744;-5.780039063;30.90990885;-2.879767718;22.03250355;-2.674353608
16.95065606;2.288182084;11.83143536;-3.637197723;-22.66321752;-0.505400896;-5.31028572;3.627548343;3.369980136;22.91160577;3.021932105;50.73557968;0.967828993;-0.921825829;-4.368959999;39.97912271;-4.053730363;15.55285943;-5.947367566
11.20608205;-0.749089692;4.875839123;3.217405353;-20.6436978;-2.798931569;-0.028980439;-2.659550412;-3.78172661;10.36516818;-5.044061672;43.778118;-3.484493229;-1.485514722;2.9159447;41.20063698;-2.77524853;8.401238204;-7.324843156
11.97671342;1.5128213;5.311644869;9.908863833;-14.60218017;-2.628641087;4.734552876;-2.804109872;-2.869828191;4.121951706;-6.767834948;43.03820721;-1.563850772;3.303366303;8.898233283;26.40734058;3.232559748;7.46661359;-4.629117315
21.68426092;8.024763757;14.72511703;11.24823974;-8.094045632;-0.195109105;4.614812864;3.597037514;6.595230392;6.882481973;0.727778211;48.03706049;5.476744377;10.71848421;7.306356536;-4.553645171;12.28469388;14.47513807;0.906716715
35.74320768;14.2657556;27.55596995;6.534296536;-4.902034662;2.230292514;-0.266155341;11.17025279;17.36846574;13.73094005;12.08456725;53.07273604;11.32609281;15.0066316;-1.168484503;-41.15237273;19.91790135;24.43705476;5.501378452
45.95582732;15.99243795;35.56901935;0.065727765;-5.709108001;2.387396604;-5.416720541;13.52341074;20.59983065;17.21040936;18.31745065;52.6492665;10.21078401;12.24743539;-9.105938613;-66.86054156;22.584225;29.91623406;6.082386591
46.97638492;12.75173147;34.71627882;-2.736237127;-7.670518591;0.094964591;-6.109959785;9.016043463;13.59247337;14.26501123;14.53795168;46.66872717;2.230665666;3.803379386;-8.858366458;-69.0944951;20.57468181;27.34305791;2.99737796
40.21782181;7.959514589;28.29906524;-0.09882364;-7.227370948;-2.591824965;-1.731677503;2.358557667;2.210479851;8.86026689;4.004053298;40.52897135;-6.408927691;-4.666644603;0.445214293;-47.82044171;17.58285828;19.86715204;-0.31297849
31.95790541;5.503239578;23.65821652;4.690872571;-3.50458163;-3.276533428;3.655556769;0.553726959;-4.241859476;8.086797991;-4.926646617;39.98317051;-8.58766019;-7.790733555;11.74717054;-16.32;17.34862495;14.38923114;-0.416077355
27.62648537;6.043982974;25.44345621;6.428593486;0.891889023;-1.424179331;5.052166531;6.759401469;-1.04363997;15.39480665;-6.011863451;45.55401127;-2.331681236;-4.698252433;15.94871835;7.132390048;20.43466906;15.54705504;3.047916464
27.54214446;6.479650351;31.5512319;2.792724319;2.432171942;1.157529703;1.12849667;17.51931322;8.225073118;27.08821929;0.000667009;51.8297375;7.611823791;0.715364719;9.713859656;11.17079017;24.01089357;21.97134363;7.128954704
27.778199;3.094275433;35.3307653;-3.531656725;0.182400776;2.001889565;-4.53841226;25.78669609;15.4819381;35.19824804;6.98483091;52.48693326;14.03362569;3.529355814;-1.703703401;-1.679342807;24.73601518;27.90543087;8.357852958
24.94701746;-4.539333259;31.93601721;-7.26141534;-3.049006352;0.276725508;-6.742533157;26.9809425;15.77282087;34.14414715;9.655081;46.45970325;13.49096186;2.107891337;-9.110494304;-17.99241411;21.9976635;28.43507405;5.974973637
20.08131884;-12.60415638;22.9679867;-5.213974854;-3.122208164;-2.435381006;-3.436292189;22.65109799;11.60784247;25.30029293;8.405360957;39.38481426;8.944381875;-0.815737304;-7.362287872;-23.99546608;18.49483106;23.51718324;2.598074883
17.79457195;-16.06342474;15.18101966;0.947578936;1.576443737;-3.599956923;2.371358768;18.56007813;10.046871;15.57421974;8.312997316;38.65897234;6.574666905;-1.057594056;0.37984873;-15.55746608;17.65716829;17.38289254;1.703130029
21.52354662;-13.02390075;14.48246083;6.301907904;8.349339511;-2.090346496;5.359237308;19.08552703;15.40310468;11.45219837;13.48743938;46.40546961;9.851270095;2.927226752;5.810479563;-0.122504576;20.35892073;14.26908283;4.269028431
29.51618133;-6.499642105;20.72832951;7.006460481;12.19770101;0.743385348;2.770877848;23.12902796;24.56223628;13.84637464;22.35952706;56.84683131;16.34838261;8.552551656;3.096260257;10.38353647;24.04736855;14.69;7.752989398
35.65766786;-1.935351827;28.02607473;3.386560124;9.952899531;2.303020111;-3.051442301;25.26336772;29.48397028;18.10669564;28.57237306;60.81138078;20.16634416;11.47060942;-5.938088457;9.493024748;25.14297172;15.66339486;8.425043199
34.70401831;-2.659492904;30.17845749;-0.920788977;2.934862098;1.149813257;-6.808788722;21.00267905;24.69280709;18.8009576;26.75667934;53.63226048;17.58201137;9.492622196;-13.64664296;0.830733845;22.47821688;14.36416828;4.943776787
27.22458105;-7.284622317;26.22750129;-2.727748772;-4.158465483;-1.635148878;-5.105439351;11.30461713;12.77078606;14.71250079;17.74003906;39.41874441;10.56997791;4.403226594;-13.62557963;-5.977865885;18.51368716;11.40243693;-0.176754626
19.58281792;-11.27681771;21.05389951;-2.252843919;-7.089777586;-3.418090143;0.433882057;2.144882129;2.565801779;9.627863033;8.153029591;27.73466742;4.865630641;0.07656578;-6.520451833;-4.155547116;17.10171834;10.4004294;-2.681523216
18.69658159;-11.13888069;20.59970989;-2.444021544;-5.252397277;-2.442572337;4.658195061;-0.462809772;1.540861047;8.556345937;4.627038923;25.50511614;4.395027235;-1.206741315;0.674372107;4.405804116;19.81094932;14.25061127;-0.431740257
26.11068612;-7.358938987;26.22157737;-5.406888356;-1.501959736;0.51180475;3.631192868;4.522709786;9.215638766;13.16210524;7.933982635;31.3628135;7.373525156;-0.703072008;1.099651848;11.24533799;24.26036722;21.77514702;4.528777088
36.65443353;-3.540341391;33.40485234;-9.552889536;0.930870744;2.793220615;-1.736311253;12.62007813;17.79404085;20.63126927;12.59319666;37.53187896;7.896699796;-1.59514439;-5.684813186;9.251192213;26.14403176;28.23203669;7.688452473
42.89359986;-2.727739292;35.96059286;-10.5027274;1.433979318;2.287390035;-6.510872934;18.0817412;19.49911232;26.72539312;12.39031599;37.49370097;1.722391649;-5.446603959;-13.36652615;-0.724213776;23.21969531;29.43739033;6.115977882
41.39011138;-4.510937023;31.73426946;-5.212461814;2.157432201;-0.625145161;-6.274423542;18.90425055;13.86859965;29.79324314;6.619050032;32.28369588;-9.093758532;-10.223896;-14.76915936;-10.40580483;17.61767426;25.69054717;1.191214154
35.19994399;-5.64824988;24.50007813;4.454043448;5.350429347;-3.374012526;-1.208930415;17.95968395;8.161944014;31.77907642;1.015884592;29.38242912;-17.19032926;-11.91492322;-8.535907357;-11.28329313;14.23015162;21.67840396;-2.531285675
30.52348187;-3.531318821;20.32338205;12.29135013;10.62007813;-3.513575389;4.040389861;19.35879984;10.33164404;35.36674139;2.259861256;34.99282403;-15.92747337;-8.310940283;-0.462547225;-2.080676337;16.4679346;22.22962274;-1.40224493
30.77153255;0.938798973;21.85583929;12.42789961;14.88794452;-0.94317677;4.620203953;23.70346205;20.99384988;40.27639599;11.08679718;46.9041962;-5.174529862;-1.343469896;1.755295462;10.07360754;23.13329438;27.76778388;3.939019534
33.6019456;3.958742213;25.94685514;4.259012523;15.19340513;2.001816935;-0.056649113;26.95454395;31.99879252;42.62516321;20.68749445;55.11;8.370019531;4.39915188;-4.440748059;15.78736472;29.26763894;33.7732207;8.973277763
33.61476135;2.465777415;26.82138809;-6.714793069;11.68302686;2.680597343;-5.741556993;24.1944247;33.30175961;38.29218829;22.38334994;50.51488718;16.71966898;5.781739625;-14.09153;11.4423871;30.32483684;34.9340818;9.22341136
28.04351786;-2.62164283;21.82240392;-13.08;7.816907251;0.550930255;-7.235435356;14.80648751;22.14846542;27.22673014;13.73652514;34.34684425;17.12055339;4.082141166;-19.17952934;2.095789375;26.03152755;30.24596643;4.229620265
19.93732965;-6.766872488;14.26083391;-11.29728374;7.377333853;-2.35994833;-3.176604906;4.026279547;6.187025392;14.47394492;1.599749349;19.36384452;13.77154493;3.921689839;-15.84930671;-3.205395484;20.5377511;24.26667399;-1.979937641
15.66906879;-5.656204676;10.58199916;-4.218241584;10.92630102;-3.349895717;2.676575597;-0.974071215;-2.625868917;6.589116663;-3.160246039;20.47538915;13.30735181;8.951901948;-7.782762065;0.551745597;18.74722495;23.16423228;-4.370707256
18.97812055;0.938536957;14.38768691;1.705232246;15.03267641;-1.552161905;4.875550623;2.798418571;1.832874516;6.432183745;4.974106204;41.70088175;18.27050019;18.17207731;-2.651333858;10.10725991;22.10149173;29.03789565;-1.251196722
27.14277408;8.8945671;22.87492222;1.962127527;15.15100716;1.264053732;1.296018891;11.36712504;14.62749501;11.01360261;20.95065521;70.37864456;24.61229001;26.34700365;-4.930009766;17.13441171;27.5311131;37.74402963;4.361394301
33.04775365;13.42473379;29.10342274;-2.571793925;9.665575457;2.353394786;-4.874214108;17.04029465;24.17503402;14.42030029;32.95576815;84.38440819;25.54775798;28.34394453;-11.72003906;15.87464464;30.4;42.37988581;7.520104627
31.47435607;13.36512303;28.12547247;-7.108981646;1.437405495;0.582069473;-8.029763978;15.00099026;22.43202373;13.23272971;32.23417667;67.73331329;18.21937036;23.59256476;-15.48164667;8.272292798;28.68712348;39.39549975;5.720190148
23.9157111;12.05761855;21.38604191;-7.716449633;-4.624972463;-2.467899408;-5.294118528;7.414870122;11.80154641;9.508571998;20.46035711;22.85966985;6.973876584;16.63577442;-11.21146509;2.009056521;24.6174298;31.78743818;0.936554089
17.41101756;13.93311588;15.33186813;-4.887970962;-5.837039775;-3.933162342;0.808464021;1.371005777;2.642494805;8.580806281;8.195290129;-29.94196562;0.086766038;13.19470731;-1.442255928;3.288336743;22.3703868;26.39080028;-2.417250713
18.31150561;19.95810674;15.49030902;-2.715751973;-3.984252528;-2.341098301;4.638015007;2.495193678;3.72555335;13.67493982;5.751460479;-65.6431239;2.745676638;15.23017288;5.655671598;10.97464791;24.10538408;27.67202418;-1.627908708
26.58783851;26.30258093;21.47735439;-4.62050519;-3.470406637;0.959337813;2.613383948;9.986377842;14.32201198;22.334805;14.4745093;-70.42074569;12.57163917;19.43328868;3.51095378;17.4668656;28.02344064;33.6967931;1.918598894
35.88793984;27.68672555;27.54827274;-9.786620297;-7.042613938;2.972993038;-3.471656114;17.52577089;25.06945892;28.06972115;26.03979709;-48.98491917;21.72220312;20.49259505;-6.779636224;15.57798516;30.20213987;38.01961129;4.231203792
39.33399584;22.45633259;28.15439881;-13.73368284;-13.04234653;1.801121441;-8.063480767;19.14129755;26.72470062;25.8828907;30.19818414;-18.97500165;23.69411363;16.13203281;-17.11506351;5.218566613;28.37678823;35.79800858;2.616146519
35.76335615;14.62871611;23.28090662;-12.53024732;-16.79733505;-1.567338514;-6.94528385;14.57946729;18.70981363;16.74437499;23.90811674;2.110295114;18.72230095;9.275025977;-19.31947611;-6.202947474;24.03571949;28.46842867;-1.714381765
30.66320075;10.7590838;18.50454207;-6.684034162;-14.97586794;-4.099476243;-1.142341886;9.225760307;9.573705053;6.948392115;13.69015191;7.31658478;13.00588202;5.311313922;-12.19377499;-10.11484926;20.83869483;22.56033742;-4.780078125
30.91293402;14.23878463;19.63725919;-0.972213769;-8.925015765;-3.468269781;3.977417147;8.708049853;8.950810135;2.880711635;9.286211221;1.354176709;12.64868578;6.969264747;-2.395458617;-4.216675845;20.90561608;23.62880955;-3.632162945
38.19220396;22.17835537;26.95909167;-0.226427086;-3.82332749;-0.201598104;3.617861917;13.32105745;18.47109068;5.847953935;14.60102145;-6.236804154;17.98936842;11.57445098;1.603800853;5.652483304;22.60673971;30.90213629;0.787499185
47.21220095;27.87766543;34.56371588;-4.896460528;-4.243653507;2.762334907;-2.018824746;17.64286408;30.10418571;11.52462825;24.27203786;-9.009272929;23.52823727;13.35633895;-2.991096755;10.88698071;22.10113296;37.73085588;4.46276274
50.50748184;26.84905432;35.65288837;-10.52421205;-10.0498023;2.740247253;-7.885747619;15.86890392;33.5931703;14.35512375;28.93586919;-6.593260773;23.39302182;8.823197741;-11.09190523;7.871728415;17.26679075;37.62503475;4.071650722
45.41076142;20.99662743;29.00207034;-11.71657949;-16.37115266;-0.237934011;-8.722088037;7.907136709;26.17781337;12.77613369;24.20401863;-2.112718945;17.11236631;0.302087498;-14.69139633;1.100078125;10.24100249;30.39855351;0.165180625
36.69768225;17.042448;20.52728633;-7.041307169;-17.79228067;-3.443753979;-3.916891159;0.316139685;15.53355209;10.48053397;14.93884067;1.953352563;10.19268898;-5.723933759;-10.35770439;-1.179934554;5.920527;22.63266504;-3.292557614
32.30291822;20.43199918;18.24543699;-0.344887811;-13.08075654;-3.946089602;1.896838137;0.794167969;12.969224;12.66985931;10.78808774;5.350445329;8.891189755;-4.169981875;-2.36003418;5.165002817;7.529208324;21.77297579;-2.677723123
35.94401721;30.13990366;25.02316427;2.774552766;-6.22649962;-1.305049888;3.114056049;11.0026731;22.9229371;20.86685236;17.07711013;8.548621532;14.09514935;4.10732179;1.408728777;15.96557289;13.27957708;29.10349783;1.737677632
43.49192651;39.1567725;35.71951071;0.138359544;-2.833621067;2.023336916;-1.613163442;24.38326119;38.40415514;31.12126972;29.54710409;10.88778786;20.17879665;12.87255659;-3.103760195;22.16111977;17.41512196;38.10540819;5.835354468
46.61316772;40.41307843;41.49021564;-4.978354341;-5.07755598;2.96160775;-8.03810765;31.35832768;46.80408584;37.23069322;37.95624923;10.89682838;20.13202276;15.73758707;-12.20164772;17.85041677;15.02979064;39.97637116;5.39694766
40.51366467;32.95970944;37.53422931;-6.900400422;-9.747692574;0.67283844;-10.17919635;27.59203428;41.06663536;35.95202149;35.36526813;8.369889881;12.33036245;11.42829016;-17.75167478;5.760295629;6.508645034;31.54404007;0.134415952
28.6898655;22.87910318;27.34403171;-2.944247163;-11.13585117;-2.648505881;-5.875756236;17.94436909;26.16674922;29.42725104;24.56800994;5.50425076;2.580443879;4.452835228;-14.68996645;-4.845183478;-2.460595187;18.43678864;-5.7987722
20.15944274;18.05256065;19.58900641;3.850774749;-6.181902132;-3.815891301;1.096324776;12.34003906;14.90278535;22.76527513;15.63182753;5.289557314;-0.72852152;0.712639625;-5.774483865;-6.02477699;-5.532061192;10.47789613;-7.435894977
21.48124201;21.4133342;20.40077576;7.303877642;2.723929219;-1.647005773;4.383037045;16.96811218;16.62765868;19.28468316;16.68367375;8.438131556;5.835119794;2.169057814;0.881336863;2.191609649;-1.055640093;13.25209015;-3.515239639
30.75049589;28.68164566;28.00749293;3.763738141;9.747602964;1.879144207;0.87696183;28.58591132;29.01878131;18.00278187;26.41350327;12.10485814;17.38584977;5.461141744;-0.700827095;12.25396092;6.53802622;23.3323138;2.301212678
39.11664306;32.52405141;34.53764179;-4.303646734;10.5662439;3.425388414;-6.342550085;37.15837794;40.35136437;15.61860301;35.33062544;12.19512757;24.79642118;5.645497109;-8.750845925;16.12343134;10.5457962;31.44930434;4.736910458
38.5923781;29.25981812;33.29062624;-10.2267058;5.828116504;1.426179864;-10.73218421;34.70632213;40.2642602;10.77364327;34.77186184;7.439283586;22.73288862;1.432017138;-15.27830767;12.44336914;7.632964985;30.75115837;1.762708686
29.15318577;21.96018739;24.80872393;-8.991190855;0.149616512;-2.370128744;-8.257271978;22.59;29.24953686;6.120078125;25.35933394;1.254119919;14.45430681;-3.13347212;-13.44973526;7.351668707;0.358303768;22.69364493;-3.503665755
18.69460869;17.16062696;16.23663348;-1.821170049;-2.198059219;-4.439611225;-1.149851654;10.65836575;18.16834535;5.909716488;16.86838492;-0.867934751;8.956330374;-2.282549313;-4.050275041;8.297607849;-5.513378788;15.26241918;-5.725456412
15.88736338;18.3540126;14.6627017;4.740578986;-0.816283505;-2.742180189;4.061028714;8.828686115;18.13994942;11.36942617;19.26319307;3.537809547;12.89563365;5.82885093;5.024025689;16.66120612;-6.306212368;15.24515192;-2.477873834
22.45881021;22.45940787;20.67162198;4.572477897;1.251905896;1.307108183;2.522883272;18.4409804;30.00886024;18.5981533;32.95676764;11.01979662;24.4853861;16.75014025;5.943469417;26.08598429;-3.463487238;21.74902196;3.216490349
31.9481113;22.70604948;28.07695936;-2.54105438;1.223124836;4.040150662;-4.42233647;31.05687896;43.15219253;21.5385281;47.44688657;14.60119582;34.85069641;23.06596661;-1.727307876;28.17520033;-1.660921865;27.03455253;5.482689486
35.99276838;15.314763;29.9825361;-10.62905641;-0.263608108;2.881144409;-10.38533777;35.85302411;44.98973282;17.64087466;50.10014388;9.731672924;35.66456628;20.61461197;-10.38270101;20.3624249;-3.977089212;23.96742143;1.111091061
32.19945772;3.623016484;25.36748838;-12.78940394;0.256377256;-1.224723406;-9.78;29.12324497;32.72292734;10.86249038;37.52539242;-1.450659916;26.26822278;12.0238546;-11.22163491;8.64332091;-8.816001258;13.16532666;-7.079575494
26.15109181;-4.518655458;19.89313029;-7.322171443;5.244650279;-4.587350974;-3.038295836;17.46995901;16.52543047;8.710359117;19.22843164;-11.59404601;13.99837209;4.326630809;-2.459786711;2.469518055;-11.54598678;3.029261004;-12.34303286
25.59408664;-4.001251721;20.11531823;0.759299309;12.94314436;-4.116446446;3.664264211;11.82222744;10.90777744;15.5049528;9.834676719;-14.29656022;7.602823598;2.780994176;8.676484085;6.298280827;-9.253789839;2.327410099;-9.932239711
32.30291866;2.296809499;26.64136588;4.221127605;18.23655514;-0.192732126;4.031928388;17.57751012;21.67619327;27.87533953;16.40451346;-9.530019531;9.798049631;6.497037556;12.25052472;15.4707091;-3.930337755;11.97227224;-1.564238342
39.54094677;5.45162161;32.95937888;0.084167945;17.19659655;3.611251374;-2.487096559;29.66974167;40.16447337;36.89618689;32.05335703;-3.39470125;15.6021983;9.819484714;4.699322089;20.26625969;-0.794253333;23.63416832;5.773669377
37.97758753;-1.643003766;31.41041779;-7.748884217;11.16258886;3.773356991;-10.03937681;37.05518886;50.24278697;35.40020967;41.80926241;-2.389346629;17.62046419;8.09399372;-7.553976223;14.56711746;-3.118293543;26.7789265;5.858753015
24.9030054;-17.38881584;20.88222289;-12.09884122;6.253308822;0.081722736;-11.6449398;32.75348597;42.32860975;24.12890913;35.8718297;-7.474651721;13.07156711;2.357399104;-13.47151743;1.327611648;-8.480414502;18.01435163;-1.174745735
8.071952245;-32.00957815;8.808002455;-9.114316915;8.254574525;-4.115378554;-5.65564828;20.5659689;22.22821599;11.14675078;18.6959642;-13.479319;5.94113528;-1.530722999;-7.186762987;-10.08651583;-10.32716671;4.335445723;-8.764115718
0.025264532;-35.5028726;5.078689457;-1.917030347;17.2636139;-4.963880203;2.576013331;12.36704703;6.876486707;4.904599223;5.710955577;-14.43117144;2.46402584;1.413118714;6.498325403;-12.21071034;-3.862854016;-2.79480707;-9.603801559
7.413783497;-26.26817415;13.06907225;2.035001203;27.07906034;-1.685678724;5.486900991;18.01754995;10.29155635;7.163224886;10.16851006;-9.723295658;4.576585638;10.12662231;15.95365361;-5.796580629;8.982719513;2.652273494;-2.127643759
24.77383423;-12.72601927;26.05851866;-2.433551405;30.26713647;2.643506901;0.267884937;36.36940112;31.51;12.23225433;31.26283825;-5.031351539;7.914602022;17.89373396;12.66894822;1.648808102;20.30409756;16.21859082;8.000296297
38.63532084;-6.211078475;32.75728121;-13.46307267;24.63012812;3.910400698;-8.407167612;54.9812053;54.60183263;13.20294124;53.697854;-6.735571518;6.479853374;18.21755302;-1.418101202;3.621801035;22.47257883;27.24561579;12.78130413
38.72435612;-11.14154004;27.34571067;-23.42967786;15.25382598;0.821561176;-12.5312359;58.88300248;60.65333082;9.255347318;59.15787032;-14.91375111;-0.539229882;10.87341717;-15.67234016;1.249925033;14.5615736;28.5280938;8.835153882
26.5182683;-21.04983512;14.98950519;-25.04183933;10.06652219;-3.793899876;-8.119238771;41.35138567;41.78511795;6.901696435;40.1684524;-21.78345335;-6.729495641;2.438042708;-19.99538368;2.308024141;3.171361795;22.49306619;0.203710732
13.55096665;-24.06895726;7.533666245;-16.90811762;12.70049027;-5.536108622;0.978862989;8.367613837;6.14462349;13.58835898;5.177287166;-17.781694;-3.809322429;0.552911695;-13.32495913;13.26192589;-3.258961548;18.28345074;-5.477903052
10.93450961;-13.21455035;12.89207777;-3.945687316;19.09330231;-2.558663365;6.447738621;-26.04861266;-29.12432776;29.46716552;-28.53992737;-0.341079088;10.193571;7.030204104;-3.938856405;31.74218109;-1.674300587;22.54543906;-3.926951979
19.46236613;7.418908898;27.59238574;7.210585975;21.10690455;2.568978017;3.127660191;-49.17633127;-50.10450089;45.41223627;-47.42847333;22.55926139;27.73222297;16.18051347;-1.535091125;46.8692573;3.330398666;32.61079829;2.063197672
29.18280429;25.85256703;39.40838835;13.27730212;14.128022;5.099741686;-6.080491654;-56.27389414;-53.5293054;50.00966867;-49.26252704;37.7815139;37.17819824;20.07372137;-8.422894543;47.84392498;4.278540604;38.63153221;5.498185181
28.78224499;31.90967853;38.03046184;15.38352786;1.818816532;2.497050909;-12.67431645;-50.61994246;-44.92881004;39.8522173;-40.83972635;37.19223758;32.62948571;16.00303352;-17.79198759;33.46107196;-1.757126568;32.91794108;1.954963179
16.19016778;24.95992008;24.32419861;15.83769807;-6.496944694;-3.071377798;-10.3129439;-38.8319283;-31.45440378;23.76543757;-29.80405375;23.97512141;19.34627307;9.187662081;-20.41520777;13.9066705;-10.00187962;17.86684315;-6.07517491
0.6708886;13.28566536;9.752678739;14.53082088;-3.781712499;-6.554692772;-0.822332875;-26.43913165;-16.91191424;16.4035017;-18.9398878;9.633641942;9.537538165;7.977129767;-13.38317515;2.819945805;-12.22262842;4.872848654;-11.38878981
-5.554198908;6.234581244;6.296250147;9.041667165;8.404122274;-4.622093508;7.215250181;-16.7761021;-2.647638097;26.08804181;-7.451873322;4.356740485;11.81851636;15.78853225;-2.700356982;6.324024503;-4.622407177;4.751569055;-8.855944663
1.541355997;6.583414502;15.87259414;-1.545688843;20.9575277;1.15247662;6.233704638;-12.09479732;8.801453451;47.38090013;3.868040023;9.231514306;23.63261889;27.28119639;2.605028533;18.60185197;7.957022963;18.09856602;-0.474505248
14.19486414;9.847243583;28.87803871;-13.31375451;24.89697096;5.561818928;-3.198401497;-13.84839411;12.99893584;65.26660165;10.42774314;16.96231462;33.59879234;32.62507831;-0.78961931;27.83131395;15.70991963;34.34833241;6.152387868
20.22657609;10.45668193;33.26737041;-18.91356136;18.90062044;4.480511294;-12.57691321;-21.08289317;7.61947236;67.75490329;7.754564866;19.91278295;31.89815397;26.28271223;-7.280980992;26.98515502;12.38372013;40.59673524;4.707696294
14.58022413;8.252100946;25.89854683;-13.43921097;9.985968292;-1.249686142;-13.07921554;-29.18436143;-3.140131245;56.04268448;-2.423348171;17.62021899;19.37413362;12.31365393;-7.804672794;19.62538868;0.920236311;32.43369043;-3.878205749
4.202327701;8.684560428;15.59866368;0.334891693;6.726871682;-6.428860599;-3.795733786;-31.8480617;-9.647701716;43.18227074;-11.0778001;16.63368918;6.928965239;1.092583237;1.110286579;15.48973262;-9.146750226;17.17726005;-12.02952725
1.481708284;16.479357;14.86179385;12.77243559;11.19587569;-6.207205619;7.073132359;-25.95298901;-4.225179373;42.24313694;-8.504034679;22.98740663;5.525672478;0.127507093;13.38704957;20.202031;-10.41899437;6.79018226;-12.35319129
12.18244314;29.20370309;27.64130172;14.58729206;17.05822667;-0.644661215;9.470509855;-15.2157143;11.30581753;54.42590444;6.565456361;34.84798432;15.84286346;7.288951617;18.61931769;29.03767971;-4.539078349;7.135025872;-4.507740237
29.23470441;37.66647328;44.64494026;4.6889821;15.65907016;5.15950344;0.7968426;-8.407594274;25.62336804;67.87062216;24.17283148;42.93590139;27.26320056;12.85018607;11.85168198;30.98818977;-0.699701021;13.45564694;4.31567647
38.60816914;33.64889928;50.98176248;-8.423983429;4.529287684;5.67353899;-11.30369257;-12.46547753;26.89630407;68.4374543;30.51519699;38.92663078;27.50735684;8.742270316;-1.304007408;19.60828336;-6.807355913;16.03873557;5.952444992
32.25140729;18.08036766;39.65762441;-13.59630323;-9.680727348;0.149584517;-15.58542177;-26.06178092;13.49765115;52.84570117;19.86335911;24.04971092;14.2961545;-3.437101153;-9.417395676;0.347213129;-21.36251674;10.39700016;-1.071241066
16.11567989;1.613435978;18.63897837;-6.683450222;-16.84470007;-6.4369571;-7.536614882;-39.80499154;-3.544151855;32.14768007;0.320505837;9.27383685;-1.865559372;-13.35572634;-5.840564031;-13.13993424;-33.88598313;2.032719716;-9.949189223
5.356450941;-3.823069546;4.593543118;5.574145726;-12.60611261;-7.819059832;6.037164477;-43.82867439;-9.622808793;22.0696391;-12.54596155;6.036900909;-6.867934217;-11.45169909;4.715358987;-11.02139808;-34.07142334;1.020799794;-11.79635348
10.56991612;4.640678346;8.431139482;11.31670745;-2.635295772;-2.331375838;12.74618793;-36.57019138;0.234228974;28.77454407;-9.27842127;15.6520993;3.863537823;1.523329616;10.24047872;3.279048017;-21.56383088;11.5376364;-4.060366727
27.62732375;18.12023149;25.55315996;4.267841381;2.37081437;5.225414436;5.876086111;-26.64533997;16.11227075;43.12762462;4.777367266;27.51483462;20.41464853;14.05168708;2.931159764;15.5124072;-7.115847474;26.67155474;6.763615369
40.94020497;23.94605304;39.89932866;-10.13673598;-3.336446618;7.742071123;-9.000798836;-25.36379942;21.61432021;49.10409752;14.07039578;28.58926048;26.75390396;13.63958638;-12.45540974;13.5065514;-3.380271406;34.15367115;10.96704262
37.80333548;17.47031815;38.51501978;-19.09377923;-14.82905145;2.409684097;-18.47306776;-36.0505705;9.181251128;38.97989228;7.26903356;15.99455627;15.37316147;-1.57991968;-21.78822353;-0.967833438;-13.25104658;28.13505604;4.859030815
20.80765158;6.791074005;23.53539256;-13.88591372;-20.72874067;-6.31386719;-13.3078817;-50.00900606;-11.62310075;21.23;-11.43136518;0.836331394;-5.131614158;-20.16659327;-14.2991116;-12.81012432;-26.54053486;15.72437899;-5.282348757
6.338692826;5.418262233;10.3876381;1.683704157;-13.97748704;-10.41860985;2.666222955;-53.65374533;-21.4542779;13.19265693;-25.03719113;-1.192857245;-17.05528813;-26.76843232;6.437692893;-7.18884941;-28.72667361;11.21721057;-8.678033144
9.614153987;18.99114288;13.37995282;13.88331576;0.714994428;-5.679537607;15.24730771;-41.18569429;-8.752303173;24.49786139;-18.99335378;15.35607028;-9.517145006;-15.72328357;23.95492212;15.66412427;-14.44684907;22.46289779;-0.313951107
29.55603473;38.3025828;31.66882008;11.04277449;10.15140219;4.055270711;12.36829119;-21.32819621;18.08293933;46.43904951;4.519772708;39.11314982;10.97313057;3.419258967;22.68257021;38.43998735;6.58320007;42.00713215;13.54638939
47.96731436;45.94072884;48.87487234;-5.482203462;4.411688107;9.88693894;-4.505813661;-11.06240829;35.99096995;58.00179924;26.84050441;50.63627141;25.49495706;14.02662525;2.388222817;40.72031593;17.38911823;52.29135827;20.32200879
45.0851924;31.62584702;47.52806891;-21.6124823;-13.38236815;5.892225073;-20.70701741;-20.82972851;26.91650934;44.42327558;28.63724025;39.65288262;19.57926228;7.418237241;-20.11385351;17.44064947;9.078788003;41.49794631;12.69515643
18.284744;2.694397681;25.66498089;-22.7304326;-28.763884;-5.01886775;-20.94777672;-44.15185233;-4.982083183;12.02042527;7.761899403;15.31113348;-2.999843398;-8.776376975;-24.77819536;-14.8540038;-10.05101983;15.9453032;-3.703945742
-13.38554458;-20.50164212;0.069437116;-7.437462728;-28.5080946;-13.09503247;-3.462470015;-61.80304762;-34.75730526;-14.93958804;-17.38687662;-0.858321656;-22.57467833;-17.17032832;-6.389504237;-30.81894185;-20.72015845;-3.326880761;-14.25454758
-24.39138787;-21.40304375;-7.876399809;9.753541834;-13.19999415;-10.35606333;17.1777438;-58.11040454;-37.23263912;-14.17775839;-23.35230135;5.781420796;-21.00253104;-6.926020249;19.30946589;-18.04662647;-9.764425867;1.560516082;-8.342738832
-5.302912536;-1.866240991;8.238869469;10.37639089;2.117461014;1.696174967;22.05100127;-35.44702954;-9.65764393;14.56264164;-3.116953518;28.51248356;1.027937122;14.89255108;28.12261277;11.43349038;16.80787317;28.18765563;10.02170904
27.42610116;18.94634099;32.80220104;-10.89129727;1.033411142;12.57636374;4.925914432;-13.32483225;24.03983606;47.60188559;25.90236888;43.78401438;23.0104659;28.17629388;8.871000002;31.17724699;37.33022888;53.65130283;24.27507767
44.57275371;21.56010714;41.28862366;-39.12143118;-18.32113516;11.80993643;-20.72358015;-11.48152725;32.92141749;56.76152797;36.01060766;32.43833419;22.2493424;17.82589743;-24.81236538;24.26996275;32.91943779;53.47883243;19.48519506
30.02757151;4.599875243;23.0105034;-49.63418761;-39.2738735;-1.168951465;-31.95082445;-31.15764433;6.844681314;34.30361672;14.42240894;-0.602535459;-4.713723219;-10.73147063;-43.94583995;0.132975085;5.294301312;24.25871235;-3.309494135
-3.220941686;-12.37704287;-6.917711578;-28.72946724;-39.77822381;-15.35215058;-16.15505028;-51.87999958;-32.16698712;1.303854267;-22.84776038;-27.0539989;-36.50703858;-33.57407067;-28.5201787;-12.14089093;-22.48769989;-10.52007813;-25.97213582
-22.51333857;-5.769679571;-18.69862069;12.49603211;-12.6804897;-17.13260529;16.29910876;-48.51751317;-46.87909539;-9.42;-42.41302332;-18.43978668;-43.97443602;-28.16213031;13.44975936;9.865257121;-24.82449246;-18.74993473;-27.9225809
-4.036799606;29.10011903;5.765023031;43.98558148;24.72129247;-2.781276632;38.39890368;-15.14782933;-17.53023421;17.45426829;-22.42697119;26.7841784;-16.50996675;5.13755136;49.33562827;58.18349037;3.159105914;11.76210062;-4.923036945
43.75310424;69.57284266;53.80767715;39.18862632;42.03834355;16.63490211;27.84343718;25.54353999;37.62652768;63.58891262;25.52863119;76.57147437;25.43112488;39.47776505;46.82888551;95.73046665;38.43756732;59.14581328;24.68075431
83.50277991;81.36830058;88.46858574;-3.167340521;20.69272971;23.23057565;-13.65527157;37.89948701;73.52043065;89.52653812;62.13290466;87.97344513;44.49594886;41.5082405;0.927619711;84.73358932;47.17924683;82.04468039;33.38327147
78.70231273;47.30463888;77.58292194;-55.90066787;-27.88737596;7.467384104;-59.50350844;3.14801372;54.48037558;67.39485871;51.44;42.88555028;17.45260751;0.044316763;-59.49121835;20.37754372;13.51311717;53.2304041;7.869578237
25.91331256;-14.85935402;22.23394794;-82.38860293;-67.4006951;-22.16146604;-77.51158693;-61.27758964;-13.76986521;6.795192381;-7.441420041;-32.79954942;-42.61858736;-60.75197074;-92.12398694;-59.30681348;-44.08136491;-15.08443154;-37.23490045
-38.54181442;-62.22557638;-40.24715356;-63.52102619;-63.37944525;-43.99085234;-54.40683169;-111.1505975;-84.3439293;-49.27182637;-75.62409367;-85.01555532;-93.17981239;-96.85479572;-73.25170662;-98.63226364;-84.1897081;-76.84884524;-68.22875685
-65.33534312;-58.66975332;-63.58085164;-11.64049212;-11.25829076;-39.82784508;-5.972577587;-108.6730692;-104.1159113;-57.38500553;-103.0373672;-72.51032993;-94.82465398;-78.28473261;-15.90485876;-66.86064894;-74.44879558;-86.64;-58.41788529
-31.90038788;-4.054994333;-29.39930162;39.32;57.1961253;-10.26289987;35.32578365;-53.67180927;-56.42828688;-9.642223271;-68.56045722;-1.021836386;-43.92840343;-14.64546444;40.41667011;15.64893838;-18.76463942;-36.26086063;-10.80876354
37.68321626;63.59106721;36.5758852;59.40899005;95.84883645;24.3318995;45.12957144;13.5444329;23.59528587;57.59433854;1.363417769;78.11036814;22.14506922;49.57221912;60.15;90.38136547;43.32661459;36.81740719;41.9016578
90.54059034;96.28142629;83.66164894;43.64223354;78.54623989;38.93213737;24.41027786;42.14414107;75.32550308;91.1277064;52.44754236;106.1184623;53.33612945;68.13845603;37.74128026;104.4823049;66.36812918;77.65840089;61.61110324
87.44218411;73.13812396;76.51417267;12.44364575;19.14107611;23.59424368;-4.212228601;10.97924631;60.76239114;63.66040551;46.10281378;62.83997211;27.02154536;29.36745212;-1.099325309;51.59303714;34.92082752;57.20741076;34.84499445
35.41546295;16.70943465;24.24681404;-7.381194655;-38.90150306;-8.12077819;-16.9248093;-53.29595866;-4.121625437;-2.778879279;-8.300422859;-16.12293502;-32.56089688;-33.58666355;-22.77138;-23.0574808;-23.28431889;-4.085693546;-15.67448122
-17.00163627;-25.06515499;-25.97814278;-4.546341072;-55.54438729;-29.33677432;-8.225866449;-95.96665394;-61.05694986;-52.80391382;-59.61812506;-65.94895912;-72.39025681;-67.64472585;-13.55524385;-58.17254788;-58.44833313;-52.19487891;-48.04302851
-19.17739238;-17.2729076;-26.77336582;9.863660454;-24.11396402;-21.04201947;6.682953839;-77.37239191;-55.96225217;-41.45273347;-55.90580106;-43.01140728;-52.84550561;-41.09389117;11.2509334;-24.84466726;-38.01473346;-43.00060015;-33.99167997
39.09871399;33.82355199;30.21832103;15.07180944;25.11154582;12.4766213;7.71103324;-5.446273458;16.54589336;28.88406408;12.24264406;40.20947568;19.45777474;31.09974349;23.44574384;50.44264927;26.95245232;21.38769527;18.37824914
116.9654379;85.52264422;105.5070736;0.754071898;49.88919436;46.38062355;-10.57531644;68.64443934;106.5512519;108.3434117;101.2546707;123.4093774;94.82650144;98.05568505;8.440346378;106.5569072;89.54996741;92.93525622;70.20019243
153.2404808;92.52981787;141.1805953;-23.13232208;29.28260117;54.2419262;-33.00463584;89.01532535;146.0918871;137.0972449;146.3880233;143.8228237;117.7854532;111.5117397;-21.04699797;95.66916732;103.0536446;114.8123278;81.6060069
114.4777082;42.83745181;105.7014515;-35.10379501;-21.02232104;28.35668996;-36.72055856;37.79719119;101.2421809;91.20256068;111.279069;83.58276233;69.42162491;62.0379557;-35.83827457;20.45533844;56.78792374;65.97219202;42.29329461
21.99443538;-32.76875611;18.79696386;-21.51542365;-62.56097817;-14.44278686;-11.78639535;-51.22344571;-1.734199154;0.823341464;16.37076229;-17.16847823;-18.25751208;-14.92655935;-16.15366854;-68.33706365;-16.19889272;-22.09418145;-20.92088731
-63.62789531;-84.53069982;-62.99263253;10.45578421;-64.8923375;-45.71853893;28.44802821;-118.2488636;-96.14814089;-73.07986087;-75.91234328;-90.55465674;-86.64918451;-66.9462528;29.8717465;-111.01297;-65.04400025;-89.30407286;-64.93111102
-88.01242142;-81.30010888;-88.4052094;37.53919982;-28.39585448;-46.61626533;56.49952903;-121.7797671;-124.3613455;-84.66961346;-107.2624611;-90.39703547;-93.90135363;-63.71847144;71.02936033;-83.19514693;-59.50682061;-92.22465929;-62.64534695
-42.41069562;-32.19;-48.18946461;38.94;18.24073965;-20.8004558;52.16726506;-67.16275634;-78.28871736;-35.69113845;-64.89347435;-23.21949383;-43.59216716;-17.12624887;77.42103513;-11.0198683;-10.84779969;-35.09475622;-21.56772357
33.08017475;23.53233903;21.25493494;13.20402681;42.14325663;10.2118388;18.59072892;1.371598869;-0.840436736;29.76656621;12.80142463;60.65186106;22.04927472;31.74085575;44.18319033;52.53093855;39.90939234;36.44750273;24.69061611
83.05448519;48.35971873;68.26065418;-20.57059792;31.47013565;24.53319647;-20.19958291;36.63711026;50.14127583;61.97080365;68.47139041;105.9912531;56.68639832;46.16877468;-4.895348919;69.12954877;55.21215522;71.96719104;43.60794471
78.90351882;33.85613157;64.95151854;-37.92843958;1.86222234;15.85997477;-38.05159022;22.86930942;45.26961431;43.31196766;68.94749157;90.30874111;43.7109287;20.5717985;-36.4120251;41.05994104;28.58880414;53.19769455;27.40158157
36.44791549;2.554654952;24.61735883;-27.96363766;-19.24014559;-4.120140585;-26.37412953;-17.45127804;0.899105416;-2.15291612;25.95039357;33.26781317;3.799814099;-19.45852888;-33.04531895;3.145169159;-14.13870868;3.281677979;-4.618894586
-2.290185167;-14.5222316;-13.90264005;-0.701023004;-15.80184347;-17.2935776;0.891431889;-46.64147774;-40.07572054;-32.45852538;-19.04615289;-24.78141996;-26.67243738;-41.07942797;-5.130711025;-9.426440905;-38.52144984;-36.05422785;-24.61295715
-5.376825521;-4.279463605;-19.56817985;22.25873574;5.452180698;-14.11530368;20.10434182;-43.43415427;-45.05601327;-23.17425228;-30.43595429;-54.44628806;-26.20993761;-30.80691037;20.22605855;10.71405398;-29.12025659;-38.46495068;-18.95737313
25.18863865;19.89583129;7.556609117;25.28737051;23.53534207;0.143530077;17.19148553;-17.25688095;-15.55399062;14.7188845;-4.929673904;-54.0195126;-2.657064952;-2.518075858;22.20965009;41.03509961;0.989562089;-10.57322552;3.170686438
59.71440288;32.70590686;40.33674657;9.941714879;22.58239966;11.82113049;-2.460344237;4.183809708;19.12033951;47.38112962;30.57668367;-41.86318139;17.97857646;17.41250022;2.073014045;51.89217395;24.39201062;18.54145915;20.5256295
68.75610724;20.33957698;49.88286905;-8.466403155;4.978526694;11.27279587;-20.59890585;0.794654441;29.59142926;48.33821299;44.62678059;-35.65089512;16.13612135;13.25098818;-20.48446445;32.72571838;23.22427824;24.09791994;18.89890667
47.51505981;-7.8067258;29.61797981;-14.74366493;-12.18710953;0.427117921;-22.38588113;-23.4039603;10.65249332;20.16753589;27.27206742;-38.00265212;-5.11464216;-8.456852062;-25.65731896;-0.504279946;2.43932443;5.123440204;2.022971133
16.9018043;-28.21334907;-1.315691306;-5.880916984;-12.90570295;-10.20372709;-8.217239631;-45.95086812;-17.31445526;-9.665120167;-4.225613409;-39.04448125;-24.92629102;-27.01904597;-10.17583009;-21.06267287;-17.13736666;-18.17724741;-13.79739953
2.849806152;-24.04064934;-16.14178091;8.245951207;4.106681626;-11.41442258;8.207372554;-46.81158858;-28.29781535;-13.61455799;-22.26830654;-30.07162394;-24.35811041;-26.57296874;11.41870246;-14.89773572;-17.96899331;-24.26511028;-15.04955492
13.58597349;0.741881443;-3.224084327;14.77675533;25.32;-3.049506154;12.69437115;-25.34;-13.12408832;12.45625031;-12.27056321;-13.70681993;-2.794243948;-8.854165272;20.59322927;8.783578506;0.033847378;-8.752661665;-2.355636201
34.45234394;25.45853149;25.63045803;8.913003874;34.87857994;6.752595033;2.560487065;0.724445651;14.51217091;46.63417529;16.95073795;-1.326397293;22.62134241;10.35862319;10.81453103;27.66561642;21.57875836;13.80891957;11.46564941
43.10634752;30.4885921;46.91077198;-3.269655507;28.06463751;9.355600715;-12.18614032;11.77478028;31.74194148;60.22781026;42.52105197;-1.56766262;32.66343182;16.4162063;-8.001479947;26.66453052;30.70080372;24.45515346;13.71718505
30.13126058;12.9343013;45.71764192;-11.6266193;14.18948082;3.131994471;-18.54090247;2.899035092;26.40113409;41.77204993;46.78854284;-11.84571084;22.25395631;8.399872446;-19.40991551;10.0722842;24.21110723;16.47922417;2.991663495
6.615533175;-12.66056757;27.06465302;-11.35950009;7.267983667;-5.751091763;-11.9016879;-13.68007813;5.774150654;5.622988843;30.10235381;-21.05398574;3.402927921;-1.552125849;-15.08003906;-4.268480245;12.4931957;-0.278370759;-10.38156879
-6.963032516;-27.85447993;9.552528848;-6.490078125;13.42094971;-9.361707388;0.710492338;-21.0952075;-11.92855614;-21.12;8.033717207;-20.42821887;-6.522397322;-0.475567262;-1.221356134;-2.121051831;8.318818586;-9.949137094;-14.16469418
0.562094302;-25.48806789;8.235372968;-4.899199075;26.09253063;-5.05043142;7.70840637;-13.08;-14.21562357;-21.36406012;-2.469696227;-11.83420586;0.045792607;13.3087479;8.083708344;14.68237021;14.75566674;-5.346128498;-5.022975634
21.75122379;-13.59251829;22.02638194;-10.1799701;32.63326562;2.689577647;3.374507295;1.593521703;-3.960173663;-1.130460476;4.382817333;-5.523226704;15.53446766;28.94598232;3.833753947;31.1533739;23.08354944;6.426385512;9.11982693
38.23307061;-5.888069587;36.0219721;-18.03266396;25.75353594;6.749635679;-7.617333582;8.505733044;5.506192517;17.25477124;21.13707886;-9.623471009;25.42514517;33.15029346;-10.40629099;33.72057563;21.87051468;11.63338149;16.60027687
37.44637928;-8.493663265;35.78971775;-20.31259342;9.63394324;3.857848849;-15.07936327;1.406588799;4.017537222;15.17565674;34.7285836;-21.47963469;21.74600358;22.13187024;-22.61479898;22.57877352;8.258785957;3.006903052;12.18010693
23.04194155;-14.97586767;20.68820558;-12.70865108;-4.15761987;-2.846135509;-12.65292074;-12.21326252;-6.026265238;-6.295976873;35.89452455;-29.16308906;9.709743503;4.754758724;-23.54517233;10.75612033;-8.982965243;-13.74092318;0.893101035
10.14659674;-13.56736494;4.757875021;1.090759512;-6.647034604;-7.08159475;-3.135950159;-18.32579207;-12.59462167;-27.52491348;23.22636189;-21.93616592;2.249292943;-5.408766804;-14.64024621;11.42522154;-17.16719908;-25.33460896;-7.220480565
10.72490007;0.759598873;4.675933781;12.41718381;1.685013199;-5.226504772;4.598172231;-9.217678891;-5.802524853;-27.00681725;1.102064895;-0.142029351;8.127121088;-1.652282412;-5.817161071;25.56904652;-10.90289295;-22.75053264;-6.162310559
22.82588484;20.69248625;25.063854;14.89159972;12.7101142;0.661167066;3.824982801;9.774380153;12.6560512;0.451686951;-24.15586209;24.47610463;24.46;10.85063167;-5.758734785;41.29078465;3.299543018;-8.664283953;1.374230728
33.22706235;32.49266389;53.26037409;9.346812514;18.6633863;5.080433926;-4.232850642;25.33986969;30.87645829;38.6869833;-46.02330335;38.3090532;39.84800994;20.46757855;-13.91007813;45.05056966;12.90855333;5.656860609;7.411939531
30.36958103;27.93931398;67.65913875;2.231959207;18.70846393;4.232620128;-11.98893635;27.9895683;37.3013081;61.7946403;-57.7716833;36.75267703;44.60121174;19.55903044;-21.36746394;34.23503879;10.21995255;10.54181696;6.429617274
15.265742;11.54933307;52.95745542;-0.631388615;18.39769317;-0.702500725;-12.60174794;19.80735845;30.75288818;52.83306588;-53.75182992;26.96240274;38.65391318;10.58061799;-19.47799703;19.53331313;-1.446819026;5.806653265;0.174379734
0.417351622;-3.2498426;10.81349254;0.973175942;23.23442793;-4.962900165;-5.988137075;11.58984132;21.10067163;15.32211895;-33.11998418;20.5591604;30.51018537;2.909370116;-8.025855709;15.13673855;-11.29339136;-0.28107847;-4.543902718
-1.890671452;-5.466772706;-41.3635286;2.351794072;32.79927128;-4.727550542;1.515661003;12.58469413;20.31169825;-30.213915;-3.015355845;23.28037117;28.92733755;3.906872119;4.469604476;25.87888545;-10.67628293;0.737179512;-2.571915252
9.133844561;4.538902463;-81.64063733;-0.772084172;40.92670184;-0.516008635;3.171134067;22.39613441;32.00857586;-60.75779658;23.2129307;30.84038241;35.24723284;12.50859873;8.446181598;43.02091521;-0.1234795;9.899791335;4.768579151
22.3053372;16.05513168;-96.30613081;-7.59331907;41.48424279;3.529922549;-2.137521638;32.0932692;48.56021137;-65.07753882;33.47631963;34.14171544;43.0387376;20.79491493;1.847567914;52.33588098;12.11547887;20.49398373;11.07117109
24.99165411;17.58901734;-85.91339326;-12.72263201;34.10046947;3.606823249;-9.228439564;32.89734262;57.80859822;-48.29394212;25.1901745;28.37797536;44.68135011;21.55432254;-8.213690569;46.96287887;18.03648565;24.6580858;10.87847075
14.7961666;6.43715733;-62.22167484;-11.36850354;24.44392011;-0.295675414;-11.60214599;24.13125619;53.220275;-25.54069488;7.357275138;17.39852154;38.37552494;14.67051874;-12.05359522;33.34148319;16.83177025;20.46993157;4.650068359
1.668796435;-9.796093334;-39.81889664;-4.25595697;18.90499854;-4.545367283;-7.330146766;13.29082782;38.75204144;-11.109193;-6.09879469;9.591343414;29.22423301;6.69712691;-6.205244009;25.00377232;14.71831401;13.17677926;-1.814684237
-1.328321644;-20.38886766;-28.44421734;2.4925512;18.76058047;-5.315925024;-0.546869975;8.661151448;24.77277799;-10.98407421;-6.954319589;9.635120175;23.90181676;4.448599017;3.510469085;30.05752117;18.29751091;9.942924337;-2.757886885
10.02135211;-20.58273506;-29.85896822;2.650999623;19.28913681;-2.063423486;2.561569745;11.6816848;19.15428754;-22.33219245;1.364313459;14.16651253;24.32552121;8.770259617;7.288735759;43.79143291;27.88078121;13.30740552;2.401917537
27.37243225;-14.64667336;-39.33334361;-4.339872633;14.62092248;2.113256365;-0.593835605;16.13835646;21.35480879;-37.88382274;7.56553066;15.43108675;26.31504876;14.14559271;0.191225933;53.02668049;36.91996297;19.28112595;8.787479136
37.60227958;-10.84017044;-49.44956582;-12.42352745;3.77207531;3.417423791;-6.855860684;14.65176891;24.16753712;-50.71161445;2.859779641;9.283598408;24.25174916;14.22349977;-13.31335998;48.13511283;37.89113237;21.4213898;10.66776026
34.78862963;-13.40843385;-53.867702;-13.88179108;-7.769048174;0.80301395;-10.42642519;6.144791833;21.01283456;-56.53492997;-10.99341617;-0.21447704;17.07607797;7.971148302;-23.01121373;31.78020884;29.14390147;16.81419229;6.593953581
25.32817388;-18.96018726;-49.79981431;-6.010854934;-12.44379269;-3.20594007;-8.192577799;-2.763024086;12.20653039;-53.76823733;-22.94786448;-4.085132321;9.840437986;0.80372208;-21.45738081;16.5377735;16.55708017;8.540621294;0.444255131
21.56487634;-20.17681441;-38.77097692;6.271967963;-7.097561073;-4.948191903;-2.393631367;-3.693433548;5.002514777;-43.04485542;-22.16673655;3.382448058;9.324737097;-0.205366104;-9.925923986;13.68362504;8.682482535;2.757282607;-2.344022501
29.91664958;-13.07017975;-25.5438245;14.20665359;4.245749864;-2.97322797;1.638858153;5.77640235;7.686066063;-27.11151236;-7.483329685;19.17492215;17.79543837;7.428465498;3.09543141;23.37087723;9.835423549;3.395290419;0.280745781
44.55787523;-1.0278322;-15.50018119;12.1813211;13.72979527;0.755603815;0.41336395;19.73937597;22.70160805;-10.45900676;11.41869614;33.90893909;30.68411355;19.49179734;9.146380958;35.02819293;17.1366307;9.24395539;5.36678882
52.60377756;7.922823673;-11.63430379;2.060780029;16.10519002;2.792762023;-4.666796707;29.0430211;44.07943323;2.197586833;22.10913896;39.81450131;40.32235863;28.78414363;6.303431515;37.44560018;23.70095106;15.59642746;7.939973123
46.13116831;8.001031343;-12.94461833;-8.650946005;12.60357164;1.39335285;-8.78537229;29.12291262;60.67860478;8.200517613;19.71705966;36.99576902;42.34503445;31.10776425;-0.384299192;29.21;24.69846524;18.45772839;5.639625189
29.96566654;0.515540307;-15.44278962;-13.03871066;9.031544241;-1.984677067;-8.198161445;23.48441188;62.50358775;8.333317656;10.5260263;32.34734643;39.02723869;28.18788037;-4.230594139;19.88107124;20.82833267;17.42667385;0.723377221
17.87198268;-7.459150491;-15.22380857;-10.04240319;10.05759593;-4.144446044;-3.557077145;19.85160459;45.84319548;5.947610444;5.912524145;32.4415861;36.69380411;25.21948825;-2.788505607;20.78890436;16.54757613;15.13309111;-2.238095954
20.32484061;-9.12448994;-11.37281594;-4.514286251;14.90614454;-3.126766024;0.864897816;22.72373647;14.66164591;4.276017774;12.11599875;37.29070426;39.70395878;25.65286044;0.90094825;33.90357735;15.31453189;14.44099673;-0.653681865
34.88062574;-3.288181118;-6.466201274;-2.446603986;18.18025768;0.06202711;1.172725275;29.22847038;-21.55686981;4.023241465;24.81663272;40.8808458;46.48155443;28.11323734;2.225594411;49.16969549;16.55529447;16.280362;3.826410699
48.11054425;5.450192542;-4.292084514;-5.769090794;14.83358768;2.485239569;-2.6647499;31.96831856;-51.721025;3.209002263;33.09528966;37.77029566;51.05449409;28.0975256;-0.105944764;53.16376266;16.99618313;19.71728711;7.049360243
47.75380344;11.3188971;-6.684775338;-11.13912645;4.708182367;2.019933051;-6.956561468;26.08620914;-67.11308275;-0.641241977;29.08909056;29.1452596;48.54789833;22.58327988;-2.930340607;41.57107538;14.63871133;23.40874411;6.311815403
34.33846685;12.35175985;-12.07448771;-13.40260266;-7.317056976;-0.751807511;-7.774878833;13.99250682;-64.42645548;-7.856449728;14.8393281;22.20460722;39.62493495;13.12419744;-2.107651176;24.10651594;11.19838636;26.53340194;2.781070086
21.51531673;11.38680328;-16.84800561;-10.34740509;-15.43786399;-3.188242405;-4.500851271;3.470166777;-47.06177672;-15.78312618;0.539894161;23.23909284;29.99217686;4.619031479;3.009897443;16.78398281;10.50911493;28.47682462;0.202647579
24.04146266;12.65965798;-18.21381589;-4.515133688;-17.43765543;-3.081052081;-0.233419885;0.988621411;-23.85259669;-20.43620987;-3.986028395;31.12503112;25.59345344;1.052030465;8.602061469;27.57262766;14.46125783;28.34278057;1.223483251
43.41021378;17.52311633;-16.08551087;-0.702944711;-15.66799907;-0.653078492;1.172597965;6.358478201;-5.096306947;-19.23997811;2.966166494;37.95319513;27.8612581;2.234998327;9.927986001;47.75710057;20.5405462;25.58541208;4.825869402
63.83251807;23.29994786;-12.53666786;-1.638923435;-13.99535554;1.741682031;-1.37815961;13.48314421;2.571019972;-12.64979462;14.49479556;36.8318297;33.10039439;4.485454283;6.006749914;57.08336002;23.57735146;21.42037038;7.243551986
63.01074675;26.10034467;-9.61580746;-5.73684372;-13.86802831;1.856952424;-5.351978562;16.30035807;-0.472982178;-3.501528143;21.7496732;29.64751276;36.21544883;4.414325535;0.853882509;39.37773184;20.29144867;19.13039736;5.457294126
29.73563828;24.72702722;-7.671254935;-8.755445523;-13.22098521;-0.38231725;-7.037868264;14.31214721;-7.664517302;5.165791955;21.50442606;26.76563397;35.18045559;2.140835503;-0.121221293;-3.668640756;12.44546687;21.9966176;0.014715965
-25.75040932;21.94293716;-5.634639357;-7.656941332;-9.064882754;-2.871898307;-4.964717788;12.62954225;-11.00915048;11.9686898;18.07585165;37.62207451;32.26742067;0.916578615;4.642903265;-51.8333888;5.551401326;30.12840247;-5.38569953
-77.25402054;21.98131052;-2.717332962;-3.161886486;-1.097973821;-3.316056709;-1.148780458;16.6158751;-6.564527931;17.38428334;18.42096461;59.9312119;31.23631852;3.608104229;10.89439227;-79.81;4.116187113;39.33250035;-7.09683212
-100.1263102;26.66655837;0.363549018;1.116606579;7.210876476;-1.332826345;0.873802847;26.20507946;3.272234088;22.47196846;25.29734316;77.69683771;33.38;9.464882686;11.9681461;-74.64504854;7.649513214;43.95888401;-4.560775194
-87.55176467;33.67242569;1.93552295;1.944754921;11.17297742;1.246675596;-0.680317378;35.24641551;12.21625892;27.42372073;34.71823891;71.48611977;36.16672072;14.3214272;4.775537892;-44.07871904;11.08440206;41.91992285;-0.498670762
-53.69737258;38.3626323;1.129851637;-0.878280416;8.755332;2.099809063;-4.284009132;36.60131387;15.14047763;31.16263403;39.68065088;33.83053432;35.6220525;14.14978257;-6.894051651;-10.04124453;9.347535904;37.24897484;1.746508334
-22.26424539;37.41957088;-1.013046973;-4.720565711;2.264245407;0.523804491;-6.606539989;28.45785238;11.62991289;32.15812593;36.42235347;-22.68007813;30.09007813;8.722822595;-14.86367962;7.024937291;2.078687188;36.88246101;1.154970156
-9.946905746;31.06419144;-2.364623491;-6.726162797;-3.639094587;-1.991854447;-5.602055923;16.20236358;5.421159526;29.63159467;27.46465319;-72.02;21.83452636;1.993398427;-12.9699234;0.997410492;-5.696186104;43.41734307;-0.401909643
-17.15682451;22.22880049;-1.795842188;-6.319893335;-5.745514169;-3.193437672;-2.315126357;8.153501626;0.682854908;24.17510853;18.97343554;-91.86797817;15.06243409;-1.229987904;-2.070690735;-18.6667442;-7.605291238;50.1112774;-0.304219892
-31.55794202;13.9077834;-0.485893766;-5.413165804;-4.54588557;-2.118635826;0.190526079;8.889021781;-1.343332462;17.44276282;15.24310733;-78.42975546;12.28595355;0.633944405;10.51230533;-36.42802104;-1.241545044;43.76239019;2.143717906
