Channel 1 - P4;Channel 2 - O2;Channel 3 - P8;Channel 4 - T8;Channel 5 - C4;Channel 6 - Cz;Channel 7 - Fz;Channel 8 - F4;Channel 9 - Fp2;Channel 10 - F8;Channel 11 - Fp1;Channel 12 - F7;Channel 13 - F3;Channel 14 - C3;Channel 15 - T7;Channel 16 - P7;Channel 17 - P3;Channel 18 - O1;Channel 19 - Pz
-9.465164167;1.481722823;-8.995273178;-8.208609068;-8.831936561;-15.305494;15.50253212;7.105336319;-23.41472062;-2.759242123;15.94513095;-4.503589255;0.484803855;-11.86745488;4.12562767;5.92163855;-10.016288;-10.04845599;-12.01181596
2.61067188;9.210224335;9.88307465;7.57692695;3.656155563;-6.313092241;-16.09738624;8.04817436;-37.8514332;5.481567367;24.41527981;6.841537647;-1.609008022;-0.939980853;-0.107647831;1.842801382;1.718554947;3.870954874;-7.309684328
12.5549503;15.26937071;24.03876365;21.48144432;11.52407425;1.28699959;-28.85048432;3.600820869;-46.32291656;7.501298854;22.11451694;14.37183929;-4.41894127;5.749127899;-4.046874026;-10.01226646;12.30799612;15.97029191;-1.92547843
15.56025427;18.06828877;27.04895719;28.04594442;11.36799474;4.097589957;-15.13724663;-3.737973776;-44.85030777;3.622032729;10.73912499;14.60355304;-4.132906233;4.607462506;-5.61467124;-24.98195637;17.9134487;21.13;2.092545285
11.6656152;17.54027646;19.88474411;26.19523703;4.894474564;2.37080361;14.33695989;-10.40293673;-34.32114956;-2.340965299;-2.682846718;9.011091285;0.188686996;-2.675074151;-4.850743745;-35.36296251;17.66722597;19.25255172;4.016402267
5.045471829;14.56180758;9.356864366;19.03639269;-2.774229306;-0.798937674;39.48910009;-13.87370995;-20.66650097;-6.205607982;-10.52614019;2.46876664;5.611310371;-10.58837699;-3.629897832;-34.7385964;13.31804774;14.34517107;4.339532783
0.643994297;10.34595408;2.853251363;11.23027755;-6.823606075;-2.154107211;45.84804508;-13.64495429;-11.24519504;-6.203874667;-9.518953225;-0.530492553;7.581162363;-13.80633867;-3.878447994;-21.77973613;7.522107883;11.021905;3.954597563
0.838489501;6.335136203;3.513609634;6.106357856;-5.682145235;-0.640386758;34.04553118;-10.70045559;-9.951072589;-3.459078905;-2.378707192;1.130879753;3.640928123;-10.68713045;-5.798535729;-1.15200817;2.275351663;11.34137832;3.391791846
4.46580511;4.311576708;9.179291238;4.447271167;-1.253637095;2.253015211;17.23789431;-6.32646108;-14.75792832;-0.284466058;4.844043021;5.140965928;-4.401554683;-3.834627886;-7.599996947;18.97778257;-1.53115746;14.20191206;2.668335839
8.498934678;6.038048368;15.22653212;5.259944951;3.24937891;4.150634233;9.602097163;-1.398678449;-19.63383215;1.898641679;7.465208061;8.302486287;-11.62185782;2.32957384;-6.990496684;31.24365846;-3.610208165;17.1985598;1.67923271
10.66030134;12.20945906;18.478312;7.325187876;5.856453047;3.875926167;15.59950526;3.443209775;-19.34716497;3.272603351;5.274842739;9.303144847;-13.5549736;4.839948458;-3.208803272;32.63023912;-3.745961585;18.94099764;0.612826656
10.84017308;21.41;19.03075506;10.06069816;6.814145574;2.250813562;28.14812108;7.289806559;-13.40119087;4.707073979;1.885351539;9.394805928;-9.39973433;3.82091481;2.090241466;25.3804112;-1.896777475;19.82439386;-0.051925446
10.48221222;30.18244586;19.00418534;13.2261866;7.585223717;1.132698049;36.03412239;8.974030746;-6.059051847;6.42490528;1.209600718;10.63104981;-2.412364695;1.575288264;5.877926788;15.08210459;1.261298919;20.90637456;0.051703475
10.85602141;34.65907304;19.88022116;16.18764075;9.11111016;1.701845064;33.56166317;7.826990539;-2.592719099;7.629518846;4.121695861;13.44347016;2.679267392;0.282824721;5.938141551;7.337959577;4.132837764;22.2718455;0.792490751
11.88136877;32.90794442;20.99160591;17.76580424;10.96209225;3.518730252;24.43188837;4.507628221;-4.921751812;7.35576334;7.955627014;15.82863781;3.111894927;0.340410859;2.47880706;4.973370193;4.870504456;22.56911982;1.572618202
12.42414483;26.31446087;20.35156342;16.96042282;11.9747836;5.0695937;17.40949472;0.971419188;-10.21550455;5.571521252;9.004588838;14.92278109;-0.255196198;0.530768908;-2.097674169;7.135267954;2.589746407;20.15396476;1.782956226
11.56505151;18.80342604;16.77849877;13.86596673;11.57348445;5.192139954;18.3314301;-0.676982894;-13.49700363;3.371175446;5.73324279;9.605233061;-4.1053497;-0.454272647;-5.05955911;10.43595153;-1.825947658;14.7257566;1.293032389
9.540464112;14.26150349;11.20293397;9.830305279;10.4364586;4.077370278;25.5415675;0.33422432;-11.93401838;2.059239377;-0.002825513;1.840083008;-5.433006917;-2.637153962;-5.350973096;11.24972137;-6.087575365;7.899380847;0.545988468
7.496738611;13.95022752;5.958718407;6.583172657;9.88251161;3.012504699;32.20722904;2.837882688;-7.138536588;2.031153131;-4.604777224;-4.487932138;-3.604982569;-4.673274602;-4.173038406;7.845037004;-7.890661996;2.159163467;0.173538483
6.369732505;15.80582441;2.78257348;5.01422844;10.58268498;3.175256945;32.79480331;4.575067695;-3.555140056;2.534873336;-5.689163303;-6.37985974;-0.254232951;-4.968436976;-3.762507523;1.282462387;-6.356011171;-0.892484857;0.463452582
5.992276321;16.1394713;1.38978939;4.614133873;11.81571028;4.58639391;27.70979305;3.87538562;-4.401142021;2.500830574;-3.825722047;-3.927651098;2.535822644;-2.921970418;-5.442153114;-5.301246593;-2.486378419;-1.490629022;1.1342899
5.261466345;12.43588594;-0.111434392;4.00996265;11.9702141;6.120438957;22.27713078;0.826378416;-8.740840218;1.565825685;-1.723243256;-0.159899279;3.984208862;0.711592939;-8.553919528;-8.591520979;1.627369085;-1.141401788;1.598742973
3.18;5.137358182;-3.414843772;2.080726218;9.864950813;6.509282956;21.51632095;-3.001410853;-12.30059317;0.244228675;-1.76256978;1.318530494;4.84439861;4.460996052;-11.10011495;-7.135594435;4.171179493;-1.182232763;1.474574064
-0.212576138;-2.863379741;-8.493179607;-1.307458004;5.741325521;5.42623529;25.71562039;-5.986014791;-11.36158846;-0.907339655;-4.087338124;-0.999746219;6.1689248;7.075686855;-11.49362591;-2.357493496;4.514303455;-1.824777481;0.899182117
-3.867173826;-8.497825411;-13.6979594;-5.480792568;1.095364283;3.724957231;30.6624956;-7.772976413;-6.3003397;-2.209476959;-6.803606551;-5.598755538;7.959690515;8.002442098;-9.9386257;2.116939266;3.114069051;-2.471318694;0.387957741
-6.652902039;-10.71932294;-17.30314992;-9.723822027;-2.459832532;2.684135699;31.91115164;-9.333658502;-1.519155959;-4.77251163;-7.903093968;-9.355114686;9.031815551;7.250372574;-8.323530774;2.531798489;0.731989158;-2.835591519;0.376476492
-8.304618083;-10.95765467;-19.02055317;-13.81761515;-4.30154658;2.958416984;28.8809801;-11.74621284;-1.584979263;-9.28063111;-7.062686202;-10.04052038;8.191580804;5.081003653;-8.759264775;-2.726014692;-2.23698654;-3.638001588;0.851317121
-9.515704306;-11.62913167;-20.09697454;-17.84957838;-4.973168137;4.129887915;25.04184602;-14.83646552;-6.812805849;-14.73933199;-5.724999917;-7.909130504;5.572905363;1.962320479;-11.97338106;-12.07970073;-5.767022716;-6.082253262;1.381796602
-11.10812184;-14.02395475;-21.93601108;-21.56874165;-5.393455319;5.175912259;24.29244306;-16.96690189;-12.30822052;-18.5303042;-5.507628216;-5.232872166;2.827512837;-1.265358222;-16.80507245;-21.65842918;-9.675722644;-10.53081048;1.508340529
-13.06665733;-17.27089039;-24.53561706;-24.03546341;-5.897660443;5.371433439;27.18099213;-16.25347992;-11.77049301;-18.0524365;-6.495132501;-4.319659762;1.919993814;-3.448868711;-21.07732483;-27.58307584;-13.20520736;-15.64092916;1.139051874
-14.35174982;-19.09901566;-26.19280331;-24.03672576;-5.980605051;4.825723444;30.60007813;-12.19314068;-3.266313995;-12.73972541;-7.006729151;-5.658495668;3.557816975;-3.662381119;-23.02007813;-28.12474766;-15.21623591;-18.90113747;0.613444645
-13.70175899;-17.66038674;-24.7909007;-20.98153975;-4.907514275;4.24673605;31.14466235;-6.251099472;7.858730953;-4.717570684;-5.036741677;-7.580586124;6.633848434;-1.899519077;-22.10506625;-24.30580657;-14.90316308;-18.2899861;0.392381123
-10.74390514;-12.93361964;-19.59106653;-15.48619706;-2.552872867;4.230226278;28.75637991;-0.806448367;11.85819384;2.61855056;-0.04436298;-7.549985775;9.177120292;0.76304278;-18.81695657;-18.65612569;-12.42958003;-13.75516104;0.656212407
-6.449494026;-6.707924453;-12.0215946;-9.095555687;0.348961032;4.748514885;26.95606946;2.71598871;1.635697657;7.050329116;6.507825159;-3.992230358;9.994227349;2.874817142;-13.86202793;-13.20955014;-8.919233273;-7.303238615;1.16039018
-2.532191244;-1.336052565;-4.826418315;-3.348480576;2.774849267;5.264965838;29.21296745;4.931590432;-21.23750435;8.997760583;12.30133788;2.670290654;9.600058594;3.739750678;-7.710078125;-8.356276315;-5.768934677;-1.624806732;1.462118667
-0.28572964;1.676650289;-0.293534632;1.031987835;4.259467235;5.299088041;34.8043072;7.804286645;-46.37302253;10.74875205;15.92627829;10.35380019;9.677011782;3.99860229;-0.867293899;-3.399014478;-3.803882178;1.635911318;1.308243851
0.197655042;2.253741752;1.041643253;4.195768203;5.217833036;4.877599593;38.30044435;12.68900788;-60.86240184;14.11816151;17.71793012;16.57850643;11.57840414;5.045964932;5.587542029;1.821686741;-2.901351561;2.639864592;0.845159288
-0.14362241;1.321165092;0.341866114;6.566808871;6.44120939;4.461075209;33.70734279;18.76483615;-57.67761194;18.60096826;19.05301309;19.72975106;15.18023325;7.662263105;10.03624366;5.84869899;-2.305025192;2.706644467;0.478718201
-0.212448586;-0.02861489;-0.65063484;8.283148737;8.243707158;4.453817996;20.00596927;23.29151887;-40.10612754;21.71239538;20.91657591;19.63676285;19.02159993;11.02930291;11.2330092;6.299272889;-1.309123292;3.008171626;0.519060803
0.467971039;-1.06139315;-0.747545737;9.265106743;10.07672021;4.789099291;3.220526127;23.65482534;-19.04343122;21.31107536;23.13317745;17.39800245;21.52172576;13.10345292;9.45428174;2.017282915;0.239250356;3.783039139;0.922135972
1.679337509;-1.387911146;0.361554853;9.792266548;11.00926479;4.987175229;-7.194163172;19.63998057;-5.279620555;17.89457165;24.89591166;14.78740137;22.15593074;12.20584921;6.785912307;-5.062390343;1.943907752;4.625208146;1.341525992
3.057897223;-0.731800508;2.54394528;10.85870044;10.66770588;4.621171195;-5.103949381;14.06086366;-2.548449714;14.74258383;25.90071544;13.57055145;21.59376218;8.572505313;5.998825649;-10.17316085;3.256957146;5.354359303;1.429671028
4.638583066;1.108615778;5.713735123;13.69821145;9.767131182;3.740527776;7.731097787;11.08015589;-6.284462723;15.54162688;26.80249418;14.86753768;20.79498783;4.495526269;8.64266351;-8.434922605;3.893474236;6.486250704;1.121650942
6.835973521;4.048391361;9.807532421;18.67360437;9.679577506;2.848925938;22.94570037;13.35090838;-8.495787682;21.30753696;28.43395888;18.64233703;20.00197321;2.769428324;13.78358078;1.642903537;3.970941687;8.801302984;0.669080421
9.892206089;7.56223376;14.36481411;24.47133374;11.31697493;2.457324122;31.69971193;20.0733322;-4.529037143;29.16164385;30.56202573;23.5279231;18.61162281;4.578102002;18.46936507;16.46179513;3.862956315;12.45275374;0.420325259
13.35725133;10.87127492;18.33102435;28.4829451;14.23865202;2.630470257;30.79099132;27.4256387;3.627555037;34.12518269;31.56811421;27.25568841;16.03691707;8.50939191;19.71083562;28.98999656;3.952867085;16.54164361;0.554958497
16.15454683;13.37775805;20.50238091;28.33780313;16.76613613;2.948407176;24.08917811;31.08510969;9.760460901;32.67763344;29.64968991;27.70223248;12.69066378;11.54483152;16.55145172;32.97471881;4.446771575;19.65105649;0.993400245
17.24816506;14.94960459;20.34516306;23.53182827;17.09039182;2.916276342;18.57946871;29.04400544;9.13840652;25.36265867;24.62446213;24.08618096;10.05048088;11.29265344;10.67643483;26.95964762;5.267329908;20.89828713;1.523035788
16.36831364;15.77121219;18.45252554;15.88908986;14.54850082;2.439824406;18.60944844;22.76745753;2.602772156;16.42733662;18.62619324;17.55254441;9.578440653;7.716217152;5.124663141;15.30816638;5.998226944;20.53243947;1.986917568
14.18080182;15.92146598;16.14653922;8.44521778;10.09714487;1.923939444;23.03961553;15.99354495;-4.260300069;10.77693852;14.78269624;10.63314086;11.35872539;3.014965525;2.124807228;5.413158709;5.934759847;19.50264651;2.349425085
11.76174671;15.15966233;14.49268476;3.575523981;5.637225379;1.899320519;27.20105637;12.14661861;-5.952589445;10.565333;14.76549212;5.799784467;13.69623658;-0.18531957;1.703901323;2.899557746;4.365213032;18.39508848;2.60215368
9.828751998;13.22942189;13.55513047;1.768247017;2.729255222;2.516545038;27.45069234;12.19845197;-1.700707929;13.92565874;17.28369655;4.015523433;14.20048082;-0.8263141;2.027638013;8.020058594;1.084956067;16.77060426;2.648530667
8.362628287;10.44478438;12.5366581;1.872549846;1.672593526;3.370875161;24.20784619;14.33548953;4.005246185;16.6197351;18.97879244;4.272248002;11.62972307;-0.00092224;1.032955125;15.6254884;-3.134436137;13.60509496;2.331090116
6.885497363;7.926721945;10.66370054;2.426605356;1.584690792;3.824618647;21.07587168;15.45175658;5.347741271;15.1953861;17.15574935;4.450386255;7.044422471;0.248014742;-2.029343302;18.66864651;-6.565665221;8.506660469;1.611671329
5.087409223;7.056423869;8.008826548;2.846471327;1.317724563;3.547578761;21.24371601;13.30677752;0.210861329;9.291099307;12.08928831;2.90046665;3.263263267;-1.189005484;-6.279781838;12.885609;-7.274324342;2.591907678;0.730423173
3.222577436;8.410140402;5.508301229;3.5181578;0.439404275;2.80183595;24.60141618;7.928117189;-7.955854283;1.607371233;6.843857368;-0.373499552;2.913004011;-3.527324092;-10.13035359;-0.361261601;-4.299545395;-1.892368056;0.143263259
1.943693929;11.03421994;4.1744201;4.904073849;-0.46521625;2.224469602;28.06828077;1.510808877;-13.01695389;-4.105938566;4.606109205;-3.755521232;6.484803309;-4.80039588;-12.45684088;-14.77497767;1.497684949;-3.044694419;0.217870549
1.758693351;12.81567715;4.238484872;6.667911136;-0.327015017;2.301751809;28.58403156;-2.933230776;-11.38331717;-5.407796332;5.729113762;-5.223248753;11.85303582;-3.559589099;-13.02164126;-22.76588215;7.637183612;-0.715832046;0.906371743
2.611051279;11.88546285;5.013719769;7.740826077;1.52341814;2.988486335;25.88265444;-3.2705789;-5.243071753;-2.333820453;7.070381967;-3.836390792;15.63473991;-0.088877605;-12.0139281;-19.74566171;11.34222827;3.349772875;1.686952157
3.941422213;8.093887517;5.593630552;7.29893806;4.811861418;3.78435821;22.56433689;0.637337385;-1.081214199;3.028168926;4.321166588;-0.463775858;15.40767957;3.84671889;-9.45179122;-6.601855146;11.21790934;6.815930981;1.88311037
5.145900882;3.396557187;5.727050891;5.698566074;8.477977015;4.174496579;21.57032685;6.876337929;-4.652717856;7.864446077;-4.581273737;2.716656511;11.20210714;6.413389866;-5.237950711;10.86725501;8.151149425;8.466544389;1.160080566
6.013980313;0.726352426;6.051491538;4.393558584;11.34728334;4.038054519;23.49897341;12.40785477;-16.49083335;9.904257557;-17.92194424;3.545358394;5.26102457;7.02956889;0.142617602;25.0313128;4.746922344;8.93755831;-0.179006378
6.785618114;2.064831008;7.463462609;4.779882528;12.79434413;3.685002016;26.20053988;14.50527355;-31.61355267;8.138253814;-32.00780105;1.107924682;0.340294353;6.523198266;5.130659672;30.26739489;3.616541029;9.897425479;-1.35350678
7.824831544;7.067059068;10.20084226;6.939811255;12.95761138;3.527184797;26.88491393;12.03714796;-43.69084257;3.023293144;-44.86842122;-3.92497506;-2.180252101;6.133289079;7.640058594;25.60923255;5.664097605;12.40312054;-1.635485576
9.225359558;13.21750599;13.4733497;9.434054489;12.43862649;3.704325694;24.67954408;5.986270099;-50.31792765;-3.689673317;-58.64057512;-9.976329771;-3.07716507;6.353665871;6.526393374;14.97942905;9.543016236;15.83195196;-0.866608153
10.67377852;17.39042858;15.97164252;10.41475413;11.76921586;3.995161828;21.27509723;-1.103012077;-55.12165162;-9.563469069;-78.35114253;-15.71249232;-4.53357838;6.656839846;2.813889566;4.968893968;12.6361066;18.27655053;0.428370511
11.63270218;17.71253927;16.79279891;9.163074022;11.03029678;4.061867684;19.17333371;-6.537497154;-64.93385133;-12.57127185;-107.7932794;-20.85931717;-8.507891279;6.248459408;-0.576524527;1.276890642;12.84724005;18.04994985;1.422452908
11.64319579;14.50072789;15.97440074;6.739199629;9.84580589;3.774577226;19.29143535;-9.011468008;-84.18578895;-12.31441126;-145.7488942;-26.16838384;-15.37519262;5.034680592;-0.745680714;5.60233626;9.959770967;15.04259406;1.577754564
10.51205507;9.796878658;14.23379165;5.164188121;7.713000259;3.313847576;20.20273201;-9.346206672;-110.9008671;-10.54748288;-185.7411789;-32.61437334;-23.67407857;3.82180335;2.931646221;14.66629517;5.681559041;10.84614946;1.006432486
8.326628988;6.004725997;12.25951303;5.80733327;4.439036271;2.978312141;19.67701168;-9.902448828;-137.4542881;-10.34494862;-219.7633189;-40.41089442;-30.98457003;3.536400197;8.054565893;22.05996433;2.449509924;7.612500273;0.341952967
5.409112687;4.611278886;10.279732;8.331844693;0.414670513;2.903352318;16.98855972;-12.95701697;-155.6030308;-14.1357785;-243.2357888;-48.53985665;-35.27593829;4.224325587;10.76876538;22.08333242;1.889660339;6.623135856;0.235901482
2.308114105;5.698849243;8.289582868;11.06039539;-3.444865067;2.963661533;13.75015067;-19.06604444;-162.0340855;-21.84344044;-257.4301015;-55.14969435;-35.90254962;4.846280065;8.653134236;13.44539272;3.956284045;7.674881912;0.869964283
-0.225764624;8.285427233;6.60814937;12.39796382;-6.083838436;2.937886858;12.44988325;-26.52278229;-160.3252164;-30.56711057;-267.6089317;-58.60599725;-33.77218093;4.175925999;2.736281163;0.512589432;7.195918768;9.610713726;1.841822167
-1.415210363;11.04879291;6.068792554;12.07123182;-6.824217315;2.754477441;14.06406495;-32.32043461;-157.9691232;-36.26065457;-278.5161616;-58.52635523;-30.73965779;2.057672996;-3.00895032;-8.928681024;9.793760926;11.37628596;2.486220091
-0.79689556;12.97534386;7.505256948;11.16920938;-5.725885942;2.56482648;17.02452355;-34.00153459;-160.8116573;-36.35941045;-290.8382905;-56.09221564;-28.65100983;-0.142381888;-4.434435413;-8.286257325;10.63281287;12.67751409;2.368761855
1.47890101;13.74740434;10.94779716;11.06572042;-3.553285063;2.56832575;18.57482497;-31.15684888;-169.0814888;-31.48323557;-301.2822523;-53.36166388;-28.53756979;-0.432700597;-0.196726054;3.624876906;9.751701662;13.83111473;1.584282801
4.67076878;13.87745821;15.34245301;12.27049506;-1.33470591;2.766832909;17.30673289;-25.59445819;-177.8333455;-24.9550829;-305.8783548;-51.96681192;-30.29556901;2.187118975;7.320704255;21.52119744;8.094022273;15.18089344;0.664490346
7.864654177;14.56705602;19.20933292;14.23396511;0.226366556;2.90560487;14.51898551;-20.14495886;-181.2206526;-20.50217969;-303.5791255;-52.04138735;-32.92398352;6.712452396;13.83737863;36.59899667;6.874766684;16.76387158;0.196875114
10.51934101;17.19989307;21.77794983;16.17748628;1.097930377;2.682980646;13.08094254;-16.99319376;-177.1841756;-19.86190777;-297.2203777;-52.14010594;-35.14611589;10.63652423;16.32645016;41.74895104;6.985555557;18.52121015;0.447533017
12.71067119;22.52887596;23.59838936;18.04107316;1.778803559;2.045816085;14.78449197;-16.65558143;-168.9875718;-22.00328434;-291.285478;-50.27528358;-36.08240323;11.67588708;15.0698914;35.74517684;8.676608881;20.70645233;1.239294935
14.861544;29.95963876;25.99126634;20.5513293;2.778876451;1.286710835;18.6106633;-18.13810261;-162.5640271;-24.33442143;-288.5567769;-45.40570815;-35.6298233;9.414181278;13.12544346;23.74565052;11.53072249;23.90916519;2.125464037
17.18508377;37.51577386;29.71420297;24.29452623;4.134168734;0.827122072;21.55960579;-19.9216986;-161.86;-24.73376819;-288.4480481;-38.33399668;-34.3631677;5.592653648;13.76811556;13.86780226;14.65424979;28.51728656;2.695692248
19.34566646;42.76162199;33.99411764;28.70128227;5.36644987;0.859655271;21.35945233;-20.92660589;-165.8226536;-22.7745804;-288.1493768;-31.32675848;-33.04914982;2.830740547;17.99221761;12.1655917;17.02584621;34.07460355;2.79649989
20.67756051;44.24983621;36.86101163;32.02944635;5.947186192;1.16600359;18.60048187;-20.82566945;-169.3205742;-19.40830502;-285.2691917;-26.66715858;-32.10290079;2.773824668;23.96766411;19.26724771;17.9330445;39.20358804;2.552186605
20.8030793;42.50393752;36.63202283;32.55637232;5.887969892;1.284702087;16.28801681;-19.72920726;-167.2154884;-15.75529071;-279.5654573;-25.14939451;-31.3504862;5.061872717;28.67852617;30.64513643;17.33640911;42.3092263;2.225220156
20.09493568;39.705304;33.35399267;30.03538609;5.922426676;0.895713525;17.12592616;-17.7559415;-158.3749812;-12.2805764;-272.4401399;-25.61292317;-30.24420255;7.808184759;30.24802381;39.9715425;15.93295914;42.5594321;2.041014345
19.5112834;38.15488568;28.95615098;26.10929056;7.036997324;0.091854002;20.9575257;-14.95168241;-146.4938519;-9.021186099;-265.003645;-25.87729006;-28.35045012;9.086510793;29.05777834;43.07359652;14.78956604;40.33617754;2.082607455
19.86365807;38.57507051;25.89993026;23.19602184;9.648233588;-0.699426648;24.75029038;-11.55105308;-137.0894137;-6.352376643;-256.730135;-24.39631942;-25.73461591;8.217670358;26.92645273;39.92039609;14.6892733;36.78344781;2.285145462
21.10747489;39.5652441;25.38247486;22.68529868;13.07456727;-1.075889583;25.27227278;-8.181381425;-133.0352;-5.208563902;-245.9932385;-21.39210559;-22.95745021;5.941735034;25.26759144;33.72404757;15.58978221;32.87286918;2.499990476
22.28706069;38.71759415;26.55504879;23.93732307;15.79191324;-0.988289609;22.13358159;-5.658171047;-132.1737677;-6.274420247;-231.877352;-18.60532208;-20.70450943;3.53435981;23.9016928;28.27327983;16.59439397;28.8349396;2.583601098
22.24460599;34.60128915;27.3821722;24.93950538;16.3791401;-0.753728832;18.40400332;-4.451358963;-128.9597851;-8.847709411;-215.4108408;-17.84753622;-19.34944659;1.734918001;21.49189281;25.57633476;16.5175642;24.45;2.47657381
20.54278548;28.07141036;26.39080052;24.07095127;14.49934605;-0.7514039;18.07678953;-4.282677826;-118.9157707;-10.65419903;-198.9188087;-19.46660151;-18.78081194;0.369003224;17.09825881;25.25765146;14.69547798;19.86471482;2.244029032
17.83245629;21.81723169;23.82249324;21.46638959;11.18534504;-1.075328987;22.48017358;-4.266271245;-102.3872812;-9.198126348;-184.0062048;-21.91667327;-18.58686298;-1.153905336;11.39630314;25.63855142;11.47985928;16.05898138;2.050168933
15.33740202;18.4288846;21.24181892;18.8139641;8.191059047;-1.449619958;28.82692003;-3.549814524;-84.51149852;-3.795535486;-170.0476184;-22.78554428;-18.3993636;-3.047406398;6.45528316;25.28276682;8.049808503;14.37085043;2.061108933
13.87159654;18.45817351;20.00153781;17.7848242;6.863051247;-1.47324865;32.37596396;-1.957980321;-71.23649443;3.425086683;-154.6820708;-20.51634423;-18.09298917;-4.819343333;4.25337471;23.77966326;5.656588313;15.36398297;2.318423744
13.21239778;19.99599354;19.94818774;18.49149573;7.337894522;-0.969411835;30.54601987;-0.103159116;-64.43033527;8.656086408;-136.001152;-15.52988312;-17.69855781;-5.675825258;5.184399508;21.4534194;4.824225162;18.0219695;2.667939685
12.35919635;20.116505;19.51937911;19.35047185;8.60912374;-0.129146092;25.46767471;1.140457114;-60.04744116;9.070498059;-114.5198804;-9.913840016;-17.16023756;-5.24930083;7.783469677;18.62910361;5.055810042;20.09703751;2.814634928
10.45012982;17.07406882;17.14792187;18.48941556;9.347861178;0.669777833;22.57740702;1.371986981;-51.09946616;5.017471065;-93.11368965;-5.93061599;-16.20321836;-3.975410746;9.848120667;15.29164352;5.224115856;19.51239157;2.493193137
7.540311121;11.5592733;12.73352762;15.46655808;8.827023932;1.196157214;26.12140466;1.008721386;-33.40634197;-0.049022481;-74.85840972;-4.465667605;-14.4618394;-2.78281213;9.995004764;11.40539455;4.340812406;15.79499358;1.647844487
4.563567806;6.085935109;7.877357393;11.76702844;7.292460298;1.548211751;35.14809481;0.973995052;-9.715351837;-1.993142303;-60.58260029;-4.538271453;-11.76159975;-2.368081551;8.420592162;7.440883148;2.160766635;10.41252661;0.487413858
2.511969859;3.059553262;4.648413744;9.587579495;5.60914875;2.026152092;43.40570397;2.006490403;11.23082257;1.02447667;-48.25546934;-4.160655806;-8.28999344;-2.666931732;6.388420565;4.450683868;-0.757556464;5.728806839;-0.639201678
1.556978921;3.071123816;3.922054315;9.917267092;4.565562657;2.816523102;43.55656391;4.15996326;20.32457987;7.293249523;-34.778429;-1.829178856;-4.478880469;-2.938712896;5.034832583;3.487606074;-3.501431167;3.385082394;-1.466055443
0.897116113;4.692814547;4.69691282;11.56711601;4.404492412;3.777372397;32.66588733;6.865710856;14.38379813;12.96098413;-18.6720302;2.475376115;-0.680053711;-2.360048828;4.551988814;4.807335565;-5.390097656;3.343512213;-1.966438091
-0.513009462;5.793482789;4.953524284;12.02725171;4.864679011;4.519907581;14.80942551;9.440019531;-1.600410751;14.95428805;-1.372616514;7.447539291;3.085914835;-0.634656307;4.340145537;7.540767432;-6.294479213;4.243044109;-2.321488145
-2.975608293;5.203369176;3.310848014;9.490557365;5.557825816;4.717487253;-1.226851494;11.56904503;-17.96273691;13.127354;13.94271443;11.53599226;7.07198795;1.828534916;3.812160457;10.14870791;-6.542955424;4.632759044;-2.726876435
-5.673916981;3.391291938;0.092902755;4.388769788;6.274576352;4.374161861;-7.508414006;13.37976403;-26.93109955;10.06464963;24.95554268;14.05214165;11.4606183;4.22804063;3.008251028;11.32561792;-6.578463111;3.991079364;-3.196495034
-7.267539373;1.741060307;-3.036093993;-0.822173603;6.973009463;3.824334393;-1.787667081;15.10701302;-27.28090938;8.876040221;31.99012551;15.49327219;16.01036342;5.86062064;2.458474094;10.66461201;-6.664263578;2.743204542;-3.529121088
-6.986104618;1.195423215;-4.482426334;-3.459109545;7.55692588;3.469744104;11.65119955;16.71609853;-23.7364724;10.84466806;37.50912018;16.93739877;20.00259565;6.41749547;2.493946093;8.621941931;-6.823348699;1.440435207;-3.472514835
-5.309106096;1.482103257;-3.955680865;-2.559294291;7.74943717;3.479003149;25.34088955;17.8377085;-22.05466155;14.72419206;43.86989199;19.07494252;22.57511962;5.956671172;2.730698549;5.908061729;-6.971704827;0.000780978;-2.953416408
-3.6538291;1.528300449;-2.538565748;0.516875251;7.237144672;3.691573195;33.44283223;18.05096477;-24.13920711;18.00654736;51.37412382;21.65383519;23.22975592;4.708315175;2.271688774;2.874829869;-7.064431178;-2.211685374;-2.179222707
-3.316074851;0.593452916;-1.654379967;3.193745082;5.952794625;3.78141275;34.64766484;17.22986871;-27.26132747;18.91075049;58.30118673;23.72525517;22.16215623;2.948151172;0.489032879;-0.590143618;-7.11267253;-5.532109493;-1.514340606
-4.519413207;-0.947820041;-1.900422217;3.528659156;4.196253984;3.520009766;31.64201071;15.64102516;-27.7394824;17.46288113;62.79140335;24.44137973;20.18750471;1.018807551;-2.300009766;-4.625907386;-7.084590053;-9.207869981;-1.216487935
-6.317429041;-1.874588438;-2.721101942;1.377691425;2.437998712;2.919844176;28.26092959;13.74650082;-25.43539535;15.0260109;64.78712123;23.76949053;18.31890633;-0.619639321;-4.87388556;-8.851622141;-6.825017137;-11.52421081;-1.23804306
-7.373374854;-1.17962499;-3.069250689;-1.838114011;0.968403159;2.17089609;26.80084862;11.9476727;-24.64136963;13.00646348;66.22174068;22.60063711;17.27836237;-1.469379774;-5.862631904;-12.22685657;-6.112499771;-10.89647461;-1.255202101
-6.93869896;1.035346954;-2.340330939;-4.321789615;-0.26763921;1.468949093;27.25346923;10.52522936;-30.15622873;11.99696755;69.26333412;22.20289635;17.23153767;-1.220664632;-4.625131208;-13.48945442;-4.841258226;-7.096534365;-0.913646837
-5.253565401;3.617955428;-0.728019609;-4.985532782;-1.468976513;0.904838561;28.37447513;9.777579178;-41.867342;11.95687693;74.20479208;23.42136889;17.85768666;0.034264413;-1.589386349;-11.87704917;-3.18730309;-1.58882647;-0.110348821
-3.145048274;5.312393352;1.202757029;-3.722232334;-2.589780657;0.49091477;29.17335281;10.10278939;-52.97280534;12.91628997;78.9396515;26.15288593;18.64756506;1.787769168;2.123550996;-7.625579116;-1.604125835;3.360267492;0.900148401
-1.288614011;5.756039575;3.160642326;-1.005033749;-3.167848451;0.251797953;29.52757006;11.79070075;-54.24473797;15.21997677;80.55744796;29.39026757;19.21482084;3.35072394;5.404066669;-1.91375328;-0.610767521;6.145025048;1.656672246
0.178660857;5.660842363;5.271575703;2.530624409;-2.617153112;0.251410924;29.75601163;14.60426967;-41.52075082;18.91825167;77.68829455;31.7512486;19.45095944;4.195020381;7.630561048;3.687476364;-0.495761605;6.743146655;1.791935609
1.411532879;6.040666611;7.582010873;6.109956793;-0.802230532;0.514534577;29.94579784;17.54049379;-20.33840651;22.94306966;71.52521459;32.14501059;19.48121823;4.193799876;8.67901569;7.902269272;-1.140865847;6.437526155;1.269967422
2.326316313;7.175751019;9.503473323;8.674298055;1.611496743;0.932695859;29.81596495;19.13781652;-3.355875497;25.12531083;64.58980591;30.21571484;19.49040028;3.634317174;8.675096684;10.19401428;-2.101417708;6.6390239;0.400672047
2.40098959;8.222872938;9.914090252;9.105272811;3.430570341;1.280777333;29.14388437;18.28814697;-1.86201297;23.43588637;58.28659528;26.38605005;19.5333232;3.03234308;7.848714381;10.79607279;-2.904567018;7.781760681;-0.365594898
1.079452198;7.815678191;8.014046648;6.970078125;3.731208883;1.368056963;28.14873221;15.03375186;-17.72076359;17.63794194;51.36966911;21.55393623;19.43178129;2.875366643;6.606063967;10.41135814;-3.36338499;9.115203214;-0.71257102
-1.565615059;5.157323174;4.231765774;3.239906489;2.597153935;1.202841356;27.3340916;10.71244361;-42.18469097;9.935632894;40.67091059;16.64244523;18.81462342;3.417816633;5.597076808;9.798228141;-3.674993019;9.434772475;-0.619781313
-4.56786759;0.708288177;0.279597251;0.169957333;1.172554988;1.009703696;26.94034454;7.222335646;-62.76146306;3.838912718;23.49199703;12.22296975;17.29209826;4.592587007;5.507667814;9.448871402;-4.209699547;8.063842321;-0.323220844
-6.550395524;-4.066947145;-1.881948804;0.088850754;0.895861145;1.054893416;26.61857656;5.833871981;-72.83271253;1.885583842;-0.351133687;8.355696967;14.68;6.055317604;6.614597872;9.475716968;-5.121934671;5.307769259;-0.125836159
-6.639965352;-7.647519382;-1.436735572;3.816586492;2.436468547;1.410871821;25.72417617;6.366482276;-76.35300039;3.883965397;-28.49402278;4.677895966;11.13806575;7.351724645;8.486121739;9.720165145;-6.066936888;2.142251624;-0.194440709
-5.068784682;-9.320911344;0.683669985;9.936145564;5.140731631;1.863088692;23.9733251;7.334333512;-83.82125068;7.0547814;-57.87901426;0.668807325;7.111839951;8.157769195;10.20062572;10.00792114;-6.266970091;-0.457835193;-0.466689022
-2.938180385;-9.334017083;2.555027543;15.62961974;7.446819704;2.055077082;21.79932846;6.98199949;-102.8046574;8.030039063;-86.74808985;-4.040029297;3.084805879;8.477755276;11.02729796;10.40141157;-4.942681355;-1.951481333;-0.707307514
-1.317993833;-8.350702218;2.82051071;18.58357651;7.9947673;1.766835556;20.02140739;4.486152058;-130.8133215;5.237004107;-114.9837236;-9.445754365;-0.706730378;8.655101975;11.03733319;11.27629563;-1.855829382;-2.18478864;-0.662630708
-0.434513485;-6.803915044;1.787822917;18.5536609;6.609859947;1.100830914;19.12886586;0.482251139;-156.4782241;-0.096233602;-142.5901335;-15.13768921;-4.385457183;9.129820745;11.06732489;13.12580391;2.404864259;-1.124861436;-0.218441846
0.357940796;-4.737372289;1.129108001;17.36383969;4.414260849;0.418601356;18.88662176;-3.430048828;-168.2033809;-5.007069132;-167.8924208;-20.45774064;-8.266404505;10.05693423;11.96015789;16.16986243;6.620390641;1.206064685;0.521330275
1.792675926;-2.212742613;2.387996016;17.31317696;2.974840297;0.073630379;18.65668234;-5.821309723;-163.3014704;-7.067986509;-187.4056519;-24.79104369;-12.52083505;11.05278398;13.66811652;20.01555548;9.528051156;4.480134966;1.270078125
3.777023279;0.197113897;5.5007068;19.22298655;3.121415814;0.151150319;18.09759469;-6.402024713;-150.1833405;-6.153296304;-197.9012616;-27.86345804;-16.93722531;11.30596049;15.02194796;23.63920127;10.43340728;7.80951875;1.689279988
5.175394459;1.401351859;8.56037267;21.65032182;4.310479282;0.415010661;17.49302242;-6.188522943;-141.8373962;-4.476677076;-199.1712558;-29.90828054;-20.99788862;10.0473961;14.4866485;25.77824812;9.461085384;9.90292899;1.554411375
4.548406462;0.399958197;9.065395134;21.87569111;4.990048828;0.490248828;17.32382148;-6.815976364;-145.9176269;-5.00673714;-195.1272536;-31.6042311;-24.24448383;7.082618222;11.38964386;25.53685571;7.311744774;9.696929135;0.878207555
1.297858323;-2.942661573;5.704019677;17.89;3.677498038;0.126829454;17.51277742;-9.51223915;-159.4057443;-9.48945045;-191.9881837;-33.77850871;-26.64857464;2.992630115;6.624963282;22.83346016;4.738272117;7.043189584;-0.073075928
-3.705815662;-7.613298563;-0.6930963;9.868588482;-0.036513805;-0.65471436;17.21257155;-14.40077486;-171.8956076;-17.42576158;-194.5602476;-36.98690309;-28.65844132;-1.176545007;2.170359481;18.40407835;2.132758798;2.885719832;-0.888676477
-8.554172774;-11.95217403;-7.729835345;0.083145133;-5.243089151;-1.618341394;15.55346074;-20.5015415;-174.4196804;-26.52414695;-203.1790138;-41.17160254;-30.8283336;-4.53214147;-0.306949538;13.37615797;-0.505383558;-1.276794485;-1.202826692
-11.5;-14.6187292;-13.05686986;-8.562648598;-10.32962428;-2.486879807;12.76838028;-26.31757965;-166.3698459;-34.10940314;-213.4876792;-45.59098841;-33.28283376;-6.808736959;-0.689033771;8.72023074;-3.26811602;-4.272499538;-0.872061631
-12.03458266;-15.32668893;-15.77702194;-14.20315098;-13.95386434;-3.084017917;10.53774608;-30.57641373;-155.0060201;-38.47711198;-219.1735064;-49.08868261;-35.44248031;-8.351196647;-0.465282555;4.943162338;-6.009927494;-5.822455377;-0.046971545
-11.05882725;-14.8301701;-16.65636408;-16.71704935;-15.69682536;-3.358660295;10.92459059;-32.70298832;-148.4768216;-39.44805027;-215.6917873;-50.57716547;-36.27209091;-9.650664904;-1.486277846;2.166481738;-8.290481496;-6.392177303;0.901620913
-10.07684451;-14.21299409;-17.1385377;-17.18125723;-16.0317051;-3.327756133;14.57032945;-32.84797985;-148.650709;-38.02739413;-202.4654161;-49.47619866;-34.91781778;-10.83845868;-4.357210809;0.420300233;-9.634111172;-6.520548841;1.563311167
-10.07020252;-14.03894467;-18.04794484;-16.74391058;-15.76539667;-3.03096527;19.73177945;-31.56975675;-149.8760809;-35.57953521;-182.3653527;-45.87329873;-31.28280186;-11.56705818;-7.772291887;-0.164646779;-9.872413513;-6.234213571;1.679962599
-10.893312;-13.97967438;-18.98459252;-15.86598747;-15.42788826;-2.541540463;23.28919961;-29.41094595;-144.4078009;-33.03756373;-159.3085343;-40.35815118;-26.11731243;-11.36675959;-9.403446476;0.547682377;-9.268500863;-5.046817171;1.251726897
-11.56;-13.13948749;-18.76;-14.37007813;-15.01188331;-1.989537706;23.22672628;-26.59804041;-129.4446327;-30.48941471;-135.9625836;-33.69388286;-20.55946319;-10.14671122;-7.727134114;2.419049873;-8.315813412;-2.515934265;0.511620458
-11.09163229;-10.78025811;-16.40210276;-11.99030903;-14.13209239;-1.527065372;20.6122119;-22.99102092;-109.5271286;-27.25674648;-113.0671532;-26.5617726;-15.47389375;-8.373361823;-3.371743518;4.867246464;-7.385006284;1.152589954;-0.206849178
-9.229484097;-6.905802479;-11.91843592;-8.799484934;-12.37909218;-1.231383994;19.17790872;-18.28613008;-92.34856922;-22.41086149;-90.36553862;-19.49609632;-11.0689269;-6.734451672;1.138685195;7.027275613;-6.513523941;4.994977214;-0.635295339
-6.524496123;-2.332138409;-6.329203955;-5.184453248;-9.590152262;-1.029405756;22.40835386;-12.35931087;-81.92405078;-15.50730343;-67.91681801;-12.92511973;-7.026106447;-5.554081789;3.162882182;8.188317612;-5.494325284;7.789924739;-0.687784922
-3.861835436;1.735394927;-1.091388007;-1.557164529;-5.917855925;-0.736553562;30.22503879;-5.554901692;-75.32268204;-7.155728068;-46.54754179;-7.145199692;-2.961560601;-4.468685886;1.955650054;8.206203334;-4.154064528;8.780231056;-0.47786245
-1.8845754;4.292765713;2.589016713;1.79904778;-1.757232551;-0.208992835;38.05445501;1.278245097;-65.8558776;0.989074412;-27.21959887;-2.172174031;1.197761502;-2.681998181;-0.633402948;7.582751005;-2.557689284;8.068806041;-0.232364139
-0.749136354;4.944544954;4.146728988;4.603265476;2.359576987;0.506938415;39.48152868;7.081787979;-49.74388255;6.965318299;-10.13333645;2.371545022;5.212116143;0.362516488;-1.40483234;7.138807177;-0.96791248;6.434561893;-0.148670066
-0.281327369;3.973287618;3.683621574;6.417386085;5.865703594;1.165861515;30.8967827;11.08420244;-30.11723557;9.622803164;5.445054867;7.096312157;8.828054873;4.419907646;1.812255091;7.497083045;0.370210606;4.775715343;-0.273864945
-0.268981937;2.133402499;1.803863647;6.778048527;8.291134721;1.485526881;14.74064818;13.19824984;-14.59091561;9.386336091;20.39655187;12.36387027;12.03667013;8.459152499;8.34548894;8.711213392;1.388178645;3.624931376;-0.480513178
-0.602624281;0.318651568;-0.604490887;5.607866015;9.422548567;1.360625568;-1.30237991;14.03242993;-8.469997129;8.037897119;34.69513758;17.77604769;15.01094288;11.2729112;14.78558345;10.25394742;2.135485094;3.030933564;-0.564921639
-1.218014835;-0.781552175;-2.656685943;3.495838681;9.396989346;0.951391399;-8.914265939;14.46024004;-9.707662912;7.538441353;47.04622029;22.09590002;17.77137886;12.22769135;17.03400412;11.32766509;2.573812639;2.751253182;-0.415201415
-2.0217229;-0.964712835;-3.858700978;1.433781864;8.610039063;0.564978538;-4.440283491;15.00263799;-10.35337065;8.657909798;55.58413596;23.83785876;19.91901641;11.59282247;12.93875041;11.27894972;2.458410996;2.483914687;-0.134284262
-2.961302307;-0.646382269;-4.448102669;0.069318031;7.43601435;0.419355906;8.857779095;15.44177406;-3.525335613;10.41744576;59.09328471;22.24125485;20.74974959;10.2260061;3.739615546;9.893815888;1.470353443;1.948095809;-0.011068484
-4.175866174;-0.722224863;-5.382765793;-0.929076436;5.937622053;0.480036621;23.14758397;14.95321898;10.08304212;10.80574033;57.7840998;17.93398743;19.73031526;8.896653271;-6.638754175;7.475129357;-0.485235664;0.869861758;-0.327276639
-5.992425879;-2.115503619;-7.791953785;-2.747698348;3.813489861;0.499982875;31.20604982;12.6901959;22.00125546;8.277719939;53.02493598;12.69810537;16.96601463;7.787541644;-13.94142564;4.730115619;-3.088991334;-0.941040921;-1.116778069
-8.632282346;-5.162652868;-12.10665566;-6.471396025;0.685166677;0.223283424;30.7225872;8.427481954;22.58880921;2.925888282;46.25765496;8.379526344;13.24616294;6.53523138;-16.0005845;2.540841582;-5.732841045;-3.363605172;-2.060567883
-11.80037324;-9.187644621;-17.45486394;-11.97806498;-3.451854259;-0.41913278;24.86793066;2.819481876;9.008095986;-3.548919416;37.92567707;5.685631428;9.57848677;4.718155779;-13.66837206;1.677268459;-7.887596371;-5.772312268;-2.63302034
-14.55146625;-12.6180368;-21.86809557;-17.62426932;-7.971733753;-1.275686928;19.15739246;-2.906799199;-12.24049231;-9.015265289;27.18075097;3.795512765;6.552685138;2.354893184;-9.797434674;2.514855703;-9.398313928;-7.150127753;-2.438178036
-15.70017842;-13.71545667;-23.32550986;-21.12142212;-11.81992881;-2.109437504;17.27611021;-7.610178547;-30.5103329;-12.30850383;12.5299471;1.142966473;4.034048586;0.001730824;-7.128308601;4.860501786;-10.43343352;-6.572478214;-1.511631497
-14.60839809;-11.57056376;-21.01341972;-21.0478389;-14.09859639;-2.767799534;18.96513202;-10.79768007;-39.63532276;-13.79422209;-7.053808583;-3.189926456;1.427290879;-1.611534082;-6.591444273;8.009415838;-11.12526815;-3.782178808;-0.351019986
-11.79029097;-6.747749065;-15.92238156;-17.86007813;-14.63326352;-3.239162507;21.15809669;-12.73119852;-42.70696897;-14.75187998;-31.25840435;-8.571496618;-1.721425538;-2.098898659;-7.100412793;11.07266098;-11.2488308;0.585655851;0.386643684
-8.791430732;-1.098880188;-10.29902689;-13.58091103;-14.07652325;-3.568379968;20.98469675;-14.04994344;-48.93110088;-16.16998069;-58.24273173;-13.18303606;-5.297734448;-1.682451504;-6.777213128;13.44059254;-10.29307109;5.357509539;0.332052217
-7.284453494;3.229772316;-6.266532497;-10.34426335;-13.41776075;-3.738407981;18.05705939;-15.20680932;-65.2091708;-17.9433415;-85.12466619;-15.41776797;-8.723298643;-1.02102173;-4.556842769;15.10591254;-7.940039063;9.535114959;-0.328100334
-7.93826661;5.016642189;-4.538979023;-8.878516141;-13.21858538;-3.650111591;14.39709934;-16.11340708;-89.5809255;-19.04015708;-108.8238812;-15.20897016;-11.47767993;-0.757301159;-0.958578716;16.60528155;-4.563644279;12.83541611;-0.980212737
-9.870114253;4.623025087;-4.109739047;-8.073120169;-13.13336548;-3.227116894;12.45281917;-16.21125666;-112.0992874;-18.37496729;-126.8832862;-14.16587321;-13.54847159;-1.118378371;2.460982159;18.57332965;-1.262984259;15.62980792;-1.041670882
-11.13699852;3.634932928;-3.111066874;-5.940893507;-12.09780332;-2.541063801;13.09505711;-14.88432036;-122.4279662;-15.60387238;-138.0111966;-14.31678126;-15.37296856;-1.818621221;4.433158423;21.18809842;0.714090671;18.32766381;-0.419282923
-9.990161647;3.710415854;-0.220171276;-1.218825017;-9.087438344;-1.822361706;15.21199821;-11.91429361;-117.8119265;-11.24477522;-142.2286346;-16.40276311;-17.2860828;-2.271032876;4.99138477;23.90099092;0.784071331;20.71477699;0.383886004
-6.044772321;5.413426847;4.376379689;5.61066823;-3.917936286;-1.323879999;16.97257673;-7.679883601;-104.8392053;-6.174155227;-140.6171646;-19.09307476;-18.95620504;-1.920299649;5.392351584;25.67416589;-0.549371117;21.82798927;0.616324838
-0.549817308;7.845460525;9.105396513;12.60801188;2.490358658;-1.14502363;17.4464766;-2.984983655;-93.71338042;-1.047604716;-134.7730819;-19.81611619;-19.35761574;-0.490948747;7.050078125;25.59736081;-2.029692451;20.54358365;-0.160986844
4.425169279;9.337060868;12.08424539;17.68611725;8.583545659;-1.168843265;17.17489967;1.367154025;-90.01852101;3.875762244;-126.1910279;-16.62912399;-17.40831273;1.940439611;10.35616281;23.47880188;-2.517794717;16.48460663;-1.717658232
7.300436888;8.704702184;12.37199623;19.91776155;13.0539538;-1.169602832;17.39081145;4.993540187;-90.87564164;8.50915006;-115.8503611;-9.706233279;-12.82901477;5.016470365;14.3211803;20.01151257;-1.741541031;10.56163171;-3.279655923
7.868763116;6.157760563;10.53582873;19.90625592;15.51631927;-0.997995073;18.79015;8.095036974;-88.4451014;12.70206427;-104.1766452;-1.303719299;-6.537938193;8.236803582;17.30372512;16.40548073;-0.358860385;4.688538548;-4.059099219
7.163236473;3.176365681;8.180312475;19.06225027;16.53109304;-0.684223668;21.0025648;11.25716167;-77.41498769;16.29481508;-91.32319317;5.750019531;-0.215158368;11.10703646;18.23100913;13.73343024;0.674637531;0.795112719;-3.802661793
6.474962587;1.423392771;6.796564871;18.44113313;17.00560591;-0.377964079;23.10709218;14.98145151;-59.85631426;19.34337299;-77.51884196;9.853155338;4.684447917;13.26435754;17.33782504;12.40443702;0.880605886;-0.240566393;-2.95358044
6.29045873;1.471556778;6.718496851;18.02804059;17.43888852;-0.19607361;24.53578932;19.20316132;-43.31751725;22.11860381;-63.21955567;11.35993265;7.738625628;14.53900379;15.8448637;12.05198459;0.528192533;0.941941862;-2.307852674
5.938773435;2.288081804;6.868903884;16.91024126;17.5529107;-0.132050136;25.44798505;23.09160191;-34.00232553;24.68998613;-48.99390677;11.79795738;9.575945498;14.91243555;14.84525108;11.82350539;0.205604024;2.594716419;-2.419515654
4.182159167;1.88988035;5.447445415;14.07812576;16.53878175;-0.116529252;26.30265984;25.30746988;-31.13546693;26.41853094;-35.29876171;12.35688037;11.11145817;14.3874684;14.29925919;10.82324258;0.112187524;2.854821306;-3.19016527
0.281601242;-1.263255619;1.116665181;9.201530992;13.69650208;-0.1646988;27.20012468;24.64529821;-27.54860662;25.96773568;-22.3624508;12.95719368;12.63124753;12.87070476;12.95789301;8.445640768;-0.263904809;0.704229896;-3.933545064
-5.263277576;-7.11350147;-6.053277133;2.871812574;8.995525995;-0.449607706;27.75621281;20.74261024;-16.11395755;22.11748572;-10.24526057;12.62511266;13.48510616;10.19782368;9.312600283;4.50467831;-1.752575808;-3.621667425;-3.855034805
-10.84023047;-13.90325008;-14.45933621;-3.732357775;3.18946721;-1.197199566;27.64707573;14.44659904;3.414779094;14.93010851;1.050580198;10.73752719;12.6634765;6.343340787;2.867602009;-0.761946637;-4.694211036;-8.896773031;-2.595821564
-14.62337771;-19.19492007;-21.73929689;-9.419112748;-2.536461097;-2.465550232;27.18501354;7.581223435;23.02631285;6.322444128;11.58973064;7.958929291;9.816931124;1.690311566;-5.228225681;-6.707346288;-8.40452034;-13.568519;-0.469786946
-15.6188344;-21.29886189;-25.99157782;-13.41996492;-7.099958613;-3.997074353;27.18412056;2.190053711;31.90317078;-0.626380721;21.63532379;5.987839387;5.893351837;-2.871060063;-12.68151291;-12.31539872;-11.40617672;-16.41565947;1.737705713
-14.165644;-20.14957678;-26.73176838;-15.53201249;-9.895141599;-5.296472247;28.10637081;-0.353204577;24.45266341;-3.368023235;31.70937267;6.286540941;2.829718637;-6.176451628;-17.34881175;-16.38054571;-12.30899399;-16.92444588;3.23363393
-11.61243925;-17.1167765;-25.04098129;-16.03464875;-10.84746112;-5.908498768;29.33603701;0.118050444;4.610147;-1.452550904;42.38567981;8.86777845;2.446546163;-7.285487077;-18.43003906;-17.9003981;-10.69800464;-15.34283681;3.621302624
-9.451679866;-14.01199114;-22.84617755;-15.50738906;-10.23532202;-5.697674809;29.49836507;2.660502391;-16.82876782;3.197849212;53.86194352;12.18977141;5.307209621;-5.958833406;-16.77608056;-16.56409149;-7.382994806;-12.51904563;3.015294431
-8.505632875;-12.0616201;-21.78656174;-14.60553109;-8.472347444;-4.917183393;27.80859954;5.861896516;-29.58197621;7.587032631;65.63772643;14.29681246;10.35246645;-2.798815632;-14.17846877;-13.03993871;-3.861356918;-9.627786209;1.86659895
-8.640212412;-11.50906843;-22.34878819;-13.80698471;-5.974606085;-4.014930489;25.30031508;8.631544198;-30.26631076;9.632931509;76.6501948;14.31751597;15.57019434;1.057905551;-12.19670786;-8.784509606;-1.425244393;-7.819613372;0.675196522
-9.073304528;-11.92871392;-23.7563051;-13.20054909;-3.102109309;-3.329282149;24.5672937;10.69659533;-23.32136142;9.446636215;85.89847383;13.14904768;19.23025445;4.511889339;-11.30955056;-5.358895273;-0.543070483;-7.818150928;-0.218110626
-8.963801693;-12.78714019;-24.60613426;-12.45685581;-0.107037172;-2.905889374;27.76645192;12.57325095;-16.52944868;9.039911767;93.15348936;12.82171668;20.84273723;6.986121993;-10.8579922;-3.589188863;-0.850340724;-9.571063552;-0.68566856
-7.866731667;-13.70776829;-23.7855033;-11.07044641;2.920566637;-2.558297045;34.25754536;15.09839746;-15.16590206;10.75833844;99.18803581;15.07195497;21.23557581;8.555308597;-9.677456934;-3.08668749;-1.59393072;-12.14619097;-0.762561737
-5.831607062;-14.29680692;-21.07286215;-8.769014066;6.038185623;-2.09482349;39.96175285;18.82839054;-19.19443767;15.61469036;105.2673147;20.2040295;21.78850479;9.704762961;-6.924480214;-2.481668816;-2.106938824;-14.02865995;-0.577789002
-3.210257648;-13.87257997;-17.09961217;-5.808122033;9.309766092;-1.51077191;39.48744012;23.63503422;-24.87356258;22.6540127;112.214586;26.99489626;23.42278996;10.93407445;-2.601385388;-0.290483335;-2.018741869;-13.77851367;-0.304547279
-0.401646695;-11.55520459;-12.80617223;-2.894918176;12.60209656;-0.994116452;29.91907768;28.68807593;-28.55557717;29.63816536;119.7487401;33.54164079;26.04393283;12.46654453;2.434740203;4.094021337;-1.230313576;-10.75649248;-0.111847753
2.288137983;-6.812596856;-8.835986556;-0.741252098;15.49504856;-0.760790529;13.58108133;32.81600025;-29.27584156;34.41270591;126.6369816;38.30770278;28.74670496;14.18995264;6.888945797;9.922171596;0.133010575;-5.505396015;-0.100591521
4.656204453;-0.054218139;-5.272542454;0.452191564;17.44765203;-0.873980025;-2.520786878;35.07279477;-28.494001;35.9989974;131.5981645;40.66774852;30.54038296;15.77660918;9.632776536;15.45630853;1.689662646;0.486101727;-0.252338756
6.581622496;7.305024613;-1.810678294;1.188777012;18.16495053;-1.198783475;-10.60721387;35.24639077;-28.07320007;34.85349974;134.2976164;40.81936904;31.03465736;16.85146653;10.25017106;18.987037;2.820766059;5.557235204;-0.44307789
8.046405053;13.52408416;1.86476512;2.371090747;17.89962745;-1.516097584;-6.901363385;34.0414218;-28.77514277;32.39551803;135.6733772;39.43882974;30.62794834;17.12151327;9.311560487;19.85991397;2.923650896;8.754102733;-0.534403986
9.165988222;17.54997876;5.803469129;4.689641053;17.39724349;-1.687437092;6.004391666;32.77929029;-30.44168907;30.2701581;137.3235519;37.47091919;30.13258711;16.4603588;8.207135934;18.84544246;1.854981786;10.27652869;-0.480494834
10.13612757;19.60982054;9.757443136;8.122781329;17.42491132;-1.736384793;20.85690527;32.68700033;-33.04740625;29.71885925;140.39;36.05433676;30.1516697;14.96447526;8.500457595;17.59853901;0.224112019;11.20047994;-0.357601398
11.06363403;20.88064533;13.29981618;11.87692516;18.16265182;-1.800048828;30.32730538;34.11544557;-36.99698288;31.15508942;144.7484409;36.28;30.64512082;12.95765577;11.02387616;17.54953231;-0.824529208;12.64354888;-0.278680299
11.77978832;22.43470014;15.92330063;14.77442039;18.91399661;-2.014533935;31.29440332;36.1689591;-42.10820839;33.94476082;149.0769417;38.62887951;30.95274971;10.89630804;15.20413252;18.95232545;-0.338340901;14.91582808;-0.260631855
11.80819334;24.24728177;17.06553421;15.80392912;18.43050767;-2.433985486;26.01140648;37.08134179;-46.44195605;36.51388879;151.7299257;42.4059726;30.23456208;9.183257873;19.12980924;20.72186964;1.686351923;17.22331309;-0.170246696
10.58370105;25.04760523;16.17047556;14.50079704;15.72245553;-3.026513652;19.70272104;35.24479165;-46.65463905;36.96432641;151.7872972;45.76894873;28.04751592;7.996523787;20.50273668;21.1737666;4.145053452;18.12977135;0.177493258
7.833533185;23.17092017;12.9079098;11.01865434;10.84430265;-3.711106051;16.65846673;30.32547874;-40.21110837;34.11671686;149.5865428;46.64489975;24.72274315;7.272818709;18.01430216;19.17653573;5.503634095;16.47167237;0.826748198
3.87847072;17.80840427;7.500288601;5.990536479;5.098875025;-4.378077989;17.7066195;23.73012562;-27.82987989;28.44339539;146.4645779;44.10284681;21.33124091;6.884537377;12.28404254;14.94954627;4.888925724;12.11325981;1.552403406
-0.376357948;9.743092797;0.911642497;0.356841698;0.461315062;-4.883261611;20.58537355;18.0170243;-13.88117163;22.15968069;143.9793035;39.21330975;19.24114611;6.875466799;5.668710244;9.979299962;2.771315595;6.045648886;1.928634168
-3.804529641;1.040216875;-5.348948097;-4.770428614;-1.454453621;-5.060782175;22.42601433;15.5181846;-3.926934417;18.15575736;143.1485141;34.62968274;19.4729288;7.531855541;0.96943328;6.122179481;0.669913191;-0.20520254;1.581396101
-5.583218352;-6.075356849;-9.812672231;-8.282617668;-0.247894502;-4.79274911;22.12575647;17.00835234;-1.020061035;18.29231181;144.1092611;33.01614579;22.16904457;9.172013903;-0.152039316;4.503737838;0.05474263;-5.423060071;0.45767147
-5.573309616;-10.36286208;-11.71515153;-9.374841645;3.119429728;-4.106170622;20.82776542;21.28838469;-3.62635431;22.19483739;146.2542473;35.3552143;26.46241862;11.78091761;2.006493681;4.94025358;1.269364688;-9.215579675;-1.09028859
-4.336851773;-11.98849129;-11.31463812;-7.910475413;6.935813734;-3.209048585;20.47358089;25.97084415;-6.897114303;27.47177688;148.6373884;40.34107324;30.84908746;14.79428065;5.656795533;6.224803928;3.305698503;-11.8971205;-2.485525492
-2.801475964;-12.05926174;-9.645804924;-4.627567129;9.68717129;-2.400699282;21.92738067;28.9462097;-6.362307818;31.29112015;150.4014138;45.30739629;33.90782454;17.27156194;8.871389016;7.016904054;4.597502094;-13.92467645;-3.26124702
-1.788907802;-11.72594526;-7.876909975;-0.968618983;10.74574277;-1.891697626;24.30151422;29.54847133;-1.153554866;32.2103514;151.0863478;48.01037222;34.99506714;18.40594077;10.78473567;6.681969637;4.189966524;-15.38772264;-3.325826763
-1.67871638;-11.52819079;-6.70645957;1.477212521;10.43772793;-1.660995372;25.90090878;28.67241298;5.73109557;30.92182358;150.7667552;47.96818004;34.51877589;18.02471804;11.78742014;5.514185432;2.353564625;-15.96510014;-2.98310787
-2.362115323;-11.35841499;-6.177945502;1.662129137;9.566910249;-1.470721626;25.79243695;27.8547247;10.1748259;29.39496443;149.9778176;46.43197013;33.61297644;16.69148086;12.69175315;4.260368056;0.181957453;-15.35364524;-2.706470927
-3.451101723;-10.90903942;-5.961675578;-0.479031137;8.797138409;-1.044395947;24.58067381;28.05484266;10.33602372;29.14547013;149.4067841;45.12633403;33.39238131;15.29737692;13.66821996;3.375072906;-1.443415982;-13.77581178;-2.831460858
-4.573711659;-10.15261474;-5.817501792;-4.080734746;8.306034218;-0.281877374;23.7857497;29.02783769;7.918890156;30.03136968;149.4382207;44.80785343;34.24197155;14.42290566;13.89489478;2.603391667;-2.625003157;-12.10231941;-3.372471134
-5.575231701;-9.48051597;-5.865573736;-7.845762948;7.859259095;0.652107249;24.46849948;29.67751581;6.434263494;30.51164695;149.803349;44.7529069;35.59177434;13.94726492;12.221541;1.202168612;-4.298736947;-11.43151207;-4.065653094
-6.535547508;-9.456338003;-6.492628463;-10.69294765;7.145312231;1.433600355;26.33880009;29.02224936;8.087767966;29.08479136;149.6233497;43.49637724;36.32021726;13.20671069;8.269891764;-1.394406369;-7.290832079;-12.40184014;-4.579567021
-7.62943441;-10.42508786;-8.01953554;-12.2029474;6.075325879;1.796268095;28.07269568;26.98166127;11.97545122;25.66209291;147.9292905;40.15948882;35.51352868;11.58079138;3.009466066;-4.997479234;-11.3881347;-14.73506436;-4.734376356
-8.933753175;-12.26387017;-10.41121545;-12.66692699;4.848270942;1.695029314;28.47856452;24.39902741;15.02936599;21.71806395;144.3792612;35.29433667;33.06997287;9.047398241;-1.721444667;-8.634687125;-15.23340552;-17.34987079;-4.589121945
-10.3;-14.40249829;-13.23068998;-12.78119835;3.792037086;1.304320118;27.46107841;22.34961534;14.77467618;19.10840276;139.6598048;30.60532765;29.7497971;6.267441817;-4.407027952;-11.11688569;-17.18992413;-18.98089486;-4.363115713
-11.37283907;-16.06183347;-15.8332456;-13.20208779;3.14141015;0.875045562;25.98891747;21.32853468;11.47715552;18.56226874;135.1981886;27.78845309;26.65997839;4.12731026;-4.834493252;-11.81079529;-16.53210893;-18.89744116;-4.266897865
-11.7632052;-16.58220858;-17.64897327;-14.20509314;2.913623517;0.576646886;25.1814989;20.95029616;7.874237671;19.10669348;132.2873088;27.36090213;24.55037529;3.092491133;-4.129078341;-11.08372684;-14.04834786;-17.27828281;-4.361010213
-11.30145183;-15.72819493;-18.40350969;-15.60189939;2.931123116;0.438523568;25.36418565;20.33822891;6.788348185;18.87827523;131.1966351;28.29807249;23.40733632;2.872186508;-3.885069614;-10.12075969;-11.59242345;-15.05763302;-4.525379114
-10.22926887;-13.87107837;-18.21828907;-16.92718032;2.930667271;0.402371168;25.89063752;18.8324978;8.696592012;16.61986762;130.9213569;28.67177629;22.59119839;2.649178366;-5.131073483;-10.23997849;-10.91338506;-13.39577762;-4.546458463
-9.1888393;-11.94035297;-17.59504648;-17.7782074;2.668331914;0.404213537;25.80594286;16.4398292;11.30994078;12.62291205;129.7988771;26.80441881;21.36316259;1.689954601;-7.910754765;-12.14542544;-12.6027857;-13.11003906;-4.262946124
-8.957481131;-11.07292471;-17.28118589;-18.11628531;1.976696563;0.403158167;24.7031169;13.71518311;11.48512762;8.383014157;126.5901296;22.18920618;19.38637601;-0.135886035;-11.65719095;-15.56554401;-15.85691144;-14.34923184;-3.683617198
-10.03049547;-12.0416639;-17.99904167;-18.34882691;0.789623253;0.352207635;23.02553074;11.24770938;7.848139335;5.323813709;121.2669972;15.67557118;16.85050761;-2.312843451;-15.85219376;-19.45747606;-19.1222243;-16.60649853;-3.007387765
-12.28214277;-14.75079967;-20.08519335;-19.11595414;-0.833750961;0.177966686;21.6183437;9.215815116;1.956664721;3.685634885;114.9556029;8.919462022;14.18946377;-4.121365867;-20.29851255;-22.61501373;-21.08984687;-18.99948767;-2.526041639
-14.93315378;-18.15852548;-23.20731285;-20.87422389;-2.683536111;-0.174487559;20.99783129;7.365120503;-2.928270248;2.476801563;109.1093783;3.493013004;11.67674679;-5.203793522;-24.80639801;-24.31184151;-21.36112311;-20.67377195;-2.455225987
-16.8928383;-20.78471736;-26.37890588;-23.51530236;-4.405065426;-0.657355113;20.99983423;5.378711027;-4.426032953;0.463431148;104.5465806;0.14790439;9.248289596;-5.816176841;-28.73635635;-24.63309142;-20.44903713;-21.18037114;-2.790152416
-17.30995873;-21.5609177;-28.36581568;-26.27552626;-5.571839697;-1.08923736;21.06325159;3.287381681;-2.863605828;-2.671598619;101.0545166;-1.430523669;6.68190014;-6.586091144;-31.02805284;-24.34540106;-19.27378074;-20.68322253;-3.284666185
-16.01554378;-20.47257313;-28.31382502;-28.04186926;-5.825793845;-1.244864399;20.81376313;1.55987777;-0.882813652;-5.954678469;97.79796141;-2.309108591;3.948153626;-7.978243082;-30.8837304;-24.40227921;-18.57597395;-19.87794016;-3.588750936
-13.58907983;-18.5142954;-26.22083185;-27.91534608;-5.037950279;-1.025600972;20.37932074;0.794498473;-1.171111832;-7.800746749;94.14881464;-3.619364271;1.400403979;-9.881446977;-28.57930988;-25.35950701;-18.58546689;-19.6026898;-3.475348523
-11.008729;-16.9403869;-22.92505651;-25.71273675;-3.414388403;-0.578110742;20.17285742;1.253879834;-4.164795428;-7.173420357;90.26230748;-5.857171309;-0.390640618;-11.6246635;-25.61107349;-27.01610376;-19.01797762;-20.30119822;-3.00943301
-9.105980221;-16.32532987;-19.59109986;-22.10441637;-1.480394424;-0.244132322;20.40123463;2.593824975;-7.597317363;-4.338645544;86.96890448;-8.559758083;-1.046977273;-12.40350497;-23.85558624;-28.48555104;-19.27884104;-21.65098876;-2.527703313
-8.158682417;-16.12973825;-17.03219131;-18.30176549;0.080675902;-0.349968417;20.80559411;3.978567342;-8.307016662;-0.718816736;85.10967817;-10.57987088;-0.708206846;-11.80361109;-24.26784067;-28.67894367;-18.73566994;-22.64289062;-2.415806983
-7.850371929;-15.11968324;-15.33049112;-15.48144062;0.690743024;-0.979767353;20.8928578;4.500352818;-4.917184972;1.945075314;84.86421606;-10.83612692;0.00822308;-10.05365271;-26.13113084;-26.94395235;-16.98897489;-22.13969607;-2.819903636
-7.580039063;-12.35164638;-13.99856802;-14.28178796;0.135023324;-1.904142513;20.43159917;3.639516957;0.753489553;2.490957808;85.58905376;-9.083769029;0.407906132;-7.849308583;-27.52698248;-23.48454742;-14.08710138;-19.59825868;-3.498579667
-6.896041277;-7.998362624;-12.52580955;-14.63590877;-1.318596106;-2.724319342;19.72348966;1.512961912;4.80145941;0.772567732;86.26039789;-6.172501835;0.188786204;-5.894299232;-26.74219125;-19.28506746;-10.58439281;-15.47318968;-3.942489556
-5.782551001;-3.398275762;-10.88077691;-15.9778925;-3.026473123;-3.128792701;19.36848876;-1.189557055;4.211808186;-2.45179973;86.15597897;-3.561666495;-0.375438391;-4.486237996;-23.54525932;-15.55485308;-7.339933468;-10.99838382;-3.703330222
-4.651492681;-0.283660031;-9.598117653;-17.63597767;-4.274891012;-3.076814391;19.72120487;-3.516232306;-0.492075395;-5.930544471;85.27028423;-2.385584473;-0.673826322;-3.418189444;-19.32174987;-13.02670897;-5.087059788;-7.469102817;-2.712022371
-4.080871952;0.264194881;-9.405930478;-19.15010467;-4.62942438;-2.786117219;20.53879327;-4.65306107;-5.084966542;-8.362633642;84.20840476;-2.721846344;-0.228337616;-2.229270664;-15.94996053;-11.56127402;-4.003810977;-5.508660449;-1.355315282
-4.468650093;-1.581125086;-10.68264759;-20.34863158;-4.12290411;-2.555076405;21.16251934;-4.243699486;-4.452142056;-8.77830769;83.71085041;-3.600923176;0.969702097;-0.596096259;-14.313774;-10.31970309;-3.593346447;-4.812406576;-0.241386832
-5.786035038;-4.582418725;-13.12741004;-21.202642;-3.162003735;-2.565575819;21.09455311;-2.502996483;3.351100039;-6.857343506;84.19731274;-3.750110403;2.506788899;1.422022272;-13.65222233;-8.380039063;-3.015069359;-4.501664928;0.192493062
-7.543852589;-7.207420899;-15.84795565;-21.62033223;-2.216868723;-2.804362541;20.46325857;-0.078390231;14.69865336;-3.108820426;85.62743581;-2.499619473;3.915361442;3.442839712;-12.27282766;-5.364220403;-1.679977259;-3.774997278;-0.04180661
-8.988447539;-8.417142415;-17.78567589;-21.36699869;-1.516737197;-3.129044422;19.95048398;2.275222084;21.72064026;1.255731677;87.67974831;-0.158219177;5.041937236;5.050383101;-9.049211209;-1.649243526;0.303526383;-2.367335124;-0.51372743
-9.453524394;-8.021283974;-18.21910518;-20.19684998;-0.978042089;-3.393598506;20.21883706;4.036137877;16.97125834;4.823861216;90.00951836;2.390014648;6.100209378;6.071005187;-4.486520036;1.939779256;2.165041841;-0.545009824;-0.687343589
-8.719911046;-6.534719935;-17.09567135;-18.12439005;-0.416242681;-3.52725803;21.31876921;5.075972564;-1.413047428;6.644571158;92.34414778;4.464530839;7.362118229;6.616597746;-0.490340567;4.668938545;2.969185395;1.231811956;-0.290815335
-7.195536324;-4.784908175;-15.063635;-15.63626103;0.140419628;-3.530590618;22.58634541;5.550482824;-27.6;6.633153695;94.37700617;6.034716936;8.755058213;6.871910613;0.978060463;6.238157634;2.210569138;2.615468977;0.51802429
-5.76837798;-3.545532025;-13.19833423;-13.63128192;0.321622125;-3.434708161;23.13382374;5.626029748;-50.75632342;5.425592202;95.63193414;7.445422019;9.736308382;6.824109019;-0.704566648;6.712787552;0.088649489;3.408468087;1.294217478
-5.335968321;-3.286779095;-12.50249112;-13.01284946;-0.370297854;-3.286024772;22.53798713;5.283382289;-61.13328322;3.803993731;95.50963453;8.714192294;9.610978021;6.200431916;-4.450323758;6.21136102;-2.680358716;3.430945946;1.636005791
-6.227101411;-3.99125162;-13.34684244;-14.09611006;-2.121385823;-3.165287915;21.16810564;4.38730781;-55.70468976;2.170473393;93.56973346;9.134670751;8.09757885;4.72310421;-8.325409841;4.727628321;-5.293347481;2.516628537;1.456506827
-7.867825946;-5.037540975;-15.11254679;-16.19365437;-4.478781057;-3.192142236;19.89720862;2.977774355;-39.65142038;0.499793525;89.88488349;7.699253438;5.710454402;2.514069584;-10.88541102;2.311222335;-7.169003945;0.786150218;1.010053711
-8.96756053;-5.297648911;-16.31089766;-17.74061334;-6.436613459;-3.471658162;19.44353036;1.507552585;-22.7262197;-1.24410494;85.20220262;4.11481992;3.618489798;0.303697355;-11.90294185;-0.557036199;-7.957410866;-1.021314336;0.677161093
-8.203198144;-3.59254071;-15.2733902;-17.04118295;-6.952289862;-4.005190766;19.87212214;0.738798947;-13.01861753;-2.693786845;80.74254783;-0.445951258;3.006251005;-0.814084778;-12.0030215;-2.826181176;-7.392544029;-1.589728525;0.685072295
-5.030657914;0.598463425;-11.14437758;-13.28884947;-5.580139902;-4.645539971;20.62967344;1.273306717;-12.3760051;-3.153239957;77.69393784;-3.651690065;4.340661239;-0.01081232;-11.68331327;-3.275322;-5.274931993;0.338396893;0.970940025
-0.108877319;6.592152382;-4.593821423;-7.222677115;-2.789456232;-5.158654232;21.0419502;3.037889485;-16.43549218;-2.180242819;76.6592732;-3.386287249;7.047669944;2.666665329;-10.69770419;-1.29768227;-1.703062033;5.032632971;1.270952499
4.975959539;12.59202367;2.306119356;-0.897885258;0.270625892;-5.366002435;20.84976719;5.174347253;-18.82991956;-0.149044871;77.36877876;0.710534172;9.841453409;6.175290993;-8.402609761;2.498034608;2.647141863;11.23995014;1.345557618
8.553105529;16.53131862;7.130785112;3.419828768;2.422071444;-5.26136521;20.37065373;6.533909339;-16.17721677;1.82325404;78.83256352;6.711127775;11.5044173;9.016201345;-4.746035311;6.418133749;6.546609111;16.59560069;1.159849362
9.760715283;17.22990298;8.519815437;4.602231394;3.108191583;-5.002996375;20.20544575;6.501500163;-10.14251614;2.687101678;79.86572022;11.40655133;11.60723643;10.13325182;-0.92725278;8.601236906;8.699237273;18.88632768;0.889187954
8.93559282;15.11385614;7.04788583;3.359967761;2.643865789;-4.780472048;20.76480748;5.549846081;-5.341843949;2.403339806;79.70410932;12.26602501;10.70402948;9.566019034;1.042275309;8.164162416;8.449976918;17.39244017;0.762672063
7.289242023;11.97777063;4.910158972;1.775507501;1.953001806;-4.662957765;21.98773545;5.045519249;-5.134267304;2.168281409;78.36602318;9.025276601;9.900285786;8.381832199;-0.275749233;5.778742942;6.220251124;13.37787378;0.877611807
6.138453032;9.920058594;4.562483129;1.933787857;2.012510719;-4.555582695;23.42260282;6.35484396;-8.844833301;3.578148873;76.54859771;3.801185647;10.10770971;7.907696666;-4.44905549;3.24020558;3.312263233;9.341405327;1.12935708
6.221017447;10.16638914;7.198249032;4.570155243;3.36288236;-4.300740285;24.54560273;9.843095141;-12.56759337;7.283334569;75.11623288;-0.338674774;11.48124841;8.7928176;-9.081847387;2.298174141;1.170336758;7.508939882;1.303403055
7.495802646;12.55556295;12.08155195;8.667231564;5.927712051;-3.836953552;25.04913934;14.49166696;-12.65105091;12.20597798;74.49285652;-1.346870164;13.37204732;10.567261;-11.19877446;3.549154248;0.591155058;8.581348655;1.250928902
9.431064976;15.9471748;17.1556583;12.25710491;9.141979883;-3.277799419;24.92456274;18.44433949;-8.802774995;16.04818158;74.34962616;0.632942498;14.76598233;12.00539544;-9.236796871;6.132194852;1.406610166;11.54440259;1.009447635
11.44939211;19.13064311;20.4404126;13.81130786;12.22301271;-2.841940376;24.36383375;20.13031751;-4.207099102;16.82305035;73.81162374;3.617464377;14.87832791;12.01415394;-4.231906288;8.37763987;2.798306361;14.56286304;0.776508792
13.17161727;21.50862377;21.20212748;13.19295244;14.4252506;-2.692888666;23.62318544;19.19753447;-2.660616789;14.29094038;72.07270922;5.300655569;13.53295831;10.39028695;0.706514816;8.891480401;3.940626705;16.22781176;0.756855049
14.36294044;23.11022823;20.11699996;11.51864916;15.23010997;-2.822410654;22.95049278;16.63628411;-5.249991527;10.19390271;69.01571293;4.627367917;11.15686464;7.91084176;2.3380558;7.3125444;4.476235615;16.26571415;0.997517017
14.77504343;24.09059956;18.44696386;10.13442472;14.49219748;-3.070400317;22.56014227;14.05999011;-9.415113596;7.077131165;65.39508989;2.381624546;8.486852701;5.735641158;-0.655503943;4.303643054;4.532052039;15.32384789;1.334046023
14.14043163;24.27568216;16.9694098;9.568161468;12.5264234;-3.255775068;22.58399501;12.68630952;-11.14887534;6.562627614;62.40874709;0.502513431;6.222464182;4.605412539;-6.884995162;0.933664602;4.382361832;14.17477379;1.490750254
12.37529096;23.19549437;15.50046864;9.267334129;10.0487533;-3.302968267;22.985715;12.7082277;-8.410842831;8.339738816;60.90550827;0.696835998;4.807166369;4.430707066;-13.21213361;-2.000685739;4.116879907;13.05383501;1.267354289
9.792698155;20.55526622;13.29676985;8.238872461;7.902434698;-3.263390429;23.51886208;13.39415964;-2.851555248;10.55583691;60.7570125;3.299011184;4.371396921;4.523029475;-16.7250373;-4.243003966;3.59103288;11.61475981;0.682257992
7.071108273;16.67770424;9.901115952;5.971482137;6.647810523;-3.231356111;23.81828683;13.71868067;1.558664194;11.21741614;60.85081082;7.060760587;4.768192828;4.21645669;-16.37287656;-5.879361112;2.637898959;9.415672071;-0.028259664
4.926188009;12.47550256;5.695651035;2.849101807;6.254222791;-3.245264546;23.60956413;13.01519839;1.765352634;9.50770161;59.75767099;9.908164883;5.639268703;3.366151585;-13.25085132;-6.988960838;1.291936814;6.432924879;-0.555862728
3.712345172;8.939897554;1.741079451;-0.231265568;6.137509769;-3.266305957;22.89669598;11.24508947;-2.011766734;6.110191016;56.65767966;10.13604926;6.513231502;2.369862121;-9.53712064;-7.49431102;-0.194463871;3.157361598;-0.711696006
3.271278594;6.56463903;-0.904190044;-2.612650531;5.57712806;-3.243710276;21.97220126;8.838738302;-6.687001844;2.47643472;51.90890986;7.33167107;6.959238536;1.771115578;-6.985128158;-7.295196963;-1.531995;0.245538499;-0.533741349
3.15187497;5.178576019;-1.805029056;-4.289364399;4.257566256;-3.190311672;21.22031424;6.358129717;-8.973823865;-0.239378101;46.86553169;2.552416787;6.762139763;1.814882402;-6.042262714;-6.484032094;-2.573228913;-1.920340039;-0.240603698
3.012285762;4.296151827;-1.259926272;-5.634816807;2.545847587;-3.185726076;20.85294162;4.252702324;-7.954003283;-1.741514334;43.05597181;-2.274254399;6.013282408;2.303200081;-6.060649898;-5.393113703;-3.315327977;-3.383021681;-0.070720302
2.861234787;3.646669097;0.07789606;-6.774147918;1.278045142;-3.3;20.78095188;2.790503872;-5.44606112;-2.365855923;41.26657952;-5.358755873;5.023170283;2.804200366;-6.212668078;-4.425352906;-3.752069095;-4.394371107;-0.124451413
2.944418555;3.408258269;1.670191989;-7.271963328;1.185796354;-3.512992409;20.71896402;2.06984329;-4.079440133;-2.462455036;41.13553012;-5.914450133;4.083133502;2.981746925;-6.272927975;-3.845653977;-3.76417134;-5.084638955;-0.318714243
3.404502585;3.959748653;3.276338367;-6.4979761;2.375804123;-3.712787295;20.4341781;2.010815354;-4.926702582;-2.018084598;41.50421071;-4.43114836;3.242581977;2.768774836;-6.665091453;-3.734567162;-3.19837813;-5.33049002;-0.47678032
4.050039063;5.405342565;4.808916868;-4.357324425;4.24947314;-3.782219556;19.93652164;2.347102486;-6.7552724;-0.810558392;41.25408046;-2.239090679;2.291852082;2.300744886;-7.840148949;-4.117044357;-2.082538507;-4.909527865;-0.475623698
4.469217833;7.327620161;6.128102011;-1.662811935;5.92263106;-3.695850791;19.46219455;2.714025939;-7.369205186;1.148855198;40.0419887;-0.645176423;0.996748271;1.74622787;-9.598267421;-5.080345411;-0.759116609;-3.753602141;-0.335454194
4.403050242;9.014066405;7.038547234;0.307442363;6.82747764;-3.536372496;19.27563576;2.852823382;-5.63997268;3.368304315;38.44921484;-0.172429405;-0.583186394;1.216812655;-10.97924854;-6.698886509;0.236030791;-2.045358847;-0.18792257
4.038491292;9.978474888;7.485054647;0.787719668;7.047357039;-3.413105891;19.45890265;2.798518293;-2.350269075;5.08098458;37.49047472;-0.364161772;-1.965260473;0.798355756;-10.85708011;-8.798734612;0.497871931;-0.081918222;-0.158078387
3.930266399;10.33850755;7.703342103;0.211974812;7.151540986;-3.358219406;19.85631443;2.867476085;0.775667749;5.72904775;37.8713248;-0.240705275;-2.460662349;0.591662051;-8.792623097;-10.8098131;0.028096237;1.938071506;-0.261374566
4.578536056;10.73338345;8.113552254;-0.047541318;7.685898287;-3.299298615;20.2064026;3.401139472;2.759528337;5.319392692;39.524764;0.946555522;-1.628248522;0.651449221;-5.477845187;-11.93911531;-0.771701975;3.989200309;-0.398895742
5.999693591;11.84852063;9.007516427;1.235018811;8.727111145;-3.135955528;20.34276478;4.447475246;4.102217521;4.388055554;41.71799067;3.213768666;0.356708097;0.861412173;-2.398568646;-11.63118418;-1.394826275;6.098710975;-0.448855366
7.651816622;13.91868784;10.30373355;4.090834108;9.832480107;-2.84855136;20.30228649;5.655156499;5.938141967;3.648627635;43.59304438;5.932422387;2.714422292;0.908571845;-0.912833346;-9.988834561;-1.576317701;8.17728341;-0.37230718
8.785861228;16.56152071;11.59690422;7.230789981;10.39109743;-2.533539394;20.26702948;6.501454956;8.584885946;3.612993876;44.709024;8.374322401;4.483398273;0.464887674;-1.362775464;-7.786714624;-1.416926709;9.992287118;-0.242563047
8.938723967;19.00088051;12.45361501;8.986349821;10.07581314;-2.32689567;20.4011075;6.686389201;11.0439797;4.408629575;45.19469142;10.22950309;5.07614114;-0.522726365;-2.81676219;-5.996671595;-1.20592108;11.32031905;-0.176287631
8.173783733;20.45203439;12.67466684;8.565936888;9.046130649;-2.284020187;20.71524902;6.359543014;12.01160015;5.803925526;45.44729558;11.67092281;4.581628584;-1.689087492;-3.612595627;-5.139945208;-1.119628405;12.12331295;-0.229541642
6.902206186;20.39450157;12.29019821;6.600105038;7.776295629;-2.330274354;21.05407029;5.96927347;11.37232921;7.32602595;45.66670215;12.96284822;3.612345919;-2.433663929;-2.353358477;-4.952689052;-1.061657171;12.55867205;-0.350518952
5.479701383;18.64309284;11.33497117;4.543497604;6.679709836;-2.334233377;21.20046029;5.84793625;10.56619915;8.402984711;45.62522997;14.0299947;2.830529571;-2.333762362;1.258995987;-4.634615663;-0.764235945;12.79622589;-0.428777692
3.949286358;15.32487916;9.68662412;3.465110202;5.832169026;-2.240014648;21.01329776;5.889953499;11.28287147;8.557946829;44.86648321;14.44010205;2.515563299;-1.4577156;6.234399908;-3.50346942;-0.031442443;12.81394067;-0.395065933
2.142155422;10.88422484;7.192614689;3.262427811;4.981010726;-2.133654334;20.50928206;5.616254296;13.66675667;7.659449347;43.16902398;13.8547284;2.477741957;-0.291006788;10.82245302;-1.557473397;1.107023963;12.38040664;-0.282121879
0.008515244;6.087884504;4.001213745;2.945463665;3.788638659;-2.173024152;19.85166213;4.589553481;15.89307733;6.091397844;40.88452103;12.52391034;2.336858913;0.692629546;13.41967235;0.484858511;2.456035738;11.26214914;-0.19312596
-2.15928569;1.886552968;0.751200453;1.696274975;2.100576236;-2.436547057;19.26690589;2.833397641;15.79713453;4.635870786;38.84431346;11.29579346;1.902829931;1.454432468;13.34324124;1.694662802;3.840841481;9.476905413;-0.207659977
-3.840029297;-0.929153538;-1.656696;-0.259483944;0.057475595;-2.827958037;18.93839744;0.892413867;13.19649396;4.021446343;37.86184095;11.02205924;1.341862088;2.415847352;11.08168353;1.600722181;5.216705936;7.359633571;-0.310483755
-4.640981553;-2.116324473;-2.612980347;-1.7486079;-1.975106944;-3.133207352;18.9241973;-0.526778292;10.60077637;4.397948664;38.18373413;11.82592671;1.014060698;4.021030217;7.945246687;0.515826878;6.589916232;5.372756084;-0.406822379
-4.574299672;-2.114098655;-2.243947047;-1.626913771;-3.558102092;-3.191475212;19.13190336;-1.03690786;11.25468493;5.163149506;39.30242193;12.91712147;1.146329848;6.194623957;5.352103103;-0.704595452;7.837300233;3.822310557;-0.409218393
-4.000687275;-1.759452787;-1.343756042;0.230965905;-4.306274712;-3.033909492;19.36556342;-0.778473291;15.97131846;5.36380627;40.28198349;13.22813448;1.626332778;8.194172745;4.145779149;-1.270949754;8.625545348;2.719470589;-0.316595433
-3.298605241;-1.744736647;-0.802433066;2.801914887;-3.969890332;-2.862125469;19.43136394;-0.206818775;21.69259493;4.428087545;40.36197188;12.41;2.0806407;9.061618452;4.286508182;-0.984908679;8.548517788;1.88067799;-0.214066485
-2.574845245;-2.214183837;-0.982246002;4.751562065;-2.509161816;-2.874177293;19.25204797;0.32237634;23.56223148;2.654981672;39.39214911;11.30977401;2.153497253;8.370800942;5.039148858;-0.328175746;7.397370123;1.134569645;-0.19457253
-1.691405641;-2.80814579;-1.560791232;5.492092362;-0.170471938;-3.082318794;18.91903788;0.791096339;19.2195523;1.027550694;37.78651551;11.38633072;1.747689824;6.676470493;5.509004645;-0.096974004;5.345271181;0.421482391;-0.274390334
-0.577193331;-3.095693196;-1.960980829;5.532957486;2.501665979;-3.282272314;18.63622754;1.391860613;11.64807398;0.466959018;36.06834412;13.40725416;1.047929217;5.262339537;5.192953127;-0.870506463;2.890186831;-0.288809284;-0.37938913
0.494287186;-3.001502031;-1.965779848;5.842919798;4.800717144;-3.209303756;18.57985862;2.202204923;7.575584033;1.141188533;34.40684643;16.47597928;0.349479339;5.32546903;4.218275887;-2.667946775;0.598007062;-1.118453003;-0.413688191
0.971730726;-2.839031731;-1.942537193;6.832728681;6.137387267;-2.756711666;18.76820083;3.0138553;11.97160553;2.421665902;32.55075016;18.31945382;-0.128707551;7.184940509;3.142302242;-4.971362091;-1.156676283;-2.235874634;-0.347121487
0.435985216;-2.921913355;-2.452246872;7.904874033;6.32616882;-2.075491952;19.04156474;3.510121744;22.82725285;3.519365897;30.22836502;16.81963048;-0.289998066;10.0923282;2.47210021;-7.038019035;-2.277149927;-3.611435143;-0.241531088
-0.98476544;-3.125484857;-3.591460527;7.999824182;5.693646512;-1.470742564;19.17803384;3.629269461;30.89647331;4.213419355;27.67160606;11.72185164;-0.072467396;12.75887843;2.254600517;-8.276083832;-2.847976349;-4.794574538;-0.192870519
-2.578215702;-2.841688879;-4.688836312;6.661457072;4.919013927;-1.178983519;19.06401915;3.741582452;25.57259945;4.987077468;25.77502471;5.176007481;0.62765842;14.18039451;2.044147984;-8.477242835;-2.989684801;-4.999222264;-0.24341734
-3.468021401;-1.428703363;-4.687798527;4.660289613;4.695200047;-1.207248254;18.78810375;4.417958192;3.090087891;6.436061383;25.66216238;0.560671639;1.899761368;14.16248792;1.286300319;-7.825385239;-2.796714974;-3.558206336;-0.34479499
-3.17503837;1.203765753;-2.935483396;3.584983253;5.416932965;-1.358663215;18.58053767;5.954420562;-29.17843829;8.53014493;27.91248021;0.334603511;3.66555848;13.24106324;-0.159624331;-6.728285209;-2.365805674;-0.463318746;-0.404357631
-1.874906912;4.390642443;0.284414767;4.709665956;7.065051495;-1.411343678;18.64174249;8.07916054;-56.15596741;10.50617398;32.01963844;4.440480444;5.595742757;12.17862845;-1.767618537;-5.588380205;-1.818324763;3.437972744;-0.37033465
-0.166900626;7.097920514;3.932243247;8.071041922;9.301943144;-1.294347828;18.99295316;10.1403932;-64.38;11.60451795;36.53209289;10.41297815;7.227102212;11.48563757;-2.598298119;-4.635367985;-1.246986537;6.799218984;-0.276791433
1.410053711;8.592416609;6.941646172;12.4966816;11.65625251;-1.118456687;19.46400915;11.64354802;-50.75130814;12.00528482;39.83695604;15.0854399;8.22598386;11.28194974;-1.925608605;-3.902266503;-0.636992982;8.469330572;-0.208898165
2.675822663;8.828811017;8.854045904;16.49894413;13.66492708;-1.051769802;19.82083294;12.66003906;-24.40652247;12.98715468;41.05951663;16.62148612;8.582454363;11.45541145;0.195046862;-3.346587885;0.120846746;8.037745636;-0.223814649
3.685452243;8.236236354;9.823713467;19.23078338;14.94249622;-1.16130186;19.92330818;13.70533304;-0.374372451;15.92557383;40.45135678;15.4217737;8.548254318;11.84332556;2.842787165;-3.020799358;1.086811289;5.871729658;-0.301877498
4.367847836;7.135483114;10.06458742;20.71919211;15.24280689;-1.359801485;19.7879694;15.14972727;10.31764557;20.83075894;39.01882988;13.37875129;8.349008371;12.24724249;4.730168479;-3.139116594;2.119312061;2.709682649;-0.370800449
4.353591695;5.369637385;9.352224033;21.30250466;14.56405901;-1.493868973;19.52040575;16.68083056;6.968719895;25.73313619;37.70974101;12.21500196;7.920955454;12.35724785;4.968306728;-3.938320716;2.896215162;-0.782061435;-0.374934941
3.240895031;2.54313294;7.149676607;20.93128412;13.24035341;-1.48304353;19.19704393;17.35322611;-2.205524172;27.70429162;36.78517197;12.24889308;6.933095372;11.80364924;3.585428353;-5.392039459;3.160029297;-4.12394429;-0.32127393
1.097459533;-1.321526022;3.306083641;19.07608973;11.8861526;-1.382346859;18.81245378;16.27922163;-7.452695515;24.96418239;35.81609317;12.45612977;5.11859524;10.4102273;1.457283416;-7.005414277;3.001795061;-6.825421142;-0.261801333
-1.305513272;-5.356436406;-1.351893243;15.35587703;11.12382715;-1.319735068;18.33612026;13.42600841;-4.810087891;18.4670422;34.22246731;11.59070528;2.644729128;8.443381878;-0.282979662;-7.933484959;2.893447554;-8.239895504;-0.23786653
-2.867201095;-8.174053293;-5.232604469;10.25841863;11.20582391;-1.376794405;17.81085998;9.814865796;2.036049226;11.55848924;31.84734368;9.318093893;0.16588728;6.550180361;-0.945522349;-7.462012917;3.348618572;-7.801034705;-0.248329642
-2.948664684;-8.818756743;-7.010796623;5.176922;11.78801926;-1.527687518;17.37932469;6.861430963;6.065563777;7.73069678;29.07495488;6.421081556;-1.563801918;5.313013269;-0.650628982;-5.580332036;4.429104756;-5.553396264;-0.271941985
-1.952433644;-7.588617847;-6.686128171;1.593288708;12.06620694;-1.688803881;17.19052161;5.317117028;3.26659445;8.0706309;26.43215158;4.002093729;-2.261287019;4.735128596;-0.185796103;-3.210742722;5.521124343;-2.483350496;-0.308956099
-1.136458377;-5.953819568;-5.700718179;0.051008939;11.24878387;-1.822607003;17.25702438;4.663431312;-4.302980456;10.38736218;24.08;2.460311247;-2.40444968;4.131777243;-0.520458843;-1.8218769;5.653157909;-0.184368763;-0.379587471
-1.697039898;-5.483781201;-5.848811328;-0.179215065;9.076455043;-1.987419022;17.39549631;3.507850341;-10.86052099;10.80565608;21.70078721;1.16387455;-2.946580501;2.62438114;-2.310147712;-2.580280924;4.191935754;0.09251409;-0.464355949
-3.790058594;-6.552983764;-7.753745798;-0.4019758;6.030141884;-2.278208349;17.32586035;0.739835738;-12.14268562;6.713420759;18.92359248;-0.903473312;-4.605368726;-0.0896891;-5.631639677;-5.578902807;1.389499752;-1.639003569;-0.450435054
-6.288338649;-7.887770356;-10.16777164;-1.335875147;3.068794366;-2.710815942;16.87165898;-3.437598573;-8.851317222;-1.142422464;15.92378934;-4.088318867;-7.24596174;-3.330585794;-9.981652753;-9.699695932;-1.696533908;-3.968076465;-0.171679495
-7.537351923;-7.430466249;-10.78281974;-2.492965521;1.070773339;-3.162050408;16.10973938;-7.43977924;-5.500296892;-9.006632538;13.61854999;-7.515436836;-9.855967124;-5.80567629;-14.44125038;-13.25553441;-3.914185626;-4.972827268;0.4456385
-6.575322196;-3.951763086;-8.023448581;-2.655656111;0.362903576;-3.433082488;15.3460417;-9.309053459;-5.997556066;-12.65781442;13.1785276;-9.530844631;-11.18278632;-6.540125308;-17.92851724;-14.99672405;-4.834984452;-3.549997664;1.238373814
-3.878283733;1.819756919;-2.424759966;-1.049439906;0.645740681;-3.392867325;14.92655307;-8.075075975;-10.04425306;-10.25394176;15.15151521;-8.832199219;-10.58984694;-5.641564211;-19.53213786;-14.78943777;-5.023436398;-0.204085207;1.816010432
-1.033827495;7.483495949;3.555456112;1.816630033;1.321594595;-3.082192132;15.02057163;-4.458681245;-13.5171908;-3.44095305;18.87388714;-5.445569206;-8.496204502;-4.244513333;-18.89427058;-13.51;-5.517895806;3.321871163;1.779777627
0.414965272;10.53052136;7.221535354;4.400039063;1.940481326;-2.687343114;15.53292665;-0.408678823;-12.36446096;3.929813676;22.69147322;-0.834827918;-6.06075378;-3.625104749;-16.48003906;-12.28106376;-6.925079197;5.305475456;1.025539873
0.054076419;10.03980827;7.535374558;5.281715842;2.421906681;-2.401652659;16.1993633;2.160855263;-6.433181673;8.35817892;24.91690581;2.930149931;-4.340097656;-4.176140516;-13.48847184;-11.65183563;-8.865418866;5.228582648;-0.107188682
-1.22975551;7.230464165;5.734467813;4.254187373;2.919348824;-2.287589465;16.78087586;2.497975614;0.238639435;8.632721517;24.87486123;4.38;-3.549882734;-5.085715392;-11.29554085;-11.32462895;-10.23485296;3.989865283;-0.99999384
-2.09449547;4.463198938;4.194280316;2.420801021;3.491018777;-2.249595583;17.20856941;1.236668792;2.951884019;5.966820787;23.28889811;3.464448387;-2.979942107;-5.008255753;-10.65565295;-10.56391723;-10.0788215;3.040105647;-1.159889515
-1.894484392;3.475248399;4.467818357;1.239314047;3.886409726;-2.132523543;17.58407677;-0.32319829;0.557491671;2.624936995;21.73161916;1.531860945;-1.614310189;-3.196528855;-11.17065212;-8.883443784;-8.362794474;3.193989111;-0.578935406
-1.197327348;4.202469407;6.090633;1.345037959;3.646850731;-1.85676691;18.05856985;-1.230301852;-3.442648309;0.329912939;21.53862855;0.550263586;1.026022218;-0.164602527;-11.47418198;-6.428276241;-6.006697063;4.093473196;0.235840913
-1.261074983;5.046502223;7.097286391;2.150118689;2.45221001;-1.477702608;18.69809559;-1.414410974;-3.981727162;-0.428869729;22.9608782;2.042205462;4.459268547;2.676008286;-10.12249971;-3.779155251;-4.164571533;4.708627263;0.612194439
-2.921532832;4.29445595;5.785482148;2.508665947;0.442646314;-1.129327374;19.43467171;-1.436078785;0.952641285;-0.051267233;25.12787917;6.28426523;7.552618741;4.120227179;-6.630945228;-1.418873452;-3.357533885;4.373121681;0.194938925
-5.811728498;1.519089085;2.250125534;1.800880873;-1.741658974;-0.912086269;20.12226676;-1.793307898;8.292823166;0.861943295;26.78887737;12.13859903;9.327015758;4.113534828;-1.898616981;0.630020752;-3.17532414;3.419871774;-0.803591328
-8.549487978;-2.133663446;-1.57921104;0.453960977;-3.25203459;-0.825121888;20.63762143;-2.412133038;12.43932987;1.846764178;27.25527904;17.58429695;9.659808304;3.769297327;2.351835014;2.678957553;-2.762615974;2.863858522;-1.778399229
-9.735706891;-4.923908171;-3.417682296;-0.534545288;-3.469379374;-0.793694323;20.94682097;-2.703510633;10.35690607;2.502905149;26.87356254;20.71260296;9.380286502;4.45737325;4.761278834;4.905304375;-1.635962583;3.429614596;-2.193663063
-8.962045203;-5.902163385;-2.400669562;-0.58499597;-2.314386386;-0.753981971;21.10060056;-2.060832713;4.764908715;2.463192255;26.74136958;20.71738417;9.704098182;6.715476981;5.27011595;7.00345132;-0.11536672;4.798795726;-1.967463793
-7.046666744;-5.561492178;0.283965483;-0.093481919;-0.257003153;-0.711142094;21.17888843;-0.344065666;2.317252758;1.714077338;27.92096177;18.34802269;11.41477346;9.851792088;5.063416999;8.302089388;0.980531313;5.761923426;-1.482892852
-5.357542434;-5.273509867;2.387468905;-0.032154828;1.948888296;-0.720155024;21.23249563;2.017801624;7.829980294;0.98167228;30.70938002;15.50076706;14.34652896;12.51054289;5.528353407;8.262871645;1.066971797;5.170773879;-1.236614423
-4.801698082;-6.03879722;2.374718961;-0.964885337;3.627276629;-0.815923917;21.25731371;4.313578147;19.17843035;1.568071018;34.41927746;14.09314174;17.48052836;13.68445723;7.019025675;6.919896787;0.277963824;2.889854802;-1.429045685
-5.276256664;-7.619895758;0.543647399;-2.409878114;4.439141739;-0.965881528;21.20657681;5.940239277;27.38519354;4.422820232;37.74549092;14.86079595;19.54423626;13.34191052;8.425539235;4.862960874;-0.723890015;-0.061622766;-1.835349955
-5.950400442;-8.768425167;-1.36304428;-3.182087012;4.432493543;-1.093414286;21.0255464;6.611507271;22.51707967;9.059563026;39.43624027;16.87290919;19.704782;12.2271028;7.954695896;2.772074493;-1.408437913;-2.301749621;-2.047456161
-6.062477826;-8.33205655;-1.661925048;-2.45436694;3.902705363;-1.150270833;20.68759995;6.327858776;1.310521701;13.34727195;38.87094126;18.16636306;17.94761783;11.11386921;4.578441818;0.911790665;-1.867514026;-3.153446363;-1.859154919
-5.542526612;-6.306667662;-0.089688964;-0.594975522;3.168445609;-1.167862724;20.21367334;5.256022758;-29.26998355;14.66834009;36.27683135;17.13410792;14.97915082;10.21190835;-0.962507485;-0.971251127;-2.650633126;-3.113577414;-1.451348094
-4.983821659;-3.961778033;2.048028796;1.003744374;2.388559922;-1.235511515;19.66334565;3.667233275;-55.56484533;11.77593186;32.54726234;13.70442672;11.78598181;9.203330065;-6.42794601;-3.269069139;-4.08536457;-3.369807034;-1.218701929
-5.065009487;-2.934474401;2.975693157;1.017507442;1.510465238;-1.420424942;19.09907945;1.930461701;-65.64445257;5.908629793;28.80363049;9.419320877;9.139831815;7.769856935;-9.502352645;-6.010019531;-5.737074494;-4.805915642;-1.399149625
-5.963252027;-4.014769945;1.838724115;-0.706103934;0.371742332;-1.697897834;18.54539341;0.44815375;-56.75032483;0.123265039;25.9133131;6.296573092;7.302503705;6.03493337;-9.368047267;-8.706162328;-6.585404303;-7.327466281;-1.843204521
-7.24945929;-6.569171307;-0.726490295;-2.979328692;-1.105027714;-1.952934368;17.97747642;-0.513899563;-36.57143623;-2.81466363;24.16155626;5.298948601;6.031251037;4.474751338;-7.279375689;-10.70710292;-5.861221332;-10.01895637;-2.136744344
-8.302458806;-9.018574532;-3.213779744;-4.200582416;-2.746809936;-2.054239752;17.35905696;-0.988663622;-17.68636979;-2.403895565;23.20849734;5.593472496;4.823737406;3.400426351;-5.708732777;-11.75259248;-3.848482992;-11.92057938;-1.97606011
-8.83438036;-9.958891999;-4.456421328;-3.605652654;-4.118603337;-1.942525347;16.70731818;-1.28233241;-9.366904602;-0.66149545;22.3496514;5.221725582;3.246955484;2.552126578;-6.66853301;-12.22080618;-1.897904514;-12.72290645;-1.463563851
-9.059467861;-9.054541956;-4.417921216;-1.810695651;-4.708957605;-1.667187492;16.12565328;-1.716668947;-12.52248866;-0.405006315;20.9532793;2.704598495;1.182520459;1.258577752;-10.38486044;-12.82559044;-1.519644111;-12.82084173;-1.051102772
-9.385725194;-7.07884126;-3.996942594;-0.234830847;-4.22344949;-1.350936878;15.75492677;-2.321899964;-20.85988556;-2.913138819;18.83595396;-1.670700551;-1.123295937;-0.920157494;-15.20340948;-14.00074247;-3.215821005;-12.77498052;-1.159196041
-9.938654475;-5.178346328;-4.126277797;0.059284703;-2.801019334;-1.117620405;15.65845078;-2.755041985;-26.619736;-6.848071821;16.35062492;-5.93557762;-3.216584053;-3.634217351;-18.7061524;-15.49351144;-5.995069784;-12.73813419;-1.786365567
-10.36425198;-4.015058282;-4.977173747;-0.884211551;-0.991848628;-1.037558157;15.727982;-2.555743617;-26.1871524;-9.307180724;14.13116302;-7.888810686;-4.703497115;-5.813047773;-19.20075064;-16.51847351;-8.008534849;-12.37662486;-2.445439361
-10.10048759;-3.453354595;-5.899893195;-2.149333103;0.515450424;-1.11797137;15.70765377;-1.55622869;-21.59921926;-8.137271923;12.6703419;-6.799704486;-5.468134554;-6.373955836;-16.59016063;-16.34601347;-7.853023032;-11.31253202;-2.500092773
-8.891540032;-2.951855078;-6.062942294;-2.861881645;1.251874697;-1.324897717;15.35220891;-0.101292863;-17.5706521;-3.636214659;12.03137423;-4.011602016;-5.70702102;-5.012332474;-12.17531711;-14.8369242;-5.54174183;-9.619776014;-1.645891816
-7.10688588;-2.243927693;-5.193776907;-2.918266066;1.175773266;-1.605676458;14.61866246;1.127304325;-17.08904735;1.683777279;11.89339011;-1.933837824;-5.763110564;-2.421406582;-7.713568615;-12.50169597;-2.406508555;-7.876378018;-0.16052871
-5.588537954;-1.705694307;-3.813355797;-2.907406813;0.598578158;-1.897043649;13.73781258;1.556139865;-19.26782738;4.982741281;11.86990895;-2.1885334;-5.878669149;0.235985745;-4.472697118;-10.08966333;-0.053475338;-6.717223868;1.266575642
-5.133786639;-2.122398604;-2.835218612;-3.385043367;-0.094567088;-2.129313598;13.08547506;1.077678218;-20.80678256;5.042365067;11.82332892;-4.368113874;-6.043605826;2.151624927;-2.849846044;-8.109537347;0.764402368;-6.317499171;1.985365312
-6.00160695;-4.073043817;-2.914761801;-4.247654745;-0.700104762;-2.243004982;12.92925423;0.044871035;-19.29293922;2.777079428;11.91269422;-6.39077377;-6.043526869;3.30866974;-2.600494106;-6.694512884;0.47901669;-6.305162919;1.775123385
-7.788918141;-7.43541243;-4.064944365;-4.816301329;-1.228438763;-2.216277739;13.23913709;-1.047451715;-15.28317143;0.12308715;12.35222578;-6.175741752;-5.659375267;4.211949137;-3.297956339;-5.855559194;0.066109151;-6.186999235;0.910544817
-9.718302346;-11.37330225;-5.756337029;-4.529623866;-1.70970329;-2.082176496;13.71480804;-1.876997974;-11.51003906;-1.532451601;13.11979787;-3.309805122;-4.856725815;5.221072201;-4.609458634;-5.773214575;0.06719694;-5.869125015;-0.087289474
-11.07903632;-14.76857929;-7.309455592;-3.54190082;-1.972253283;-1.917369605;14.01449348;-2.328540248;-10.20694103;-2.00905014;13.90355639;0.613489225;-3.819925107;6.126109056;-6.264178843;-6.742462605;0.147079573;-5.743247374;-0.780151566
-11.50455678;-16.75041257;-8.223978816;-2.602649841;-1.631300156;-1.807548304;14.00393739;-2.284138125;-11.09676033;-1.727034238;14.35779805;3.238611675;-2.819233141;6.351008684;-7.897030179;-8.753611428;-0.45842109;-6.215818224;-0.982449379
-10.96495453;-16.98;-8.258522279;-2.291599011;-0.35461364;-1.814357889;13.82430466;-1.47892831;-11.79907729;-0.727127343;14.44296514;3.275324903;-2.034550545;5.571991875;-9.024008565;-11.12036557;-2.054874426;-7.112668468;-0.71801421
-9.604726499;-15.60844378;-7.355377237;-2.342291075;1.776773462;-1.963564516;13.72978296;0.317890902;-10.14018434;1.513532845;14.51980574;1.460257302;-1.482400335;4.145240195;-9.230835003;-12.62748893;-4.001326786;-7.569998015;-0.097203022
-7.64279662;-13.07717955;-5.612857004;-1.769173749;4.117064721;-2.249941797;13.84377564;2.893159125;-6.180424292;5.214968353;15.06568558;-0.085753775;-1.088619116;2.908562882;-8.43230282;-12.2557247;-5.103812937;-6.623247039;0.73100167
-5.420729511;-9.968389056;-3.367447651;0.207401291;5.698553303;-2.638554677;14.05316283;5.373041425;-2.134101019;9.32751518;16.22165175;0.436324263;-0.815993972;2.500501864;-6.98535026;-9.98778178;-4.586550821;-4.05812837;1.534999053
-3.482203511;-6.950039063;-1.240048828;3.228097553;5.768977774;-3.054104929;14.13538309;6.564481583;-0.327726927;11.69372089;17.5602749;3.094442342;-0.71588893;2.800284033;-5.552823382;-7.011386631;-2.809532029;-0.777147431;1.985672933
-2.494109388;-4.700205431;0.034921899;5.754744857;4.285412555;-3.377841275;13.99881705;5.758383028;-1.10216508;10.56511439;18.30932776;6.195595604;-0.859087196;3.010068359;-4.795582065;-5.036021283;-1.090048828;1.722832511;1.779751336
-2.951896394;-3.707641533;-0.013955209;6.104575943;2.02183041;-3.481444195;13.80572668;3.409701508;-2.555033182;6.297113945;17.89033838;7.600585064;-1.227211218;2.341137571;-5.070741834;-5.142942139;-0.731293505;2.425356671;0.856155509
-4.833457481;-4.017352692;-1.263008127;3.781220501;0.189738752;-3.299192159;13.84665051;1.062714478;-2.310068359;1.595038551;16.35361747;6.307508415;-1.687538154;0.723997175;-6.284397691;-7.013934045;-2.028926212;1.574323511;-0.479341233
-7.475417795;-5.132011197;-2.996308501;-0.022251195;-0.209771324;-2.893418981;14.26465734;0.412471892;0.329262432;-0.247949821;14.35984127;3.082305066;-2.087917504;-1.075221765;-7.946649075;-9.14810949;-4.052666398;0.496152204;-1.675822336
-9.831270491;-6.226496173;-4.308130485;-3.254933844;1.086362063;-2.450540041;14.88087251;2.108393086;3.790895417;2.085189711;12.7245219;-0.26568168;-2.378337257;-2.043983797;-9.387154117;-9.932168764;-5.367959204;0.561944505;-2.264332464
-11.0064075;-6.598576195;-4.655526572;-4.575817418;3.495225229;-2.184937672;15.30066313;5.210136054;5.704032251;6.680119735;11.89536209;-2.282903045;-2.624341986;-1.721432055;-10.0418463;-8.766000001;-5.107355269;2.101850966;-2.157417702
-10.75113504;-6.065310701;-4.17735257;-4.395509539;5.926062845;-2.202718147;15.23336184;7.784403792;5.054505568;9.676355487;11.76953993;-2.796471947;-2.877160225;-0.530432331;-9.700409653;-6.403903781;-3.547107816;4.14464297;-1.682627238
-9.595720269;-5.024249309;-3.561426331;-4.499337987;7.331212673;-2.423847175;14.75352682;8.264377617;3.065433079;8.266395345;11.95007813;-2.696473353;-3.018503527;0.626535211;-8.602603216;-4.292621929;-1.781749583;5.192963527;-1.315723472
-8.535198828;-4.145030055;-3.5729378;-6.496503551;7.15514829;-2.630706309;14.26149407;6.566175631;2.043300974;3.048976663;12.1630942;-2.890451527;-2.752213331;1.147098456;-7.315431137;-3.4690585;-0.829648496;4.399789062;-1.325154948
-8.458540665;-3.940128442;-4.587460061;-10.32329001;5.484972321;-2.61792849;14.15556861;4.10311543;3.295939764;-2.25913024;12.44561488;-3.400160086;-1.79916247;1.21538963;-6.429925292;-3.89200473;-0.924753134;2.187858864;-1.611815386
-9.669599818;-4.539557687;-6.429525892;-14.03915626;2.907276701;-2.335444569;14.4901891;2.678975439;6.048412736;-3.670397969;12.96070473;-3.380127063;-0.156514792;1.596876644;-6.239707062;-4.684723026;-1.527639338;-0.175906926;-1.859168464
-11.77131785;-5.79520966;-8.562717008;-15.15911649;0.214965215;-1.916263372;14.92449445;3.11830114;8.317292665;-0.125195189;13.66659742;-2.002656329;1.810383273;2.942183338;-6.604226622;-5.005186859;-1.949034477;-1.666977228;-1.843412576
-13.94525002;-7.542829123;-10.43165321;-12.54937167;-1.881946674;-1.569176519;15.02075456;4.69601194;8.861323983;5.550480536;14.21033097;0.601240377;3.558961729;5.201922258;-7.093530225;-4.772410675;-1.982788199;-2.323557969;-1.624095883
-15.42222471;-9.723627649;-11.70517099;-7.442106297;-2.960408561;-1.424028804;14.63760586;5.787298036;8.325135639;8.774639108;14.19070812;3.200403371;4.714772995;7.625549375;-7.312838689;-4.650767773;-1.999708554;-3.113531811;-1.455369159
-15.85396908;-12.23347924;-12.31412174;-2.770048828;-2.986840898;-1.453302793;14.06172433;5.188454667;8.473813682;6.7814163;13.54793491;4.291120112;5.285227317;9.298955804;-7.167202545;-5.357488946;-2.475108048;-4.979189383;-1.517355011
-15.3946959;-14.67655031;-12.35911941;-1.273333524;-2.310489324;-1.526719885;13.74048849;3.045480717;10.25985764;0.794742569;12.66322623;3.233865724;5.543912539;9.738195669;-6.874046408;-6.936684618;-3.433003094;-7.895741061;-1.730793443
-14.50083222;-16.35576489;-12.02526368;-3.726134671;-1.524550572;-1.541965767;13.83927361;0.677249632;12.63433984;-4.936187205;11.98704051;0.761310653;5.669926657;9.070533336;-6.737714548;-8.651217888;-4.343895458;-10.77408529;-1.837095284
-13.62069193;-16.65789266;-11.56050884;-8.512168747;-1.196990327;-1.512388497;14.02985269;-0.510104593;13.36651085;-6.464509517;11.47524922;-1.578090867;5.464738546;7.747546006;-6.892348435;-9.591575464;-4.58139878;-12.32329085;-1.673286827
-12.97883425;-15.60748613;-11.26321609;-12.78132207;-1.557877496;-1.535533379;13.73935271;-0.105784644;11.21733787;-3.180133675;10.37613879;-2.610312393;4.438228629;6.145055081;-7.227055373;-9.472109453;-4.022020851;-12.16252146;-1.378523996
-12.56064493;-14.11049187;-11.40353865;-14.31926497;-2.313850461;-1.676300868;12.68379031;1.085035638;7.410078125;1.831606806;7.692702225;-2.409081222;2.25182357;4.439347437;-7.523762457;-8.917260809;-3.227729102;-11.23190004;-1.317030849
-12.2525959;-13.55360967;-12.08631144;-12.8461822;-2.747746423;-1.877368421;11.22477571;1.797156645;4.845917985;4.313686383;3.076139574;-2.150778396;-0.826894874;2.807179916;-7.637548446;-8.970655253;-3.010697062;-11.1086769;-1.755922336
-11.99683061;-14.91173612;-13.15414153;-9.956370806;-2.114239894;-1.986165304;10.19092238;1.358478659;5.575646763;2.165676227;-2.541765939;-3.065391571;-3.871541828;1.633862608;-7.527794786;-10.21826338;-3.728580846;-12.73767705;-2.570604076
-11.8342168;-17.9689188;-14.22708674;-7.880280522;-0.135135628;-1.881768972;10.24034925;0.170161078;8.794537086;-3.055480241;-7.179940692;-5.32438058;-5.772158225;1.395657382;-7.13107317;-12.24781637;-4.916241138;-15.59074093;-3.250711127
-11.81667227;-21.27905699;-14.87507245;-7.986494018;2.718813742;-1.590817503;11.25342289;-0.723623638;11.36111246;-7.535762961;-8.887985827;-7.763523275;-5.934395115;2.23537103;-6.268639957;-13.89802952;-5.596389254;-17.95645505;-3.235457276
-11.88379156;-23.00142207;-14.81459461;-9.992953779;5.38483432;-1.284510543;12.27464393;-0.545018477;10.62273166;-8.245115318;-6.979752998;-8.684136634;-4.680534059;3.629186735;-4.779270074;-14.11265529;-5.0449658;-18.17348061;-2.326335916
-11.83331846;-22.08565232;-14.00895183;-12.29431007;6.76131831;-1.149246328;12.11444999;0.611203238;7.090058594;-5.153160318;-2.537785821;-7.129473211;-3.023671988;4.557375874;-2.82906416;-12.73351584;-3.395484184;-15.86962627;-0.851659055
-11.44125772;-18.96901553;-12.63691334;-13.08369126;6.336596021;-1.234670118;10.19103955;1.929787102;4.365179894;-0.973919295;2.206441061;-3.658991283;-1.958020555;4.180488411;-1.093586704;-10.6261185;-1.582922201;-12.25507657;0.543213262
-10.65879899;-15.26329931;-10.99200366;-11.51606666;4.487993476;-1.406971122;6.974125117;2.568504457;6.040301845;1.145348861;5.205257039;-0.027570157;-1.787069229;2.533940967;-0.516927306;-9.063438532;-0.659525028;-9.250058594;1.30560588
-9.729682219;-12.64204507;-9.394506536;-8.220783659;2.240024414;-1.449521976;3.679420684;2.258272511;12.13301484;0.010100856;5.724169704;1.988561754;-1.989115731;0.642993705;-1.688892484;-8.856245491;-1.023460468;-8.121844177;1.266221113
-9.10634561;-11.73717734;-8.13751568;-4.904951728;0.629541258;-1.230437349;1.436388624;1.345268895;18.4;-3.000007629;4.532557362;1.742712211;-1.707185496;-0.126876138;-4.281266977;-9.872195285;-2.168626029;-8.662277344;0.618957408
-9.183098534;-11.84719807;-7.427625392;-3.314432136;0.100908064;-0.802189087;0.555334583;0.359871171;19.62068763;-5.327178419;3.130338801;0.015187867;-0.473083664;0.950962334;-7.061295014;-11.24362474;-3.137922469;-9.493072095;-0.326961472
-10.01196416;-11.64051749;-7.296125786;-4.165362594;0.338795118;-0.357264973;0.431106731;-0.403047422;14.38796628;-5.287166758;2.661493479;-1.701343762;1.390860701;3.395935984;-8.607128295;-12.03266549;-3.29556179;-9.209414869;-1.36480929
-11.20723052;-10.28196089;-7.533960458;-6.672529825;0.634861634;-0.083286209;0.115816915;-0.91001709;7.185620736;-3.085065757;3.30064415;-2.324871792;2.98193491;5.815270261;-8.260949711;-11.82549003;-2.789490428;-7.455329919;-2.394177284
-12.13427589;-8.104362903;-7.74781567;-8.976433595;0.496013471;-0.038252227;-0.918466961;-1.102268458;5.371416646;-0.189108267;4.440865546;-1.845361831;3.452953623;6.851895295;-6.577263554;-10.85989397;-2.346108902;-5.126661977;-3.265583553
-12.28415726;-6.323441556;-7.567885947;-9.255743766;0.025333132;-0.139204775;-2.420231594;-0.721253557;12.90166976;2.10316107;5.373432959;-1.068214474;2.582009535;6.072613431;-4.855920092;-9.691193775;-2.595977014;-3.604180953;-3.69059852
-11.59409269;-6.047895823;-6.893757534;-6.873750533;-0.214855443;-0.255782682;-3.640704072;0.458477948;25.77854954;3.535364055;5.846950995;-0.729030818;0.872032249;4.1484721;-4.07909013;-8.726646502;-3.511231003;-3.655435742;-3.377379535
-10.49275136;-7.371684384;-5.976803673;-2.825116848;0.259728292;-0.316061199;-3.979480674;2.175416581;33.42928085;4.55748147;6.115079965;-0.75071106;-0.84171403;2.2471078;-4.102171406;-7.978490354;-4.431435668;-4.847043792;-2.30997203
-9.624845768;-9.242135188;-5.218957284;0.864583206;1.361395053;-0.336141567;-3.456652851;3.534893996;25.79710247;5.362612258;6.573060531;-0.26254832;-1.941413462;1.156544242;-3.794212902;-7.148039842;-4.653994954;-5.862945054;-0.903508994
-9.425105978;-10.17366559;-4.790329465;2.464263929;2.40502563;-0.365170962;-2.660676182;3.511743725;1.218696563;5.428404661;7.398460165;1.6441458;-2.335192255;0.814419534;-2.055194985;-5.895869292;-4.082939733;-5.419507618;0.171184494
-9.81819289;-9.23382224;-4.358182767;1.737394642;2.611144626;-0.415118543;-2.268085088;1.834407985;-30.95949911;4.11143443;8.51128848;5.060728231;-2.36352586;0.535576213;1.125243128;-4.074465671;-3.366890918;-3.063862957;0.422598889
-10.24315615;-6.567579474;-3.19465847;0.177895315;1.763011092;-0.449179181;-2.557637056;-0.496028521;-55.46429533;1.713068208;9.802671164;9.029371836;-2.456054389;-0.337087632;4.493448567;-1.804244237;-3.372908942;0.683272718;-0.092084315
-9.990491722;-3.138927812;-0.666560026;0.052211411;0.487922352;-0.435706634;-3.295478589;-1.645015411;-60.6096577;-0.144779775;11.31909175;12.15333926;-2.830821068;-1.917947698;6.456945401;0.585476893;-4.404277824;4.820782913;-0.780873028
-8.638361375;0.01383292;3.209208981;2.843727487;-0.100827068;-0.404773453;-4.023870356;-0.184624573;-45.57764847;0.555217987;13.16905935;13.58106468;-3.423831962;-3.765346517;6.377125399;2.680551288;-5.816120942;8.512427869;-0.94257752
-6.314636135;2.395315186;7.575094358;8.153138508;0.830558271;-0.440453908;-4.45709401;3.765395477;-20.39114714;4.603328811;15.2393049;13.58068747;-4.023883948;-5.280019531;5.125453721;4.136774159;-6.39672884;11.38449564;-0.292613329
-3.627778675;4.131556697;11.12091919;13.83703403;3.230801087;-0.607066008;-4.645363281;8.452383021;1.138907747;10.62026996;17.04022559;13.23663985;-4.455835998;-6.11888998;4.366670524;4.848199543;-5.274384859;13.36554119;0.82331806
-1.320749811;5.596656634;12.84829531;17.32576931;6.182122131;-0.877598116;-4.815247208;11.6496209;10.21391189;15.75249122;17.90883341;13.49972962;-4.680654801;-6.30169596;5.10749175;5.0564032;-2.658931875;14.37867866;1.703083359
0.129860222;7.019755502;12.70176892;17.24043878;8.530935156;-1.137541018;-5.089940895;12.2330909;7.440143101;17.6374781;17.46057192;14.35095822;-4.787321248;-6.021258946;6.73024863;5.273877983;0.192394675;14.28024475;1.836061344
0.725250501;8.421671821;11.60775088;14.21993805;9.641591343;-1.269472849;-5.373127597;10.94068613;0.345000819;16.14788602;15.91767356;14.76986884;-4.921071115;-5.423442123;7.401365034;5.965655004;1.819936152;13.13415432;1.290087891
0.851841445;9.841557056;10.85976776;10.42337703;9.69248986;-1.246015002;-5.494899791;9.673965728;-3.27546425;13.48804405;14.00993872;13.57207467;-5.187589569;-4.581556298;5.623190049;7.141206368;1.614359599;11.51695814;0.632743826
0.963572635;11.50646272;11.25327314;8.085705779;9.310172775;-1.146292655;-5.455836602;9.869617906;-0.820185882;12.47755085;12.49768836;10.48057101;-5.553992907;-3.629269703;1.695395652;8.185525288;0.275931405;10.44185375;0.458594572
1.253097816;13.66259379;12.56133808;8.122224998;8.88080986;-1.079174168;-5.511385648;11.25720484;4.562274465;14.31166822;11.69206298;6.571508375;-5.794038215;-2.823659798;-2.172304746;8.183775727;-0.70073863;10.79291556;0.908000928
1.522386272;16.1588284;13.70748018;9.684969331;8.143085991;-1.084015753;-5.992997722;12.04715254;7.828067957;17.54566601;11.34889604;3.676209936;-5.564424097;-2.387557466;-3.326498335;6.627629033;-0.158764778;12.62628461;1.560662342
1.328122244;18.19044041;13.50081835;10.88089199;6.426658167;-1.103761351;-7.015374469;10.43574544;6.542100205;19.11749446;10.9842136;3.105645449;-4.655685802;-2.249825165;-0.669694394;3.984550388;1.823767765;14.9104116;1.778685879
0.298277901;18.55326017;11.41056182;10.08828393;3.34720417;-1.059648795;-8.335481409;6.203420638;2.389323547;16.63452849;10.29658034;4.602468803;-3.304279848;-1.981102894;4.338306765;1.548827031;3.975068951;16.01823418;1.216796945
-1.592634395;16.34381596;7.853252799;6.979550373;-0.638138409;-0.95882251;-9.502528985;1.051951696;-0.982178563;10.16944529;9.31169913;6.309238816;-2.300166269;-1.100256573;8.487321326;0.454956301;4.81027062;14.71982408;0.098654195
-3.970956751;11.62193077;3.840605147;2.640308798;-4.323948681;-0.926968869;-10.18380363;-2.67461335;-1.38832268;2.207864312;8.148955254;5.845309218;-2.665366131;0.419926666;8.872084083;0.461286762;3.818147248;10.99794709;-0.940548254
-6.264026591;5.509172966;0.301035817;-1.194111673;-6.484613427;-1.118912804;-10.39680647;-3.899264461;0.267725699;-4.166160756;6.683636194;1.809217316;-4.97636136;1.877669985;4.702198364;-0.474290599;1.92588153;6.082927057;-1.302576278
-8.012444676;-0.402188609;-2.403982817;-3.229644482;-6.692567664;-1.571453432;-10.45900828;-3.784437167;1.286822858;-7.419600996;4.491595506;-5.280238589;-8.768113883;2.12877316;-2.397647234;-5.161720663;0.833800582;1.653821661;-0.817643697
-9.080961021;-4.925084692;-4.442185876;-3.348248102;-5.586526913;-2.125453468;-10.70816486;-4.889973825;-0.140756087;-8.425438214;1.20034088;-13.21785003;-12.55576011;0.341567544;-9.681925237;-15.05393743;1.674566842;-1.228129489;0.191097945
-9.632397723;-7.811726004;-6.057825531;-2.585973103;-4.377203776;-2.497733175;-11.23536978;-9.080655491;-3.375315553;-9.44670832;-3.034931834;-19.35811664;-14.65362725;-3.29126816;-15.08657269;-28.40108551;4.003594585;-2.680924788;1.169250876
-9.904018492;-9.59156851;-7.13836045;-2.421246833;-3.980357417;-2.462021246;-11.8487506;-15.79273205;-6.124562726;-12.12255818;-7.383655766;-22.06955245;-14.34700994;-7.446868594;-18.19888217;-40.20656981;5.930268941;-3.662423358;1.686732486
-9.97;-10.90297546;-7.201515847;-3.818603361;-4.448297512;-2.004276077;-12.27758526;-22.06380924;-6.624173428;-16.04965175;-10.73414805;-21.50362186;-12.56609141;-10.33891491;-19.84843556;-44.49723456;5.373504781;-5.015871153;1.633892898
-9.67743773;-11.88152779;-5.839042836;-6.590366254;-5.104046363;-1.33282273;-12.42199726;-24.40961295;-5.120179499;-19.03091281;-12.38321583;-19.27041211;-11.43164127;-10.76266412;-20.90369422;-37.80999588;1.576095268;-6.651452296;1.17460866
-8.801145037;-12.07901333;-3.250905919;-9.463249038;-5.199814717;-0.737290761;-12.42818767;-21.21812238;-3.409997375;-18.75919952;-12.49460199;-17.3198737;-12.83285513;-8.826317205;-21.39917221;-21.7150141;-4.218733962;-7.50724633;0.565184437
-7.28428029;-10.93162243;-0.391402678;-10.85209179;-4.516232885;-0.407595729;-12.53568882;-13.92448608;-3.050862581;-14.63876505;-11.95735653;-16.78893944;-16.99771647;-5.875095554;-20.68886842;-2.535084483;-9.449184791;-6.335204698;0.007048959
-5.360341481;-8.359857669;1.469790165;-9.920968298;-3.423093162;-0.348075916;-12.84689456;-6.133959204;-3.976037453;-8.399565685;-11.7503814;-17.52227419;-22.15979626;-3.664334815;-18.36348775;11.87701201;-11.82707133;-2.727632706;-0.388454412
-3.44918387;-5.010039063;1.503872535;-7.277502625;-2.425842614;-0.436054494;-13.23082259;-1.361247145;-4.734486826;-3.095659847;-12.31194767;-18.48539867;-25.69827695;-3.336065538;-15.02088874;16.45786324;-10.74217545;2.385903767;-0.569156666
-1.908822802;-1.962265537;-0.152112849;-4.783971191;-1.67311973;-0.555133174;-13.44550555;-1.004022978;-4.004130005;-1.244454736;-13.38932715;-18.70377433;-26.01284284;-4.85082344;-12.15701429;11.63625061;-7.524611391;7.150730676;-0.528921095
-0.848673234;-0.143917325;-2.510352518;-4.479401775;-0.903628048;-0.682535585;-13.36629822;-3.886643598;-1.907779442;-3.401568202;-14.42874149;-18.05060963;-23.7525967;-7.181809908;-11.23759839;2.657605959;-4.434256595;9.826120737;-0.332183081
-0.159383138;0.131554951;-4.424778308;-7.22463934;0.126904251;-0.864833795;-13.11557498;-7.487540512;0.053225548;-8.054801673;-15.12126493;-17.34628021;-21.4119476;-9.063886439;-12.71089669;-4.022960652;-3.136736527;9.733472072;-0.119609905
0.274061395;-0.763095421;-5.354537565;-11.98194343;1.173177004;-1.122447055;-12.97861558;-9.779603117;0.311569555;-12.75163617;-15.62680554;-17.71577327;-21.50844579;-9.765796534;-15.74928665;-4.864026658;-3.738432601;7.493905778;-0.041970419
0.376342193;-2.041298992;-5.62947567;-16.32832364;1.489911947;-1.384526546;-13.17691246;-10.33664815;-1.438516358;-15.58836415;-16.32235264;-19.66294307;-24.66809311;-9.408747043;-18.88509466;-1.128387222;-4.988804794;4.465294579;-0.151852309
-0.101732942;-2.884308852;-6.032364331;-17.99230393;0.381149151;-1.521122513;-13.68993835;-10.09400639;-4.047709975;-16.09964705;-17.36080846;-22.53081129;-29.07593516;-8.700963521;-20.99233709;2.636344118;-5.392345612;1.838758534;-0.352066045
-1.344192455;-2.735682113;-7.051869046;-16.42702998;-2.128586651;-1.445290619;-14.27060192;-10.2254219;-5.919792935;-15.14561668;-18.48586595;-24.77855414;-31.75036535;-8.336139287;-21.85038348;2.310674785;-4.352097431;0.030391977;-0.469506763
-3.210859243;-1.466144009;-8.426789335;-13.28969448;-5.112668002;-1.191729366;-14.63487437;-11.16003906;-6.255906839;-14.10531196;-19.28941498;-24.955087;-30.71107733;-8.478873833;-21.9381781;-2.626968959;-2.521222412;-1.282983726;-0.407946954
-5.210461198;0.554731948;-9.370135285;-11.38567559;-7.291548108;-0.899378199;-14.6665699;-12.45932614;-5.483841348;-14.03571394;-19.66463354;-22.74091639;-26.41236114;-8.660747485;-21.75446611;-8.76670539;-1.179317318;-2.629877118;-0.241728878
-6.78232516;2.499358541;-9.301237567;-12.72673231;-7.937094988;-0.711577042;-14.47774301;-13.46556219;-4.65022918;-15.28385465;-20.00315373;-19.32166146;-21.36711984;-8.133321938;-21.29574357;-11.46889697;-1.169882677;-4.182942409;-0.145457946
-7.694708515;3.323375334;-8.47204777;-17.05146338;-7.422043091;-0.67932638;-14.29352957;-14.03059797;-4.457786632;-17.59101146;-20.90446555;-16.76236487;-18.27390773;-6.442926245;-20.11406416;-8.563948401;-2.212314285;-5.586841719;-0.200930211
-8.234432585;2.223335635;-7.92161175;-21.89618015;-6.955588596;-0.746798586;-14.27154353;-14.67826294;-4.807384171;-20.39685889;-22.61786026;-16.73077015;-18.09769513;-3.856214461;-17.85178139;-2.257441725;-3.076737493;-6.247081419;-0.255019705
-8.995573158;-0.878155488;-8.717997686;-24.21854569;-7.688617715;-0.822042542;-14.40382602;-16.11853185;-5.108441797;-23.05361717;-24.71029444;-19.40515834;-19.5560656;-1.34167998;-14.76407178;2.266659891;-2.466599627;-5.804336432;0.010878471
-10.38770666;-5.152481132;-11.04356278;-22.44639748;-9.873281819;-0.860925266;-14.56391349;-18.58;-4.906082828;-24.89958511;-26.28762597;-23.32589532;-20.33849464;-0.066513078;-11.77887871;0.640386584;0.029461195;-4.41741686;0.809437846
-12.22899413;-9.206459578;-13.86042174;-17.50333392;-12.70496925;-0.886414812;-14.63652392;-21.51999508;-4.203665385;-25.34397482;-26.62376649;-26.3209587;-19.03718796;-0.674384498;-10.02451174;-7.201217225;3.564035627;-2.660531617;1.976809701
-13.75686347;-11.80496987;-15.48561503;-12.10903371;-14.91624694;-0.931358931;-14.60980109;-23.90200736;-3.289103891;-24.08772855;-25.68719735;-26.88160441;-16.25599904;-2.79145809;-10.1488453;-16.42509856;6.464189265;-1.138366761;2.949255547
-14.08641759;-12.50909367;-14.70738243;-8.908931471;-15.60865763;-0.968171913;-14.55907987;-24.7719772;-2.38207114;-21.39486882;-24.12740058;-25.03896302;-14.06645813;-5.125493609;-11.88045876;-20.20053805;7.176523042;-0.112167424;3.067457075
-12.80279688;-11.77259661;-11.63133136;-8.804762395;-14.68161118;-0.903092487;-14.5528844;-23.70134772;-1.496689053;-18.1611049;-22.7415483;-22.15690011;-14.30458057;-6.17861319;-14.10412647;-14.2426107;5.142848023;0.60370137;2.02941992
-10.25973594;-10.42922782;-7.619746734;-10.6316768;-12.62255864;-0.652296272;-14.575091;-20.86857109;-0.568119075;-15.59205675;-21.88576941;-19.85384667;-17.08518182;-5.176324632;-15.41076234;0.057795639;1.113712312;1.42069174;0.166558683
-7.366607851;-8.982324498;-4.358390449;-12.27011339;-9.975730168;-0.237028526;-14.53356525;-16.87023052;0.426509585;-14.5839631;-21.3315362;-18.89328487;-20.67840047;-2.609778966;-14.83478935;16.08232418;-3.239899644;2.599155087;-1.685567242
-5.019442516;-7.271303455;-2.73608368;-12.23375129;-7.018407647;0.191455997;-14.34471086;-12.49045671;1.547553582;-15.17438342;-20.65993043;-18.85393046;-22.78261888;0.017259452;-12.40694648;25.80586227;-6.173740638;3.98185214;-2.668518267
-3.580841848;-4.774140878;-2.347952036;-10.53234263;-3.88518838;0.432966926;-14.01867306;-8.543380553;3.024691055;-16.45783785;-19.79620796;-18.73477633;-22.15623505;1.130858915;-9.225273946;24.55877841;-6.719980737;5.027818625;-2.421470002
-2.756003402;-1.25891577;-1.942946046;-8.293967351;-0.894854946;0.372645533;-13.67277923;-5.72544914;5.13877331;-17.08369458;-19.15726637;-17.90208929;-19.37145345;0.116581984;-6.948714177;13.71327674;-5.113104147;5.141251844;-1.288077758
-1.908076827;2.811569439;-0.424112011;-6.636556659;1.373690684;0.06744294;-13.46160913;-4.394955691;7.831969936;-16.05582455;-19.2427718;-16.55813076;-16.21864446;-2.271415621;-6.902511048;-0.326226103;-2.594729315;4.092917903;-0.069792059
-0.550608634;6.507205164;2.366671807;-5.789344805;2.438086587;-0.28273649;-13.47662108;-4.355965783;10.45335328;-13.32804638;-20.0342658;-15.38416605;-14.34575792;-4.426293142;-9.249649632;-10.0585366;-0.71324249;2.250406355;0.502700532
1.327544205;9.110494244;5.616916409;-5.126486056;2.394462149;-0.459542921;-13.68709305;-4.864711265;12.08215696;-9.811809642;-20.7905855;-14.76694621;-14.21620902;-4.982719268;-12.75334351;-11.19473042;-0.491134782;0.429063441;0.221647864
3.278194484;10.64265639;8.183902599;-3.945054858;1.999132268;-0.356821749;-13.95985743;-4.994183393;12.33480103;-6.803886009;-20.51661396;-14.39083243;-15.08067189;-3.71766429;-15.39386186;-4.727701343;-1.907701457;-0.589394534;-0.515066035
4.665873964;11.73405806;9.334930519;-2.223186016;2.129650215;-0.029163844;-14.14013926;-4.205079341;11.93423841;-5.224551847;-18.78412219;-13.62554696;-15.79034785;-1.619594607;-15.57623064;4.270048828;-3.980068359;-0.58293119;-1.023207286
4.973057264;12.90894172;9.027272129;-0.699340236;2.993039122;0.363812046;-14.13990538;-2.730328684;12.32147936;-5.161499836;-16.22016063;-12.3625889;-15.67704548;-0.099120756;-13.19555867;10.06403129;-5.387212885;-0.09369109;-0.818135212
3.972726562;13.90473493;7.623560591;-0.263384896;3.779599396;0.665255253;-13.98200693;-1.44297644;14.4062743;-5.978374369;-14.19312507;-11.45566888;-14.83175766;0.05017888;-9.800460109;9.602316038;-5.256230525;-0.117285683;0.063462746
1.756787739;13.67604144;5.418260421;-1.24287611;3.179536024;0.802514525;-13.77907933;-1.246833451;17.50703393;-6.852217793;-13.87088602;-12.19613795;-13.73635325;-0.842375907;-7.637617791;3.813084064;-3.629578042;-1.427652199;1.109735438
-1.297542215;11.17925386;2.449240107;-3.201947074;0.466689755;0.797416325;-13.66351806;-2.419490394;19.62251666;-7.336147497;-15.36688459;-15.12233299;-12.74524589;-1.71130822;-8.15447351;-3.62364293;-1.341059449;-3.976092151;1.700734291
-4.575053776;6.347546032;-1.263250012;-5.365721931;-3.695603026;0.718432921;-13.70985254;-4.407744226;19.0981621;-7.576885514;-17.65952358;-19.17569314;-11.92407351;-1.699041472;-10.99631451;-8.907262547;0.577444144;-6.804541838;1.543918195
-7.322253169;0.441973961;-5.341398027;-7.227268055;-7.44995073;0.622495319;-13.89387728;-6.238374919;16.34613622;-8.097366806;-19.36855609;-22.0924031;-11.29981099;-0.897204107;-14.25223344;-10.33727395;1.530492454;-8.583480264;0.890375759
-8.853793726;-4.57635047;-8.966845074;-8.783405303;-8.912336485;0.5263601;-14.11291469;-7.224037512;13.91530834;-9.35862892;-19.78464136;-21.95927554;-11.13849608;-0.298855469;-15.82289925;-8.843094104;1.61023213;-8.435801729;0.389712901
-8.824804415;-7.225942657;-11.24566449;-10.24676112;-7.487257912;0.414846343;-14.25622619;-7.413831744;14.4748117;-11.42767123;-19.34338011;-18.81902046;-11.86185585;-1.004827479;-14.94078053;-6.796568786;1.347309761;-6.476179596;0.670915757
-7.413882834;-7.354360348;-11.7548806;-11.5943706;-4.330623151;0.267648002;-14.28153056;-7.454791514;18.24355913;-13.94828135;-19.18608757;-14.99057789;-13.62175531;-3.313567852;-12.72967763;-6.160408517;1.217096984;-3.683217479;1.909802059
-5.261009035;-6.034695294;-10.82017854;-12.45335431;-1.578063023;0.083646589;-14.24513625;-8.011100671;22.26464383;-16.37003906;-20.1849336;-13.65731966;-15.9529096;-6.408853011;-11.38742468;-7.270058594;1.305433347;-1.212476763;3.658830845
-3.154365973;-4.648264446;-9.291769063;-12.46758426;-0.891005076;-0.106987638;-14.26091359;-9.227608294;22.62685035;-18.22764;-22.22436815;-16.63;-17.91207582;-8.887155997;-12.59492457;-8.921633718;1.35942668;0.321204301;5.061768619
-1.648722297;-3.919790887;-8.001675725;-11.77955607;-2.381526622;-0.244306101;-14.41350474;-10.64639915;18.11685656;-19.27986642;-24.29192481;-22.92685843;-18.67804914;-9.71741561;-16.3127701;-9.476205627;1.108796233;1.056472003;5.341206236
-0.859307945;-3.645237903;-7.326590305;-11.09098064;-4.661231187;-0.255285116;-14.68816495;-11.57769824;12.10044606;-19.46664457;-25.2550299;-29.285509;-18.13314325;-8.9082865;-20.80133146;-8.068141966;0.534828951;1.484158967;4.270609224
-0.54250894;-3.21622206;-7.143571882;-11.12011273;-5.889746705;-0.086644721;-14.9714935;-11.55692627;10.43765676;-18.78597748;-24.6589793;-32.29090223;-16.91094774;-7.404572049;-23.76908911;-5.083959367;-0.144793592;1.839614427;2.337857501
-0.353082572;-2.362117391;-7.099683352;-11.85456538;-4.980132137;0.255730988;-15.12504743;-10.50552885;16.47152373;-17.22510297;-22.91605374;-30.57898942;-15.83809814;-6.332221724;-23.75955015;-1.706786304;-0.716795808;1.864998522;0.48852203
-0.047461878;-1.392969767;-6.871972453;-12.27798272;-2.102338908;0.684496636;-15.07652233;-8.541011816;27.00578454;-14.80094244;-20.80892667;-25.5310892;-15.23495291;-6.186454031;-20.82447573;1.000923169;-1.166158328;1.177837532;-0.400996216
0.511002105;-0.737232614;-6.190058594;-10.93917266;1.733977511;1.050056152;-14.85874485;-5.728098191;33.05665041;-11.65838528;-18.81003906;-20.04525657;-14.68277939;-6.556849064;-16.17680009;2.750266683;-1.611629669;-0.089808484;0.003564922
1.477604649;-0.257308213;-4.711295486;-7.051138415;5.511324578;1.203304118;-14.5699757;-2.096208486;25.69685795;-8.127623893;-16.82787317;-16.42351905;-13.4664778;-6.539360997;-11.28841067;3.984793946;-2.04721984;-1.019816403;1.363573472
3.078395504;0.934830217;-2.038465587;-1.310795961;8.727785196;1.071152306;-14.29488869;2.062839895;3.066883849;-4.67666549;-14.55899637;-14.99992693;-11.30203798;-5.466284132;-7.17603261;5.28913857;-2.17643222;-0.377427708;2.938831503
5.458039883;3.876977556;1.972231408;4.250481115;11.29656734;0.698208787;-14.05657427;5.956055385;-26.86626723;-1.77064667;-12.05387075;-14.42826715;-8.690125861;-3.387498339;-4.262600381;6.795351585;-1.567835809;2.451178157;4.05497979
8.417463998;8.819213485;6.829470638;7.397181951;13.11755036;0.226079601;-13.83713527;8.483489572;-50.43173776;0.292345235;-9.907240761;-13.17604965;-6.552498824;-0.97833688;-2.621061921;8.08321088;-0.054526014;6.807891733;4.446234552
11.30083715;14.76824768;11.3795189;7.083371264;13.87259484;-0.176933663;-13.63657732;8.880187637;-56.74544748;1.487944047;-8.835541941;-10.86975461;-5.442142818;0.994065024;-2.149281521;8.632972802;1.975786077;11.01992506;4.270417867
13.22381047;19.98496866;14.35415429;4.16707939;13.29804918;-0.390717473;-13.50028943;7.366317723;-44.57729512;2.063079382;-8.985766486;-8.404000559;-5.014706239;2.207211688;-2.471080033;8.422712531;3.722623088;13.489755;3.8501786
13.56394811;23.11396633;15.20819955;0.950365926;11.65206638;-0.380127741;-13.47516416;5.239365839;-22.65411804;2.42268163;-9.608224504;-6.867375431;-4.247886234;2.937784593;-2.792599707;8.135347973;4.520339616;13.83133901;3.389789362
12.38353659;24.06271108;14.6002063;-0.16294834;9.843958065;-0.184021443;-13.53;4.208028806;-3.328289527;2.955666861;-9.450257383;-6.347267842;-2.25718517;3.779086889;-2.085802418;8.751514265;4.386126224;13.15218773;2.899880823
10.45353598;23.91704209;14.03391386;1.96333561;8.973067095;0.1192456;-13.52630026;5.360991913;5.566203283;3.885134202;-7.616252525;-5.7149363;0.968886414;5.189151333;0.342843348;10.8096314;4.099643015;13.20991797;2.355016904
8.823743293;23.95962264;14.81071643;6.62846409;9.58177295;0.439223525;-13.29489171;8.495420219;4.764281053;5.22115781;-4.219916835;-3.580686211;4.540185794;7.214268075;4.298797845;13.91375388;4.689590129;15.06709431;1.891380324
8.226532512;24.60091354;17.04680311;11.80301847;11.24309855;0.684988202;-12.78013764;12.29964264;1.087080879;6.834212665;-0.298576005;0.428135263;7.373603136;9.543606088;8.68085775;16.91574683;6.68796465;18.29707516;1.814065488
8.728883374;25.10731072;19.54543203;15.32828458;12.86891696;0.776587756;-12.13443881;15.25113797;1.092086349;8.580078125;2.945110682;5.183563973;9.037474388;11.77950165;12.12344261;18.69291178;9.727946527;21.37600213;2.362773427
