Channel 1 - P4;Channel 2 - O2;Channel 3 - P8;Channel 4 - T8;Channel 5 - C4;Channel 6 - Cz;Channel 7 - Fz;Channel 8 - F4;Channel 9 - Fp2;Channel 10 - F8;Channel 11 - Fp1;Channel 12 - F7;Channel 13 - F3;Channel 14 - C3;Channel 15 - T7;Channel 16 - P7;Channel 17 - P3;Channel 18 - O1;Channel 19 - Pz
-27.61610053;-28.25316369;-22.84397724;-10.98277298;-27.29123158;-16.64879876;-25.44539764;-29.59336521;-54.33617349;-17.48043678;-25.21758267;-10.46206162;-43.88239971;-30.11067577;-14.19649297;-58.13358403;-34.87938264;-37.54290066;-19.42294808
-25.52912461;-27.69587018;-26.29391845;-19.37461152;-30.66916637;-17.62270031;-29.21723081;-33.92193779;-48.69800198;-26.18599339;-51.76022343;-20.60977211;-41.08992657;-27.15024418;-11.44084839;-53.55253774;-22.12579384;-24.93762763;-16.3240742
-16.61232309;-17.28317315;-20.03178428;-19.35482999;-25.2974964;-12.973676;-23.08890938;-27.20967716;-24.66089901;-25.24976341;-66.72405364;-22.80449593;-21.94702844;-18.54926525;-3.49271384;-40.38539912;-5.045831612;-6.506120505;-7.754965537
-5.479142954;-2.917750051;-8.739802337;-13.12704854;-15.18692216;-5.57;-13.05127294;-15.39787645;1.964063438;-17.30482727;-67.64873443;-17.53426613;0.738109152;-8.534020871;5.171338958;-23.63489954;9.585375704;10.89946123;1.537583578
2.559350108;7.52779729;1.10988731;-5.857427136;-6.566617682;0.440836641;-6.309568171;-6.278844242;15.24286823;-8.701181705;-60.14727118;-9.531002239;12.4116847;-1.587235168;9.760962217;-7.529680642;15.78395791;21.07979627;6.584086427
4.86139475;9.187494664;5.344094107;-1.857243149;-3.539349603;2.340537662;-6.080039063;-3.746513781;10.67612138;-4.698823124;-52.88701424;-4.107720352;6.988896714;0.482121472;8.639153756;6.601925802;12.06600909;22.14462665;5.521127663
2.798239348;2.982173036;4.261361358;-1.910866812;-5.579497449;0.411983035;-10.12538601;-5.658657814;-2.30513354;-5.96902167;-51.15271526;-3.425334186;-9.349910711;-0.576025372;4.357968997;19.24564876;2.40294847;17.28619903;0.589053927
0.206169043;-5.586880867;1.536911967;-3.573565757;-8.629012972;-2.690117361;-13.59492151;-6.664356002;-8.810655572;-8.914838593;-53.87098489;-5.491249822;-23.38161398;-1.189072248;1.403367886;29.97820655;-6.34314919;12.18646016;-3.849926337
0.285245365;-10.49839189;0.982347532;-3.807615356;-8.712045961;-4.157377639;-13.3139068;-3.29282472;-1.044878195;-9.205157636;-55.90937214;-6.420767284;-24.79210012;1.114950296;2.516646854;36.21951259;-8.760211649;11.06083675;-4.630604637
3.387235246;-9.060729996;3.774871263;-1.555897181;-5.08797409;-3.069194874;-9.93471664;3.060442408;15.17114686;-5.440858768;-53.18992621;-3.888030664;-13.217859;5.883190412;6.683729704;35.09126476;-4.01769448;14.2458206;-1.864093192
7.281318396;-2.931809986;8.15871273;1.823271875;-0.498097341;-0.752793192;-6.603236797;7.606756407;25.07777249;-0.002225269;-46.17521227;1.11524606;2.59816419;10.34195118;10.47155181;26.84415319;4.243797468;18.88699287;1.674851081
9.420556632;3.986288944;11.49821182;4.319284546;1.470797496;0.629682041;-5.821642896;6.592794051;16.98307011;3.365581845;-39.05247115;5.507158092;12.2003235;11.79685512;11.47777687;16.41545289;10.91124213;21.8165478;3.10508333
9.171575519;8.774272591;12.71107032;5.390298379;-0.448991679;-0.031684189;-7.413582013;0.75890638;-8.048300946;2.954530774;-35.76;7.044422106;11.19404025;9.821734362;10.75877126;10.96447603;12.94003906;22.12418228;1.734946116
8.16485613;11.29927204;13.00906909;6.443662802;-4.167298329;-1.990058594;-9.130334492;-5.119155597;-36.42007813;0.529799349;-36.56769685;6.294756397;3.534538752;6.510683078;11.93576105;14.76597946;10.94520062;21.43567682;-0.694284134
8.628039015;13.49393915;14.48816962;9.302411638;-6.081637009;-3.463546608;-8.961885553;-6.134090407;-51.74869968;-0.33209461;-38.16828702;5.946287107;-2.734408862;4.707918131;17.6185033;25.53156989;8.024578143;21.97733516;-1.779409944
11.28360147;17.10443136;17.98518706;14.17231028;-4.133320064;-3.247919518;-6.885393454;-1.239030619;-46.37993842;2.546514459;-37.00100455;8.139705735;-2.210905129;5.746885616;26.29809639;35.52872888;7.084621295;24.33242653;-0.558593459
14.67517786;21.9439518;22.15780108;19.07267542;0.529647573;-1.698682485;-4.596942709;5.988082079;-25.98839157;7.989752613;-32.70933979;12.24833777;4.158938942;8.52419162;32.67900981;37.10505992;8.83099365;26.8861795;1.845401178
16.4579233;25.99491868;24.56625669;21.3326802;4.607514505;-0.301768571;-3.752325792;10.31936412;-4.397984282;12.40722008;-28.63859146;15.12643301;10.83518602;10.54427375;31.56269953;28.47781137;11.74853593;27.34137301;3.431014868
15.45641238;27.04563432;23.74393986;19.84522581;5.424341636;-0.305226502;-4.500214385;9.008184536;6.662997442;12.76243244;-28.97268381;13.67648597;12.72095513;9.951625851;22.24403007;15.16334245;13.68175993;24.84402604;3.145234817
12.67051338;24.37556439;20.42144754;16.0522426;3.049622805;-1.653036091;-5.592276386;3.696725412;4.866322129;9.028448145;-35.05930737;7.548496634;9.006683759;6.860991622;9.686281881;5.78327863;13.48956286;20.7912918;1.67648808
10.39489595;19.1875205;16.88548758;12.75771151;0.06235667;-3.122020772;-5.753325286;-1.254460092;-3.21655578;4.110235679;-44.11739969;-0.360459113;2.948692165;3.011868429;1.22728357;5.506356244;11.50177066;17.64547298;0.607437453
10.29400437;13.67386888;15.1215552;11.81078691;-0.695941152;-3.469003773;-4.872941031;-2.380431548;-8.815632776;1.401168047;-51.38865737;-6.074357997;-1.565093457;0.217933308;1.242150772;12.31680272;8.738190531;16.87830434;0.835277475
12.14844118;9.669858333;15.40511949;12.71194666;1.603122366;-2.530698809;-3.919635827;0.381369202;-7.86123817;2.087959261;-53.82380755;-7.580039063;-3.287545875;-0.991328429;7.970379214;19.00277552;5.892458964;17.90363883;1.772859914
14.31798159;7.934998435;16.50240621;13.3562553;5.329226323;-1.317972795;-3.814050028;4.146095382;-2.897650779;4.412587197;-52.17057279;-6.220910348;-3.981208843;-1.453628824;15.05819492;19.12065491;3.06938686;18.9010622;2.043019523
15.39492114;8.323118213;17.13442235;12.19478092;7.97143624;-1.072999712;-4.475006528;5.762925838;0.487199619;5.363157792;-49.83262474;-5.325972545;-6.013486896;-2.283845452;16.59330974;12.05044376;0.349911469;18.68742353;0.953807659
15.47741937;10.30099408;17.24274232;9.812792144;8.236218583;-2.164635237;-4.970520904;4.279675549;-1.103148652;3.247507541;-49.69;-7.277219017;-9.708890711;-3.696515821;11.6218772;3.167006436;-1.614079502;17.85180627;-0.684377976
15.90010381;13.18336119;17.87039436;8.454481043;6.869787033;-3.794839888;-4.535703916;1.246780413;-6.400930881;-1.006154255;-51.7301916;-11.48102329;-12.90915588;-4.790233595;4.618976361;-0.745077986;-1.775308433;18.08145259;-1.212880917
17.71968552;16.02207193;19.84096374;9.89814739;5.663967237;-4.732010237;-3.363787834;-1.037237918;-11.20423401;-4.771380101;-53.4611115;-14.88900936;-12.9705592;-4.405659626;1.695609017;3.110156765;0.392851096;20.31435122;0.32351827
20.42114287;17.62407798;22.58749186;13.61508362;5.710288476;-4.379859388;-2.361865842;-1.544421051;-12.15046866;-5.929805196;-52.55069798;-14.55737114;-9.223848612;-2.214096838;5.710513898;11.67779806;4.104419541;23.48982076;3.165242514
22.11629084;17.07122273;24.35308576;16.93871677;6.509545018;-3.235001485;-2.154529907;-1.060604686;-9.152468828;-4.467404222;-49.21371158;-10.08412879;-3.663458629;0.946484449;14.17277635;18.9116733;7.469494463;25.17094019;5.345830241
21.12615159;14.47225945;23.67232573;17.18980876;6.634930965;-2.373440015;-2.394333303;-1.052593655;-4.830581192;-2.251332158;-46.20321907;-3.964425219;0.639865926;3.736808292;21.40509517;20.62769397;8.717835531;23.60144124;5.324512596
17.53136851;11.19465537;20.77249464;13.93161124;5.196954214;-2.475916518;-2.118621108;-2.158410609;-1.991717113;-1.382453554;-46.45597097;0.304795659;1.894436043;5.334698676;22.99219057;17.25182424;7.49181593;19.3777302;3.307501563
13.24522293;9.094156606;17.51665917;9.360426582;2.69463613;-3.273642543;-0.807577578;-3.741643879;-1.532045879;-2.620342603;-50.51012488;0.72620842;0.685531696;5.902710433;18.89302241;12.50122104;5.101926095;15.15081492;1.067198267
10.46501493;9.142043505;15.81364863;6.448144316;0.501301233;-3.868904274;0.951460832;-4.768938539;-2.284855593;-5.115255393;-55.96154418;-2.076740378;-0.931064125;6.167220812;12.94558643;9.627091167;3.467660093;13.47734537;0.395446538
9.831063616;10.54098495;15.87405485;6.431099271;-0.457931734;-3.582781622;1.931037522;-4.987940856;-2.464246026;-7.432047876;-59.39879235;-5.805611766;-1.315164185;6.593749585;9.525389371;8.734778006;3.585000898;14.62618108;1.550345336
9.932286931;11.19408613;15.93863046;7.830373052;-0.553737;-2.539525277;1.466056158;-5.196227295;-1.212954579;-8.786968878;-59.11570668;-8.456136509;-0.410478896;6.963814035;10.25959404;7.394924385;4.787177459;16.28977673;3.07374206
8.635471735;9.32;13.84967912;7.857191906;-1.035783536;-1.488163142;0.208580532;-6.375158797;0.922015375;-9.422487209;-56.3031915;-9.583044885;0.629415233;6.719136589;13.31787427;3.63673993;5.40875971;15.55374088;3.14186377
5.095357398;4.973984227;9.156267854;4.968323776;-2.770761435;-1.082238096;-0.376829511;-8.593971827;2.64908958;-9.976983263;-53.81218009;-9.967211492;0.731453443;5.68748276;15.46546734;-1.664198068;4.279271457;11.49702875;1.243603489
0.667496352;0.18414862;3.859428265;0.328642997;-5.337539377;-1.312739117;0.624568677;-10.78225787;2.997862229;-10.62918354;-53.67084889;-10.28572374;-0.186846596;4.450606489;14.86947478;-5.253987179;1.778405321;6.17186152;-1.31757624
-2.119016266;-2.51598446;1.005215219;-3.102127768;-7.328697865;-1.600493195;2.6458142;-11.59414333;2.060855469;-10.88742176;-55.50957011;-10.18685884;-1.394371728;3.969359462;12.34512982;-4.343088887;-0.427615359;3.043078234;-2.55854318
-1.672236796;-2.036546605;2.212825546;-3.061149772;-7.574424979;-1.412060154;4.085965918;-10.53521768;1.09284072;-10.16388283;-57.13515251;-8.642087977;-2.194460953;4.788661954;10.31366599;0.83097323;-0.724409949;4.144313799;-1.587179708
1.294404659;0.425027376;6.235826578;0.116652703;-6.155779829;-0.783630172;3.792007888;-8.304677466;1.935477158;-8.484520511;-56.59427818;-5.166228922;-2.492822805;6.538746872;10.67055568;7.061303558;1.172309742;8.354998623;0.570685047
4.337625392;2.375063324;9.861297313;3.825654493;-4.286451966;-0.258582752;2.199581091;-6.088557571;5.858156969;-6.586022671;-53.85743729;-0.670317273;-2.604203976;8.17622189;13.41520474;10.77381754;4.04171088;12.29658798;1.843452636
5.322815616;2.075437742;10.48400767;5.428838244;-3.198268769;-0.32682347;1.010539944;-4.532751793;12.20025499;-5.289914708;-50.72;2.935065016;-2.687600592;8.743025855;16.94349455;10.83332152;6.167288472;13.13152969;0.938204783
4.174339346;-0.0142888;8.232329199;4.442757637;-3.076977862;-0.930585939;1.638923181;-3.372352311;17.69585847;-4.769360954;-49.14148885;4.106489383;-2.538894152;7.986390935;19.41061947;9.12335446;6.631292066;10.91307134;-1.482045573
2.837742831;-1.595884826;5.849632074;2.788243825;-3.02546195;-1.521756762;3.853593861;-1.998021578;17.47939925;-4.435289865;-49.5586597;2.833061554;-1.974048936;6.360962909;19.87348169;8.544186436;5.827054458;8.490997727;-3.315380753
3.504946077;-0.411056106;6.402040211;2.945836698;-2.063088603;-1.608579877;5.925107445;-0.315602541;7.898418168;-3.573745021;-50.62030071;0.598412429;-1.29701162;4.52316154;18.44593216;10.36140022;4.864748333;9.040313577;-2.804716046
6.649411983;3.888546299;10.7103725;5.676739943;-0.208339466;-1.248590752;6.204419059;0.993696497;-10.32721493;-2.144118228;-50.47876063;-0.816681488;-1.195580304;2.85525771;15.73368926;13.28337033;4.508339792;13.29587723;-0.055803013
10.56371603;9.394752275;16.63466916;9.306167623;1.379281134;-0.994932318;4.690681732;1.065654008;-31.05173997;-0.980613822;-48.44917319;-0.673072413;-2.035518488;1.434435796;12.32934813;14.94304688;4.619473556;18.83;3.015279338
12.77872045;13.38184549;20.78192281;11.15897393;1.35098367;-1.336991499;3.094967844;-0.314593623;-45.32094409;-1.175286871;-45.62250927;0.32722704;-3.268688426;0.34883677;8.787443926;14.25052507;4.542548999;21.9887513;4.256105113
12.12784737;14.34847263;21.19276207;9.855965506;-0.635322501;-2.178566113;3.276913158;-2.480058594;-46.62035047;-3.156627364;-43.98599813;0.812031431;-3.703055981;-0.107188272;5.811514094;12.38981814;3.974185431;20.87075131;3.026996294
9.69627476;13.02874626;18.79173149;6.47084967;-3.543160784;-2.877400736;5.472499842;-4.46782249;-35.29180896;-6.244654142;-44.84776798;-0.063390361;-2.574453175;0.326000515;4.152500982;11.60735153;3.433058339;16.8737305;0.654192582
7.883582904;11.61955254;16.47348392;3.590029297;-5.732341621;-2.835634812;7.985226773;-5.812795372;-18.65014904;-9.044373442;-47.83729006;-2.001567851;-0.474378668;1.401133197;4.141417189;13.02405966;3.848118934;13.5496808;-0.753225569
8.418451882;11.92136219;16.67538542;3.147286111;-6.191078365;-2.087059523;8.69176512;-6.746114641;-6.238767694;-10.33927817;-51.17251034;-3.940730216;0.848861329;2.212212063;5.324305141;15.55268098;5.624287213;13.74601896;-0.076057023
11.00294048;13.91453976;19.47292726;4.911216377;-5.17441596;-1.302632797;7.012325988;-7.635861686;-3.444409486;-9.787977401;-52.85884546;-4.970704777;-0.163203092;1.693498318;6.68134041;16.89052193;8.052313676;17.38392228;1.952347511
13.65528519;15.86226317;22.68232048;6.85469035;-3.780696441;-1.174098082;4.510538921;-8.325934241;-8.22682315;-7.975816706;-51.88513791;-4.966994236;-3.478481799;-0.528069348;7.338945767;15.59672934;9.648722458;21.62693561;3.462379001
14.3551942;15.76407096;23.7244016;6.973685938;-2.950616148;-1.739187115;3.515676076;-8.166241195;-13.4740751;-5.934268933;-48.67697517;-4.500400131;-7.302004361;-3.663609697;7.13320345;12.30383348;9.200759966;23.19118752;3.05851544
12.56296021;12.94525122;21.60985046;4.934655265;-2.815688312;-2.301274707;4.997382419;-6.800160309;-13.06719009;-4.585905717;-44.7194063;-4.264372338;-9.407184295;-6.192783506;6.48143082;9.005510009;6.672720748;20.84986639;0.934820334
9.422381026;8.559943914;17.47725902;2.205431836;-2.890772304;-2.06152967;7.65758;-4.89776898;-6.736518109;-4.453340601;-41.75958614;-4.60729464;-8.900747737;-6.959253093;5.722315223;7.199038232;3.240517201;16.16103354;-1.387909243
6.661094156;4.72405955;13.46239722;0.720395068;-2.765395645;-0.90444613;9.113595654;-3.926928434;0.186545602;-5.613478027;-41.04799546;-5.512123026;-6.903258258;-6.066996832;4.676421856;6.684295601;0.447689292;12.01232899;-2.374913861
5.261232086;3.050315312;11.0464238;1.349204395;-2.523144649;0.403592005;8.107617154;-4.940487231;1.727553869;-7.70015338;-42.8573322;-6.860726041;-5.537032303;-4.804175369;2.989655734;6.098608966;-0.821102989;10.33955862;-1.667506078
4.999657623;3.699859394;10.26728508;3.437291253;-2.489775453;0.832384738;5.692326439;-7.42485166;-3.416439995;-9.913293253;-46.36534892;-8.58594092;-6.10046744;-4.609126073;0.961825687;4.545955844;-0.76189257;10.88657883;-0.188880874
5.043732883;5.52368171;10.21724027;5.587885599;-2.667230381;-0.00164739;4.261853563;-9.41735596;-10.78072208;-11.2248557;-49.9820993;-10.54763055;-8.032763813;-5.915355839;-0.111080902;2.637267001;-0.235542737;11.82898534;0.794759558
4.848038456;6.989732221;10.07826121;6.756147814;-2.566530317;-1.457957732;5.301735222;-9.056295341;-14.10592051;-10.91725804;-52.13272129;-12.36605039;-9.563636084;-7.839506573;1.243622018;1.885956522;0.033026194;11.49306126;0.749608326
4.475551172;7.106136132;9.635607107;6.630058594;-1.730222947;-2.399952615;7.958033505;-6.347004981;-10.80083733;-9.211680769;-52.21437053;-13.54569304;-9.429169503;-8.970963612;5.151071679;3.064493908;-0.048801798;9.629911528;0.172435459
4.17848774;5.752276023;8.934776094;5.167221321;-0.450849081;-2.184834558;9.797646168;-3.517009013;-4.065746686;-7.428353141;-51.12220306;-13.89777302;-8.088088289;-8.58335127;9.54447618;5.190865578;-0.081605587;7.295700794;-0.026475713
3.85281781;3.412127965;7.699452358;2.079870166;0.140275203;-1.232613905;9.088427737;-3.412771852;0.1291898;-7.303500023;-50.80226979;-13.86400705;-7.349024021;-7.234283933;11.09697668;6.228621964;0.293269509;5.683456525;0.608385477
3.053824966;0.719607314;5.342164912;-2.932703622;-1.085083043;-0.647678118;6.468838478;-7.116473826;-1.581620314;-9.758024904;-52.91165162;-14.32185856;-8.773060612;-6.260716073;7.569373616;4.904172012;0.992148153;5.070850805;1.746054457
1.592819335;-1.812811677;1.688846816;-9.31699911;-4.117637904;-1.214304603;4.400674315;-12.79979765;-7.083091817;-14.02161458;-57.45620567;-15.90366169;-12.31116197;-6.635404876;-0.200021362;1.903092113;1.533435769;4.757907898;2.675094058
0.037748003;-3.834993561;-2.344909175;-15.15973225;-7.463157597;-2.664088095;4.863963459;-16.9337301;-10.93400579;-17.93480669;-62.51649351;-18.37865083;-16.38186822;-8.182813295;-8.451162123;-0.756836616;1.406354726;3.86991818;2.960058594
-0.54702816;-5.151418197;-5.007041529;-17.92789268;-9.092678726;-3.8848773;7.443892202;-17.00898935;-9.493441412;-19.39734531;-65.48033372;-20.69598348;-19.25391355;-9.803013654;-12.98376897;-1.637195634;0.401666631;2.165310224;2.710515673
0.464097683;-5.783279687;-4.937033285;-16.21314634;-8.047980375;-3.898885001;9.655744514;-13.56790774;-4.268694411;-17.94577913;-64.99726556;-21.74939797;-20.42855067;-10.45044846;-12.16801196;-1.254821859;-1.32551277;0.133303132;2.289952794
2.492330787;-6.008258902;-2.395299921;-11.1183434;-5.358933473;-2.738018969;9.278247816;-9.829690303;-0.401501775;-15.19570383;-62.14195971;-21.25528674;-20.78802651;-9.972661226;-8.067517067;-1.550421084;-3.386587756;-1.561333038;1.864183214
3.982180334;-6.216774477;0.66735977;-5.935716351;-3.387744729;-1.426044339;6.533613493;-9.161552189;-1.721763704;-13.69114404;-59.7414452;-19.96791718;-21.48122953;-9.090824715;-4.664833168;-3.888273437;-5.271132553;-2.629713241;1.297870569
3.584907725;-6.602123004;1.94375512;-4.06255368;-4.018992324;-1.075897563;4.011022704;-12.44562676;-7.012352297;-14.97622143;-60.23618014;-18.99653028;-22.69162424;-8.609236095;-4.543294407;-7.490146898;-6.370843066;-3.172403934;0.480386947
1.327376065;-6.937052017;0.502196178;-6.628571051;-7.147845937;-1.908241443;4.301221429;-17.47143504;-11.04791563;-18.38901774;-63.69111655;-18.78988262;-23.47289436;-8.626664704;-6.721366323;-9.88601916;-6.066259263;-3.264854634;-0.333861006
-1.306010096;-6.698114776;-2.525350713;-11.70508602;-10.74014937;-3.070039063;7.500893484;-20.77783688;-9.528122161;-21.55409216;-67.57042188;-18.6887532;-22.74468611;-8.474144577;-7.460267835;-9.087005565;-4.025659532;-2.690078125;-0.62313767
-2.550437579;-5.515936857;-4.908819292;-15.78560323;-12.44550254;-3.410269258;10.97332755;-20.34962404;-3.299442934;-22.2027906;-68.54994608;-17.47946219;-20.40029828;-7.396461461;-3.438074154;-5.49498468;-0.598232388;-1.20239624;-0.11584733
-1.835590131;-3.599438144;-5.140478675;-16.40285175;-11.43277711;-2.507214003;11.71306475;-16.96186685;2.235338046;-19.88218194;-65.01338418;-14.49880027;-17.40300954;-5.304705298;5.284466814;-1.700048828;3.070962021;0.929287725;0.788279083
-0.267753894;-1.736275746;-3.569607303;-13.81839344;-8.93038428;-1.022428998;9.194338534;-13.2240032;2.209995552;-16.21750993;-58.30216031;-10.3284049;-14.79742434;-2.893053285;14.93247681;-0.239069147;5.489864336;2.748871971;1.199986891
0.346750772;-0.798223711;-1.912739671;-10.49634428;-7.065924703;-0.077019186;6.01251645;-11.34131559;-2.753066394;-13.5819353;-51.76149755;-6.450505436;-12.68410642;-1.042678405;20.60147588;-1.338851026;5.672829273;3.169856688;0.474105149
-0.880817241;-1.113512177;-1.626733547;-8.9065915;-7.046953317;-0.237364559;5.586020285;-11.56331263;-6.56064794;-13.30045359;-48.35690194;-4.13814624;-10.26434321;-0.113829577;19.69819766;-2.780290162;3.807523961;1.882294832;-1.140459661
-3.079115384;-2.217482828;-2.615670877;-9.540527193;-8.247741646;-1.041914818;8.93804985;-12.48204335;-3.112748439;-14.81704004;-48.70969222;-3.523807244;-6.966687917;0.193964175;13.57457728;-2.098663582;1.164548539;-0.225043341;-2.585271485
-4.316688007;-3.202740626;-3.408123227;-10.74610451;-8.92685547;-1.486533825;13.55652265;-12.62069809;7.409866321;-16.37672699;-50.96991943;-3.630262265;-3.494104765;0.317807306;6.256047505;0.885648192;-0.775887178;-1.632377176;-2.832334571
-3.263602472;-3.395935331;-2.596666492;-10.3802483;-7.861448932;-0.99311971;15.52591652;-11.71015113;17.24144918;-16.51134147;-52.4311152;-3.29975078;-1.58898512;0.217729492;1.503149327;3.631843417;-1.355553394;-1.375243716;-1.780478246
-0.375397457;-2.816295475;-0.194120612;-7.749595411;-5.423419458;0.055379915;13.10364413;-10.56150358;16.48184394;-15.04936469;-51.48482344;-2.182721053;-2.534458901;-0.658280356;0.591239832;3.09524147;-1.121808514;0.146551617;-0.388917178
2.438748812;-2.058367522;2.343717263;-4.163697788;-3.186972407;0.71108357;8.46173325;-9.9019593;1.180325561;-12.92108393;-48.44750808;-0.934235612;-5.750928759;-2.747672;2.304804259;-1.347009274;-1.251767044;1.486797263;0.127931843
3.386314432;-1.724851605;3.446775809;-1.719608465;-2.49950474;0.399372285;5.870556198;-9.505095816;-22.65528121;-11.13407367;-44.88903712;-0.507676077;-8.949262331;-5.701199072;4.65443166;-6.997995655;-2.492919267;1.391615811;-0.633065874
2.252944334;-1.898054765;2.887094439;-1.485311755;-3.343458789;-0.509148377;7.8462186;-8.524313507;-42.70808297;-9.945767515;-42.30883445;-1.242846616;-9.93616145;-8.393886914;6.527381827;-9.961066187;-4.505619959;-0.076456351;-1.889742102
0.522036993;-2.079138152;2.019742428;-2.695743218;-4.481715199;-1.05703926;12.7560603;-6.618079174;-48.96318811;-8.929125458;-41.31487117;-2.586019724;-8.546232512;-9.724389733;7.910595623;-8.497225844;-6.154635782;-1.508338772;-2.357034758
0.099157822;-1.614684398;2.57358172;-3.587869922;-4.666368452;-0.65976201;16.17597527;-4.592053931;-40.49066795;-7.704082788;-41.74187376;-3.648314654;-6.873871492;-9.521267618;8.899191985;-4.592536686;-6.486775061;-1.267824555;-1.399805474
1.775649685;-0.234689776;5.079863709;-3.022443766;-3.739193157;0.261626734;14.90041616;-3.757555673;-25.18995625;-6.493450437;-43.20423004;-4.015870043;-7.417732263;-8.69457435;8.863373199;-2.220405419;-5.547656418;1.172783379;0.376556855
4.72212879;1.729010242;8.358349866;-1.39975569;-2.623450261;0.624460153;9.99032283;-4.554951841;-13.12941208;-5.913046229;-45.32408603;-4.017371265;-10.69817057;-8.422240047;6.832096388;-3.767120718;-4.342465744;4.795707382;1.643413423
7.334336361;3.578106989;10.52380441;-0.09863084;-2.298629645;-0.266536837;5.985737131;-5.851216994;-9.194202765;-6.229614643;-47.45673579;-4.214717434;-14.54021221;-9.070156619;2.757176675;-7.833267829;-3.997578611;7.832390792;1.519231386
8.570655146;4.706536881;10.60673425;-0.039127804;-2.808228419;-1.943186319;6.852728984;-5.771071222;-10.83669391;-6.885496413;-48.45793703;-4.662085901;-15.82445937;-9.849007899;-1.732754716;-10.46480495;-4.866352015;9.077934159;0.33328689
8.584554938;4.92467017;9.344943095;-0.731250962;-3.272472037;-3.052682675;12.28695467;-3.423137992;-12.00661875;-6.837594473;-47.09425228;-4.719296136;-13.2596628;-9.572518014;-4.120726421;-8.774108919;-6.339756218;8.625668426;-0.717386812
8.214068414;4.463544916;8.471572476;-0.670858749;-2.860167816;-2.516129479;17.80824223;0.111216516;-9.125999948;-5.440195577;-42.99481148;-3.663592381;-8.679299915;-7.848917422;-2.894574905;-3.678193175;-7.470154006;7.501909934;-0.703845258
7.98144617;3.74741229;9.182349173;1.309091818;-1.713350233;-0.543066021;18.7020931;2.599980725;-3.755822699;-3.028208924;-37.30627904;-1.531690078;-5.572898441;-5.574059492;1.078328793;0.800161384;-7.794041566;6.664630065;0.161996375
7.646240496;3.153184317;11.16942392;4.966180439;-0.855453583;1.453875231;14.30874465;2.680284231;-0.120056152;-0.610753074;-32.26266838;0.668174461;-6.040319973;-4.184948265;5.039347759;1.125885555;-7.599956181;6.318126941;0.745008584
6.713440552;2.896355573;13.04065683;8.786134762;-1.125321744;2.032697828;8.717397781;1.223717108;-0.441776388;1.059182085;-29.78655199;1.690831035;-8.871784504;-4.287626833;6.454935704;-2.487206466;-7.442516388;6.084798481;0.110988473
5.28979703;3.030763099;13.65757612;11.14935008;-2.186380251;0.966657003;7.113358603;0.661050863;-2.736094813;2.143622302;-30.18614562;1.151954738;-10.55441247;-4.93308975;5.039239694;-6.155811038;-7.424451822;5.708423828;-1.495099231
4.311793196;3.48911752;13.12125315;11.47112057;-2.658243764;-0.567757443;11.01933732;2.73687129;-2.991533467;3.444490579;-32.06124802;-0.005708821;-8.406100084;-4.315051176;2.935696368;-5.757105222;-6.978745187;5.486654573;-2.772779146
4.808095422;4.143095551;12.53446267;10.38961954;-1.35737423;-1.061216033;16.79580099;6.721513848;0.656975272;5.437543412;-33.53775438;-0.174086117;-3.064066021;-1.388957089;2.835536052;-0.638961933;-5.387410343;5.97925762;-2.540120592
6.878085225;4.907659783;12.8553804;9.007572537;1.492900095;-0.056548395;18.88181196;9.838426001;5.972586086;7.572333639;-33.77604049;1.624447053;1.948950647;2.998318397;5.586173226;5.777999024;-2.543155967;7.332557837;-0.899083002
9.440327687;5.860265424;13.99200549;8.005940076;4.30022668;1.410872896;14.90926979;9.688987871;8.78711682;8.59593149;-33.44029807;4.890301469;3.260371714;6.549981224;9.318010659;9.091111877;0.804841526;8.98692368;0.725696386
11.11302794;7.251028016;14.98920355;7.403458081;5.480957513;1.743256602;7.997817946;6.536287256;7.128959469;7.683777368;-33.76322508;7.969586658;0.586678652;7.267744654;10.86428411;7.883009939;3.610585908;10.15104107;0.800422846
11.4632454;9.298253286;15.05017061;6.969860015;4.955488162;0.257387609;4.013880468;3.276303103;3.239827987;5.322933073;-35.14882313;9.264182886;-3.087146802;5.052978946;8.330905354;4.894693469;5.410232021;10.60782817;-0.894127447
11.40876723;11.85089307;14.31078564;6.64125704;4.306391595;-2.140387578;6.195416573;2.943052728;1.481819518;3.030971842;-36.69549165;8.301334837;-4.269138365;1.766273664;2.71697636;4.280477299;6.689872864;10.99815413;-2.935237787
12.28851239;14.20399675;13.56247733;6.404558034;5.309427518;-3.724863557;12.07659515;5.898025896;4.138366402;2.051299622;-37.13746308;5.812579021;-2.148414792;-0.335730583;-2.726130694;7.479001924;8.353059444;12.18293691;-3.403980358
14.40671935;15.33586348;13.22594476;5.851448837;8.100438008;-3.492915626;15.66075859;9.297129656;9.170759112;2.184171645;-36.29388883;2.889480315;0.724786747;-0.439879349;-4.876430457;11.61070645;10.74440558;14.22129558;-1.555507061
16.47213015;14.52587272;12.70567;4.124167714;10.72215771;-2.069391746;12.9789386;9.47992373;12.1189103;1.8975814;-35.53225673;0.083880539;0.904269932;0.31005127;-2.994812521;12.04618645;13.14796504;16.00256819;1.458896768
16.6233194;11.93806164;10.93472498;0.649590501;10.65395988;-1.125533897;5.928045094;5.262115198;10.33792542;-0.259389042;-36.62429733;-2.727747641;-2.639821056;0.050889328;0.834005467;6.889726691;14.2942994;16.06769754;3.502807697
14.24123227;8.676989071;7.70291567;-3.863248677;7.110243207;-1.817735996;0.703501742;-0.830492687;5.504513164;-4.161678992;-39.94834646;-5.712871554;-7.497703043;-1.961794946;3.29725983;-0.8022483;13.49197233;14.03507234;3.24918335
10.87714193;6.185623124;4.433564175;-7.249803965;2.053285965;-3.681876287;2.080981041;-4.606599626;2.003926916;-7.942109882;-43.77663997;-8.456994354;-10.11506979;-4.611305598;2.213379029;-5.309933839;11.38100546;11.3459724;1.302630811
9.272611851;5.399725506;3.426721912;-7.11262808;-1.136878705;-5.035213784;8.773460607;-3.807192474;2.803253773;-9.437412766;-45.53202586;-10.08825607;-9.284594247;-5.965751916;-2.027853247;-3.154086418;9.583052748;10.49863472;-0.342110932
11.14284314;6.316778107;6.007527636;-2.72705096;-0.347902021;-4.557078958;14.31984905;-0.048813341;6.836187086;-8.049348435;-44.07749592;-10.09220576;-7.472739281;-5.143277399;-6.803211873;3.813801548;9.485045997;13.23712673;-0.039107704
15.62400899;8.311991803;11.19884935;3.96549764;3.498282003;-2.596088254;12.95445321;2.684624687;10.37386679;-5.351003357;-40.98103847;-8.97627539;-8.555960058;-3.233128541;-8.964182345;10.056298;11.18348042;19.15791064;2.098420615
19.85059275;10.87861873;16.26871461;9.382239264;7.181452811;-0.947355816;5.16673554;1.683997689;10.8326642;-3.810560998;-39.42565435;-7.997735619;-13.94921199;-2.348243055;-6.739823019;11.34587064;13.50210748;25.93951574;4.349619213
21.29886811;14.06852323;18.87785514;10.81281078;7.859572213;-1.229647758;-2.339218041;-2.026353803;8.982616778;-4.688508981;-41.50107111;-8.065828474;-20.80496847;-3.627865135;-0.750684677;8.550344402;15.05154688;31.03997395;4.939778291
19.89951943;18.17053915;19.00006104;8.481564681;5.393768741;-3.322245323;-2.587329188;-4.718943577;7.171497315;-6.968258427;-46.19832529;-8.820124121;-24.22;-6.05262294;6.30817607;6.630167398;15.36875723;33.42857253;3.59054246
18.01024057;22.90627388;18.81534577;5.373505988;2.292333733;-5.34478962;5.080553884;-3.591554957;5.468736596;-8.315009736;-50.00509841;-8.8572319;-21.66458923;-7.264326403;11.07793141;9.668133335;15.11416108;33.89578784;1.684246485
18.1830804;26.97676631;20.51996421;4.808059029;1.331277761;-5.294604778;13.95400992;0.378835457;0.228555726;-7.23883884;-49.78940186;-7.052904416;-15.57309923;-5.745084297;11.3556664;16.56783379;15.18889174;33.78136541;0.931598193
20.67668665;28.58980923;23.97038779;7.69431983;2.992179567;-2.9061401;15.79284574;3.138478079;-12.47914919;-4.500901342;-45.55636501;-3.820570085;-11.47249972;-2.375354304;7.436733597;21.64720949;15.65962917;33.41459918;1.794155652
23.00726272;26.72872458;26.42102511;11.79732273;5.050250133;-0.0065883;8.500541004;1.346003563;-31.23488919;-2.431508709;-40.60297563;-1.049446063;-13.0641718;0.155245175;2.174223637;19.88080462;15.5805417;31.81676302;3.120217223
22.08603017;22.13568795;24.85071238;13.71274682;4.717995137;1.051163254;-1.479855274;-4.204321863;-47.29271149;-2.725011592;-38.77489723;-0.587262512;-18.66610837;-0.311929784;-0.535698683;12.02751131;13.95689687;27.98863108;3.312459109
17.13366487;17.04574263;18.9554283;11.90379703;1.399645716;-0.473911859;-4.667789676;-8.861774833;-49.70087529;-4.736192907;-41.11187052;-2.519960351;-22.46558429;-3.384536072;1.797873275;4.621006798;10.9623405;22.50746953;1.908283204
10.72239752;13.68556182;12.02980736;8.143585983;-2.520254491;-2.963663965;2.684537992;-8.147333405;-34.42454915;-5.941145307;-44.83917716;-4.847115833;-19.75359926;-6.331298058;8.375271262;4.337831673;8.176359783;17.7181538;0.058077334
6.837920416;12.65699649;8.621319985;6.006276973;-3.70168486;-3.858278243;14.58220838;-2.017427484;-9.611416213;-4.279641895;-45.71121497;-5.020627206;-11.50717734;-6.477069256;15.27532263;11.62325776;7.440622366;16.03836196;-0.579922875
7.509112037;12.55812229;10.71681097;7.625204394;-0.946565682;-2.035026594;20.17305264;4.644915511;8.809493315;-0.293443041;-41.7657601;-2.1321313;-3.963016055;-3.686364964;17.93875926;19.61103158;9.237511214;17.74705612;0.507209525
10.96260368;11.24301522;15.76488673;11.55293384;3.467245735;1.028696511;13.6149346;6.077925689;9.001976163;2.98907821;-35.2113922;2.169633038;-3.213644033;-0.617099014;14.43031171;19.88615007;12.06427339;20.346241;2.092899722
13.06019944;7.724291748;18.50495658;13.72355115;5.573573266;2.485199377;0.0319741;0.799508308;-6.864883492;2.512667164;-30.7178146;4.938422303;-9.534664562;-0.356683978;7.014382198;10.28822112;13.50557289;20.36272705;2.327216043
10.90772464;3.094675446;15.32541367;10.85381244;3.173807371;0.749819048;-8.371200107;-6.840868867;-23.66252382;-2.091124595;-31.5313212;4.354556978;-16.75829901;-3.484364577;0.563176168;-2.429448713;12.20299355;16.25500506;0.577336232
5.496439121;-0.386127908;7.498659717;3.413031264;-2.112825685;-2.843702482;-3.229289567;-10.40778247;-25.57522556;-8.013410079;-36.81228092;1.190716181;-17.675575;-7.301196507;-1.239144801;-8.097303448;9.024068678;9.89780426;-1.776703498
0.943411993;-1.306119382;0.358477794;-4.472077962;-6.154504154;-5.015105994;11.66526981;-7.287052241;-9.855980676;-11.58864322;-42.55978184;-2.017740448;-10.85549711;-8.148768519;1.079218268;-2.401110828;6.327622476;5.159878544;-2.481683226
0.851748317;-0.445656909;-1.112819832;-8.231280571;-5.938008053;-3.45677587;22.7006589;-1.357799986;9.987020358;-11.44859335;-45.27985196;-3.360048828;-2.543901721;-4.897874311;3.205785848;8.445539502;5.877228538;4.61695544;-0.564243985
4.962524766;-0.167696527;3.406441443;-6.501625616;-2.300312948;0.864161085;18.28571089;0.362285094;15.32468413;-9.626137342;-45.01754082;-3.250832125;-1.370635629;-0.3920729;0.895052785;12.54721558;7.2298725;7.247388605;2.505228222
9.191675608;-2.257785024;9.209595056;-2.061131399;0.814220535;4.243864425;0.075146668;-5.54057805;-0.865474949;-9.44521173;-44.87185828;-3.728769385;-10.14622372;0.777505953;-5.840694221;3.21051101;8.121659283;9.304913416;3.894306055
9.240875376;-6.073877975;10.69056826;0.810154994;0.078226168;3.410238644;-16.96166098;-14.82971483;-26.22891475;-11.98266337;-47.33574554;-5.868963262;-22.19188844;-3.481573117;-11.97812826;-13.66721727;6.643572762;7.825687904;1.96869028
4.699071845;-8.753824533;6.518705595;0.2601204;-3.820813696;-1.348580612;-16.91493785;-18.44812787;-38.08891617;-14.42253673;-50.90932136;-7.787812671;-26.18846757;-10.23578443;-11.32013472;-23.1266754;3.318213467;3.730955037;-1.938569105
-0.143075359;-7.520205394;1.216347737;-1.417643154;-6.375284485;-6.00228837;2.297096933;-10.43505266;-22.84901393;-12.18661712;-50.50984642;-5.504825256;-16.04023192;-13.33281248;-2.055680183;-13.83794728;1.094742419;1.546341229;-4.335619852
0.152577645;-2.222130311;1.38657382;0.07718085;-3.24353518;-6.050625183;25.09528737;5.793135719;10.62879107;-3.360158724;-41.92679207;3.525733109;2.766729857;-8.516151824;10.79262848;10.4291225;2.994587195;5.565562531;-2.535704031
7.07045801;4.151105355;9.532679285;6.828202745;5.293498655;-0.662511448;30.18103203;18.81989618;36.28788343;8.456381992;-26.68825176;17.05914875;16.56522018;2.306994407;18.7294244;31.17775863;9.26819815;15.55345392;2.702499527
16.00824962;7.670795689;20.86633597;16.16970047;13.53208175;5.973557605;9.374229887;18.06051445;32.11768847;15.86124889;-12.74297156;28.13547389;14.74648744;11.56544992;16.79065492;28.79923047;16.58449867;25.898407;7.334817342
19.42260097;6.739210337;26.36653198;22.35291947;14.46615726;7.651859584;-22.71092963;3.16083936;0.346291821;13.21710367;-9.498751456;29.31900492;-0.351760956;11.50109013;8.445381928;-0.647826185;20.2498673;29.50852472;7.210138839
13.10540149;3.687833384;20.14308216;21.32648847;5.812450045;1.390654094;-37.90606622;-14.18927822;-31.23596603;1.821107388;-20.59041848;18.27287865;-13.89084536;0.564788949;3.706864059;-39.49;17.90117991;23.68478287;1.795084967
0.467939192;3.151235971;5.183646804;14.66482117;-7.105243231;-9.379910078;-16.94377932;-18.45613504;-30.0621907;-9.810241811;-40.17035499;0.258029827;-10.12551051;-14.5190347;11.10391751;-59.62167168;11.68349216;13.13176538;-4.787627711
-9.08358715;8.283041909;-7.647119443;9.075262545;-14.48408388;-16.64753614;32.54505485;-2.59971575;13.69919498;-11.45669772;-56.20146209;-14.86372454;13.68030648;-23.13200232;29.61756233;-43.40824567;6.932354555;7.16728682;-6.628680464
-6.949675804;17.7888136;-7.265292635;11.43606662;-9.238953363;-13.67071193;78.1130121;25.29;75.37261033;1.260803429;-58.78680042;-19.3255348;42.71111142;-18.57480804;47.52728401;1.714588161;8.142988212;12.77653806;-0.779607247
7.784944537;26.2927119;8.943568818;23.11320622;7.214984229;-0.441158326;84.93061392;46.8924192;110.976426;23.04470263;-47.36076567;-12.95475842;54.24331833;-3.339978117;50.10802084;46.99527387;15.30097366;28.7512142;9.92828788
26.91361753;27.98955238;32.2758962;38.17025044;25.30102957;15.64873196;42.20978643;46.87832113;89.3364744;41.99634122;-31.14996573;-3.231213818;34.8340841;12.38830643;30.93784838;62.54804809;23.53380497;45.68797895;18.48485093
38.55507011;20.8930398;48.29152315;47.17270387;33.79955401;24.73912215;-26.97043211;24.42388806;16.76805242;47.6010181;-22.40451589;0.273896884;-8.261138808;18.03871015;-1.93960742;39.00970054;26.51182911;52.24450382;18.73539423
35.54089886;8.432203567;46.88297616;43.87732251;27.74861311;21.4539743;-80.82354411;-5.945997777;-65.29048167;37.8250121;-27.49891826;-7.072728669;-50.86297623;10.24591594;-30.37512967;-5.813515794;21.07217304;43.15231801;10.0222163
20.41939819;-2.837648026;29.31446162;29.7541268;11.7837645;8.635338473;-88.10858683;-24.89513333;-108.7559112;20.16406188;-42.62068308;-21.7571507;-68.55324743;-5.01729701;-38.38877318;-40.36719132;9.545237869;22.99368626;-2.219063153
3.333425803;-7.659580713;6.992339485;12.92687667;-3.510398377;-4.925519954;-49.5517947;-22.06228054;-92.31345852;6.064785976;-57.11843455;-35.03011288;-53.77605269;-17.23895689;-23.39417839;-42.47081305;-1.953272506;2.923050173;-10.43054691
-5.474281341;-5.31861335;-6.926455931;2.42109429;-9.299536579;-10.93041428;4.408375068;-2.621893455;-34.78879981;3.054703162;-61.63263307;-39.51122805;-20.41353811;-19.20840613;2.116649199;-14.54767215;-7.873457879;-7.126324329;-10.40376435
-2.741438027;0.554649126;-6.606918586;2.13011266;-4.361746517;-7.243715348;37.06420075;17.92253499;20.8507003;10.35459607;-54.63855147;-34.34228226;7.350476582;-11.83497618;19.75788638;20.07242719;-6.866925097;-4.886955958;-4.03978566
6.363597426;5.133939449;3.406745147;8.902754838;5.066873725;1.354014822;31.61152047;25.9838877;39.64592756;20.75047359;-42.64970188;-25.12938006;12.92738692;-2.521385689;18.34850816;35.9355179;-2.070043945;3.74192776;2.603344053
13.06486216;5.840514241;12.90797159;15.77475889;10.81065944;7.50533103;0.467438672;19.33652286;18.1248289;26.63317666;-34.52891611;-19.14470104;-1.814940729;1.148560157;1.106449579;24.21985625;1.865000973;10.01211601;4.232696288
11.90599318;3.502763135;14.27524706;17.4343244;8.978749041;7.002409032;-27.79975463;6.8506029;-17.64960283;25.26192742;-34.81545994;-19.860687;-20.41833001;-2.851720404;-18.09092343;-2.637447394;2.404391369;8.992835267;0.231250587
4.348449933;0.753313548;7.688951226;13.6334567;2.144095327;1.438980576;-31.9656731;-0.208005902;-35.66465748;19.51963166;-41.22379189;-25.04832894;-26.28604888;-10.21123929;-25.87017473;-22.68378471;0.572037333;2.503848422;-5.407412228
-3.338373219;-0.57267038;-0.2959934;8.305891822;-3.671577627;-3.89972711;-13.11608887;2.507650457;-23.1093809;14.37934398;-47.64433113;-29.48669313;-15.65083339;-14.55358527;-18.98473059;-22.04107474;-0.649889815;-3.421620872;-7.759935152
-5.61680012;-0.735945589;-2.921500821;5.714399221;-4.206058646;-4.727317449;9.507910533;10.03688625;6.411452243;12.59513717;-49.49944268;-29.59126807;0.928366777;-12.8218409;-5.253391315;-4.261817076;0.716918513;-3.902633741;-5.057918991
-1.92605046;-1.232739379;1.272578728;7.064047271;-0.00470408;-1.038415447;16.3714882;13.80026761;27.27576736;13.19936651;-46.85624576;-26.02917289;8.671408359;-7.305041206;4.021135829;14.84600108;3.937011657;1.112922799;0.132368592
3.5602648;-2.92683718;7.912355329;10.15539615;4.788705099;3.468443899;3.493136455;9.71987359;24.11351124;13.52709441;-43.15725721;-22.45286967;1.162462346;-2.99331144;3.32165358;21.17790753;6.423189451;7.497140864;3.361330295
5.926114458;-5.096181305;11.06250678;11.84040731;6.315092186;4.913648584;-16.22728341;1.589230256;3.24976317;12.38258673;-41.36884387;-21.88312217;-14.94795445;-2.938435262;-3.667519392;13.00332778;6.200134427;10.78683227;2.102296987
3.578839387;-6.26498432;8.269356487;10.79796717;4.015966086;2.487836482;-25.67926138;-2.851636371;-14.85688717;11.25944886;-41.30913184;-24.08071679;-26.2753341;-5.750700025;-8.603156123;0.253277262;3.702512228;9.679078147;-2.304033239
-0.932643794;-5.89653628;2.138656652;8.250714355;0.431047599;-1.233178981;-18.29701042;0.790629584;-14.12434634;12.60742194;-40.41983955;-26.08444072;-24.01562073;-7.235819683;-6.369345086;-5.545264707;1.363883568;6.394554743;-6.021960913
-3.626397165;-5.180770047;-2.474944246;6.337091146;-1.566371621;-2.867946882;-2.439459153;9.511343371;4.005136671;16.96351299;-36.89956006;-25.17783152;-10.64266194;-4.485943606;0.673377801;-1.229961136;1.453522483;4.093895675;-6.03019647
-2.644574875;-6.029216963;-2.832357226;5.928844836;-1.34560054;-1.234707231;7.231925929;15.53877985;23.23657757;21.78491129;-32.01045166;-21.49176527;3.037601655;1.295936859;5.390834319;6.460393175;4.112145819;3.986751332;-2.497590353
0.434997405;-9.144969458;-0.370594519;5.957322663;-0.665331964;1.822877602;2.856065476;13.11774415;27.36255163;23.21657401;-29.29433528;-17.95108341;7.206545098;5.697766348;2.635521123;8.120039063;7.273699026;4.687405567;1.648793416
2.393559366;-13.01052453;1.068177662;4.725926541;-1.562052549;3.311828729;-10.57267061;3.427499957;13.99795144;19.32508295;-31.38997633;-17.72595534;0.56648792;4.869296238;-6.140572397;0.526037629;8.459355887;4.078084974;3.360039063
1.390241163;-14.88892016;-1.054243996;1.814914377;-4.173025408;1.828557191;-20.720707;-6.519987627;-4.290832179;11.96350073;-37.3819768;-21.511707;-9.812444639;-1.143398602;-14.36865816;-10.77504207;6.827184668;1.654384271;1.92387885
-1.542092566;-13.10541517;-5.722301154;-1.277210146;-6.558928843;-1.283667108;-19.25430344;-9.815665582;-11.46636413;5.578089193;-43.14811622;-26.98628938;-15.330101;-8.339765326;-16.32036707;-16.91219595;3.727819081;-0.929096512;-0.777147303
-3.681509219;-8.626205924;-9.427236436;-2.350220666;-6.592558084;-3.259792327;-8.731769522;-5.184203729;-1.630676334;3.879680906;-44.50157979;-30.79347834;-12.99107501;-11.96640787;-12.04898445;-13.77816647;1.390739934;-1.54626582;-2.197576917
-3.184724755;-4.453596173;-9.363440289;-0.432594865;-4.042124464;-2.408503129;0.554957935;2.492146416;16.62882806;7.099195487;-40.47564707;-31.22416534;-6.931094603;-10.23458619;-6.962693268;-5.424336614;0.986349666;0.187528955;-1.386914892
-0.634360883;-3.22832058;-5.810870939;3.339339109;-0.861228056;0.465162926;0.242791797;6.743593247;27.94618585;12.02264659;-34.01090949;-29.30156948;-3.799675081;-5.497773197;-6.618839714;-0.018812484;1.767485153;2.345769542;0.398207348
1.728751558;-5.03644637;-1.67850081;6.661972556;0.575515359;2.88265836;-8.877844498;4.963107913;22.60015543;14.67689527;-29.56673292;-27.50419083;-6.695272713;-2.073453676;-11.57236229;-2.334216644;1.957141211;2.356824989;1.100460424
2.204656584;-7.319153042;0.190090942;7.953112594;-0.367222064;2.914548758;-18.23625591;0.101258086;3.23864944;13.42156829;-29.7387606;-27.4275189;-13.00478686;-2.677063215;-16.92305335;-9.578399151;0.493357109;-0.606062608;-0.137875776
1.149094847;-7.018195097;-0.567519341;7.528407051;-2.03681822;0.797927142;-19.6363176;-2.473444552;-18.68793846;10.0192262;-33.62525186;-28.47415479;-17.4866563;-6.424024773;-16.87700927;-14.10450572;-1.956548107;-4.713518216;-2.223102886
0.448157482;-3.168294353;-1.787985862;7.118768488;-2.062546569;-1.407712624;-12.52722593;0.174112511;-32.46188745;8.021955997;-38.01889466;-28.59400091;-17.210582;-9.858433676;-10.11944873;-10.33837233;-3.578843264;-6.918383358;-3.212277496
1.550952971;2.259438897;-0.966945004;8.275198712;0.39420901;-1.702552452;-4.001541694;6.286112016;-35.0926922;9.946862932;-40.10555018;-26.24547681;-13.73593142;-9.907214167;-1.11967962;0.295902854;-3.017359541;-5.495802844;-2.174194817
3.976348108;5.983354076;2.427304553;11.11110144;3.764552014;0.153967488;-1.972812251;11.41518542;-30.75812422;15.47598514;-39.32;-21.78137811;-10.92141308;-6.226943568;3.805431482;10.63537174;-0.551442403;-1.452760593;-0.079849988
5.717976674;6.130695421;6.583367608;14.39497004;5.381228484;2.568589427;-8.0192746;12.5032298;-24.8896696;21.859084;-37.06967425;-17.13534256;-10.91608082;-1.174047052;2.119346296;13.85435109;2.16659924;2.408748665;1.06667572
5.178827502;3.757483524;9.126149877;16.72669376;3.823256131;3.601698214;-16.31111248;10.24191667;-19.28344814;25.89433335;-35.02891729;-14.25462414;-12.31439766;2.263664235;-2.683226082;8.93424088;3.531419476;3.912226559;0.039451589
2.840902585;1.91378178;9.31746341;17.62383212;0.234699022;2.612769471;-19.26161612;7.813559011;-12.46477681;25.84170679;-33.78176723;-13.73212433;-12.06479741;2.665089612;-4.253618123;0.96409532;3.288063312;3.271730777;-2.492176987
1.104121897;3.08501497;8.669826857;17.59200192;-2.523584697;0.638460984;-14.49431437;7.551718599;-3.786037033;22.04636123;-32.90709026;-14.71525571;-8.990039063;0.78781782;0.800024414;-3.570115538;2.608921142;2.696714989;-4.516051207
2.375443935;7.181439863;9.495529249;17.31972456;-2.135174277;-0.700475613;-6.800078125;8.837378976;3.845969577;16.28277016;-32.02538654;-15.90629047;-5.293294594;-1.557113776;9.63218228;-2.104852;2.952426248;4.267100191;-4.378883717
7.051885987;11.72224016;12.78569119;16.95212202;1.432821494;-0.6645148;-3.541115214;9.143673208;5.893235535;10.69458362;-31.45036908;-16.56127473;-4.498470356;-3.085641406;15.37636744;2.606660751;4.761853047;8.004943514;-2.136648716
13.13028536;13.96437395;17.33846248;16.20056278;6.113803375;0.096463877;-7.905748774;7.026207933;0.933492587;7.086889407;-31.70208467;-16.62754636;-7.823939925;-3.689607871;13.00926828;5.766439272;7.134369983;11.8266531;0.576453357
17.74762981;13.11098202;20.83862155;15.09322911;9.542789628;0.352897216;-16.16186759;4.002344688;-6.793841861;6.626588884;-32.50525598;-16.17035505;-12.58625389;-3.877607952;3.811482316;5.098666158;8.676210053;13.35259447;1.9602285
19.305065;10.76018214;21.81904036;14.45064388;10.83165323;-0.435455498;-21.22067823;3.371741279;-10.16322613;9.585098139;-32.55679652;-14.95157661;-14.35400537;-3.88263972;-5.427565061;2.535315617;8.714790872;11.93007813;1.462839381
18.40236259;9.334438979;20.72550966;15.41887079;10.84867348;-1.607333188;-19.0752279;7.003571066;-5.192556512;15.01803242;-30.58669335;-12.73914416;-10.99227267;-3.442872618;-7.791279165;1.80307454;7.785941918;9.107175303;0.015329423
16.9243917;9.951490246;19.23293568;18.37871091;10.96690579;-1.985327374;-12.24048001;13.13725499;5.178722385;20.79370428;-26.80730632;-9.994594172;-4.839398147;-2.382868493;-1.641178974;4.503411492;7.029300847;7.218687864;-0.983276808
16.23282402;11.58487697;18.58955614;22.28928368;11.59430802;-1.059613794;-7.239138626;17.40933554;13.32773649;24.41673004;-23.22820686;-8.026013108;-0.862235552;-1.205728672;8.438209963;8.461534069;7.118727316;7.397961401;-0.915934708
16.09823312;12.14839238;18.57958635;25.24069636;11.86849243;0.472212131;-8.621715007;16.38164699;13.51245181;24.43059524;-22.24184758;-8.148388737;-2.308179239;-0.887761065;15.73939328;9.782165081;7.72798514;8.753311306;-0.315199791
15.22269452;10.44636795;18.00043243;25.88478123;10.70872642;1.319056038;-15.00680188;10.50134113;6.945525275;21.42996111;-24.5654822;-10.45859124;-7.738865431;-1.941500485;16.88742259;6.528495261;7.98421351;9.338161171;-0.129290826
12.73099874;7.24415194;16.07206343;24.51392776;8.120831902;0.784784136;-20.594374;3.832510342;0.697430418;17.72347655;-28.43222485;-13.42259715;-12.18390837;-3.672525711;13.99541995;0.51963044;7.430679288;7.952640988;-0.690012207
9.190105641;4.574719271;13.34596195;22.76299722;5.442733086;-0.578335364;-20.56414583;0.720182072;1.26752764;15.66676627;-30.95934158;-14.89283956;-11.48467905;-4.499065048;11.93181045;-4.373967696;6.564623141;5.161647771;-1.396823161
6.236538557;3.981460853;11.22861769;22.11041641;4.251654297;-1.458442874;-15.3582546;2.255116667;8.586284943;15.86995391;-30.64831181;-13.85855087;-6.00791866;-3.227720791;13.42607024;-5.743071282;6.432280259;2.713317024;-1.384837739
5.206266715;5.286583541;10.61409205;22.48536056;4.936528315;-0.969249146;-10.05548512;5.581784499;15.98399632;16.77016315;-28.79758046;-11.4081395;-0.415577418;-0.200588398;16.51358763;-4.6352549;7.646977441;1.995468297;-0.480991183
6.04777461;6.925448658;10.99740229;22.28;6.276511554;0.546397204;-9.604676071;6.587227031;16.34314869;16.04070388;-28.42585632;-9.922588486;0.350257029;2.782605359;16.57668549;-4.217028178;9.733101143;2.950029297;0.51746108
7.48233033;7.451824559;10.97984677;19.85184394;6.457607636;1.816868065;-14.37215593;3.562497254;8.963048053;12.75184109;-31.5049461;-11.05554714;-4.638866159;3.824295985;11.04393855;-6.452969123;11.40903433;4.333305278;0.547526655
8.203270833;6.804908701;9.720804662;15.22972115;4.649949552;1.766182682;-19.99565065;-1.360172703;0.780565119;8.450109009;-36.93223175;-14.22915101;-11.47958076;2.453513551;2.394414772;-10.00295028;11.58168305;4.936212957;-0.679935997
7.980419013;6.214668477;7.932199066;10.45794334;1.7555635;0.45060997;-21.50370566;-4.171286179;0.459650974;6.124629322;-41.17500603;-17.04736226;-14.79175412;-0.020834858;-3.40990324;-11.37490587;10.1966106;4.564805216;-2.298646719
7.683413769;6.8977301;7.3793764;8.140636366;-0.325015658;-1.015482715;-17.82163407;-2.531755991;10.27343514;7.792197509;-41.20449078;-17.3784714;-12.303025;-1.675366048;-1.888496707;-8.303755971;8.225364388;3.929456372;-2.966150671
8.274600243;8.784240174;9.233036235;9.334466367;-0.252327577;-1.45034592;-12.58859991;2.234382887;22.96362689;12.67654813;-37.21433316;-15.30976097;-6.694130086;-1.659340084;5.846180143;-2.208802669;6.833793774;3.695319328;-2.02606078
9.763713792;10.45042562;12.7390105;12.58213409;1.717828766;-0.611796845;-10.69268134;6.381490849;26.74169052;17.56839856;-32.64128443;-13.16568087;-3.178446209;-0.911494769;13.49337877;2.632895217;6.472464484;3.723704374;-0.111237706
11.1067631;10.31015068;15.47805044;14.97089613;4.063909728;0.660835433;-13.81361617;7.020235494;14.65925269;19.18646883;-31.28551358;-13.42827312;-4.996947172;-1.241720964;14.38554603;2.58781774;6.654908319;3.267577637;1.369413846
11.11833918;7.981284649;15.11470618;14.38921525;5.307142484;1.252007692;-19.03048529;4.503117262;-9.313134951;16.67425475;-33.93360131;-16.3166584;-10.73227648;-3.55737201;6.885602367;-2.218805498;6.550039063;1.880227385;1.420486463
9.524677999;4.61100083;11.20480899;11.11780209;5.098018522;0.764756757;-21.6294233;1.879469436;-32.61240253;12.20184326;-37.48976288;-19.24431521;-15.65510764;-6.804153014;-4.046665313;-7.943541529;5.804208882;0.059376101;0.279579597
7.18421233;1.907483763;5.544442371;7.443295512;4.177765284;-0.185277907;-19.41211952;2.022072849;-43.06742355;9.174389226;-37.56953757;-18.85776029;-15.79583508;-8.613661904;-10.45847023;-10.220906;4.853206239;-1.093999406;-0.847533469
5.307983712;0.786398756;0.78750447;5.66214361;3.399116839;-0.602267994;-14.55801808;5.043705953;-37.40437884;9.516587479;-32.49043229;-14.09125376;-11.19086864;-7.187286942;-7.378361995;-7.749191999;4.489844815;-0.921787504;-0.882435397
4.447276427;0.846634348;-1.470443848;6.201749333;2.839667522;-0.057401488;-11.46255395;8.272689818;-22.68953027;12.25842878;-25.22714156;-7.618618323;-5.649429744;-2.86189979;3.473614985;-3.1889073;5.131732322;0.080392869;0.184731462
4.202518117;1.085536138;-1.546653886;7.451996426;1.880043945;0.91705894;-12.67924183;8.734097878;-10.01904835;14.55489137;-21.46224349;-4.252476218;-3.481824663;1.964937149;15.00691733;-0.678162634;6.470973743;0.673179873;1.336847714
3.88574346;1.104537133;-0.87070634;7.396637862;0.132040656;1.324932447;-16.72574539;5.888399601;-5.95578943;14.24575034;-25.12204982;-7.347509632;-6.135619183;4.523102976;19.93701553;-2.202268926;7.794953122;0.117454248;1.490489837
3.434768236;1.608519605;-0.411338805;5.571629046;-1.762738536;0.621194512;-19.66740414;2.21819766;-8.600415329;11.79399715;-34.99590083;-16.02219405;-11.4951456;3.629872497;15.8111321;-5.965797908;8.635274344;-0.915060237;0.492894897
3.623522329;3.674698514;0.167296325;3.608902547;-2.360465418;-0.786043347;-18.87149942;1.185908845;-10.88747279;9.978011995;-45.27866744;-25.49651366;-16.08333355;0.399688208;6.26937386;-8.07481369;9.120219998;-0.738400314;-0.742860447
5.291037355;7.444115763;1.883408294;3.869146372;-0.599773085;-1.881705054;-15.39901875;4.354643975;-7.599933134;11.58694331;-49.72590519;-30.40732299;-17.93062904;-2.755208063;-2.010693204;-5.941311385;9.719426022;1.838107108;-1.074004685
8.291581367;11.49210589;5.029755705;7.334070101;3.083209556;-1.907616409;-12.87425713;10.10821468;0.141688726;17.01529584;-46.17542832;-28.58359822;-17.59467097;-3.92290394;-4.06813178;-0.42264295;10.66479566;6.18449951;-0.171242318
11.21974072;13.59444802;8.415058941;12.57525581;6.782705695;-0.974110299;-13.98508411;14.95995064;6.489915767;23.72635748;-37.90404867;-22.39286941;-16.77316312;-2.846422361;0.399431283;5.051221047;11.64175466;9.992634145;1.172208751
12.32084051;12.37860307;10.08900583;16.70062909;8.419892884;0.091147672;-17.92437977;16.25196346;6.679602676;28.03095574;-30.86575057;-16.70553142;-16.19673269;-0.669905832;7.648604791;7.433847842;12.07855124;10.96022047;1.740475386
10.91165652;8.514052209;8.984525204;17.50836845;7.314211123;0.475511812;-21.13690058;14.00636351;1.642735408;27.78212683;-29.13289609;-15.17175593;-14.95554817;1.268945854;13.04119224;6.452758015;11.77069103;8.703088673;0.977039474
8.093470453;4.40327972;6.000524013;15.0859746;4.737914499;0.024217956;-20.63268004;10.57510887;-2.652410511;23.90360567;-32.14884484;-17.724873;-11.8115133;2.451506531;14.13873186;4.453785711;11.22218583;5.261310782;-0.508762307
6.064815954;2.546038061;3.477566818;11.59670233;2.969109851;-0.744155275;-16.76907645;8.633427067;-0.49417903;19.63951082;-35.74167871;-21.09818876;-7.020039063;3.205560369;11.69473658;4.051907511;11.31268303;3.662722686;-1.446673589
6.512581566;3.841319123;3.42303568;9.519880365;3.587215803;-1.192775569;-12.93951623;9.293753736;8.258585804;18.18799465;-35.74801103;-21.68507636;-2.688817417;3.943055756;8.375044807;5.806057924;12.51997332;5.632508905;-0.963926264
9.365665053;7.142089095;5.967900762;9.838724389;6.360491805;-1.140223695;-12.4868996;11.74163031;17.38190654;20.53829316;-31.15800764;-18.32093194;-1.165358542;4.487773949;6.613126938;7.939807899;14.3786739;10.29867462;0.728708133
12.92334703;10.35266536;9.369774749;11.59570937;9.559666456;-0.940277558;-15.69699008;14.33874341;18.72051949;25.03180545;-24.40249628;-12.863626;-2.92326388;4.175544001;7.220822778;8.183436457;15.71028349;14.95749128;2.591197558
15.23946466;12.12413554;11.55116679;13.00628805;11.35825556;-1.053245045;-19.60572955;15.98067593;8.322401569;28.77155487;-18.95723108;-8.393347759;-5.98930737;2.591895055;9.412589;5.940605813;15.51605063;17.2669212;3.675291254
15.61494254;12.77690389;11.84158895;13.04258176;11.1476001;-1.563368424;-20.73887827;16.57312367;-10.45553997;29.67202735;-16.57070291;-6.740700871;-7.559189971;0.17785043;11.76975473;2.824908476;13.83185833;17.05601295;3.872333481
14.99422453;13.77634618;11.43399337;12.13885494;9.766820075;-2.108135054;-18.23339628;16.52479219;-29.04382083;27.65440197;-16.40785752;-7.371004798;-6.393785526;-1.932047165;13.22523426;1.189804238;11.82599454;16.27213507;3.846405654
15.00507297;16.28802921;12.19798497;11.55657875;8.610058594;-2.258869427;-14.50429998;16.0590014;-39.14071837;24.31953798;-16.47838001;-8.306270426;-3.813554445;-2.732829475;13.4781005;2.077480025;11.01243208;17.15179032;4.26953916
16.50662131;20.04489003;14.91314055;12.12372079;8.468097252;-1.954153354;-12.92517874;15.10710276;-37.52937976;21.59813232;-15.72185107;-8.031066368;-2.366213439;-2.094409754;12.83511876;4.428909237;12.16716029;20.17555968;5.097980861
18.86989148;23.43299572;18.46012695;13.50321936;9.057203861;-1.554114273;-14.72268392;13.75125141;-27.16420039;20.48;-14.78259603;-6.672675689;-3.385234843;-0.761200681;11.8048843;6.155995383;14.77846529;23.52482358;5.563833195
20.54173291;24.67682817;20.64891639;14.54941145;9.49169179;-1.469985889;-17.94151163;12.53251174;-14.45225887;20.63572385;-14.95279256;-5.588039367;-5.701314719;0.366618937;10.73695531;5.994308357;17.43588036;24.49094184;4.884951316
20.350674;23.14782688;19.95010894;14.30490213;9.138935938;-1.744767969;-19.36680619;12.10679904;-5.154068698;20.95554669;-16.53228032;-5.950107332;-6.732935705;0.983234794;9.634015615;4.455805037;18.82583995;21.6762414;3.037959272
18.43547761;19.79235049;16.65874609;12.69808909;8.066409075;-2.008524849;-17.55811092;12.50783965;-1.65949037;20.42248633;-18.31073733;-7.697978068;-4.996264468;1.463878088;8.17581012;3.136722116;18.5582655;16.20309592;0.88503929
16.06336331;16.4208787;12.56196463;10.40127091;6.772819125;-1.86266596;-14.17160335;12.8198411;-2.829827818;18.68588904;-18.69073603;-9.719816199;-1.734666015;2.238670588;5.959390447;3.156133121;17.23793585;10.98544744;-0.470827612
14.56826588;14.463766;9.478706626;8.140909354;5.583345388;-1.319926858;-12.38191234;11.76440965;-5.711495322;16.09223531;-17.33557005;-10.94715009;-0.110014648;3.095989088;2.862083617;4.202199491;15.82694571;8.676377438;-0.541405174
14.33701678;14.11198544;7.945553725;6.203647058;4.345857618;-0.855848764;-13.90767526;8.815780841;-7.584475427;13.34341616;-15.69924161;-11.26838671;-2.56932194;3.146048946;-0.710410821;4.982073056;14.88285414;9.89977134;0.21700083
14.64590894;14.36764973;7.091604433;4.566214938;2.704070459;-0.989059584;-17.40521509;4.849663839;-7.195832334;11.09730969;-15.8486568;-11.45220251;-8.652834642;1.567617381;-3.936601755;4.531567991;14.27878537;13.05063587;0.859968535
14.37902126;13.83020449;5.654996966;3.366137572;0.634810263;-1.76429962;-19.69415101;1.645637844;-4.896986938;9.711446997;-18.60894157;-12.25106516;-15.16279122;-1.493416549;-6.053813206;3.107130927;13.54655546;15.6605393;0.770457601
12.94523934;11.5975247;3.143996982;3.06063483;-1.313824971;-2.629969786;-18.65769897;0.56555528;-1.998256034;9.16260092;-22.73057691;-13.59003906;-18.57843357;-4.713240311;-6.855420254;1.874441259;12.45564838;16.16130106;0.119091098
10.64069839;7.724835238;0.142224652;3.969556493;-2.345954005;-2.858811408;-15.14482517;1.504767771;0.185309783;9.104833655;-25.87235262;-14.59782831;-17.68904792;-6.361012256;-6.772485564;1.779630274;11.28818862;14.72936099;-0.396286812
8.262473906;3.086325858;-2.379508396;5.615209991;-2.024888535;-2.16398591;-12.1582493;3.02117457;1.138073704;9.038116463;-26.55277902;-14.41208077;-14.29030528;-5.509548047;-6.419786991;2.711473781;10.58415041;12.75383204;-0.248035228
6.422130566;-1.140636586;-3.987910329;6.621901475;-0.619815163;-0.969154257;-12.11887336;3.534617152;1.382838689;8.54977862;-25.34751247;-12.98926842;-11.50465612;-2.741975546;-5.99035487;3.702547388;10.60948896;11.55264391;0.43418465
5.17978168;-4.027828666;-5.063565205;5.516278781;1.109070647;-0.083626554;-14.7310207;2.56489825;1.959158845;7.532378872;-24.29044888;-11.18964451;-11.28500026;0.209428919;-5.092016246;3.889330913;11.02973934;11.40730183;1.005452339
4.236569965;-5.240834875;-6.233467588;1.916174714;2.483937236;-0.053321689;-17.36537561;0.974724305;3.445284861;6.250564721;-25.04067483;-10.09923114;-13.20319002;1.617287054;-3.263020293;3.26511032;11.08;11.56033211;0.908662542
3.394009153;-5.080991971;-7.579238058;-2.894226759;3.343375407;-0.739715182;-17.53386828;0.092250337;5.306172269;5.202340046;-27.45193181;-10.21741612;-15.33430093;0.834525357;-0.741549332;2.537529965;10.09846758;10.99479732;0.166969239
2.799510293;-4.236966331;-8.420411553;-6.617268841;4.004703374;-1.473389876;-15.13453435;0.5660268;6.262093574;4.861497242;-29.77669665;-11.19032095;-16.17785496;-1.463382672;1.288337909;2.316462428;7.998930017;9.286416687;-0.673886232
2.77297345;-3.351123128;-7.887147194;-7.44222005;4.86245924;-1.626365573;-12.42077475;1.969007547;5.552810311;5.470318922;-30.2535915;-12.22081135;-15.79444015;-3.934378402;1.387005608;2.491477328;5.325165993;6.914798377;-1.069829594
3.438159121;-2.616136084;-5.733538322;-5.260642895;6.025320378;-1.098705461;-11.79586674;3.405584045;4.022424595;6.990243395;-28.62044012;-12.69312697;-15.26856495;-5.523414171;-0.944870997;2.411603775;2.87236106;4.922958899;-0.963148507
4.546599155;-1.672425818;-2.626877823;-1.637282278;7.290039063;-0.320812281;-13.53681848;4.431081281;3.831728381;9.171493671;-26.2322437;-12.4547236;-15.25784048;-5.993261344;-4.576069844;1.633677116;1.184991705;4.256098276;-0.779970814
5.653419487;0.047952945;0.337829268;1.431777692;8.388394052;0.180969133;-15.57024011;5.354592775;6.686556347;11.62072478;-24.76987327;-11.62607971;-15.18449496;-5.761323797;-7.295797597;0.41904725;0.296126502;5.207014871;-0.961906835
6.440730064;2.695176732;2.416554496;2.959721455;9.192442993;0.234007489;-15.47710555;6.660332037;11.96098765;13.81211652;-24.78246457;-10.29104834;-13.87724111;-5.348439989;-7.347176996;-0.581597632;-0.150807044;7.215064588;-1.489968412
6.853150428;5.546291398;3.558543264;3.457258523;9.659450715;0.089767986;-12.82386975;8.185429079;16.57521202;15.12214516;-25.38390581;-8.476237692;-10.96957018;-4.967233783;-4.791862573;-1.167107219;-0.554344301;9.05;-1.861822887
6.92917229;7.160219407;4.043533461;4.141477227;9.618234121;0.098908529;-9.629781551;8.95254313;17.22681377;15.00471903;-25.29961312;-6.434557369;-7.580478123;-4.527696633;-1.573733634;-2.070281006;-1.073998703;9.29798987;-1.556901491
6.546514384;6.181962404;3.857071828;5.616427167;8.702090818;0.33939813;-8.528598915;7.919438766;13.41652324;13.28917027;-24.20532255;-4.839876129;-5.495077162;-3.914770162;-0.141405597;-4.485632596;-1.604435508;7.002868872;-0.564942906
5.404184531;2.303724892;2.512986761;7.191921142;6.600688413;0.561576827;-10.32859033;4.98789887;8.565590059;10.3980991;-23.06988541;-4.521964413;-5.550337743;-3.192476048;-1.657229162;-8.948960067;-1.964400385;2.219319445;0.51654158
3.325393042;-3.333301346;-0.416325894;7.423129848;3.458823741;0.484684478;-13.2307465;1.304678021;7.707017942;7.253151673;-23.18923767;-5.829628051;-6.771254469;-2.544374422;-5.17398232;-14.55971216;-2.099097804;-3.839109261;0.928623694
0.613900576;-8.681854144;-4.54251297;5.392149365;0.039066032;0.13113821;-14.43112974;-1.49449143;13.09226433;4.845210586;-24.84430896;-8.157293737;-7.160535807;-2.062016366;-8.382085778;-19.31674038;-2.11485439;-9.260890589;0.366508562
-1.9170719;-11.97434455;-8.472797692;1.627088536;-2.583372862;-0.148748767;-12.63906152;-2.469921265;21.24548644;3.733814946;-26.86820999;-10.13831066;-5.49629083;-1.631675833;-9.271609612;-21.38;-2.127594806;-12.362134;-0.765940374
-3.367526535;-12.73594972;-10.53864575;-2.121862781;-3.628383244;-0.001078215;-9.211501029;-1.952440082;24.40095394;3.83820514;-27.55324985;-10.4728887;-2.493943016;-1.036633917;-7.377949539;-20.24354622;-2.072431421;-12.55798301;-1.681205394
-3.3421357;-11.9049992;-9.955599186;-4.065576415;-3.073335494;0.568123887;-6.886065726;-1.022976467;15.95992891;4.665425966;-26.07710999;-8.785999072;-0.212187833;-0.157532327;-3.734566425;-16.87257758;-1.663704536;-10.59883281;-1.832802531
-2.242507877;-11.0027647;-7.467781041;-3.565128762;-1.618752124;1.152264878;-7.29433323;-0.424167691;-3.889911196;5.757212241;-23.14910996;-5.833407087;-0.186659975;0.933245043;0.201461362;-12.77168552;-0.585092598;-7.98629997;-1.31330414
-1.00900465;-11.00881216;-4.891753258;-1.427044408;-0.202693742;1.288647168;-9.530632635;0.052978932;-26.93955392;6.955352899;-20.31096222;-2.891963579;-1.98783658;2.052257609;3.577640579;-8.871260603;1.192875151;-5.985790346;-0.710534463
-0.499132182;-11.79048065;-3.871585353;0.819807667;0.545349825;0.879956037;-11.05436139;1.137610623;-41.63559703;8.269089774;-18.57886024;-0.842931537;-3.572943356;3.036189829;6.264180633;-5.216046167;3.197557836;-4.969975954;-0.576520395
-0.971645592;-12.45458191;-4.813314737;1.990991266;0.52357114;0.297024646;-10.05670463;3.055990177;-40.63633986;9.524447146;-17.71122085;0.305464486;-3.186365993;3.761765522;8.167615748;-1.630258032;4.546709773;-4.555784305;-0.977751311
-2.0358422;-12.23963142;-6.806720592;1.82098956;-0.013708992;0.052978136;-7.104155646;4.971025881;-25.75396415;10.21252338;-16.76893719;1.11519407;-1.110965404;4.049921869;8.637518187;1.415195817;4.374887159;-4.327573967;-1.493976469
-3.035173809;-11.16763516;-8.506999324;0.748738834;-0.753476662;0.337546512;-4.572442994;5.527058035;-6.558016422;9.784801845;-15.38066016;1.979425154;0.373714652;3.62267639;6.736508571;2.708940192;2.384192106;-4.437050562;-1.628371588
-3.509065325;-9.93846259;-9.170595192;-0.683899447;-1.447495004;0.839732742;-4.431122683;4.080569467;6.336346089;8.197523298;-14.41773297;2.651693455;-1.089598204;2.263117808;2.233934649;1.212851199;-0.827512114;-5.492426646;-1.249636381
-3.381125533;-9.225341885;-8.986861985;-2.185128069;-1.820841193;1.030590121;-6.437680732;1.47966599;8.266797853;6.19682346;-15.31054381;2.475745993;-5.752809417;0.110193041;-3.628691165;-2.785052861;-3.929017509;-7.814813643;-0.692562493
-2.812557781;-9.029106844;-8.535164028;-3.563026123;-1.492345917;0.65563017;-8.389483499;-0.415525317;2.706466031;4.983847164;-18.54131098;1.101509739;-11.23864623;-2.185081099;-8.470513739;-7.377787355;-5.493257916;-10.76724945;-0.463238612
-1.948747535;-8.658618765;-7.987308102;-4.391662469;-0.127639434;-0.0136157;-8.170296662;-0.164224353;-2.590640266;5.418073213;-22.7234664;-0.97076252;-14.21429609;-3.674374685;-10.13344596;-10.03566565;-4.769010631;-12.86897802;-0.827912088
-0.821190623;-7.333969106;-6.860371838;-4.01067242;2.232422538;-0.408278403;-5.689761763;2.071840083;-2.03343625;7.359609122;-25.2748272;-2.533953254;-12.91544204;-3.635089864;-8.055971758;-9.223551397;-2.107582483;-12.74562256;-1.627098611
0.54640008;-4.873245853;-4.561993986;-2.014417705;4.985914877;-0.175271792;-2.943294224;4.629415333;3.940663109;9.70067383;-24.31112855;-2.434809823;-8.435416072;-2.040366384;-3.561609724;-5.40770819;1.25358788;-10.19557405;-2.426973801
2.002587007;-1.881979742;-1.194858404;1.171188376;7.196841384;0.485378057;-2.167595912;5.662992637;10.2778552;11.09869654;-20.23936288;-0.369434461;-3.745353998;0.400112732;1.15035295;-0.68232942;3.934360396;-6.468138792;-2.831355622
3.289531653;0.676901841;2.183733783;4.226498295;8.15323108;0.969707673;-3.806281534;4.557899922;12.25300241;10.8479197;-15.66500551;2.881352356;-1.328509208;2.687587593;4.459462974;2.668280368;5.197575761;-3.453930972;-2.685589198
4.213652839;2.126076658;4.171106508;5.611479188;7.835626181;0.783993337;-6.140880554;2.250845539;9.506845062;9.217661026;-13.58134927;5.910097656;-1.430928169;4.136915374;6.072305716;3.563158434;5.249898232;-2.389177013;-2.057098047
4.775838468;2.390819079;4.029375382;4.551897827;6.888437398;-0.024688475;-6.886442448;0.258094264;5.88667852;7.046109152;-15.24126449;7.451582927;-2.311840472;4.676840889;6.618872157;2.492689028;4.874791782;-3.095189981;-1.097678857
5.10032509;1.801046165;2.244401076;1.58665108;6.081533106;-0.898551739;-5.25430349;-0.653570259;5.603399273;5.004825619;-19.39101688;6.928340347;-2.109786549;4.650730085;6.685723906;0.753390736;4.707850913;-4.334160939;0.035541348
5.218603972;0.669392056;0.151781816;-1.776889357;5.693489688;-1.2315856;-2.595086374;-0.960580624;9.323997289;3.187564873;-23.42680314;4.513894361;-0.590547861;4.344073728;6.280284123;-0.705386228;4.731441415;-4.931001283;1.145110335
4.944470123;-0.90470684;-1.058563138;-4.06103185;5.337011754;-0.85997529;-1.078786462;-1.678416245;13.64803282;1.326548323;-25.46884285;0.854560686;0.741006022;3.681960091;5.158461389;-1.909051864;4.383560734;-4.691550809;1.951268785
4.016915417;-2.846118711;-1.134774995;-4.724364232;4.379315755;-0.161328713;-1.677043268;-3.220969325;14.29393117;-0.663259774;-25.65360211;-3.23805854;0.158348775;2.363080892;3.505929547;-3.590248033;3.171563934;-4.372937651;2.17094842
2.422977775;-4.808317679;-0.736868596;-4.328650858;2.595381519;0.304038153;-3.317210559;-4.951427145;10.06451903;-2.401628825;-25.67340815;-6.953956109;-2.590335649;0.289178541;2.087422792;-6.377510123;1.253585449;-4.821077611;1.701677782
0.595576059;-6.187976537;-0.701114418;-3.921946487;0.483522278;0.277101414;-3.950892948;-5.835646617;4.071198519;-3.324263948;-27.08075348;-9.580180382;-5.955263779;-2.12539464;1.554585042;-10.11880472;-0.541231851;-6.114172353;0.743197951
-0.756186665;-6.553192864;-1.292273903;-4.191658985;-1.039638654;-0.016587344;-2.496662425;-5.51189391;1.16863018;-3.248838675;-29.85;-10.66319696;-7.895296332;-4.080680437;1.566438617;-13.81302158;-1.321246203;-7.499175875;-0.293685014
-1.109295753;-6.114968639;-2.086603951;-5.051985378;-1.314345226;-0.126447228;0.164774426;-4.679540184;3.848560726;-2.642315446;-32.37419954;-10.22703922;-7.616651158;-4.894216102;0.737074313;-16.17381968;-0.886798424;-8.142972485;-1.050780538
-0.514675996;-5.715396841;-2.515053211;-5.905285193;-0.422466643;0.174629833;2.044070222;-4.393445162;10.11571227;-2.286197946;-32.81454335;-8.863320319;-6.175143314;-4.498011312;-2.266290466;-16.50962213;0.026802502;-7.949858719;-1.435683288
0.438080829;-6.176415489;-2.498404974;-6.251401058;0.899316626;0.660839149;1.909789915;-4.974742733;15.11492787;-2.639739027;-30.62561793;-7.529157359;-5.424661989;-3.550723161;-7.313129468;-15.47706144;0.29515825;-7.633938511;-1.582261375
1.08443512;-7.464252163;-2.557467241;-6.087180771;1.803541101;0.838809331;0.405692988;-5.697702369;15.09777956;-3.529967417;-27.03304464;-7.107808486;-6.281294877;-3.089769803;-12.43370854;-15.26184343;-0.639534046;-7.943805998;-1.588544447
1.204806419;-8.420192916;-3.297661318;-5.792035653;1.856675327;0.370481559;-0.61209206;-5.684870664;10.43075731;-4.494238875;-24.18081426;-7.995069396;-7.872701288;-3.975864803;-15.0725248;-18.83780825;-2.180213647;-8.766623656;-1.296730912
1.16117079;-7.45481474;-4.75480954;-5.66729758;1.150888421;-0.639957598;0.135331253;-5.179658524;5.250112588;-5.42410284;-23.71643267;-9.965654286;-8.344869214;-6.47297491;-14.11154309;-28.29413966;-2.911054079;-9.009603648;-0.378001761
1.534088121;-3.821026508;-6.211020316;-5.569204744;0.029767191;-1.726551568;2.139115279;-5.800987096;4.15570198;-6.77578732;-25.88134164;-12.35586132;-6.629134573;-10.13924279;-10.94814186;-42.86593117;-1.703840002;-7.47747553;1.287848854
2.583626079;1.495697177;-6.654369259;-4.946926153;-1.202642152;-2.409676381;3.618412237;-9.18479446;8.624745347;-8.967549958;-29.5979296;-14.38243818;-3.623223683;-13.98151695;-8.539463725;-57.92815897;1.217316372;-4.027473264;3.262163461
4.019577965;6.07623147;-5.481524431;-3.228879072;-2.280851084;-2.498757382;3.272262793;-14.97805194;15.8384671;-11.4264389;-33.22056722;-15.39609196;-1.731452411;-16.74832837;-9.025128234;-66.17352199;4.128030013;0.051811606;4.604974723
5.292137149;7.517791705;-2.854730017;-0.232531517;-2.763271269;-2.119528252;1.600643227;-20.05217042;20.57544646;-12.29053343;-35.27579798;-15.02053936;-3.091068899;-17.30443871;-11.87101409;-61.09397017;4.816939124;2.876980491;4.418474517
6.137153322;5.08585752;0.527812634;3.690968691;-1.9879503;-1.510574668;0.517142608;-20.07359147;18.56174673;-9.400729911;-34.82517044;-13.25248666;-7.895636408;-15.07434495;-14.19638656;-41.16673492;2.127796561;3.400573557;2.52470905
6.859240244;0.366822523;3.956457516;7.813464654;0.534768547;-0.828903343;1.573736037;-12.64456843;8.925478385;-2.108494547;-31.58287541;-10.54255973;-14.12560266;-10.43870055;-13.16312281;-12.04291541;-3.059366848;2.242033458;-0.261358556
8.052896428;-3.628300719;7.024602857;11.31211828;4.496305152;-0.144718831;4.436541378;0.311656503;-5.550478551;7.49705269;-26.05245615;-7.721893675;-18.85232291;-4.810150405;-8.485180454;15.2978795;-8.163606763;1.179289116;-2.549571504
9.972169285;-4.356711214;9.514627331;13.49897406;8.510360587;0.42648079;7.055529865;12.99159428;-20.02311303;15.17869647;-19.63415555;-5.62139035;-20.08042952;-0.142090236;-2.868148598;30.04679348;-10.40369613;1.68841504;-3.24551956
12.11248447;-1.345146115;11.11624478;13.96401997;10.62663763;0.663909679;7.427738879;19.02613756;-29.7710627;16.90433944;-14.34587254;-4.473010054;-17.78893744;2.046055384;0.156545564;27.66724933;-8.487388634;3.752553242;-2.258835703
13.43169068;3.601403373;11.42052297;12.69535434;9.470584735;0.382267674;5.380439755;15.47016436;-31.9318137;11.45169083;-11.96404166;-3.504526416;-13.57049288;1.602834082;-0.69845973;12.65501219;-3.369728059;5.959236595;-0.522687035
13.10160614;7.705698297;10.32250439;10.18040041;5.243048237;-0.335052853;2.758358734;4.622918763;-26.44036203;1.347068793;-12.97411732;-1.183132232;-9.35340876;-0.041321131;-3.111823912;-4.125722902;2.399226565;6.810522505;0.693470332
11.1984003;9.105576639;8.461656817;7.365388214;-0.219905244;-1.064543597;1.834656581;-7.624472712;-16.12644661;-8.680078125;-16.14452792;3.846898173;-6.242972026;-0.683087813;-2.817282323;-12.05265454;6.26073781;6.111815847;0.663701221
8.739062625;8.016362882;7.150488991;5.344129996;-4.489272752;-1.274948366;3.368371263;-15.66931767;-5.809533366;-14.71680442;-19.25932042;11.69728577;-4.207219536;1.239494942;2.880757341;-7.058906966;7.097994062;5.206355356;-0.369946767
6.98046197;6.415694614;7.624561818;4.834933249;-6.014223268;-0.721430823;6.038172311;-17.4975402;-0.305664751;-16.02045993;-20.65060157;20.87843402;-2.561697905;5.567344215;12.56262071;6.468816796;5.64428753;5.796460099;-1.507783928
6.505577366;6.54843753;10.09174608;5.742296701;-4.99379501;0.32771577;7.720139305;-15.20272308;-1.94921707;-15.05955226;-20.40142005;29.08253;-0.667344643;10.47016155;21.30441729;19.28817555;3.702437637;8.326007256;-1.945828201
6.817772046;9.335220691;13.37117937;7.145456757;-3.057163758;1.25473077;7.407814792;-12.73156968;-9.065509886;-15.34747256;-20.19890612;34.66951614;1.693012979;13.64061243;24.14774454;23.69796263;2.822050464;11.333227;-1.562097425
6.772058087;13.75971605;15.54480485;7.805555458;-2.052222678;1.541623874;6.021359134;-12.86814137;-16.7783961;-18.80772902;-21.84638356;37.77783041;4.353038627;13.8;19.80113297;18.27207003;3.363907908;12.42091063;-0.901029848
5.505012148;17.56988498;15.24247081;6.900600463;-2.87642267;1.14078348;5.409041826;-15.73765173;-20.12898447;-24.64262589;-25.58510116;40.16364052;6.957847202;11.4399187;11.68431834;7.940349617;4.511008447;10.14633104;-0.627328862
3.12721454;18.72494225;12.61069682;4.495555304;-5.163911579;0.456508835;6.521862644;-19.60228868;-17.56987414;-30.37475663;-29.63032264;43.82380776;9.074734114;8.304088206;5.478045254;-0.096081335;5.083849821;5.324874501;-0.937214824
0.638034481;16.58635768;9.193847452;1.42567617;-7.900915868;-0.038800759;8.493224665;-22.81967697;-12.1573627;-33.99310933;-31.39121914;49.44624272;10.23504326;6.075596054;5.066736857;-1.311350412;4.496920673;0.656768062;-1.414213071
-0.850944708;12.13711955;6.787825146;-1.298135466;-10.31459023;-0.20858074;9.495613055;-25.11105037;-9.192187037;-35.37358877;-29.44605578;55.92057722;10.07878488;5.309686822;9.975423534;3.798264748;3.18439612;-1.097079278;-1.422816888
-0.951700354;7.243650554;6.148396273;-3.102567672;-12.26357712;-0.314969606;8.576796701;-27.19427438;-11.83998403;-35.91343897;-24.66417187;61.31675424;8.651691083;5.390478922;16.16192033;11.09296297;2.266943277;0.987734187;-0.686398076
-0.233264761;3.592704974;6.565032668;-4.038974669;-13.90279218;-0.691471457;6.743566137;-29.42864629;-18.16835545;-36.89667443;-19.52436116;64.53901805;6.650390971;5.418766736;19.37235618;16.22169995;2.76942441;5.464625258;0.440588757
0.311783193;2.024649184;6.621080519;-4.465565225;-15.08593947;-1.339004887;6.227760547;-30.95781368;-22.25085532;-38.14027905;-16.16443824;66.28302132;5.321349843;5.188440021;18.34407556;17.32283375;4.957137663;9.708357917;1.228669902
0.120690218;2.553116302;5.50377719;-4.557823234;-15.18951136;-1.84048444;8.532470214;-30.25800161;-18.82345455;-38.1277592;-14.76594084;68.47570436;5.928371591;5.394034307;15.4291924;15.34763859;8.204038555;11.86725265;1.14573313
-0.453518362;4.797564992;3.782104011;-4.097570501;-13.61070455;-1.70539955;12.99648947;-26.6168151;-7.892435504;-35.47928413;-13.60947303;72.6294084;9.050775054;6.918992607;14.37557406;12.48284069;11.40477178;12.07062615;0.288028184
-0.406197292;8.308045861;3.000343569;-2.724931002;-10.5121383;-0.854614964;17.18814748;-21.16037402;4.636099648;-30.43384358;-10.73472184;78.45693558;14.15868205;9.864968512;17.22873236;10.40477944;13.59798899;12.03120859;-0.661895835
1.110837118;12.49329642;4.391377626;-0.421598516;-7.081517957;0.199940789;18.82592209;-16.40456294;11.23576805;-25.01830192;-5.782657233;83.90154496;19.77003906;13.20633516;22.8478977;9.664076051;14.39750401;13.45324214;-0.907018055
4.051880656;16.3391073;7.725681835;2.217702543;-4.936048897;0.683376376;17.57564327;-14.5786055;8.800911881;-21.70857787;-0.440638767;86.58880825;24.13424124;15.41392839;28.05847808;10.11890603;14.02619069;16.5396149;-0.077788667
7.356342415;18.39076311;11.21743262;4.200972889;-5.032992477;0.156935902;15.19622016;-16.02874363;1.523500023;-21.65673129;2.904355816;85.56015103;26.07390853;15.56261859;30.29890032;11.44310593;13.03175042;19.73325192;1.537959306
9.527791798;17.29678742;12.59865361;4.716348573;-6.920617661;-1.101631186;13.96984451;-18.96125451;-2.096656915;-23.89924205;3.173886026;81.94651976;25.5441359;14.02631466;29.53190373;13.07003906;11.92904699;20.82314913;3.201197204
9.507583614;12.69075074;10.59401589;3.647187531;-8.958467568;-2.264544077;14.83369523;-20.70992055;3.856187201;-26.13395505;1.564667441;78.12409217;23.6364542;12.20651075;27.96215795;13.92648107;10.98075441;18.52104673;4.174063564
7.269487786;5.759384872;5.754126273;1.646024303;-9.401308398;-2.549983159;16.81748396;-19.54114856;17.27387031;-26.39457036;0.637163443;76.09536984;22.0293359;11.52763089;27.97401314;12.76898265;10.1730288;13.34148545;4.096075847
3.792966251;-1.084728552;0.105657438;-0.271258735;-7.569454809;-1.77872875;18.16271732;-15.68103815;28.60996728;-24.30952784;2.262527108;76.36099999;22.13360187;12.49581883;30.09490751;9.290909194;9.310721266;7.225625283;3.077177724
0.493858424;-5.41221047;-4.072309874;-1.299443721;-4.259754586;-0.46147533;18.0005256;-10.94395982;27.50886516;-21.07564645;6.118924685;78.0146452;24.32911202;14.50763746;32.62812136;5.073782475;8.136323163;2.293647881;1.532976247
-1.501309086;-6.153006332;-5.482815156;-1.189999137;-1.133244723;0.623462477;17.04314487;-7.412142628;10.68;-18.35319211;9.969906557;79.73802422;27.6935965;16.44725405;33.13576307;3.146294052;6.441243289;-0.338350963;-0.057592277
-1.828564859;-4.185187906;-4.298108547;-0.196505433;0.423956666;0.997369828;16.73134685;-6.199228901;-14.98854929;-17.07379328;11.48238976;80.72779996;30.43732345;17.49861708;30.4591255;5.94018319;4.188626744;-0.927186246;-1.309922375
-0.912406882;-1.661837303;-1.740973025;1.230831101;0.123503971;0.74457605;17.72517379;-7.070713398;-36.60607079;-17.05437336;10.08683903;80.85033965;30.8902942;17.52233114;25.62977575;13.00900964;1.636926635;-0.58352043;-1.974455002
0.38201284;-0.500769911;0.798496888;2.701704091;-1.255054691;0.310550459;19.19631625;-8.943618198;-43.76281885;-17.52401641;7.377629986;80.15485297;28.50612183;16.81308575;21.02236661;20.51047882;-0.624116864;-0.391980717;-1.932702323
1.234993828;-1.108494946;2.482864924;3.918329331;-2.605455338;0.066006115;19.5859729;-10.7054114;-35.10639098;-17.92980174;5.771550667;78.46079347;24.23154856;15.60886651;18.5333344;23.33534066;-1.834920982;-0.811253534;-1.216079072
1.253401874;-2.271685216;3.22279684;4.569501658;-3.302317535;0.029890262;18.10349303;-11.75948532;-18.3470184;-18.29080492;6.556815081;75.54662436;19.92918769;13.87863225;18.27633225;18.63676521;-1.430134279;-1.643453715;-0.034068339
0.599508975;-2.281363463;3.415429721;4.318241035;-3.466651853;-0.041541909;15.55272348;-12.08385304;-4.09094105;-18.89644002;8.919289817;71.74283025;17.19097619;11.5739692;18.77277007;8.147924631;0.570291214;-2.402218309;1.257815524
-0.153764927;-0.402622767;3.546542397;3.011352625;-3.575159359;-0.334614842;13.70409934;-11.96680902;1.544422684;-19.75457305;10.69612209;68.21905031;16.37815834;9.044018728;18.38213207;-2.640510876;3.423799058;-2.698002798;2.28590281
-0.353147986;2.479484256;3.933081742;0.97816513;-3.827504195;-0.750469055;13.77527265;-11.68723195;0.043532428;-20.35456871;10.20492225;66.48170479;16.62099091;7.138802763;16.77051812;-8.032522565;5.961377009;-2.384796444;2.825226634
0.378387806;4.564054371;4.671334216;-0.888914213;-3.839882564;-0.976737536;15.39422746;-11.29633006;-2.445417681;-19.95385757;7.671713103;67.36488854;16.79107574;6.811392534;15.25465303;-5.851853919;7.212211824;-1.48627537;2.890956563
1.930783509;4.629348479;5.692967859;-1.483641754;-2.929800417;-0.774549071;16.9644137;-10.54986176;-1.056874214;-18.11329295;5.152719673;70.36228394;16.64795715;8.49719837;15.77395595;1.393233274;6.978167324;-0.085790681;2.681586958
3.750202479;3.098597256;6.821740256;-0.150987147;-0.765694861;-0.205329468;17.07242968;-9.029697273;3.939425939;-15.03409416;5.050767678;73.93572653;17.15263783;11.76874878;19.28744559;8.660335001;5.948146628;1.681522211;2.414177881
5.117289712;1.775440728;7.809997965;2.753758408;2.140239361;0.405707128;15.65802437;-6.474506782;8.297229739;-11.47901402;8.379105502;76.59935944;19.5919936;15.54690605;24.79635995;12.05659825;5.227129595;3.559128387;2.179894979
5.510581735;2.418458793;8.394229439;5.858466073;4.512079349;0.722269314;13.92925187;-3.192609355;8.466256978;-8.412268602;14.03645532;77.87827466;24.19387556;18.70214711;29.72072086;11.22850415;5.577770739;5.152421289;1.931220973
4.853572716;5.288964753;8.38663757;7.442415456;4.972558288;0.631456005;13.17621655;-0.237337456;5.369225637;-6.634290149;19.53187377;78.34316218;29.45476715;20.59933803;31.40497392;8.858986298;6.913780974;6.053259302;1.600211974
3.513469987;8.864656365;7.761024542;6.431504015;2.888759383;0.266405621;13.61985867;0.965085595;3.81724111;-6.55563686;22.54613827;78.76149761;32.91272685;21.2474392;28.77318869;8.062228911;8.428961619;6.05699719;1.233618003
2.071750773;10.98842617;6.674137978;3.096426647;-1.135330899;-0.164127997;14.33890957;-0.504421205;7.984923247;-8.070078125;22.22784654;79.21728566;32.90378603;21.07350552;23.07429483;9.998063437;9.27717132;5.320813516;1.013983929
1.021580361;10.55364556;5.409371731;-1.027039485;-5.447644477;-0.548631863;14.27426385;-4.197115087;16.87348148;-10.47896909;19.46144886;79.06943097;29.92669344;20.60514225;17.24994041;13.51418792;9.284312642;4.332182044;1.134107709
0.575416013;8.374231469;4.287585454;-3.982199232;-8.137728906;-0.885152185;13.31027411;-8.168775107;23.8706184;-12.56526634;16.13289725;77.79956417;26.43737495;20.30069816;14.3074112;16.67753516;9.125122577;3.68124511;1.624873103
0.674260365;6.537061083;3.599189384;-4.473666819;-7.990531963;-1.155683137;12.39946106;-9.901845901;21.21591107;-12.97788493;14.02706953;75.89396844;25.11945453;20.51272849;15.66119842;18.47201582;9.800168566;3.764463258;2.28947896
1.148443669;6.764012493;3.568395032;-2.496879316;-5.070495249;-1.23508795;12.6315875;-7.817553344;6.11119715;-10.88974975;14.0502945;74.7826878;26.94119072;21.40353663;20.39560874;19.07625891;11.80319652;4.594469205;2.818943191
1.887923006;9.1094051;4.317787943;0.860830877;-0.615935254;-0.968661253;14.15226367;-2.363674829;-16.29953796;-6.567853689;16.08470464;75.69651153;30.52708259;22.73617477;25.83603243;18.73190653;14.63388139;5.824231507;3.012509019
2.894568193;12.02441248;5.809048015;4.245125397;3.676928188;-0.364036629;15.96874573;4.155369933;-35.58111734;-1.381096906;19.33330277;78.37233222;33.31446345;23.72330244;29.04977713;16.68813765;17.0578086;6.961038736;2.926936093
4.18940089;13.6808367;7.785977949;6.860847016;6.549091657;0.303816992;16.83263617;8.975001892;-42.52885721;2.912401671;22.8134663;80.83865486;33.50274042;23.22561852;28.38303271;11.63507785;17.9311312;7.634367916;2.820914021
5.659428034;13.41785095;9.782181186;8.723037214;7.730158022;0.623921735;16.3703088;10.55307693;-34.89972766;5.196042594;25.73221284;80.68789507;31.18660884;20.37007813;24.17478336;3.467091469;16.95910534;7.760598588;2.922343333
6.977030694;12.11684649;11.23235931;10.23838096;7.854075866;0.349911487;15.39984152;9.370334765;-18.35605305;5.610972898;27.65656843;76.94804951;27.83380644;15.25458028;18.33317838;-5.358374248;14.81535863;7.526791496;3.201540017
7.681145501;11.25693878;11.65732939;11.56321889;7.859438435;-0.377345889;15.13866082;7.337381238;-2.234440381;5.274110901;28.51312873;71.03735939;24.74900539;9.191659591;13.15917792;-10.59991195;12.57092192;7.239710351;3.350438343
7.402214746;11.5372148;10.83829867;12.34956931;8.317291931;-1.096410514;16.0454642;6.327998396;6.544080041;5.305212625;28.48273544;65.93235329;22.03773668;4.176142429;10.20447955;-9.117791366;10.93750247;7.167579041;3.017159393
6.107312554;12.29712527;8.901582695;12.13488248;9.140583559;-1.355254265;17.38043593;6.952355359;7.085141635;5.943972126;27.85844547;64.11476187;19.05;1.818115913;9.810201307;-1.768364486;9.951213772;7.481397973;2.13405467
4.204357677;12.23237179;6.289574498;11.03386996;9.821245241;-1.045825663;17.89551943;8.398792722;3.54544579;6.481924383;26.94079149;65.88448702;15.80954922;2.431439959;11.42491364;6.271921986;9.306698522;8.297148647;1.074064178
2.407251675;10.735875;3.645444;10.05399163;9.942253924;-0.468480492;17.0124757;9.291457988;1.00809441;6.053331752;26.02201696;69.34887162;13.87624873;4.919165833;14.26545854;8.587968358;8.956728766;9.719347272;0.472579947
1.402684477;8.618842988;1.651323817;10.60043743;9.52669459;-0.075274226;15.39181565;8.774969876;1.725416826;4.584489153;25.43307261;72.03488188;15.48632675;7.548979004;17.75041687;2.136601082;9.344852955;11.78488704;0.800134972
1.495911659;7.501465921;0.846519627;13.41178051;8.956055038;-0.111637604;14.35902884;7.008053907;4.43104881;3.041730825;25.54426471;72.76489681;21.4108669;9.072774928;21.46201932;-9.976837437;10.9752953;14.31837122;1.981254253
2.453120969;8.35327563;1.454344573;17.73514237;8.572886076;-0.455485715;14.70967842;4.854582408;6.639019978;2.709703824;26.62178594;72.2855453;29.37179916;9.409984081;24.86585519;-19.85828576;13.66911905;16.84143739;3.355535735
3.655275975;10.46858223;3.27607158;21.50137085;8.35631892;-0.772592513;15.9862687;3.215295007;7.466151013;4.083072717;28.58045169;72.24740979;34.71299366;9.462189405;27.22237819;-19.69500515;16.23600767;18.69412869;4.048273494
4.480600608;11.85418262;5.728861553;22.55469632;7.985695567;-0.829665632;16.88614635;2.595555426;8.385646394;6.328215578;30.83223204;73.53108398;33.28777909;10.27563559;27.89408538;-6.905644084;17.02837282;19.37510123;3.518757491
4.669708539;10.81389885;8.059625722;20.13819364;7.244119515;-0.679125171;16.42778124;3.114991527;11.35568338;7.822590304;32.44056264;75.40580512;24.57121171;12.21344666;26.81428622;13.95479392;15.10559973;18.89248413;1.91018428
4.425872007;7.447897811;9.660349966;15.52712531;6.376053972;-0.561220699;14.82091511;4.687301947;16.14696058;7.373419562;32.5866363;76.20421209;12.52901018;14.72091083;24.65555735;33.81882695;11.12887112;17.83202688;-0.045800109
4.184776524;3.777013864;10.31780736;11.24872829;6.01273786;-0.634374379;13.26777937;7.011566871;19.42884886;5.126691049;31.0736938;74.8403496;3.318822264;16.7704247;22.45036029;44.44116129;7.182917835;17.01147456;-1.501906118
4.232583091;2.299563034;10.24272747;9.368087234;6.645321427;-0.79988487;12.89345275;9.36492327;16.70844952;2.416330271;28.48752153;71.78424109;1.318571287;17.57313435;20.89942528;42.9125367;5.492517157;16.91174272;-2.009858961
4.471230227;4.090048828;9.857464295;10.06209149;8.058115614;-0.792680289;13.77136904;10.56090376;5.801487819;0.677421772;25.8337349;68.63490611;6.33151048;17.01518977;19.91901417;32.61440364;6.888918401;17.30066552;-1.723080027
4.518230642;7.96077508;9.486968678;11.53870686;9.246040928;-0.455551028;14.89208001;9.39801946;-10.86828422;0.316637323;23.8612945;66.70020317;13.97822263;15.56340981;18.81708221;20.42245402;10.16121219;17.37403933;-1.175938178
4.057474541;11.36725935;9.163874578;11.37089895;8.994541191;0.064299529;15.05850037;5.451689516;-27.08032726;0.449445564;22.54883556;65.8605387;18.89169823;13.81133349;16.96190548;12.35236386;12.82840907;16.3557618;-0.841862412
3.140862138;12.33278837;8.665841542;8.249736897;6.752060529;0.394928045;13.88436055;-0.394394203;-36.37164494;-0.323044944;21.13996772;64.71261084;18.28149643;12.06253754;14.36936288;10.48662124;12.81872743;14.11255344;-0.816409823
2.165758758;10.85654154;7.724621236;2.853871147;3.129549032;0.245094049;12.03993426;-6.233152754;-35.91030022;-2.775911238;18.71632959;61.84195831;13.32360519;10.24351799;11.68911225;12.75850372;9.852905597;11.28386915;-0.842999747
1.519232945;8.717402612;6.228834121;-2.766237785;-0.406297549;-0.325480954;10.61178598;-10.19019216;-28.01586057;-6.487665611;14.90194769;57.09648235;7.661418974;8.145864401;9.595872756;15.14763205;5.545190903;8.792880225;-0.61378323
1.178539429;7.905247561;4.279599671;-6.732758666;-2.471842857;-0.912903963;10.22291711;-11.5379648;-18.35830425;-10.2267168;10.21036979;51.77890739;4.518723143;5.768356194;8.141338435;14.50528332;2.198129257;7.120485176;-0.070587292
0.632094835;9.003140716;2.105481161;-8.56501304;-2.657354632;-1.060702202;10.69194694;-11.023352;-12.20676336;-12.87165873;5.827739997;47.66173304;4.756110587;3.507367705;6.697435297;10.26666731;1.227744182;5.957673852;0.538847095
-0.751381806;10.8195419;-0.041061679;-9.158908938;-1.703508864;-0.60073488;11.43020821;-10.13941234;-11.35364404;-14.05080668;3.025725938;45.7414041;7.115749723;2.083057563;4.62096379;4.356661772;2.374611623;4.56855364;0.86838272
-3.153574834;11.48734276;-1.905838689;-9.657554536;-0.838734783;0.232196959;12.07943548;-9.90776824;-13.67517961;-14.03325194;2.599437037;45.79;9.965655141;2.2479957;2.101401047;-0.252107666;4.189335625;2.591955152;0.74377039
-5.992241203;10.03691449;-3.202849175;-10.26674928;-0.801224408;0.993720653;12.74012709;-10.13628207;-15.31373919;-13.13116395;4.609421206;46.9543852;12.75107135;4.41151781;0.403445854;-1.304568095;5.28256263;0.582304153;0.264529466
-8.163395651;7.116827837;-3.654806057;-10.08092398;-1.309494603;1.358076621;13.63021713;-9.73065962;-13.68125681;-11.30354258;8.435773244;48.67684202;15.92375646;8.334279087;1.142090737;1.556945108;5.294968567;-0.263488565;-0.32288897
-8.722718054;4.317411557;-3.170930082;-8.084112357;-1.384170872;1.31178135;14.61940388;-7.780192502;-9.125446218;-8.400818983;12.98951828;50.9863226;19.69520828;13.04320746;5.019548631;6.639400499;4.866256067;0.909405054;-0.833263128
-7.528188967;2.750921679;-2.057056481;-4.436307819;-0.248611239;1.078618241;15.19460636;-4.515789685;-4.280681071;-4.806164741;16.97804044;53.91047874;23.06577326;17.07802737;10.96855846;11.03502215;4.757107275;3.671563644;-1.228797803
-5.360132682;2.139424726;-1.033999312;-0.846948506;1.917669863;0.877604365;14.9322425;-1.356942308;-1.854055523;-1.761298162;19.25065491;56.70998241;24.25090442;19.05788223;16.44017647;12.04970904;4.968946598;6.246529766;-1.519641808
-3.407931516;1.180997795;-0.923524877;0.440023193;3.977975394;0.742571399;13.98730757;-0.005212321;-2.602925484;-0.869920234;19.24362851;57.89249916;22.22833792;18.35566988;18.77132092;8.591261703;4.659548777;6.544953238;-1.611649085
-2.484868489;-1.15077334;-2.123949187;-1.651096723;4.605128161;0.549738949;13.04825903;-1.284679829;-4.922423184;-3.000422187;17.35886059;56.24552874;17.98343371;15.5092035;16.77130373;1.833567708;2.937225223;3.638028162;-1.296290216
-2.537300727;-4.512624924;-4.232916528;-5.992716053;3.240855428;0.197966217;12.73184129;-4.587227396;-6.173035469;-7.426483875;14.95021401;52.07478795;14.19178126;12.04884915;11.47900166;-5.267887295;-0.154596543;-1.419417287;-0.43879837
-2.790834031;-7.259110584;-6.156825868;-9.806667922;0.534429931;-0.246487486;12.98406043;-8.27581503;-4.646981291;-11.98427211;13.71054904;47.45154509;13.41075989;9.731195675;5.594815493;-9.462051436;-3.337828547;-6.106615493;0.793430827
-2.398567054;-7.650420389;-6.733710185;-10.51363669;-2.052687247;-0.579939984;13.10224151;-10.68557554;-0.739193357;-14.28934626;14.67015386;44.99632343;16.17289703;9.571205158;1.964299292;-8.928287576;-4.818160186;-8.016656023;1.902677731
-1.094177057;-5.236651093;-5.499755692;-7.554181806;-3.176817292;-0.632733581;12.41187444;-11.00504276;3.428923558;-13.22299591;17.42779766;45.99267424;20.52234582;11.26455279;2.060892987;-4.248721317;-3.531212293;-6.412349001;2.327675793
0.623748511;-1.315306112;-3.063240437;-2.82552979;-2.41640858;-0.418336905;10.96955548;-9.52718246;5.570685944;-9.640934758;20.2394967;49.32694322;23.38610059;13.39346092;5.332142985;1.972513716;0.014513926;-2.658892522;1.83805595
1.876636559;1.896253943;-0.777430721;0.612805462;-0.424330986;-0.12394439;9.584800001;-7.270815251;4.85852468;-5.791814263;21.06663815;52.21154801;22.71359232;14.30870558;9.675828317;6.619152904;3.945335269;0.758363672;0.742912333
2.039652762;2.736013096;0.111420818;0.639806098;1.609257677;0.043189027;9.08072949;-5.346996417;2.526133711;-3.847696281;18.96632114;52.24809615;18.7692319;13.12455862;12.65569785;7.773712539;6.156352059;1.903726912;-0.283927229
1.15301981;1.130319522;-0.724446579;-2.511612287;2.757094007;0.011538731;9.471674551;-4.455245851;1.07179617;-4.551228694;14.85822242;49.26931287;13.72243839;10.19273867;12.75080032;5.61319174;5.588049414;0.560233723;-0.659064619
-0.152803763;-1.504311273;-2.482374567;-6.4762823;2.87116625;-0.12918752;9.879817391;-4.665842633;2.563412487;-6.85180739;11.06143637;45.51540318;10.04048387;6.79525494;10.04665655;2.053393881;2.797206554;-1.864155413;-0.285620103
-1.106745967;-3.304920913;-3.763384996;-8.369913173;2.527597468;-0.236831183;9.352331474;-5.452945318;7.075870849;-8.683805522;9.853629474;43.98882442;9.004872679;4.334486584;6.132800645;-0.481959783;-0.491288605;-3.498649145;0.415263518
-1.263711602;-3.123853886;-3.476699435;-6.607226833;2.521964032;-0.243879588;7.861308758;-5.919790494;12.22628848;-8.290473096;12.03038236;46.25464621;10.35286164;3.600780395;3.326545302;-0.32378447;-2.465919466;-3.301840308;0.856046008
-0.675808894;-1.021638513;-1.489530563;-1.712710672;3.303535032;-0.185887148;6.5134335;-5.195128329;14.18896685;-5.228361974;16.46537287;51.36226275;13.00162581;4.558686514;3.575567234;2.841351004;-2.202219026;-1.555773918;0.731501695
0.284196582;2.097575222;1.401351984;4.269701247;4.71332874;-0.123445704;6.663501951;-2.915403852;9.76892969;-0.50502611;20.95167277;56.6474808;16.00177048;6.658740021;7.497738016;8.164848718;0.025633723;0.671195837;0.211081507
1.250791826;5.267370632;4.103816892;9.175451259;6.144282118;-0.056392733;8.647729948;0.449489329;-1.528447438;4.098367458;23.68026243;59.69961026;18.91942706;9.313863901;13.99582065;14.25767273;3.135833247;2.530610464;-0.254284261
2.089107141;8.022721126;5.97649994;11.89683081;6.964570237;0.071442893;11.28366889;3.715171456;-16.63847257;7.014554015;24.28466757;59.93552514;21.5619582;12.15086475;20.69131611;19.7663315;5.941242088;4.02523748;-0.318771628
2.891010683;10.41296105;7.148176459;12.64452087;6.907645941;0.280932285;12.6749378;5.604795626;-29.98607889;7.610346509;23.76056062;58.64231951;23.59110115;14.92973799;25.04807446;23.67697962;7.69367143;5.817802032;0.014019132
3.806618625;12.60778029;8.218623707;12.34269349;6.189691249;0.481973365;11.71010071;5.532273094;-36.13091918;6.314866812;23.43866586;57.6221114;24.54820128;17.33859842;25.64643942;25.41796431;8.240497511;8.469317276;0.474220619
4.866573629;14.5070014;9.617412535;11.76711069;5.305164539;0.508771568;8.984617869;3.97961238;-32.68317571;4.189752771;23.86823767;57.635786;24.26709216;18.9484762;22.89427249;24.91485405;7.86903404;11.78870949;0.82015938
5.912720802;15.67568922;11.13992881;11.06131037;4.653836918;0.252972265;6.329509972;2.124823409;-21.78679979;2.242021104;24.45666908;57.87887239;23.18305481;19.41409297;18.72091765;22.62158969;7.054596996;14.82672179;1.048611615
6.656223588;15.62668569;12.02920268;9.857718606;4.255010322;-0.223005259;5.329763583;0.947471783;-9.112913317;0.86838623;24.06569431;56.79303845;22.13432724;18.74170486;15.40515561;19.41509599;6.265500783;16.49345238;1.326202032
6.810945434;14.22;11.55071069;7.77113038;3.748614634;-0.705642929;6.098876185;0.500809747;-0.749549999;-0.272396335;22.02164193;53.43958063;21.779047;17.3607059;14.25467712;16.27870553;5.843805722;16.29161676;1.72937623
6.235021526;11.89538818;9.628704494;4.844346355;2.694307902;-0.980848987;7.344506304;-0.04033009;0.229201468;-1.895884864;18.72430736;48.29420095;22.15780487;15.89806216;14.96423831;13.88449548;5.920463435;14.60777541;2.07690962
5.025402588;9.576761566;7.051087885;1.65676837;0.96723405;-0.992460488;7.612198034;-1.565331128;-4.638570066;-4.462411221;15.40061582;42.87855425;22.79732696;14.80548276;16.01860823;12.32266805;6.36579757;12.38429468;2.058918474
3.519438568;8.275741552;5.04898244;-0.925325943;-1.04398205;-0.873808264;6.560039063;-4.122036207;-10.52626839;-7.702582593;13.21880284;38.59341364;23.21010928;14.1049646;15.79099343;11.16174603;6.832967983;10.46843444;1.574177336
2.175452791;8.574650865;4.50557727;-2.179225309;-2.618607001;-0.827956911;5.129034625;-6.720647823;-12.73568546;-10.66592176;12.43479987;35.68926528;23.25210835;13.41324752;13.5422478;9.795421802;6.929363756;9.133233735;0.952942382
1.358333534;10.25144186;5.331191965;-1.906835979;-3.178162888;-0.964562605;4.512870283;-8.079203151;-9.895702979;-12.32943953;12.17789606;33.12;22.96767325;12.19293055;9.674836173;7.834815839;6.450378628;8.074494572;0.799011467
1.134576364;12.28201782;6.455462659;-0.586862012;-2.726059137;-1.233901195;4.939547504;-7.726673235;-4.703794666;-12.37788548;11.00200877;29.32;22.12348825;10.04591035;5.201368928;5.302306063;5.526523267;6.803362804;1.509899174
1.217959465;13.2970327;6.482324685;0.787755564;-1.904905353;-1.503176289;5.433514004;-6.516911068;-1.673318468;-11.56615321;7.813443933;23.31051153;20.02738614;6.899088428;0.963676949;2.559704362;4.561444627;5.086113509;2.852102572
1.139419458;12.31054838;4.599035235;1.151651477;-1.575551749;-1.687913001;4.789380117;-6.043672326;-3.534300938;-11.30662526;2.581591435;15.41007813;16.00491873;3.054546807;-2.756670235;0.0928807;3.974191428;3.108899809;3.98461013
0.561190349;9.315488104;1.138893475;-0.089697012;-2.182421331;-1.806526126;2.829079159;-7.352868918;-8.992057511;-12.68063085;-3.5731407;7.174883393;10.23057942;-0.853171081;-6.006065336;-1.676018953;3.904256971;1.297979007;3.989668352
-0.472640936;5.342453618;-2.589093674;-2.695125655;-3.36487925;-1.909291296;0.720961618;-9.970626088;-13.60316739;-15.55280132;-8.920457123;0.693176562;4.128941849;-3.98056668;-8.629646348;-2.472937655;4.077784052;-0.015425723;2.544767166
-1.539761382;1.87947233;-5.103559745;-5.642759135;-4.130292264;-1.962373717;0.001261653;-12.06501783;-13.18699637;-18.47109582;-11.95266907;-2.338803918;-0.203442044;-5.514109229;-10.00576216;-2.191557656;3.933229603;-0.817339251;0.213471042
-2.112359925;-0.008170266;-5.654781841;-7.629922134;-3.503264573;-1.817599488;1.166443576;-11.67772208;-7.183282416;-19.50590776;-12.05547601;-1.322665096;-1.282372552;-5.01128033;-9.346782559;-0.906928588;2.936164585;-1.375713302;-1.901533605
-1.906389443;-0.262785221;-4.623129479;-7.757462168;-1.203781905;-1.319155946;3.150058594;-8.114752305;0.721145068;-17.49090046;-9.692470103;3.018967385;0.73934764;-2.693905433;-6.358058849;1.123355681;0.89393281;-2.006455584;-2.907639894
-1.047973239;0.299135903;-3.154016191;-5.98936182;2.12995427;-0.463149022;4.218573027;-2.462291504;5.35435343;-12.80794084;-6.052390198;8.954182744;4.171215889;0.53786405;-1.716699449;3.522116431;-1.912714772;-2.829549274;-2.714076357
0.060505888;0.737844123;-2.306209142;-3.105979784;5.329682483;0.536389284;3.511755392;3.118660207;4.202029635;-7.173028203;-2.386701086;14.44996428;6.993486641;3.488419485;3.055693524;5.924718683;-4.846931454;-3.686494973;-2.019785723
1.04966573;0.771091417;-2.331729616;-0.205049038;7.406383826;1.348771031;1.823533018;6.742587936;-0.322325934;-2.597505556;0.582414835;17.98080536;8.235055833;5.283075925;6.304692592;8.094721017;-7.203436679;-4.261791267;-1.719145584
1.802929618;0.954134076;-2.601021207;1.896579948;8.073067615;1.725102371;0.877258226;7.801405452;-2.475869666;-0.267006361;2.859511024;19.07007813;8.427617313;5.825385947;7.095727527;9.919795063;-8.503396092;-4.310738245;-2.198205566
2.408823616;2.102503738;-2.205568711;2.974370212;7.746115077;1.639637071;1.721805944;6.999678734;2.285401776;-0.072974792;4.904493386;18.29821195;8.825284515;5.754824499;5.676356486;11.28991981;-8.647638119;-3.832923149;-3.068566105
2.911043133;4.430730318;-0.764805176;3.284261178;7.10284169;1.270951487;3.708772678;5.596944073;13.19716341;-0.9901025;7.123594494;16.79521782;10.13295108;5.912508829;3.289743662;11.9964461;-7.870800557;-3.076536326;-3.529281263
3.109887698;7.142538868;1.184733279;3.210404249;6.588655926;0.857075223;5.018116465;4.564590847;23.79652373;-1.877860398;9.50850786;15.5470508;11.8888973;6.710834152;1.48352935;11.80491408;-6.549960552;-2.377760294;-3.049981878
2.631016764;8.859451678;2.515941643;2.98496309;6.243925648;0.5553016;4.297578557;4.252424841;25.92325194;-2.077475044;11.68148097;14.95098533;13.03461484;7.898161529;1.315031526;10.69474331;-4.992705532;-1.953870788;-1.826691147
1.2380343;8.581593727;2.300169212;2.651613351;5.906768575;0.409282829;1.938185031;4.599832175;15.46180609;-1.483141917;13.26746332;14.84688244;13.11283481;8.897322221;2.848424979;9.055817298;-3.327423144;-1.801307094;-0.657134694
-0.869882085;6.413052087;0.453353329;2.192249892;5.528493662;0.40956372;-0.205404951;5.469984999;-4.316151959;-0.259253315;14.2317506;14.87934345;12.93677624;9.411744218;5.147880411;7.595827615;-1.546554324;-1.772436407;-0.344907081
-3.053628234;3.45716665;-2.244886655;1.61506034;5.282643947;0.54766473;-0.451429688;6.716899395;-24.37449748;1.391764138;14.84775627;14.82086378;14.02012088;9.747156699;6.740494649;6.926480151;0.347608071;-1.764584392;-1.099783334
-4.575478529;0.966981331;-4.746429802;0.907670955;5.380972995;0.792115122;1.163132508;8.004424494;-35.5058989;3.197074957;15.30630596;14.60351461;17.1760443;10.52692561;6.347087009;7.10590296;2.214573594;-1.855024742;-2.383946356
-5.051607531;-0.545325557;-6.455622322;-0.042602155;5.801621907;1.023666912;2.839470468;8.727670121;-33.99339666;4.674618283;15.35874167;14.14952487;21.50264617;12.01879637;3.575537157;7.535042425;3.774953219;-2.244139997;-3.297349978
-4.677112841;-1.509388604;-7.512323764;-1.392351068;6.217886737;1.03769037;2.569200026;8.297813165;-23.39197892;5.20429759;14.43405027;13.31808727;24.73671415;13.68271193;-0.749807908;7.380778563;4.757682097;-3.022622945;-3.194307453
-4.055333921;-2.67361281;-8.452396834;-3.129147002;6.222639778;0.670002441;-0.061563487;6.637473088;-11.35851636;4.406215981;12.2735992;12.15110039;24.84171411;14.42626943;-4.844593104;6.269613801;5.101328671;-3.945973883;-2.082367052
-3.768681623;-4.23577473;-9.577418035;-4.896872815;5.660368573;-0.032223252;-3.418530975;4.427003494;-4.08515426;2.548011614;9.584695566;11.21340431;21.63282429;13.4728719;-6.773527677;4.715844582;5.058620018;-4.436022965;-0.553421818
-4.016363184;-5.51648486;-10.59164943;-6.094403075;4.770422272;-0.756633764;-5.147567322;2.780259676;-2.513462369;0.564836987;8.02728723;11.57817152;17.13758092;11.17505911;-5.456085978;3.886802002;5.102714306;-3.87785285;0.647798012
-4.566732796;-5.48593033;-10.81698854;-6.262131633;4.010878365;-1.083913998;-4.146921637;2.519323805;-2.92130277;-0.448089236;9.28185938;14.21819288;14.34992692;9.046125194;-1.319261342;4.800157891;5.665126168;-2.038954668;1.079338267
-5.006811726;-3.694837834;-9.789929389;-5.470058594;3.718426326;-0.774037021;-1.473008375;3.612461255;-0.973616075;0.057906813;13.73479497;19.12240027;15.27718543;8.843863843;3.835200924;7.517728386;6.860526156;0.700971891;0.782694699
-5.049026787;-0.782252453;-7.7110413;-4.338408237;3.902254603;0.038202407;0.594029468;5.251306237;4.312021031;1.735163173;19.81069566;24.87179974;19.70214859;11.30730326;7.757879097;10.95633022;8.381789659;3.521381875;0.129997981
-4.654287031;1.924524136;-5.34258963;-3.586595946;4.338911732;0.912580683;0.486987044;6.518375557;9.947958476;3.649260563;24.67264627;29.22375218;25.49577096;15.49845722;8.990019531;13.50485351;9.652636179;5.656385826;-0.486018276
-3.928247822;3.422564848;-3.428205678;-3.425862575;4.852929326;1.406044264;-1.403308121;7.088833251;12.04534238;5.007733461;26.01823514;30.50116175;30.13382538;19.31340985;7.699256668;14.03759632;10.16399183;6.874875407;-0.878924609
-2.951762615;3.816248557;-2.130100505;-3.311166042;5.496877623;1.37820741;-3.221077777;7.377465188;9.759427649;5.706893728;23.75717171;28.83938812;32.24525033;20.86207264;5.605401451;12.61147732;9.798403035;7.587085159;-1.087640711
-1.735392054;4.193811811;-0.977620676;-2.328569963;6.445000931;1.055283504;-3.371515697;8.024602939;6.529020455;6.248532099;20.26757443;26.27812699;32.14593312;19.73583085;5.018361438;10.36467685;8.942939078;8.481224168;-1.235979583
-0.331942191;5.67091139;0.612034095;0.027337955;7.696246068;0.802866425;-1.911247468;9.193746564;7.297958141;7.127476053;18.87946981;25.4652981;31.18476156;17.23068906;7.524603234;8.715964675;8.307725607;9.946950121;-1.376963765
1.03774478;8.378188786;2.68083751;3.302077955;8.884173272;0.802192302;-0.392971562;10.31866155;13.87948602;8.259334643;21.56758436;27.81576864;30.59065199;15.35626112;13.04880228;8.451197161;8.535192374;11.71339381;-1.43883741
2.015884294;11.23113465;4.52276725;6.248468712;9.41893836;0.907173481;-0.376357957;10.54197145;22.41651987;8.985768201;27.51340322;32.4737493;30.71572467;15.36414444;19.79165146;9.321506903;9.809580248;12.97913712;-1.291297447
2.312809704;12.68609329;5.145567712;7.648853402;8.893555231;0.803864087;-2.00262807;9.47755886;25.4260455;8.678672011;33.62869459;36.89676087;31.08488269;16.88248146;25.06984238;10.37065144;11.6899801;12.95074846;-0.865619674
1.919442146;11.88652016;4.06277298;7.183171797;7.43129261;0.330247087;-3.920460508;7.637786814;17.26272883;7.413528411;36.69433406;38.67034474;30.99089597;18.27783652;26.63157645;10.68921237;13.28283207;11.40919481;-0.239103591
1.126931415;9.298914739;1.776749907;5.660260636;5.667695359;-0.329452217;-4.580597087;6.143519042;-1.088547702;6.087046033;35.55119671;37.21244279;30.06471048;17.94046312;23.79846453;10.04084089;13.68916352;8.909363333;0.373430231
0.31188442;6.363658067;-0.46684278;4.412214471;4.348431042;-0.757587339;-3.667587242;5.935359671;-21.74787013;5.813600309;31.7417918;34.09904043;28.4446065;15.50960506;17.86032118;8.961832013;12.49580518;6.484097355;0.722295891
-0.342309699;4.470529668;-1.50182768;4.309619122;3.842428326;-0.639514052;-2.346138412;7.112984926;-34.72174566;7.060722435;28.18904941;31.79754823;26.57244344;12.12722017;11.47949558;8.333623301;10.02392632;5.060944518;0.668141911
-0.947149904;4.065219974;-1.027546532;5.154545243;3.946253164;-0.04217807;-2.12441396;8.910836067;-34.37298712;9.234722643;26.98949455;31.80452654;24.88024507;9.558296432;7.333893829;8.764551308;7.158216106;4.967126753;0.286184098
-1.736363897;4.526338799;0.237059624;5.90593572;4.122844029;0.605135379;-3.421652885;10.29533076;-22.86886626;11.07950707;28.02662781;33.60267001;23.57601784;8.864387794;6.664227731;10.1896369;4.823513575;5.806801499;-0.147399997
-2.75930516;4.808732868;1.14290508;5.539186088;3.970733112;0.821200011;-5.186261845;10.69263291;-8.16969424;11.5931664;29.40055377;35.17436898;22.56867102;9.630850101;8.555808835;11.91623313;3.420197141;6.746703045;-0.306480319
-3.705037902;4.281427652;0.992879094;3.867472432;3.547008373;0.426316677;-5.916275448;10.30625342;1.75342963;10.74973281;29.21223121;34.60326487;21.50333778;10.31410404;10.48937889;13.06661441;2.602729435;7.023305711;-0.031892472
-4.021518797;3.132006345;0.061744508;1.721423549;3.303938191;-0.341081349;-5.118277479;9.856748944;4.043192739;9.479866874;27.20622785;31.51667151;19.9255138;9.438603046;9.979521667;13.15662355;1.594219725;6.401058104;0.525426644
-3.25373374;2.136384869;-0.606482866;0.405518945;3.719174715;-1.02444709;-3.82604222;10.02474456;1.75662881;8.961973158;24.96713387;27.33659368;17.59449958;6.758042476;6.354406887;12.48081428;-0.140466305;5.361220937;0.955389017
-1.348271571;2.090879943;0.057529764;0.879701866;4.932100915;-1.288095906;-3.670809241;11.03957008;0.237980707;9.801079331;24.58174789;24.26869402;14.82336801;3.536522214;1.46357974;12.05668211;-2.341643167;4.919312857;0.834233721
1.295096777;3.367094916;2.410906321;3.244017168;6.662667124;-1.119934477;-5.345762079;12.652392;2.400166021;11.70775099;26.91;23.86545501;12.55999712;1.746763025;-1.339024982;13.08931905;-3.981735088;6.113878858;0.016426728
4.039173642;5.821812309;5.854737223;6.789481022;8.436849476;-0.757722485;-7.887461289;14.3974475;6.819922062;13.84282909;30.87016403;26.17882986;11.98311558;2.746450251;0.561810214;16.19249719;-3.946681539;9.368127565;-1.235511567
6.309909348;8.958517064;9.179184733;10.43768648;9.9003677;-0.438316292;-9.464539649;15.87330836;9.908884856;15.46784443;34.27265262;29.94058477;13.73815269;6.343208556;7.048601851;20.81511677;-1.935355299;14.05532733;-2.396379724
7.770971716;12.11300263;11.19862791;13.19370458;10.96561682;-0.204428621;-8.985509692;16.86272333;9.872625542;16.36579997;35.48383659;33.43267132;17.32551257;10.87311996;15.01466409;25.30666;1.106436101;18.59302019;-3.013645025
8.305093703;14.5757682;11.26159156;14.38185014;11.71151711;0.072833416;-7.077128842;17.30539203;8.713472312;16.7701749;34.58050606;35.35082825;21.18763491;14.22207557;20.218128;27.73;3.440666734;21.15955771;-2.994903994
7.905701881;15.74437291;9.404277378;13.70642584;12.17172324;0.503146751;-5.543576936;17.23590481;10.36092981;16.97733692;33.12787746;35.19208532;23.5789454;15.10053231;20.08456441;27.02837427;3.666786182;20.72806846;-2.632665771
6.626692845;15.38170254;6.194415376;11.29156756;12.21893507;1.012274517;-5.788895716;16.74239744;16.52405787;17.03388158;32.83625706;33.17715479;23.66019433;13.74603823;15.4846925;23.80670023;1.755227037;17.79741802;-2.347386073
4.63264593;13.8512048;2.456484871;7.729258514;11.64067484;1.361588402;-7.620234455;15.91032849;24.02329175;16.73969864;34.20019671;29.99374807;21.99135728;11.63725859;10.1328957;20.11652835;-0.808273901;14.25738092;-2.350352035
2.254826749;12.05887201;-0.978713028;3.991534781;10.32445147;1.334683937;-9.496266985;14.72622117;26.27976413;15.88050124;36.15620548;26.5593104;20.00680238;10.46142808;7.948915986;18.24639931;-1.964822541;12.3281237;-2.494295808
-0.068534376;10.97730846;-3.47662792;1.081268817;8.385992078;0.923352639;-9.969158758;13.01731493;18.16927464;14.41858681;36.93956073;23.77649501;18.86609468;11.04317885;10.26160316;19.247031;-0.499646335;13.17535707;-2.430180772
-1.977485376;10.99380206;-4.771134558;-0.467001494;6.139818318;0.350459564;-8.991952088;10.54937875;0.484861578;12.47260472;35.4081923;22.20466572;18.61013589;12.92382157;14.90829045;22.20726017;3.082124581;16.12895854;-1.938967601
-3.3704444;11.57825654;-5.061005778;-0.89854696;3.948105443;-0.086139329;-7.90498147;7.290078125;-19.68296064;10.16470562;31.83248613;21.75143746;18.31954588;14.81233426;17.8984686;24.85476296;6.889567839;19.10356956;-1.160727161
-4.421376507;11.61374402;-4.929105896;-1.072667026;2.066284445;-0.214295288;-8.137384113;3.647294957;-33.22405477;7.54256113;27.65017189;21.65234674;17.12130446;15.53958588;16.38912671;25.13026261;8.977333528;19.99413508;-0.52374887
-5.400457104;10.22687096;-5.047120424;-1.873184033;0.576993538;-0.074942274;-9.839121491;0.420912589;-34.86540534;4.673565439;24.47892054;20.8904856;15.13632844;14.83158442;10.74128439;22.63871898;8.704611024;18.08459548;-0.420997267
-6.434553849;7.503466979;-5.796216415;-3.61059974;-0.582242023;0.150699909;-11.71588475;-1.607236481;-26.29495221;1.790883656;23.13899913;18.84526044;13.48114282;13.37901713;4.159492157;18.90937425;7.113491352;14.45045285;-0.890619947
-7.405266336;4.495942861;-7.054432977;-5.8762801;-1.548957641;0.286254606;-12.22563324;-2.196469871;-14.39820959;-0.713996842;23.29374138;15.6884769;13.25616442;12.19680986;0.28213347;16.23753926;6.052151;11.05664848;-1.558923907
-8.073158873;2.462633635;-8.331702098;-7.959712993;-2.465136205;0.251631252;-11.03520741;-1.862348595;-6.206601712;-2.509485222;23.79737864;12.18165503;14.38218607;11.77482953;0.618497633;15.93866109;6.72123284;9.234876019;-1.896828207
-8.325992026;1.911533738;-9.187308864;-9.474181494;-3.411558636;0.05263738;-9.38535291;-1.545929095;-4.478107498;-3.573527765;23.40091078;9.018982726;15.35891204;11.66227528;3.733899447;17.31553985;8.755374203;8.707510092;-1.594045306
-8.338907357;2.213544711;-9.626979896;-10.65741546;-4.347513551;-0.274874586;-9.004167043;-1.931341571;-6.971340212;-4.218437391;21.38031762;6.283313854;14.28277018;10.8035793;6.621387657;18.13468932;10.5257992;7.907529621;-0.767989902
-8.500058594;2.112450718;-10.15528722;-12.09048703;-5.087705744;-0.6831096;-10.53801295;-2.929760277;-9.338082129;-4.819223476;17.84403675;3.520389313;10.37474486;8.385299431;6.995891081;16.28277965;10.39981259;5.331379326;0.139102646
-9.141862814;0.73390922;-11.40026467;-14.0812467;-5.363534093;-1.077663766;-12.921774;-3.759072253;-8.830545724;-5.461030672;13.69329695;0.39078714;4.769632451;4.566826017;4.674508776;11.3771727;7.967495732;0.848933286;0.679262679
-10.27165567;-1.713108285;-13.55992685;-16.25269926;-4.969336917;-1.296973667;-14.27137093;-3.583382067;-5.846412317;-5.832510804;10.29551048;-2.701538121;-0.132199651;0.539520678;1.147985724;5.127842487;4.30852985;-4.067692406;0.686797713
-11.49759507;-4.093377842;-16.0839321;-17.70336206;-3.910375697;-1.17448062;-13.51063796;-2.209850658;-2.579633202;-5.495787256;8.945901199;-4.647966325;-2.286055298;-2.156984958;-1.981741401;0.183574689;1.152093904;-7.373377577;0.337242746
-12.2014115;-5.204668671;-17.85806291;-17.61595222;-2.431771004;-0.664612736;-11.28401948;-0.273915148;-0.562062287;-4.31719788;10.26705131;-4.416127433;-1.333220793;-2.589125501;-4.183811763;-1.668387793;-0.358887985;-7.920805507;-0.028591328
-11.84329112;-4.62153921;-17.80370493;-15.81110743;-0.875782776;0.075085526;-9.35138027;1.248849434;0.506706157;-2.663206265;13.82668059;-1.94431991;1.377404742;-0.981781511;-5.836770741;-0.611247823;-0.332746849;-6.227493618;-0.151747878
-10.21546901;-2.859917414;-15.50372742;-12.80211266;0.548181601;0.744665201;-9.02345726;1.817303825;1.851569288;-1.140171178;18.27080383;1.668017375;4.010918575;1.510918825;-7.117860283;1.570835447;0.222229172;-3.980440173;0.00927632
-7.521792716;-0.804543058;-11.44430283;-9.343708452;1.906152984;1.089826872;-10.04422606;1.767003257;3.974065262;-0.057121055;22.02684834;4.936588096;5.648851347;3.628174988;-7.235069573;2.990316027;0.373597529;-2.728009849;0.315181162
-4.27974986;1.036647023;-6.731144832;-5.892691839;3.468751663;1.080026855;-10.90273737;2.075811902;6.192218522;0.929703493;24.22179044;7.142066421;6.738029655;4.81177773;-4.916521904;3.087494414;0.013412744;-2.815809749;0.574673255
-1.125621378;2.785537626;-2.494685518;-2.441857405;5.464400912;0.927418399;-10.25911077;3.649517375;7.856247953;2.636543464;25.20502563;8.862155517;8.333757924;5.434058407;0.210068359;2.893061177;-0.20431435;-3.35967397;0.643269624
1.38579457;4.776458896;0.616189132;1.17;7.840937717;0.918933669;-8.177514799;6.678514315;9.76171688;5.709641162;26.24678309;11.35866301;10.92739879;6.330724659;6.690886838;3.962669443;0.405906568;-3.171763505;0.44013948
2.92823355;6.916897733;2.556752778;4.79807836;10.22260918;1.189772642;-6.060883207;10.51303189;13.83401459;9.996454446;28.55063223;15.27223468;13.94027752;8.040628493;11.83682854;6.878890534;1.857980055;-1.80982365;-0.07361255
3.468753578;8.475682047;3.626306141;7.82678338;12.10018456;1.61956348;-5.375411537;14.07266858;20.82942453;14.44050125;32.26469948;19.73544196;16.28392183;10.34336615;13.55708817;10.56185744;3.437713209;0.099536203;-0.886558711
3.235997077;8.549572787;4.086679882;9.467121294;13.11419291;1.932124674;-6.343466613;16.43365406;28.07607146;17.63136617;36.24224429;22.74188759;17.38003906;12.42218753;11.95507761;12.99404971;4.310480157;1.444115417;-1.888431166
2.599982756;6.82772171;3.964403637;9.274576023;13.23212062;1.910305163;-7.788025015;17.20911496;29.87169007;18.64597496;38.7784653;22.58106732;17.62970726;13.48748142;9.266252534;12.82818627;4.230130875;1.5449096;-2.841908607
1.913218831;3.981889679;3.158625091;7.471548716;12.72041322;1.545736959;-8.245243365;16.59843935;21.16717421;17.59498402;38.80983946;19.21574283;17.88237304;13.35961864;8.074206426;10.583776;3.727933463;0.632762645;-3.437578609
1.395246384;1.321620353;1.720656122;4.848358794;11.9731872;1.007691541;-7.3086676;15.23288143;2.105408542;15.50530516;36.68576845;14.45154784;18.4522772;12.57143031;9.244629427;8.35987556;3.648342026;-0.436732999;-3.42267379
1.121155871;-0.014338721;0.035204605;2.366973014;11.33966637;0.4756532;-5.975921237;13.96162043;-20.40252656;13.64489359;33.92571986;10.69155648;18.71124681;11.93438924;11.32315705;8.087026563;4.476108405;-0.881212724;-2.719073533
1.095888518;0.324311465;-1.287706082;0.77725958;11.03778516;-0.006683358;-5.6962467;13.57328602;-36.05036666;12.76326956;32.13658488;9.217415853;17.76846218;11.90720715;11.92043672;9.535485357;6.047887897;-0.468551915;-1.445695041
1.321168242;1.922510762;-1.771594683;0.442544437;11.13046807;-0.52995059;-7.006114807;14.39283469;-37.59029571;12.72879062;31.89272582;9.335510685;15.66430931;12.22148092;9.878803807;9.69279289;7.843889945;0.5577253;0.16036227
1.768106648;4.119593179;-1.434405633;1.325810083;11.49859696;-1.18580305;-9.006680035;15.87427599;-25.74537478;12.73212921;32.38969898;9.034417193;13.86572021;12.00491064;6.2999034;4.34284301;9.494261124;1.881438355;1.845357274
2.268964822;6.454529405;-0.866978494;2.986972017;11.81172353;-1.936774387;-10.15868221;16.55288292;-8.763810135;11.85693848;32.08215835;6.593882254;14.32349345;10.2942906;3.489566705;-8.84093989;10.94184151;3.355170437;3.377616321
2.45358743;8.605697082;-0.918218902;4.579409301;11.58700459;-2.614016276;-9.667444154;14.68325647;3.243860598;9.645329738;29.79245187;1.865292864;17.62816151;6.608019427;2.738906453;-27.63143497;12.06952779;4.841125794;4.516478117
1.864100942;9.96953924;-2.148312093;5.021399099;10.41267127;-3.042323042;-8.198089059;9.431689956;5.025979126;6.367905542;25.48492087;-3.716063459;21.7947008;1.270665079;2.973632096;-45.02936452;12.1934859;5.901547047;4.991538756
0.247905961;9.475827466;-4.396675156;3.48344802;8.268546822;-3.171571149;-7.272951156;1.906387417;-0.988493901;2.920139173;20.22508933;-8.253132268;22.97094549;-4.630265195;1.625667693;-52.19452654;10.0733359;5.806939193;4.57696755
-2.151262905;6.095674996;-6.771678292;0.026641411;5.724103592;-3.090739427;-7.893429123;-4.85811058;-7.607353827;0.445794914;15.47586788;-10.63105896;17.94276174;-9.591344656;-2.877652848;-43.24124115;4.707338855;4.034780069;3.25253179
-4.549615925;-0.170626837;-8.11191093;-4.07859807;3.800472509;-2.915434897;-9.619067648;-7.287652422;-8.864739854;-0.134738498;12.31249792;-10.90528595;6.776124237;-12.19870567;-9.166735638;-19.18446493;-3.557660996;0.889862946;1.332713642
-5.935563622;-7.647119917;-7.654213025;-6.772734519;3.492218461;-2.662159978;-10.91699226;-3.358090689;-4.199324474;1.492371642;11.07191912;-9.706653547;-6.439383739;-11.64033867;-13.4130998;11.53805649;-12.52644901;-2.373387476;-0.574673313
-5.589134953;-13.4401314;-5.486859108;-6.300212111;5.213315076;-2.235964673;-10.46119035;5.959711117;2.242198943;4.896545491;11.5233623;-7.406311633;-15.58319529;-8.067970698;-12.14258336;36.74118553;-18.90300438;-4.209908966;-1.813484747
-3.481756392;-14.97541718;-2.489440485;-2.331780087;8.532758825;-1.549323822;-8.238059012;16.98997968;6.025239737;9.094235102;13.25116156;-3.90236828;-16.11959141;-2.639058789;-5.20497395;46.643293;-20.03199215;-3.832039148;-2.00507676
-0.287217765;-11.66201013;0.203351879;3.68988443;12.38914938;-0.661395454;-5.521567674;25.34208071;6.421359447;13.00794062;15.8805316;0.804785503;-7.972003735;2.871491526;3.624559668;39.09146507;-15.55415513;-1.83695659;-1.251578087
2.999812444;-5.450389649;1.854376688;9.314422219;15.6404932;0.19964802;-3.798651886;28.35809234;6.526149209;15.95853752;19.02949017;5.911847109;4.301295331;6.809360486;9.145460501;20.73270214;-7.80749328;0.142493335;-0.078420018
5.569095381;0.263788974;2.4554883;12.4937487;17.57761745;0.765546465;-3.62192128;26.41092779;9.699076921;17.88822419;22.15900417;9.825784961;14.19090794;8.397421389;8.529605425;3.225290534;-0.588613398;0.559992664;0.855568815
7.089563324;2.751245137;2.532052603;12.67722511;18.08968371;0.904039405;-4.358185925;22.24156076;15.83952899;19.15489515;24.56427898;11.07390568;17.04273862;8.064892231;3.434205951;-3.480330575;2.99759708;-0.989810658;1.106674725
7.646735337;1.647621664;2.595860682;10.85839638;17.46080772;0.692469466;-4.945813502;18.90432848;21.07583236;20.04362088;25.58377898;9.405809083;12.57681175;7.085187907;-1.32309063;3.106044551;2.234995449;-3.586812335;0.655382318
7.457307225;-0.946643646;2.673787199;8.631329151;16.04769792;0.329756632;-4.882828255;17.82010912;21.24858374;20.38634622;24.89;6.095652411;4.657396344;6.687924479;-1.566302337;16.69972768;-1.022306364;-5.772650412;-0.121570784
