Channel 1 - P4;Channel 2 - O2;Channel 3 - P8;Channel 4 - T8;Channel 5 - C4;Channel 6 - Cz;Channel 7 - Fz;Channel 8 - F4;Channel 9 - Fp2;Channel 10 - F8;Channel 11 - Fp1;Channel 12 - F7;Channel 13 - F3;Channel 14 - C3;Channel 15 - T7;Channel 16 - P7;Channel 17 - P3;Channel 18 - O1;Channel 19 - Pz
21.37483453;-3.735811147;31.04913141;26.89692244;19.92223538;21.7244715;61.91624633;6.553169212;54.71212868;26.63959625;53.81237166;27.98153594;23.07421281;24.44496277;23.38487978;21.448212;17.91319432;28.24817942;19.65124591
29.89958619;6.989043148;41.31209372;36.88157959;25.78890172;26.95823974;32.89723223;12.075287;23.15948145;27.87214325;43.65570913;47.07514714;22.15286642;33.86832994;27.2938796;28.28665907;27.0054907;42.01058595;22.91674171
27.02224276;15.68350754;37.06462782;32.35266443;19.99621119;20.59278466;-3.943875894;10.32862183;-26.2666787;15.30365731;13.53932865;52.97823726;13.97385243;30.55098326;25.84186784;26.03627353;25.46955387;41.82780538;16.36539057
14.88537028;18.06760482;21.29465463;16.65644498;5.75028892;6.784499975;-25.71098558;2.254581093;-71.73944973;-6.075715475;-22.82729109;48.16674656;3.993046063;17.77640337;22.92730588;20.3614424;15.29422374;30.46210851;4.285281673
1.116854081;14.07225859;3.660616775;-0.463555397;-8.684958351;-5.839386483;-21.95814877;-7.19449397;-94.91645726;-25.95365683;-48.70608484;41.10613734;-1.578722478;4.232128574;22.39100273;18.01522794;3.564319856;17.1973003;-5.875509176
-6.444635079;7.702231228;-6.096323115;-9.613665245;-15.72439376;-10.3069766;-0.685295497;-12.75720437;-92.35597301;-35.63080695;-55.19848723;39.41343104;-0.032556928;-2.213938598;25.30457055;21.48988813;-2.700687079;10.95018867;-8.709445165
-4.832649921;4.043036681;-4.390699953;-7.744622107;-13.37408363;-5.904069366;19.4636574;-12.46270663;-75.90149997;-33.45401193;-46.10567876;44.46519475;6.341664716;0.339861732;29.66086133;27.61111773;-1.226284786;14.25124206;-4.273167111
2.741936633;5.68197855;4.67897732;0.766698503;-5.831090445;2.060184004;23.94284688;-8.445784865;-62.48268601;-24.94214756;-33.62386021;51.48161094;12.45991429;7.437624478;32.47803956;30.90982302;4.709357197;22.47937103;2.646119
9.96;11.16851603;13.19511795;8.252865048;0.295245089;6.805845355;12.33888181;-4.66953711;-61.6489113;-17.97913257;-28.68432852;54.48059831;14.4166386;12.48592526;32.41927566;28.64792299;9.577694749;28.43684235;6.551312596
12.18321208;16.4870384;15.3915596;9.578445306;0.947968158;5.192642039;-3.41028385;-3.674759267;-70.21659248;-17.07548941;-33.47676081;51.61342094;12.07974597;11.9617248;30.74730222;23.18204896;10.09582336;28.23233134;5.267248119
9.301649842;18.21202347;11.21089084;5.229600793;-3.000332729;-0.50685168;-9.986172869;-5.001914523;-77.20322207;-20.99523732;-41.44791689;46.41479264;8.493869467;7.555839415;29.93817673;19.78418933;7.33085941;23.76103096;0.976341167
4.830903701;15.87352714;5.191258231;-0.22010138;-7.375044205;-5.163932306;-3.330484596;-6.286236986;-74.04511943;-25.02101932;-43.92536137;44.22468729;6.938180399;3.96201547;31.27032751;21.93318088;5.033505336;20.18301306;-2.178968033
2.496416145;11.88629319;2.177513399;-2.43479961;-8.531124338;-5.221382299;9.360486905;-5.73679813;-61.51;-25.42515185;-37.51459173;47.18374109;8.249381031;4.562288161;33.52648382;28.15645312;5.962266053;20.97645885;-1.668031513
3.306188603;9.399002002;3.572063739;-0.683579827;-6.112500674;-1.310775148;16.8983479;-3.720123362;-48.20460746;-22.31314949;-26.39706167;52.25908954;10.52985714;8.700605012;33.95248119;33.09382103;9.441559332;24.92499775;1.622635666
5.325293975;9.942788924;6.941545713;2.266134309;-2.73254805;2.809663651;13.74614919;-2.189315488;-42.79599012;-18.81126194;-18.25489195;53.95281243;11.19235204;12.5921694;30.67715107;31.86971045;12.11912998;27.46754299;4.576576725
5.909812858;12.65933342;8.784858912;3.14285498;-1.294507847;3.721690103;3.935677748;-2.695873602;-46.91793646;-17.81441055;-17.7455407;49.21804539;9.364645652;12.76708893;24.54217372;24.1390963;11.07117299;25.00023432;4.717982729
4.184763962;15.42131358;7.752616884;1.173959952;-2.497673769;1.125599661;-3.357099;-4.906303567;-54.49850513;-19.39992873;-23.03872663;40.24307504;6.569726593;8.976372966;18.75437125;14.51989997;6.468245752;18.27078143;2.223017825
1.626332286;16.64541988;5.568611904;-1.468010727;-4.598226258;-2.282243203;-2.061033039;-6.953239819;-57.45148238;-21.10123678;-27.92948044;32.7010068;5.249839695;4.204966759;16.55740099;9.131879505;1.521406725;11.93011084;-0.506364667
0.468820414;16.259346;5.134130562;-1.912898801;-5.34019251;-3.424634761;5.97881895;-7.21603987;-52.45244501;-20.53377139;-27.27426206;31.03257083;6.579815204;2.023326678;18.74986734;11.06961765;-0.17516001;10.68;-1.104427357
1.568943744;15.24145209;7.740615868;0.662570379;-4.114492997;-1.503002884;13.33930091;-5.843257241;-43.12038319;-17.81817362;-21.00090863;34.85875843;9.504181827;3.676162491;23.0254183;18.33845582;2.400524338;15.34102461;0.744698713
3.689846642;14.4380939;11.91028102;4.265308457;-2.395575206;1.552253279;13.86971824;-4.61521625;-36.2627868;-15.57175972;-13.57015965;39.56035846;11.72520173;7.303783499;25.6728285;25.6590283;6.913164154;22.1523144;3.227978862
4.755508118;13.84721756;14.7745227;5.888544068;-2.196759547;3.014564891;7.835811827;-5.283618601;-35.90133179;-16.5146434;-9.817029112;40.4091702;11.63552357;9.71681883;24.32355695;28.47457144;9.62279485;25.82314741;4.153961016
3.824775175;12.92545196;14.62136938;4.198923223;-4.078462052;1.80192336;1.121541308;-7.906428879;-40.28803587;-20.880341;-11.00226449;36.59957746;9.468967924;9.018367044;19.64496469;25.97071333;8.363495998;23.72039383;2.871606025
1.947236319;11.42895127;12.29724834;0.711960207;-6.563140005;-0.72616512;-0.325366745;-10.69471174;-44.10400432;-25.96698599;-14.33559303;31.71339564;6.783244254;5.867773147;14.73833974;20.99959947;4.090589266;17.73279447;0.685881868
1.144191413;9.837362302;10.27341997;-1.5413723;-7.464299933;-2.171710163;4.355481625;-11.53323971;-43.44069468;-28.25808573;-15.97393311;30.32202033;4.930959141;2.55613527;12.78169568;17.38543898;-0.143871589;12.40731689;-0.469859404
2.476314727;8.91460044;10.30029406;-0.647676028;-5.896945899;-1.303872349;10.59116184;-9.849130524;-39.02610767;-26.30057031;-14.53884664;33.78245815;4.001153828;0.964425342;14.7420204;16.99592259;-1.761049735;11.07850113;0.192550707
4.969364124;8.882143584;11.79200235;2.550816114;-3.153326889;0.92653773;12.75612366;-7.191588549;-35.08695124;-21.89508521;-12.03566065;38.91964209;3.135800656;1.244987214;18.81504585;18.7896257;-0.572829881;13.26997049;1.696004854
6.381993908;9.103303847;12.38300444;5.189755015;-1.665140871;2.373681641;9.129370275;-6.003650974;-35.23633187;-18.62047941;-11.60283046;40.71858038;1.76245899;2.186028292;21.85750053;20.20414367;1.430854036;15.42589469;2.311980348
5.15250035;8.687448021;10.15190583;4.808740888;-2.961340129;1.682279875;3.095197174;-7.619560184;-39.22959902;-18.96304723;-14.36011041;36.66340706;0.435292248;2.637645753;21.60739769;19.41310496;2.027450009;14.17874963;1.211617486
1.821740107;7.492154925;5.540698734;1.391187943;-6.377457757;-0.545213832;-0.165067344;-11.16509614;-43.3434276;-22.42487898;-18.26187189;28.97985551;0.411044649;2.551468407;18.0538159;16.5891797;0.656671472;9.315051416;-0.761259808
-1.308391407;6.532049138;1.26662864;-2.652007314;-9.582107161;-2.383244764;1.72574369;-14.24852238;-43.73767336;-26.07256257;-19.8891998;22.89914704;2.356993748;2.751918172;13.13343449;13.43248633;-1.302881933;3.999745804;-1.862217713
-1.994577863;7.278459284;0.256657583;-4.441495442;-10.42027221;-2.352787005;6.54378951;-14.82317964;-39.60763854;-26.92450324;-17.43457562;22.48381421;5.475026366;3.850860591;9.234798914;11.70207651;-1.939614191;2.192737619;-1.027224348
0.184500773;10.3531228;3.316635733;-2.829661614;-8.508869809;-0.694177308;9.815003938;-12.67566585;-33.40274182;-24.14289594;-12.15730394;27.56527162;7.981095852;5.484323783;7.741118455;12.07537761;-0.539616679;5.476011876;1.169799493
3.565867657;14.75052407;8.454676106;0.935754009;-5.328771544;0.955904365;8.929462635;-9.392842741;-28.23106487;-19.33593302;-7.089132201;34.26748752;8.609584259;6.628873689;8.562559539;14.06554539;1.865541035;11.85222495;3.019686329
5.785631785;18.35531854;12.38021871;4.462492004;-2.887157399;1.105958605;5.267437833;-6.976443174;-25.07939094;-14.96902241;-4.287877049;38.45976867;7.79642303;6.636205128;10.69063138;16.6973909;3.500585599;17.33613771;3.165246797
5.59440951;19.4338236;12.91924708;6.157397491;-2.179742311;-0.269388936;2.615613926;-6.349328754;-22.42271024;-12.41173247;-3.180246945;39.05089225;7.398360955;5.917263932;13.0771751;19.1463345;3.409695112;18.90292197;1.748243554
3.621675102;17.91421145;10.4130766;6.199577588;-2.706504051;-1.795322659;3.559648854;-6.954336116;-18.38801046;-11.25153788;-1.447093856;38.35881382;9.086403268;5.571559136;15.12966265;20.88494001;2.195319242;16.43700455;0.23175768
1.586432683;15.40109206;7.101901045;5.876869894;-3.269721833;-2.019277566;7.218416109;-7.612312246;-13.20771818;-10.23425852;2.452130484;39.46887509;12.77201297;6.306780511;16.66632513;21.53976314;1.366087305;12.34922145;0.099000263
0.7735292;13.90674213;5.174956169;6.090254135;-3.180705715;-0.743238578;10.25789163;-7.735774468;-9.489624002;-8.756108638;7.490596439;43.11457676;16.4717761;7.700597702;17.68499094;20.91429643;1.961702052;9.477946258;1.59242392
1.118033396;14.33981643;5.169107708;6.473357904;-2.772318133;0.831393376;10.05619505;-7.798227253;-9.960462868;-7.480322004;10.69217511;46.90767413;17.80846243;8.541645644;18.31426551;19.28146221;3.682097283;9.104967011;3.570218034
1.582629451;15.96683456;5.944254894;5.891442581;-2.866381956;1.227711919;7.026515406;-8.725483554;-14.7739394;-7.588163782;9.635776948;47.54452844;15.92418254;7.954780105;18.92406717;17.55557813;5.212033331;10.52577973;4.544645746
1.331236316;17.21415706;6.042940242;3.764655289;-3.820828617;0.029153825;4.043898002;-10.8590245;-20.94469256;-9.466946124;4.634157983;43.93523326;12.19396992;6.252314691;20.0611048;16.91832103;5.356327919;12.15312475;3.950137685
0.557091485;17.05214463;5.109822083;0.910155603;-5.09627545;-1.773810267;3.663666065;-13.47095324;-24.55545277;-12.11383521;-1.328910692;38.4060629;9.12906806;4.68799092;22.01499875;17.99282443;3.955837795;12.93968858;2.547496093
0.235329508;15.76570241;4.128242846;-0.939778123;-5.717015309;-2.693822959;5.793131484;-15.25335752;-23.85514684;-13.82647648;-4.849178144;34.86248737;8.389836374;4.311745743;24.28963976;20.21918856;1.852088346;12.91267628;1.677742874
1.099617663;14.51423249;4.363346441;-0.566575848;-5.145048878;-2.05149537;7.934587456;-15.32117755;-20.53446676;-13.56527519;-4.616419613;35.48988685;9.568332065;4.97725146;25.54913649;22.07186487;0.059149156;12.618936;2.082411762
2.836182474;14.16199722;6.044781198;1.607173259;-3.740470903;-0.503299955;7.665654774;-13.85609975;-18.08168459;-11.79137465;-2.123144942;38.84576174;10.72085348;5.437301504;24.34351172;22.09466852;-1.045565118;12.26886071;3.327699921
4.248411516;14.46524164;7.998157569;3.699353673;-2.422102055;0.630301298;4.975363039;-11.89779952;-18.71315315;-10.08763514;-0.128495477;40.98460283;10.13303611;4.47086435;20.23958076;19.98335728;-1.826628232;11.48465276;4.274958869
4.236364259;14.32992021;8.551318341;3.746860671;-1.90311316;0.570507361;2.282957452;-10.55371849;-21.6034034;-9.94562503;-0.34660702;38.65979767;7.780801265;2.029764372;14.48066547;16.8227906;-2.817868758;9.829403318;4.106828169
2.704600848;12.87096142;6.917108238;1.158375961;-2.229033909;-0.285417785;2.16308563;-10.34066491;-23.9215706;-11.76615267;-2.346777491;31.92651905;5.268502015;-0.643776953;9.496646048;14.25258748;-4.099028612;7.494070788;2.980800242
0.60454717;10.29867605;3.865299497;-2.921009629;-2.989376695;-0.833131669;4.917777612;-11.1360608;-23.6358643;-14.82457253;-4.417873771;24.0560402;4.370670987;-2.052671476;7.42863093;13.23529488;-5.213920262;5.398283221;1.785125307
-0.885870588;7.840319509;1.137276313;-6.565607788;-3.892802046;-0.343611476;8.24194639;-12.59349545;-21.47338791;-18.04077083;-5.360956588;18.97295301;5.491922828;-1.711361127;8.671266264;13.44003906;-5.646721828;4.566839184;1.300564869
-1.285137898;6.779668901;0.129881411;-8.501491298;-5.062430918;0.860820788;9.278605459;-14.48445999;-20.22156663;-20.73664777;-5.455529749;18.4229672;7.376838149;-0.50795279;11.5473555;13.72032625;-5.338664995;5.349664656;1.564899133
-1.029268285;7.465427832;0.948865121;-8.854302285;-6.734274008;1.73779135;7.175895542;-16.61470415;-21.99488038;-22.73052505;-5.776452607;21.11715869;8.272802886;0.156229245;13.44496218;13.219778;-4.72958004;7.189514106;1.983553068
-0.862054784;9.12673788;2.553804004;-8.707729789;-8.690105392;1.517470772;3.828523422;-18.4975247;-25.97202286;-23.87481474;-6.681512152;24.28137346;7.48404323;-0.338006318;12.63975484;12.11573478;-4.306178622;9.116508872;2.009524861
-1.021030926;10.58700598;3.764089804;-8.981780097;-10.07582846;0.417275462;2.161540133;-19.2847003;-28.7463655;-23.71668633;-7.09140211;26.034204;5.94830871;-1.27728713;9.472120369;11.36404205;-4.126501257;10.48899111;1.708348338
-0.996812276;11.18381989;4.208962904;-9.639543445;-9.915075379;-0.573343446;3.534796475;-18.22187314;-27.13838936;-21.79160831;-5.408727429;26.53073468;5.351700339;-1.313395204;6.014156226;11.71686789;-3.798525506;11.32367661;1.675263054
-0.076569185;11.08441695;4.44288639;-9.84348648;-7.93615624;-0.615837409;6.600058594;-15.32702214;-21.11179639;-18.32990843;-1.306140251;27.12142727;6.573603621;0.22055451;4.501702762;12.93618425;-2.92856894;11.9955717;2.407022125
1.862485128;10.80595817;5.233032594;-8.812630493;-4.954085064;0.21248309;8.589003208;-11.65404021;-14.25324636;-14.60766846;3.329907316;28.59465229;8.8158422;2.572140879;5.731355926;13.94386612;-1.581957299;12.69230324;3.744430742
4.080692613;10.50624588;6.741254782;-6.560243079;-2.378119976;1.009463667;7.817131164;-8.767569439;-11.2850894;-12.38716949;5.379364413;30.2652863;10.16269892;4.098795049;8.610931684;13.80290376;-0.276696449;13.201798;4.926933574
5.516288735;9.795540194;8.35772185;-3.878343192;-1.182459196;0.89161503;5.141881062;-7.726258345;-14.55562728;-12.72143265;2.789460328;30.71826015;9.099213289;3.628414386;11.13;12.66633168;0.515539626;13.23528687;5.225692021
5.679412749;8.273078835;9.309388758;-1.652247067;-1.190043945;-0.198251874;3.113454307;-8.351488778;-22.29371826;-15.07992618;-3.648974581;29.39081511;5.734896999;1.47910444;11.92722324;11.82898303;0.89125069;12.925229;4.586573576
5.102626807;6.241138604;9.453450917;-0.168949518;-1.290816272;-1.453803788;3.65011624;-9.389111856;-29.95204954;-17.6120016;-10.57504969;27.39786294;1.767629672;-0.735435077;11.22447633;12.77222012;1.530886287;12.93951727;3.704363664
4.929281573;4.81760072;9.503941896;0.967920514;-0.423254411;-1.950063477;6.353734194;-9.46384755;-33.47623823;-18.45476621;-14.26683189;26.74554307;-0.721674484;-1.334466356;10.4611584;15.94964921;3.128901432;14.0107645;3.45918222
5.975422929;5.197534034;10.45385638;2.29337238;1.514136375;-1.468817997;8.939439962;-8.077855324;-31.9049656;-17.08386923;-13.10171651;28.60610614;-0.646832652;0.216100653;11.00550071;20.29417948;5.710383573;16.25421408;4.204608858
8.060901147;7.633307032;12.67870649;3.853296711;3.595525101;-0.6506914;9.322799738;-5.876468024;-27.43207282;-14.61331748;-8.405734351;32.22137656;1.563197739;3.0859452;13.01216221;23.8530754;8.450787752;18.89638941;5.508794017
10.17071265;11.04807693;15.50448638;5.08715688;4.684439283;-0.35904793;7.45244681;-4.020300187;-23.20677214;-12.79578869;-3.162272139;35.45640037;4.54992432;5.934117405;15.31811956;25.07346749;10.20569622;20.71699766;6.537220353
11.29387811;13.71464411;17.63962592;5.326021013;4.4107191;-0.867447406;5.273138486;-3.232284677;-20.86583076;-12.55526822;0.256578036;36.55248432;7.092018694;7.998679131;16.41437359;23.78865082;10.34759969;20.89705051;6.716646784
11.22073336;14.5146408;18.14011686;4.446281836;3.461179296;-1.628053829;4.923779874;-3.312370259;-19.7374938;-13.27327255;1.521654283;35.56243536;8.777364616;9.468566315;15.69665227;21.23551945;9.2320605;19.60580969;6.117913503
10.64047671;13.74956715;17.12202744;3.080329223;2.953469634;-1.821888451;6.833912281;-3.465617202;-18.06149467;-13.40819107;1.977211921;34.23143626;9.887330625;10.91546641;14.01616976;19.17988644;7.915936483;17.86122189;5.287227403
10.49337212;12.80908412;15.63625889;2.176452567;3.46330577;-1.160275198;9.402413035;-3.087049191;-14.90488959;-11.90141838;3.043546252;34.44196885;10.80261012;12.4380775;13.11190257;18.82281158;7.362479101;16.78107873;4.744926796
11.15313039;12.95283753;14.80377205;2.261981241;4.554859256;-0.178478004;10.47003906;-2.301958986;-11.08805974;-9.174828657;4.868833779;36.56372157;11.54277465;13.38822765;14.34070779;20.19296544;7.76780154;16.8066241;4.614507166
12.12198356;14.21824548;14.90818416;3.01;5.193374735;0.258171243;9.204917955;-1.840585569;-8.501581885;-6.894119299;6.298109613;39.08898655;11.77767231;12.94272194;17.60910958;22.28211041;8.507564904;17.45646801;4.658738192
12.45600319;15.36992468;15.171641;3.450773128;4.637101408;-0.221593792;6.725013406;-2.437206285;-8.614125774;-6.723978575;5.988095969;39.80490456;11.15390241;10.95387767;21.24301552;23.68018037;8.677926671;17.71918267;4.600441201
11.52846046;14.92970989;14.38788132;2.649160092;3.012519246;-1.109928104;4.988253413;-4.322545127;-11.5063652;-9.12371951;3.561314256;37.47359685;9.553957876;8.241482274;22.8887896;23.27255502;7.753035659;16.72189281;4.377735233
9.500790104;12.41553213;11.90754056;0.328830148;1.103684715;-1.44433495;5.03768685;-7.210683277;-16.09469684;-13.13984052;-0.181817049;32.65012586;7.100992994;6.021664015;20.88860407;20.69522131;5.863892351;14.18980527;4.113213949
7.166061865;8.748109071;8.203696162;-2.98573428;-0.388709261;-0.670245465;6.197722339;-10.67081548;-21.09149176;-17.26594145;-4.024677206;27.08722555;4.053431249;4.988770111;15.31228438;16.46505337;3.580888672;10.46962391;3.896358
5.360738583;5.494358841;4.58456245;-6.33965533;-1.406669536;0.834752205;6.871294215;-14.42655861;-25.72956388;-20.55597449;-7.25521615;22.3732196;0.81544917;4.894894449;8.053715485;11.80798542;1.487221765;6.245454283;3.656317506
4.44496581;3.594425175;2.279918014;-8.904514783;-2.413596526;2.051655458;6.111086635;-18.26478993;-29.72466998;-23.04990872;-9.923194993;18.98441669;-1.952404558;4.996950288;1.926055498;8.214880152;-0.080661491;2.225241278;3.272878534
4.21212833;2.637485922;1.590940359;-10.34271362;-3.755601552;2.172578093;4.483792956;-21.70307596;-32.80086734;-25.26301325;-12.34897785;16.42055272;-3.396516067;4.911825165;-0.779909569;6.814037172;-0.997759174;-1.039172132;2.790388518
4.188013963;1.273274026;1.720880196;-10.82452005;-5.156299141;1.263712379;3.466727149;-23.87894453;-34.49036239;-27.34376884;-14.51983162;14.08100794;-2.904770708;5.024719896;0.4784388;7.809267162;-1.196423897;-3.2250149;2.467660377
3.99475698;-1.602936547;1.381545954;-10.80540796;-5.859404963;0.165575892;3.996974112;-23.94987118;-34.51058381;-28.75320895;-16.03622228;11.95778469;-0.700432415;6.021932666;4.160692175;10.33693118;-0.635919415;-4.287376299;2.560849649
3.501724444;-5.870272627;-0.288198781;-10.76344588;-5.307803772;-0.258257243;5.552588191;-21.77110608;-33.29589571;-28.76770323;-16.63327881;10.53079944;1.956116998;7.981149552;7.445581568;12.94049198;0.562909425;-4.473288595;3.032473906
2.753693417;-10.17646668;-3.142595541;-11.01118836;-3.721240154;0.156311092;6.615002288;-18.24887373;-31.9935075;-27.29307428;-16.66755907;10.08270132;3.357558585;9.936597178;7.804391671;14.45507425;2.00744071;-4.211068205;3.498551311
1.864775989;-12.85818465;-6.151311227;-11.58474053;-2.003288554;0.809159337;6.069022255;-14.94046803;-31.71774487;-25.16110954;-16.96388411;10.2011559;2.500281733;10.4567324;4.490761294;14.73090729;3.146593855;-3.857357562;3.523883857
1.019360808;-13.01932082;-8.075265691;-12.19954748;-1.017074363;0.949421955;4.242991977;-13.089513;-32.62610286;-23.55192463;-18.05882481;10.0216019;-0.032814161;8.837405711;-0.95285202;14.65257213;3.581179377;-3.453747152;3.030373546
0.523796184;-10.95269893;-8.193482555;-12.32060375;-0.8613185;0.382480153;2.640869831;-12.81284619;-33.66484009;-23.01066608;-19.52704517;9.027978551;-2.258928723;5.871065807;-5.552607687;15.39413599;3.317575841;-2.712950171;2.433023935
0.74672913;-7.693997397;-6.610205267;-11.39687867;-0.803829532;-0.373456089;2.619961974;-13.10101193;-33.31019167;-22.94167323;-20.08675307;7.676439963;-2.099391236;3.424843207;-6.66661543;17.44643222;2.724763299;-1.298539498;2.333513175
1.899746315;-4.193863434;-4.017021873;-9.192353048;0.048569288;-0.602035904;4.212406947;-12.65807022;-30.75200245;-22.0736151;-18.50714686;7.237033411;1.077754106;3.061146467;-3.569115449;20.16777146;2.214989717;0.807818596;3.005050539
3.822923264;-0.807822818;-1.162938246;-6.003796415;1.930649397;-0.079551448;6.131838391;-10.91190976;-26.53760042;-19.53160628;-14.59377093;8.921756022;5.867301025;4.80334446;2.171207307;22.22632721;1.930312105;3.180804307;4.120557459
6.009026173;2.579163244;1.567329107;-2.558217541;4.185373638;0.702270062;6.923395631;-8.376008243;-22.12915157;-15.59526488;-9.40565231;12.97202984;9.734468958;7.100766409;7.768723288;22.60177964;1.720718387;5.217266447;4.987179648
7.916523354;6.057137877;4.214095685;0.407593392;5.837402651;0.983975045;6.205295429;-6.086956081;-18.75623151;-11.47588465;-4.496875375;18.40092588;10.81527509;8.076963332;11.01434899;21.36385298;1.425965844;6.590715838;5.105197935
9.339394947;9.350773779;6.982620329;2.610519462;6.469212188;0.441149516;4.911684366;-4.627741505;-16.54298888;-8.301103754;-0.814527918;23.54927904;9.263810032;7.059849932;11.55667563;19.62451311;1.174890587;7.489256676;4.569181105
10.50247253;11.92787416;9.915720963;4.362551368;6.609516685;-0.503017175;4.375282692;-3.601258793;-14.62748316;-6.199186942;1.825122;27.00988192;7.101911952;5.125319314;10.83446686;18.72541667;1.382418089;8.396088916;3.957828248
11.76610538;13.39827304;12.75448121;6.239557607;7.262654165;-1.041101652;5.117848022;-2.028477456;-12.11190665;-4.297630639;4.278534265;28.28615802;6.668907108;4.187281555;10.8166701;19.32123898;2.404354625;9.586602744;3.81304466
13.18460558;13.80468113;15.06813943;8.505655037;8.970422852;-0.693215649;6.428354076;0.662640341;-8.97307188;-1.647603408;7.092403501;27.85282972;8.85466728;5.375821883;12.54850284;21.0619522;4.15226761;10.8083519;4.179735032
14.33543918;13.56370708;16.53237156;10.7546449;11.23146044;0.269867382;7.054819239;3.925053067;-6.140497049;1.743244108;9.892503999;26.7396056;12.45974363;8.045582056;15.55856508;23.04955868;6.049585877;11.48446439;4.6218738
14.63074101;13.16761908;17.14585409;12.0974426;12.81675215;1.062960268;6.334278244;6.317872763;-4.716760718;4.708287372;11.67700198;25.98337087;15.13544995;10.24102212;18.4417704;24.61204224;7.429729404;11.31158973;4.690383409
13.89045582;12.94846155;17.2381694;11.80169216;12.75224612;1.061737014;4.738422988;6.545994333;-5.066330254;5.781098236;11.72469736;26.20436793;15.13372944;10.24378777;20.01671915;25.73135692;8.073433189;10.71970402;4.394812347
12.67763374;13.07612695;17.27186324;9.908203572;11.15379997;0.316175361;3.391539802;4.490782219;-6.571392869;4.416887915;10.28663607;27.37285627;12.5135985;7.940242343;20.09820696;26.82537778;8.420097656;10.71250242;4.219666575
12.0450439;13.68308404;17.57066909;7.329311474;9.205165119;-0.536484101;3.054405461;1.385815271;-8.215641525;1.532221777;8.440019531;28.77374444;8.941984385;4.902656089;19.36567407;28.16537829;9.231692406;12.11677821;4.649795484
12.82419455;14.88729222;18.14114664;5.313997713;8.280039063;-0.854916913;3.507804646;-1.027455847;-9.414604931;-1.129026567;7.237681578;29.23796181;6.355005124;3.132054859;18.61197155;29.49630508;10.94480613;14.81698218;5.643543012
14.9996905;16.64298442;18.69067576;4.653011671;8.919528913;-0.53999974;3.850843243;-1.708588395;-10.33608134;-2.308932543;6.900675694;27.68849121;5.590078125;3.487517672;18.11545905;30.194027;13.22758994;17.64375442;6.571564997
17.68437358;18.60225156;18.82850432;5.205650171;10.48666006;-0.071294525;3.379673012;-0.952048183;-11.47650625;-2.152447583;6.741845564;23.82942026;6.01779969;5.055442955;17.63530945;29.78681392;15.1152933;19.09737901;6.729001462
19.74029576;20.22397522;18.33229516;6.088464441;11.74828864;-0.034190868;2.218737329;0.016130189;-12.96879335;-1.974885525;5.851611463;18.55017022;6.330738373;5.936818633;16.87506588;28.35500659;15.6428276;18.39908401;5.988435267
20.56091964;21.12929522;17.32074658;6.364015314;11.87378062;-0.585166129;1.157942721;0.107702881;-14.33106129;-3.082440283;3.927237686;13.63844077;5.73726979;4.804730584;15.83642294;26.46521808;14.50050894;16.05473434;4.989451893
20.39205086;21.40068363;16.21567858;5.699924455;11.02891368;-1.32827412;0.901262236;-0.768644166;-14.91883573;-5.631156481;1.545081842;10.81858639;4.580532361;2.008620419;14.68203479;24.73088891;12.22847383;13.46937845;4.640334524
19.9510813;21.48680533;15.49150423;4.517219564;10.11996996;-1.68121316;1.446683076;-1.71778496;-14.64667455;-8.465459598;-0.302955716;10.68621884;3.967706794;-0.605402602;13.3151284;23.40712094;9.831950265;11.89658533;5.32234166
19.69160219;21.70401823;15.34482238;3.560058594;9.963306591;-1.37107011;2.146062105;-1.667683811;-14.25696694;-10.05310056;-0.959584801;12.30944877;4.819572815;-0.987808768;11.24680935;22.35126592;8.133729193;11.53534871;6.488800715
19.35722064;21.74499611;15.49428686;3.261606558;10.60532861;-0.613294493;2.338132774;-0.277988683;-14.80985018;-9.727919962;-0.507450327;13.85388757;7.151412265;1.687657187;8.056984582;21.31624603;7.338475925;11.46396937;7.048144236
18.21928873;20.70175909;15.27562837;3.410427414;11.34101454;0.151592289;1.936394556;1.782517986;-16.79044226;-8.217079764;0.425736015;13.82381069;10.10727299;6.475778664;4.090009766;20.25100015;7.071502986;10.42935;6.2516233
15.80495639;17.72562929;14.02797357;3.358060162;11.36237574;0.677632357;1.441628113;3.366606064;-19.61502768;-7.041097608;1.177606574;12.01124648;12.61165644;11.30635677;0.632576447;19.32632815;6.779860167;7.845521622;4.349628983
12.49095057;12.86808483;11.56437422;2.577788457;10.45259892;1.083863995;1.414829095;3.713210708;-22.00383329;-7.30288054;1.391318988;9.456977687;14.05307191;14.29584742;-0.829346842;18.71212192;6.15382876;4.231455782;2.446868743
9.431215082;7.38951079;8.421281653;1.129317909;9.147919693;1.63601922;1.938991438;2.951540899;-22.94207509;-8.85371254;0.976622066;7.514062575;14.50016711;14.81073221;0.185949475;18.38277567;5.288508694;0.807712969;1.65216338
7.829645792;3.170945082;5.683372675;-0.317061283;8.273502493;2.383349444;2.569085058;1.900083008;-22.43152058;-10.47480286;-0.089936398;6.819408341;14.41369826;13.6451087;2.541458056;18.17451327;4.550178672;-1.357048605;2.218871071
8.11184302;1.579911012;4.444460258;-0.894269845;8.282194809;3.02836404;2.780443083;1.401918773;-21.4037313;-10.86900152;-1.778227635;7.011929535;14.21118382;12.32207277;4.179668242;18.02749085;4.311981943;-1.95827703;3.387262509
9.642863257;2.632186178;5.222406843;-0.073626868;8.948474961;3.171976728;2.460539335;1.764721803;-20.88;-9.632937741;-3.772147081;7.353542195;14.05315595;12.06264201;3.767853727;18.12361443;4.74278439;-1.414933889;4.05016028
11.20704955;5.110263755;7.702750844;2.045368263;9.626024653;2.704412645;1.979838032;2.706189393;-21.10343538;-7.466194451;-5.314590766;7.604401169;13.91972294;13.07624326;1.979787055;18.71679572;5.722723067;-0.339405221;3.670325126
11.86739554;7.554118781;10.97615983;4.83949926;9.795185683;1.961101852;1.804467349;3.737539106;-21.38221627;-5.546551108;-5.49030568;8.287549091;13.76626981;14.5373421;1.205371828;19.77415315;6.863962638;0.95373475;2.675796022
11.54099477;9.333744661;14.09255907;7.52063073;9.422157365;1.476938381;2.049079212;4.574438141;-20.77135764;-4.661869887;-3.900689931;10.05137474;13.54452369;15.17692462;3.687336741;20.78477942;7.611878479;2.497745742;2.018540974
10.87900295;10.94478808;16.53214985;9.472635687;8.868951974;1.549311366;2.400132693;5.221462137;-19.00086201;-4.7999009;-1.204061198;12.70058015;13.10205882;14.09798427;9.458810164;20.99051588;7.434733962;4.334347024;2.30307902
10.60324637;13.3145165;18.27074156;10.38072689;8.504895697;2.004633406;2.459629357;5.738487057;-16.85266294;-5.421425733;1.056052352;14.84467264;12.15793381;11.34912463;15.80340136;19.91747042;6.080837496;6.188941718;3.252449687
10.8656171;16.73466454;19.44729567;10.1729668;8.405091919;2.38055653;2.151275886;6.010278895;-15.64690964;-6.040365531;1.392422691;14.6422512;10.48791607;7.947219471;18.8715165;17.78121099;3.784571478;7.512260753;3.971889783
11.1404129;20.35230833;19.96883389;8.929864772;8.393555354;2.355883627;1.788566422;5.817426867;-16.23098991;-6.53456111;-0.542574345;11.17636532;8.20509137;5.33623344;16.36763499;15.4034705;1.247834909;7.864358679;3.767657443
10.70407809;22.67856285;19.44018516;6.884591475;8.34404962;2.035285034;1.753013558;5.180132804;-18.264281;-6.949041666;-3.592102347;5.386581865;5.856850374;4.575453111;9.280649313;13.67921059;-0.677526396;7.281710701;2.791682858
9.284564427;22.71120704;17.52322968;4.488619288;8.413370014;1.833668086;2.117124731;4.628265363;-20.35267557;-7.081773353;-5.816099829;-0.251347968;4.172421057;5.720489026;1.295455481;13.01649309;-1.458599917;6.278289656;1.933531044
7.346843789;20.7403946;14.43247985;2.40406521;8.956429157;2.075778704;2.591322256;5.049054878;-20.93125546;-6.362323323;-5.809648143;-3.160136436;3.606307116;7.78;-3.687898311;13.18666847;-1.189615959;5.46286488;2.037861416
5.790869551;18.16176731;11.0980427;1.314373165;10.17774707;2.686377298;2.840696354;7.105429572;-19.25395497;-4.248465361;-3.623783426;-2.21037486;4.041601032;9.303885622;-4.03545692;13.650724;-0.496120599;5.09486007;3.120087891
5.305307219;16.44155801;8.749212234;1.599523695;11.8287756;3.256844359;2.842143118;10.62135821;-15.82144967;-0.843214822;-0.591590137;1.696448285;4.917113518;9.257136532;-1.029706508;14.0103013;-0.081360345;4.9447864;4.271480525
5.87391327;16.07127272;8.142233733;3.071422129;13.24046606;3.421897275;2.909546072;14.44222367;-12.0275999;2.840237329;1.760083008;6.348972178;5.687366658;7.624679532;2.616110121;14.15685617;-0.249308238;4.547704485;4.367574854
6.793661979;16.33839042;8.997524724;4.977915046;13.70753505;3.19336695;3.34908726;16.9742096;-9.344251155;5.300852734;2.804884267;9.639108784;6.225946948;5.350687667;4.980222174;14.028918;-0.771765074;3.602133692;3.009563663
7.169214652;16.04937086;10.1218973;6.332394422;12.9506181;2.940835251;4.088660717;17.1037282;-8.600097656;5.433843499;3.044686735;10.64562168;6.819827364;3.662694528;6.030078125;13.31149547;-1.192037608;2.171971196;0.915472404
6.51194618;14.56671842;10.20253795;6.410207125;11.31409628;3.038353165;4.671689199;14.88484848;-9.737001466;3.2436887;3.363433395;9.755870657;7.760210701;3.257161404;6.85826307;11.50332987;-1.292259153;0.561552289;-0.581767125
5.032743483;12.31048375;8.73747435;5.127223034;9.556643986;3.505307374;4.657319774;11.51159809;-12.05380706;-0.150113342;4.033221746;7.985062642;8.904687293;3.910472654;8.005020251;8.421225981;-1.309076899;-0.95937612;-0.544528885
3.470304931;10.37674593;6.429703931;3.074818739;8.38917972;3.972893108;4.057033568;8.578996528;-14.67136885;-3.22331569;4.384486766;6.178832355;9.63198964;4.755433465;8.57610463;4.723445271;-1.697806195;-2.288345898;0.851757365
2.624868588;9.682314095;4.747884138;1.19521402;8.080219064;4.005624821;3.369650576;7.126818184;-16.92094482;-4.952423171;3.438065394;4.682840748;9.277758595;4.973884722;7.048136507;1.889698421;-2.643308655;-3.358197646;2.461879716
2.931692946;10.40020955;4.967536254;0.301652615;8.374679268;3.481652015;3.139928762;7.099040674;-18.50441303;-5.28173001;0.926861725;3.533420881;7.709014856;4.376009483;3.019687769;1.482392844;-3.753298698;-3.901218066;3.059637534
4.322558235;12.12164372;7.381103174;0.731359697;8.740574594;2.686659405;3.42992093;7.548963705;-19.43805331;-4.888260205;-2.227822043;2.786787887;5.545100219;3.469444192;-1.795976308;4.136004021;-4.232438936;-3.394659189;2.27539005
6.390343296;14.4896852;11.21435566;2.312631907;8.749872458;2.045217788;3.711360532;7.404339535;-19.87352163;-4.513350964;-4.457452826;2.611883747;3.806260974;3.036953577;-4.435140557;9.035422861;-3.432006801;-1.319934563;0.862807786
8.67789815;17.62641744;15.23871202;4.609280653;8.347463401;1.747726725;3.324878896;6.246569657;-19.90134313;-4.401858387;-4.691577485;3.122867412;3.24327121;3.59516008;-2.841843291;14.33862465;-1.343808215;2.424687615;0.109153143
10.88058953;21.89485183;18.56297859;7.229772771;7.8670454;1.620331139;2.123928391;4.589311612;-19.43383303;-4.225105492;-3.156169075;4.2231637;3.870620963;5.130736165;2.479282724;18.28843685;1.359665332;7.28572038;0.857913327
12.86749341;27.19395178;21.01440939;9.974770738;7.816293941;1.349622665;0.716334493;3.512575886;-18.24314158;-3.447330672;-1.152049388;5.685554974;5.059419184;7.228178144;8.785743829;20.21918783;3.770303259;12.2092452;2.88178009
14.57629173;32.48013295;22.90596986;12.74637977;8.570511054;0.83634726;0.043174682;3.93919027;-16.16333539;-1.784936031;0.003373865;7.388383634;6.08357631;9.385493521;13.20538378;20.74687539;5.318431702;16.11305711;5.047502255
15.90993264;36.07965761;24.4912942;15.33795281;10.13861288;0.329456859;0.617935795;6.039894141;-13.35199906;0.578279485;-0.012392776;9.412814603;6.646469838;11.22684537;14.88298568;21.07145996;6.036601925;18.3664137;6.112030457
16.72593512;36.69023049;25.61511003;17.31650352;12.11337646;0.199597417;2.06849971;9.118634997;-10.42047242;3.096899394;-0.394622042;11.8253721;6.954267527;12.4981387;15.35003906;21.99034668;6.353737147;18.97881876;5.549500092
16.91295431;34.33410589;25.8335259;18.13225542;13.82783816;0.556855415;3.385134811;11.99334105;-8.279151194;5.125038391;-0.039587984;14.31813849;7.308393312;12.9699175;16.82451104;23.3838475;6.650227636;18.42816173;3.837152814
16.47601916;30.47974483;24.84109415;17.40454105;14.64607704;1.078200343;3.680738721;13.59496633;-7.720585332;6.134584499;1.392299739;16.10085984;7.612752126;12.43996785;19.95531034;24.48716001;6.969424588;17.3065345;2.058576763
15.55220574;27.16336152;22.79062535;15.18577852;14.25062014;1.231091736;2.83699399;13.43464467;-8.966641469;5.834495137;3.087252259;16.27936804;7.268777781;10.88132118;23.03279319;24.61498781;7.096868085;16.03980061;1.164706753
14.34227262;25.72575634;20.22868778;12.01080326;12.7830756;0.719426456;1.518221401;11.7352175;-11.47356297;4.25976031;3.691106433;14.51895019;5.596395646;8.588355248;23.41746429;23.69799816;6.871155232;14.81709369;1.421686173
13.0160555;26.09214895;17.74210258;8.691962301;10.76609752;-0.235876576;0.580560901;9.247116977;-14.14611557;1.867079431;2.412239351;11.46762857;2.454967259;6.137890856;19.97666687;22.23997285;6.396857875;13.68175461;2.377092663
11.6730368;27.10416782;15.66533849;5.999579276;8.855800163;-1.038564723;0.403636864;6.912412544;-15.85025179;-0.458758157;-0.293862926;8.522437597;-1.462076274;4.140876375;14.37748676;20.83977005;5.95214846;12.64348457;3.282706286
10.39480363;27.59928986;14.10728257;4.432578415;7.571330586;-1.174799886;0.696310715;5.544629411;-15.924174;-1.634964289;-3.006497579;7.012266155;-4.948686049;2.954282255;10.01601572;19.75771469;5.691520824;11.71999432;3.620911642
9.344609774;27.37354196;13.21842429;4.189440435;7.150609432;-0.607023431;0.880722373;5.609909752;-14.40665637;-0.851954774;-4.345076714;7.351075618;-7.028039039;2.560439246;9.393842641;18.88040648;5.445328801;10.92373406;3.374136725
8.813490134;27.29087249;13.36482627;5.280078125;7.580248362;0.219151997;0.65584392;7.122686005;-11.90123773;1.951109475;-3.895888138;8.781945525;-7.575909993;2.669530968;12.13146616;18.02206518;4.830009766;10.26195226;2.911089255
9.132592726;28.49325061;14.95310243;7.618839139;8.718475942;0.744765615;0.226355687;9.653978013;-9.215410184;5.951955898;-2.368984226;9.916066918;-7.360717217;2.915621107;15.32207602;17.20521724;3.593837026;9.778942313;2.641797932
10.46572069;31.35906879;17.99768675;10.99;10.37697297;0.720392124;0.029946304;12.46375838;-7.002297675;9.823807858;-0.941010859;9.693659291;-7.467916998;2.980029297;15.96622384;16.64548782;1.901914491;9.596866367;2.721270851
12.60340656;35.02040234;21.81573546;14.93107913;12.2955944;0.33543599;0.264800422;14.75191074;-5.561746646;12.43768284;-0.366206864;8.098878667;-8.530582721;2.610256809;13.45942075;16.50323154;0.310407667;9.889199728;2.997782674
14.91717526;37.79133186;25.1892969;18.69562581;14.07281497;-0.019348894;0.679221622;15.9577018;-4.824961009;13.43542156;-0.547921244;6.154940467;-10.32003906;1.646856791;10.0493554;16.70267189;-0.555344468;10.77245693;3.196853094
16.55644903;38.1716138;26.96495782;21.42542804;15.18517465;-0.113305875;0.811187455;15.97464474;-4.464732526;13.2892543;-0.820506909;5.23584328;-11.97298671;0.151173108;8.892250437;17.02395358;-0.363432734;12.17676771;3.164343013
16.81767068;35.70567273;26.68225876;22.49612311;15.16706389;-0.037930936;0.433689185;15.1576926;-4.070316226;12.83483704;-0.607593832;6.172042598;-12.66562405;-1.450664132;11.35981331;17.35833603;0.785081616;13.78591967;2.973741505
15.48683155;31.14874508;24.76962437;21.83361534;13.87091036;-0.055045192;-0.221724525;14.10390368;-3.345287277;12.64986387;0.121190612;8.712365439;-12.23730056;-2.42730045;15.8605996;17.8195756;2.492368767;15.1010109;2.830087891
12.94889644;25.92860956;22.17654273;19.97441286;11.61811341;-0.308124696;-0.6683421;13.32462197;-2.272542632;12.73856125;0.924298404;11.63395859;-11.32482462;-2.124331382;19.13702197;18.54425583;4.306075016;15.61312772;2.870246198
9.988022918;21.35506458;19.7455996;17.79477594;9.090751175;-0.68010277;-0.596124348;12.99580154;-1.160926016;12.70520005;1.345044782;13.39558406;-10.92832098;-0.483635891;18.91036891;19.36248823;5.863217463;15.01675932;3.037718675
7.389678982;18.10017279;17.8;16.05434979;6.989642029;-0.918607349;-0.130634694;12.91689568;-0.512565814;12.19399461;1.313542089;12.95617135;-11.72060953;1.72024584;15.64936854;19.71849292;6.888681073;13.375949;3.141783483
5.574350259;16.17240938;16.19750335;15.02570594;5.663517309;-0.886315891;0.305517072;12.66755716;-0.7576594;11.18016521;1.16386965;10.33707535;-13.56940042;3.237122536;12.03457212;19.03177078;7.169301269;11.16210589;3.049351082
4.463512902;15.22870594;14.69337379;14.42031131;4.951768614;-0.682127617;0.378368865;11.83240818;-2.022458258;9.871460915;1.297813634;6.652320602;-15.58170327;3.157527648;10.65666087;17.25399516;6.624855179;9.112880917;2.835349382
3.626464724;14.90077885;13.22729475;13.62392099;4.342478905;-0.517033693;0.109453666;10.15380292;-4.10545997;8.35596404;1.810331059;3.572950734;-16.63350043;1.618528362;11.92816536;15.1063688;5.43583432;7.927296119;2.739891289
2.588663739;14.92337534;11.88679795;12.06722231;3.332150619;-0.475554179;-0.206080629;7.564927907;-6.689454666;6.37239662;2.379356363;2.450536597;-16.04778247;-0.191962563;13.91153273;13.67795381;4.049621729;7.909933427;2.942360267
1.107219417;15.08082435;10.65149574;9.507049733;1.745030481;-0.408221718;-0.318003356;4.160574974;-9.613706422;3.469204935;2.471726553;3.522753527;-14.00769598;-0.834340308;14.07859828;13.60903677;2.946465271;8.754575923;3.336661076
-0.728814304;15.12354288;9.245397136;6.09297513;-0.182010852;-0.072665748;-0.249474682;0.187696571;-12.95261042;-0.543649803;1.671477759;5.65564367;-11.46369822;0.325240515;11.40877471;14.506389;2.280117957;9.634450711;3.524411414
-2.591107464;14.7698116;7.309382605;2.248065702;-1.966959703;0.605626981;-0.219496763;-3.930019531;-16.7933817;-5.236942196;-0.108590736;6.858098593;-9.595331041;2.6104367;7.061924995;15.12931821;1.694205696;9.608502379;3.083556138
-4.108758104;13.78730262;4.768108883;-1.515367378;-3.155863742;1.408329253;-0.358745792;-7.602888271;-20.87949249;-9.639713457;-2.625747533;5.379780302;-9.141862781;4.51261113;3.192704346;14.28341408;0.541561655;8.138253042;1.931347192
-5.048660191;12.07846945;2.036566808;-4.739790412;-3.51734065;1.971611811;-0.524070139;-10.19722162;-24.45530581;-12.74149715;-5.440690712;0.800171966;-9.98516588;4.816783982;1.082264283;11.7512997;-1.585135734;5.397042184;0.48269021
-5.397406051;9.721666867;-0.175866611;-7.097958402;-3.068578805;2.085976678;-0.413405028;-11.25660976;-26.53692637;-14.05163079;-8.062773135;-5.572548581;-11.2221766;3.508990844;0.251520915;8.509253463;-4.406240229;2.159729777;-0.569523743
-5.326477985;6.980560366;-1.342234963;-8.42875353;-1.97687642;1.876420093;0.124254542;-10.70477357;-26.49898896;-13.79591027;-10.05879574;-11.31521995;-11.68670927;1.75166442;-0.767061408;6.029378081;-6.98650388;-0.658974577;-0.730101072
-5.074381578;4.301194991;-1.476498543;-8.758893787;-0.448831783;1.690643526;0.894710297;-8.893265702;-24.56973852;-12.63059536;-11.15430128;-14.21315762;-10.62447495;0.951249616;-2.836213628;5.208898751;-8.291998499;-2.49781718;-0.078934609
-4.809040647;2.262948672;-1.05521623;-8.298921904;1.312673555;1.788657764;1.489285979;-6.454293907;-21.82939616;-11.14664628;-11.34147901;-13.51146906;-8.135120821;1.66939256;-5.315053808;5.777559387;-7.889407367;-3.337913246;0.7651138
-4.543757698;1.417596026;-0.567886751;-7.385892878;3.086626853;2.114352412;1.635124992;-4.054856711;-19.64209564;-9.584067174;-10.92885239;-10.32925431;-5.126831987;3.245561124;-6.655462942;6.639301745;-6.257056367;-3.499086905;1.10003418
-4.163721075;2.01450763;-0.104023262;-6.374182294;4.608131052;2.361841093;1.438089869;-2.204391798;-18.87533269;-7.955038527;-10.43797239;-6.994018183;-2.811676146;4.406220892;-5.88876184;6.829826073;-4.459193569;-3.271956882;0.677745578
-3.565532138;3.742778174;0.637472246;-5.52085048;5.594910143;2.282833539;1.282352787;-1.195347692;-19.43868573;-6.387176518;-10.34063061;-5.725731503;-2.038658485;4.326519935;-3.593072795;6.26970192;-3.431754217;-2.73074769;-0.107587646
-2.831109855;5.699975019;1.917103209;-4.924565979;5.834142676;1.956669863;1.473872039;-1.125943275;-20.45425644;-5.293716343;-10.7769903;-7.464888888;-2.853121741;3.257373148;-1.434582386;5.688100473;-3.431107608;-1.880532453;-0.549463094
-2.301030296;6.71360408;3.510431227;-4.540766691;5.290751232;1.768599292;1.961929104;-1.895939486;-20.91659902;-5.143139782;-11.45969454;-11.47958148;-4.52779717;2.219711925;-0.696169645;5.816432035;-4.051026499;-0.95563477;-0.227034374
-2.443258258;5.915621401;4.708732526;-4.243294871;4.179665605;2.097684403;2.402843696;-3.141932454;-20.35901151;-5.993732793;-11.86595067;-15.86755066;-6.022164995;2.059748562;-1.13274438;6.584651646;-4.737334785;-0.509300852;0.614823974
-3.543610832;3.258962382;4.843015467;-3.882875467;2.952818813;2.976625854;2.503885728;-4.21472429;-19.07259679;-7.226040514;-11.61122132;-18.57403024;-6.57531408;2.684207306;-1.196818055;7.054131672;-5.324201508;-1.099714704;1.231402046
-5.39984199;-0.357146404;3.921203825;-3.320645733;2.176466234;4.018830363;2.313395678;-4.346996391;-17.78571222;-7.793990579;-10.75086818;-18.36709352;-6.07896217;3.121080761;0.551700595;6.187640137;-6.121568635;-2.763049533;0.977360152
-7.258009334;-3.473774838;2.809698165;-2.456510247;2.314905971;4.682928966;2.170120311;-3.031494108;-17.10968718;-6.896171878;-9.796193799;-15.36016942;-5.038123171;2.344633738;4.084608904;3.826369477;-7.490229289;-4.73142406;-0.140151005
-8.111425846;-4.77693725;2.728051248;-1.278948592;3.492424031;4.659835085;2.35334326;-0.410804493;-17.18533199;-4.589403178;-9.432044191;-10.94573301;-4.190969652;0.169562718;7.766987768;1.035328084;-9.298369608;-5.735251434;-1.415467444
-7.240835885;-3.726383233;4.392426123;0.076839775;5.353451792;4.070221888;2.774095725;2.631940583;-17.74817105;-1.856871888;-10.12614853;-7.216429531;-4.052492081;-2.517815255;9.535179682;-0.528555424;-10.7690219;-4.780019531;-1.963540462
-4.674705272;-0.765814506;7.460449869;1.321057487;7.135467177;3.329081282;3.024175931;4.853414866;-18.46966081;-0.032040198;-11.87187642;-6.070680991;-4.655536896;-4.359322318;8.372320322;0.218688689;-10.90330253;-1.864111464;-1.399174305
-1.253037859;2.968125147;10.71829899;2.105231543;7.978598067;2.813480533;2.763449311;5.343989041;-19.2266565;0.035272211;-14.18445756;-8.302044321;-5.604701919;-4.453918978;4.890789044;2.976376464;-9.175246285;1.923464937;-0.13258355
1.786998556;6.233443555;12.87689909;2.205418031;7.349764294;2.615855848;2.089601992;4.101911331;-20.05490732;-1.511034095;-16.29379553;-13.06450018;-6.354988784;-2.893748323;0.691308146;6.228408529;-5.952592998;5.057093138;0.955642108
3.469244909;8.228837201;13.37974614;1.690918248;5.351161076;2.56318092;1.524244161;2.073614354;-20.84848193;-3.681879486;-17.38911944;-18.06821208;-6.511520429;-0.559320201;-2.773476478;8.278587109;-2.303812521;6.545857364;1.194370278
3.573682695;8.836946162;12.6444818;0.952705109;2.709171644;2.439760633;1.592168848;0.587306877;-21.11256439;-5.298644511;-16.81663786;-20.56961199;-5.975918168;1.56344031;-4.809048787;8.398929081;0.669435684;6.534282245;0.608019643
2.664854728;8.506262104;11.62775139;0.53882965;0.414466148;2.190185826;2.357022654;0.535885143;-20.05983037;-5.662865737;-14.23051242;-18.75035387;-4.894827321;2.957955317;-5.213918541;7.282299614;2.476325013;6.113898758;-0.169371653
1.661688219;7.900939791;11.11622978;0.872160124;-0.79388649;1.931438858;3.341390084;1.855597628;-17.0742258;-4.799708003;-9.734147344;-12.73852049;-3.496811791;3.652946472;-3.718161417;6.52238131;3.401051248;6.51041488;-0.453642466
1.256080306;7.527929136;11.29300593;2.016483112;-0.793430682;1.800271631;3.9254082;3.642023287;-12.25734992;-3.204363148;-3.987702495;-4.631464056;-1.953373874;3.892849907;0.039712646;7.52965639;4.118829061;8.252275663;-0.06333463
1.56365797;7.518692997;11.82977062;3.639246549;-0.072625855;1.810317022;3.880636246;4.792307951;-6.656311499;-1.386860292;1.824324184;2.542652016;-0.351844527;3.815386292;5.825587252;10.63003906;5.104219454;10.89321512;0.585515468
2.199470794;7.647235712;12.30774453;5.200019531;0.626882843;1.860487114;3.558763703;4.704266648;-1.938465497;0.410178086;6.26437581;6.305423513;1.230511442;3.445678347;12.14805646;14.89248862;6.286259363;13.40963378;0.890424591
2.664650417;7.555037298;12.55997702;6.25341283;0.775748243;1.869137277;3.556384491;3.564342481;0.379547621;2.174683253;8.122404477;5.753490715;2.63949892;2.937693776;16.56016505;18.70595828;7.167525352;14.90204514;0.600355914
2.73191411;7.055290032;12.69087237;6.687021769;0.331569093;1.878952563;4.152970157;2.096212411;-0.255897628;3.923687556;6.911848062;1.587513982;3.63971915;2.725318446;17.06049018;20.67707134;7.256877257;15.07534084;0.013471778
2.557822874;6.333177329;12.86140749;6.759154736;-0.326499406;2.012271078;5.035028874;1.037069195;-3.051545501;5.597136142;3.120676865;-4.67364761;4.023388037;3.339286076;13.6124899;20.30872361;6.460871766;14.22836182;-0.318019552
2.475960624;5.888435015;13.10658495;6.922389509;-0.715356292;2.316801282;5.568500932;0.752335816;-6.171760209;7.150100752;-1.943653839;-11.5925596;3.768446989;4.995714372;8.444945137;18.14046081;5.162935473;12.89031247;-0.095121984
2.658915547;6.204073108;13.34062659;7.539621185;-0.577413288;2.66451277;5.381816994;1.209803154;-7.620194431;8.703576515;-6.667137213;-18.20568555;3.123621118;7.319563941;4.654623501;15.36611889;3.979856484;11.45783119;0.464394853
2.914294087;7.321045141;13.46541807;8.65262766;-0.010147935;2.825430138;4.726807198;2.205906299;-6.257641217;10.52884624;-9.765398055;-23.85007813;2.523371298;9.480451969;4.051601425;13.18891836;3.399728836;10.07907613;0.833876807
2.765864947;8.623871283;13.39875854;9.929593836;0.649883824;2.66761272;4.27122731;3.559964732;-2.411197457;12.79854638;-10.75355765;-27.88354202;2.342922042;10.66761905;5.930019531;12.24655798;3.535260598;8.757933833;0.66257435
1.765070924;9.068619817;12.97891795;10.82305036;1.066802081;2.299154942;4.488222138;5.098860087;2.276799127;15.29069534;-10.05119574;-29.76616201;2.630926515;10.54182039;7.788138153;12.36803247;4.102892386;7.482223827;0.099893676
-0.173792193;7.805134699;11.90928927;10.86121053;1.094003176;2.004579173;5.186680537;6.515617968;5.707626879;17.3357456;-8.693382619;-29.4918396;3.012571941;9.336614281;7.443415561;12.76496939;4.592651373;6.240773677;-0.332122237
-2.631368087;4.82630068;9.924279812;9.921862054;0.810368184;2.012056994;5.623459659;7.34;6.439304049;18.13486886;-7.78263158;-27.87800817;2.877621341;7.594986553;4.816423547;12.55709748;4.522546585;4.97395734;-0.207725136
-4.831154892;1.167316523;7.123101855;8.334160281;0.422647786;2.291335103;5.132695096;7.157023576;4.436381538;17.27140073;-7.922351639;-26.24407831;1.78180334;5.819491527;1.918507879;11.34688676;3.671888281;3.590048828;0.404740815
-6.008391586;-1.583432822;4.15645404;6.731283323;0.124901678;2.56857114;3.74184392;5.945463637;1.028412897;15.04494821;-8.896603947;-25.56231802;-0.187277992;4.320917192;1.085676254;9.495528549;2.206656278;2.086458942;0.968495842
-5.808564261;-2.228891363;1.966442423;5.710184141;-0.001680894;2.557198787;2.234044713;4.236840928;-1.897353785;12.35312373;-9.784584781;-25.74725413;-2.357997684;3.292842057;2.977759911;7.896363175;0.628026201;0.656259274;0.913134505
-4.501352817;-0.754548616;1.138357295;5.478178549;-0.015983744;2.209049866;1.579029515;2.891736234;-2.989747736;10.16865431;-9.512261731;-25.77184315;-3.83975707;2.894267663;6.037803725;7.355928133;-0.472576836;-0.372234499;0.112080222
-2.880437103;1.611743242;1.337935524;5.700706769;-0.078667332;1.765402187;2.191703599;2.593920967;-2.163265929;8.961985158;-7.59409356;-24.64851164;-4.119304275;3.145325071;7.82886469;7.98604893;-0.758905072;-0.763608002;-0.99881145
-1.877121121;3.177085047;1.37149584;5.668830414;-0.367208121;1.560063477;3.624967504;3.416242279;-0.539456165;8.467704301;-4.634100687;-22.51325575;-3.495668292;3.708856981;7.045982649;9.051548898;-0.392745396;-0.580706991;-1.756851377
-2.076375744;2.899113769;-0.024314773;4.7177421;-0.967368205;1.744186352;4.938172812;4.790664424;0.33774654;7.951937173;-2.196449314;-20.83228805;-3.008597277;3.856622289;4.451996532;9.42908234;0.025800409;-0.155273471;-1.778892253
-3.400470618;1.055919519;-3.176628795;2.660048828;-1.782518705;2.170787117;5.424026982;5.920058594;-0.487297268;6.790249699;-1.980836212;-21.3934542;-3.825678621;2.832600585;1.979371179;8.391213503;-0.153345072;0.185890474;-1.225767479
-5.155467333;-1.029385108;-7.045682404;-0.034041886;-2.520811179;2.535247;5.100693781;6.334314366;-2.761717189;4.962294259;-4.704800923;-24.77582626;-6.437696087;0.455356517;0.887183659;6.164028682;-1.141556556;0.399281498;-0.630755515
-6.43420956;-2.02760743;-9.798798191;-2.438057661;-2.801774598;2.643086464;4.600943935;6.186261843;-5.148048194;3.139783182;-9.397686709;-29.5408231;-10.19817985;-2.520704487;0.692291522;3.839412313;-2.484406288;0.722225727;-0.464273062
-6.645550198;-1.642134036;-10.05089498;-3.64986211;-2.354711563;2.569023631;4.601418336;6.085759777;-5.989179115;2.317293499;-13.67835802;-32.93021644;-13.56982194;-4.696633433;-0.141263012;2.677440409;-3.322421504;1.341935676;-0.805740552
-5.843712941;-0.856715989;-7.871711177;-3.27765149;-1.201565912;2.573929199;5.289117703;6.614600866;-4.250996778;3.215597819;-15.0154414;-32.69401567;-14.99049061;-4.907177994;-2.418206499;3.274114547;-3.017220571;2.014142398;-1.369467265
-4.648849095;-1.181666481;-4.789515441;-1.655424183;0.303301279;2.863079115;6.279069549;7.882962745;-0.115577808;5.80568277;-12.28533978;-28.72896349;-13.83790728;-3.101636641;-5.067420266;5.161004672;-1.711409787;2.014335814;-1.812845365
-3.819149965;-3.454225372;-2.773073919;0.322007631;1.628707345;3.404695392;6.986784957;9.427641014;5.071890307;9.217109499;-6.629510947;-23.27537431;-10.86262392;-0.539296895;-5.858955578;7.083275212;-0.381889448;0.555219857;-2.02763977
-3.772569711;-7.113399045;-2.954894283;1.635513587;2.340415889;3.964771015;7.096486352;10.48938441;9.443045902;12.08556603;-0.955220101;-19.48007813;-7.774196468;0.93383329;-3.50974498;7.727632838;-0.283421992;-2.609952265;-2.166013638
-4.384414519;-10.53049412;-5.035577738;1.607544764;2.327569228;4.315951336;6.746391216;10.45788934;11.49367822;13.18035879;1.732532914;-19.35783253;-6.211724258;0.071669507;0.680985431;6.403949938;-2.129190849;-6.889826075;-2.415201915
-5.176279918;-12.17127883;-7.741041935;0.174377556;1.841893312;4.426612179;6.345340146;9.208903253;10.7927925;12.02167751;0.177709968;-22.60524842;-6.741624758;-2.953663653;3.313704851;3.296934997;-5.573263954;-11.14656291;-2.761386539
-5.71777307;-11.70814762;-9.867542959;-2.127658346;1.335077761;4.464430281;6.246659801;7.17881644;8.196395883;9.189263879;-4.283380467;-27.02839447;-8.517442512;-6.681015631;1.399905013;-0.742243178;-9.364595747;-14.38044348;-2.974851492
-5.913146013;-10.21263628;-11.03552202;-4.411406783;1.210686121;4.623278287;6.565806659;5.193714375;5.477793837;6.142412586;-8.464131409;-30.11869345;-9.807773453;-9.319519078;-5.009656818;-4.608325273;-12.06916345;-16.26811881;-2.826693824
-5.959013593;-9.254432497;-11.60437422;-5.794776778;1.645965028;4.939595063;7.229831729;4.163038703;4.538700322;4.586449671;-9.216998934;-30.53635156;-9.038468026;-9.824646831;-12.31076214;-7.28659996;-12.86077874;-17.12366465;-2.324639517
-6.043754799;-9.589416469;-11.96231751;-5.730407297;2.565119753;5.263642124;8.116996841;4.744386023;6.549655595;5.655127841;-5.279618397;-28.50050383;-5.683172368;-8.342316231;-15.61372135;-8.05228101;-11.85814468;-17.34301466;-1.736363171
-6.078781998;-10.46899294;-11.92973421;-4.208651373;3.729141947;5.400930213;9.107172016;7.058805647;11.40780672;9.311706482;2.074077047;-25.05912401;-0.474802315;-5.802260263;-12.23232538;-6.615934633;-9.841183629;-16.85162126;-1.366518405
-5.721258772;-10.1546229;-10.85875741;-1.77090208;4.845411305;5.283757056;10.02328854;10.54451277;17.7614983;14.3008356;9.922512936;-21.07080301;5.113505298;-3.094038668;-3.761561653;-3.279921764;-7.62983671;-15.09195065;-1.284716598
-4.689203897;-7.29898362;-8.337725967;0.684346669;5.632794987;5.014635651;10.6043178;14.05291777;23.58224985;18.70893589;15.45769261;-16.79667549;9.698655519;-0.516408114;4.884542328;0.994339489;-5.611265013;-11.62137184;-1.255024741
-3.100301927;-2.161143919;-4.827591918;2.251342138;5.856781401;4.752368149;10.62704178;16.23447061;26.9989049;20.85244016;17.43692416;-12.31115744;12.56691358;2.118269536;8.79545473;4.796860449;-3.724243499;-6.826595139;-0.944171322
-1.518463923;3.299133671;-1.587464645;2.391756575;5.388249855;4.560989131;10.10874075;16.10785958;26.99831427;20.0210826;16.46058617;-8.157941037;13.69851311;4.925690968;6.288281383;6.80833593;-1.820097656;-2.089876622;-0.238911276
-0.618625623;6.592959961;0.137892496;1.163933931;4.297725358;4.370793515;9.380414812;13.54478925;23.70672177;16.69298448;14.0933775;-5.484588413;13.37444156;7.503189163;-0.279848523;6.437843019;-0.034936976;0.860009766;0.600218116
-0.700351318;6.343181774;0.036228757;-0.813190582;2.917996156;4.085759366;8.894827527;9.380019531;18.21478869;12.16;11.63085485;-5.407676886;11.7861853;9.027502987;-6.521168441;4.158099853;1.162250456;1.017786711;1.091360428
-1.428221026;3.231728145;-1.00605275;-2.648862875;1.779654566;3.72579952;8.880743667;5.039642694;12.12390993;7.84333866;9.442087133;-8.093460672;8.994009063;8.840333073;-9.151643668;1.270248613;1.288184048;-1.184961616;0.880807075
-2.020723044;-0.423800997;-1.527019553;-3.570588481;1.394383951;3.455609263;9.138267928;1.872133696;7.04344472;4.714778914;7.249524785;-12.33854366;5.227619226;7.041916479;-7.886293172;-0.796144924;0.266659541;-4.078890513;0.01880963
-1.766336918;-2.165061156;-0.517538751;-3.212393398;1.986238203;3.459339914;9.189542986;0.563681391;4.17533732;3.100437294;4.92303912;-16.06278231;1.191378243;4.5937859;-4.915014405;-1.212480002;-1.393702312;-5.75990886;-1.049943739
-0.488288651;-0.912862363;1.942869275;-1.669928625;3.346891469;3.769861936;8.696472541;0.965306615;4.018653053;2.85394821;2.989793159;-17.42207411;-1.999773745;2.810714949;-2.734586967;-0.057428523;-2.824388485;-5.200489267;-1.76967826
1.38507785;2.516676292;4.897277618;0.665212497;4.938718016;4.211127315;7.798706939;2.387001344;6.222416097;3.670249756;2.36999877;-15.79726773;-3.331329013;2.581393356;-2.239179521;1.938557018;-3.2861677;-2.717179381;-1.81708023
3.185958129;6.184647434;7.333821154;3.362769366;6.209683718;4.513947313;7.060715046;4.114962128;9.680058594;5.29811143;3.560559573;-12.04423261;-2.530714182;3.845548426;-2.473091838;3.956033456;-2.599853205;0.458880328;-1.265096461
4.520229726;8.469321161;8.928183778;6.151923552;6.927638591;4.509624243;7.039311112;5.794720416;12.95027743;7.56297217;6.003087292;-7.933945527;-0.354055908;5.657591234;-1.913246015;5.535931637;-1.242951186;3.11292106;-0.479351374
5.536331919;9.135581512;10.14743287;8.974970433;7.308603725;4.236146888;7.818152635;7.460751292;14.91435577;10.27496989;8.256275224;-5.213696673;1.755532887;6.762921191;0.057446474;6.659564144;-0.059527315;4.779333083;0.144969208
6.75485274;9.330827312;11.7194897;11.90108195;7.839665625;3.871544888;8.902249696;9.262652098;15.33788914;13.14621119;8.932595151;-4.842134872;2.463964056;6.303090793;2.75406938;7.526559912;0.23291119;5.809753245;0.409583215
8.600796067;10.60083153;13.96825274;14.96367109;8.902656572;3.563652608;9.570890033;11.13888736;14.93274896;15.77992841;7.697669781;-6.711362504;1.277458928;4.237501122;5.013552466;8.298090351;-0.549057558;6.8494045;0.371316636
10.9993955;13.68444922;16.55003906;18.00453881;10.44961939;3.312721974;9.403219103;12.69446424;14.77980174;17.72075074;5.52524429;-9.843431969;-1.278923283;1.289297678;6.291036667;9.009640138;-1.952469155;8.206529606;0.24063385
13.34142884;17.93245007;18.7333591;20.60865588;11.96195665;3.005683539;8.551655669;13.37370851;15.45007813;18.54592288;3.964222192;-12.87309137;-4.128934362;-1.489489127;6.971790319;9.639021113;-3.129726891;9.601145993;0.227255649
14.85062957;21.70121261;19.92115748;22.19882445;12.74730618;2.555985201;7.56257977;12.81548423;16.48099653;18.007599;3.967365707;-14.61904763;-6.389962278;-3.258433851;7.704092113;10.17209952;-3.278730718;10.43078877;0.437489366
15.10162822;23.39329399;19.99362011;22.30370917;12.40255385;2.007325769;6.928188813;11.16452588;16.69312902;16.22229237;5.20685692;-14.57137966;-7.84849339;-3.752379505;8.519000056;10.56695643;-2.039885;10.29806996;0.858007163
14.33815869;22.42750155;19.28411123;20.90290293;11.14395103;1.500481348;6.759045902;9.136718216;15.2091198;13.81530655;6.432511883;-13.11070774;-8.859418943;-3.311349144;8.666424566;10.68620881;0.357414579;9.390779453;1.396894535
13.37839177;19.53901279;18.32569592;18.64101531;9.765173912;1.137754777;6.824240121;7.764982286;12.41291488;11.85048343;6.589047525;-11.30357195;-9.824765936;-2.59641325;7.356253774;10.34443967;3.262315359;8.450598404;1.93807028
13.15840612;16.29;17.61762549;16.69614691;9.206363684;0.879723987;6.861986812;7.918170753;10.00748531;11.43708822;5.773272287;-10.29709376;-10.72414845;-2.163716648;4.684532524;9.50267433;5.968578096;8.35800867;2.385977037
14.18309545;14.15999764;17.5199943;16.25712164;9.972197645;0.579334102;6.837480656;9.820220023;9.953181914;13.13065572;5.212653325;-10.61721258;-11.09317186;-2.138387192;1.815375274;8.446180704;8.051063628;9.591907798;2.695398634
16.20500683;13.78404974;18.19979326;17.84420565;11.76305931;0.127553624;6.912825292;12.83872572;12.97224789;16.48141103;6.229649513;-11.83115954;-10.45027024;-2.178028133;0.173406106;7.723073201;9.473129786;11.88057391;2.880149543
18.32306501;14.75030862;19.54127291;20.90235258;13.58431323;-0.42352777;7.194004594;15.7147064;17.76220944;20.10431571;9.003523275;-12.85960544;-8.78946077;-1.74996926;0.334821603;7.799658926;10.42703529;14.25588656;2.991388918
19.46383971;16.00231359;21.08898175;24.01106452;14.31345529;-0.877955437;7.538065812;17.17780435;21.6335044;22.35315704;12.15829402;-12.7706964;-6.703733004;-0.547966123;1.61319814;8.666402535;11.05956992;15.52385477;3.07198824
18.99536549;16.55457236;22.19488591;25.68055505;13.40069648;-1.044911812;7.634852504;16.63770544;22.23231751;22.24443619;13.58856179;-11.49115028;-5.020480838;1.229582158;2.724496752;9.740107121;11.31414621;14.94556799;3.11954253
17.13313137;16.08896554;22.4124479;25.27264283;11.2578469;-0.891239155;7.296333729;14.53454152;19.13413294;20.03200846;11.9552297;-9.880989361;-4.24514761;2.938155701;2.939769546;10.21062141;11.01947133;12.76614732;3.095138228
14.88567294;15.10081028;21.9;23.42764644;9.057170841;-0.566140615;6.670224183;12.09096345;14.12101075;17.01716993;7.721760426;-9.082323172;-4.268996332;3.853652239;2.688005143;9.610948461;10.14314332;10.23528994;2.979725831
13.52899042;14.53255141;21.45461203;21.66350986;8.033493498;-0.281326519;6.155423101;10.5823841;9.916410635;14.7019346;2.920868997;-9.623952366;-4.566935654;3.600753441;3.068387907;8.166590706;8.974652977;8.995513534;2.829331178
13.87961186;15.12752496;22.00827348;21.37792992;8.721692257;-0.155666051;6.078618661;10.58698219;8.314806946;13.87177257;-0.197380937;-10.9767013;-4.691789606;2.354424523;4.72318749;6.622765037;8.042208277;10.1032876;2.765190721
15.78864659;16.901303;23.87129251;22.9229714;10.62677049;-0.156450877;6.423706993;11.72028515;9.086761391;14.24359777;-0.638864523;-11.92020089;-4.626823834;0.695058378;7.106766436;5.664177186;7.783667344;13.26179754;2.882197984
18.18155828;19.06341718;26.306424;25.38903228;12.54743263;-0.173395832;6.86300404;13.02505375;10.40511419;14.87589735;0.802652916;-11.4608138;-4.701844379;-0.752984307;8.827265735;5.385825636;8.211735849;16.81711724;3.137210285
19.64570751;20.44635919;27.84949938;27.23077247;13.33207539;-0.139949233;7.058408651;13.70063093;10.33981436;14.950572;2.265654567;-9.627924107;-5.182126557;-1.636249854;8.758346292;5.241360009;8.847159748;18.62997537;3.317701762
19.21209273;20.16780792;27.22274547;27.26181053;12.5492634;-0.082507831;6.948055049;13.59735663;8.18146125;14.27625448;2.151464207;-7.584980688;-5.941998273;-1.954854435;6.91194881;4.501222533;8.997414177;17.33164705;3.144847762
16.83799467;18.08666832;24.17563282;25.30051764;10.62524678;-0.05863916;6.752097833;13.1008144;4.601756417;13.14566686;0.030582135;-7.002223456;-6.557669805;-1.931134163;4.281529527;2.82922269;8.185211725;13.14480786;2.459633636
13.29557567;14.75057865;19.59505811;22.05311784;8.396249378;-0.058657807;6.705161048;12.54949382;0.697411434;11.76528786;-3.464028776;-9.126574692;-6.755779352;-1.828622313;1.819615242;0.501289294;6.409734961;7.695876838;1.360455201
9.587079395;10.90126356;14.79633923;18.42616724;6.452399194;0.019257154;6.790523907;11.74272434;-3.109120255;9.85921019;-7.476807753;-14.10202401;-6.79216236;-1.859885598;-0.467061993;-1.880532877;4.062232174;2.941768763;0.17893416
6.34010481;6.942896829;10.58475331;14.88211267;4.787756765;0.28501827;6.751310966;10.03547554;-7.307570362;6.888288693;-11.67503308;-20.84092606;-7.353846687;-2.179703125;-3.404633056;-3.874750581;1.603063958;-0.021322924;-0.706815781
3.627730997;2.815419451;6.878814868;11.35746366;3.009907458;0.739697646;6.37954805;7.001889055;-12.53041832;2.746184861;-16.28087932;-27.40636391;-8.990967809;-2.863963863;-7.562962886;-5.417843908;-0.705570588;-1.415585629;-1.099136819
1.303285022;-1.609832812;3.207990046;7.747361419;0.906232078;1.24073728;5.795806219;3.104226766;-18.59371933;-1.700953847;-21.50232746;-31.69685703;-11.5425662;-3.826462517;-12.19247396;-6.577568703;-2.792428978;-2.224326025;-1.089197877
-0.488419877;-5.94766489;-0.376461155;4.462408638;-1.127308879;1.591752115;5.415369016;-0.284090596;-24.36273148;-4.819172294;-27.04775611;-32.23170505;-14.09747296;-4.760844539;-15.27328362;-7.117030933;-4.548195332;-3.130218943;-0.969571121
-1.115971498;-9.078283451;-2.84213592;2.500359155;-2.182191704;1.68343348;5.585016362;-1.660793687;-28.69942537;-5.154728906;-32.30295233;-28.83910485;-15.61516535;-5.245767647;-14.83625732;-6.370636922;-5.648474217;-3.841544671;-1.013078051
0.182414938;-9.601924491;-2.689092196;2.893703036;-1.423959208;1.562996721;6.20552891;-0.452068901;-31.7087016;-2.468176298;-37.06861681;-22.95870993;-15.74893685;-5.025419615;-10.55858077;-3.679968118;-5.664153409;-3.356588108;-1.273342658
3.628949585;-6.746079854;0.873373574;5.93704621;1.264561618;1.374376372;6.709008885;2.484379595;-35.12293188;1.959416796;-42.13844312;-17.23786709;-15.17595;-4.273020803;-4.280379928;0.897844151;-4.417824279;-0.925880534;-1.543889302
8.46361215;-1.08096029;7.020516859;10.80910596;5.076438594;1.228862661;6.463242625;5.356194561;-41.33;6.048631301;-49.0416631;-14.36182532;-15.09610739;-3.575889973;1.098372466;6.236644218;-2.276331151;3.114658011;-1.500632414
13.14175543;5.545208502;13.47951083;15.91125038;8.67677234;1.125360981;5.283413093;6.595424959;-51.71629747;8.181423588;-58.98958459;-15.60022308;-16.25600376;-3.566140926;3.549944673;10.57209681;-0.067100114;7.361252184;-0.929950988
16.10910319;10.90556316;17.76312918;19.69692763;10.92010717;0.986189788;3.605623827;5.803763851;-65.64596681;8.081853217;-71.83734835;-19.98202057;-18.30361946;-4.438456772;3.171014916;12.52508574;1.397815666;10.22364459;0.106949562
16.63991483;13.56310416;18.62171288;21.41342829;11.39068488;0.761414828;2.150083008;3.779432354;-80.94222697;6.69949763;-85.98647324;-24.83835944;-20.06556902;-5.758984705;1.778475806;11.98740643;1.852008173;10.96747881;1.277211496
15.15941709;13.5239566;16.67885509;21.28765938;10.43737492;0.491594631;1.345346425;1.674362954;-95.5085864;5.263368195;-99.44146345;-27.58935947;-20.58898403;-6.784116793;1.229485689;10.16316451;1.72642241;10.09091688;2.146108886
12.84914934;11.96152199;13.83345775;20.1360362;8.772405759;0.265678654;1.003861235;0.033693507;-108.7786964;4.306053972;-111.2565906;-27.64504717;-20.1102732;-7.083078125;1.885379097;8.676928489;1.766068872;8.772346868;2.414880072
10.85543233;10.27928381;11.92752186;18.77711869;6.997963645;0.120351439;0.52901247;-1.477004427;-121.8157398;3.422508121;-122.2050092;-26.98428625;-20.09694236;-6.950171617;2.477344937;8.397688304;2.394000291;7.891058134;2.089789546
9.678643289;9.240485079;11.66617588;17.66808977;5.39814393;-0.009806894;-0.527951364;-3.49091362;-136.0102579;1.872272434;-134.0634471;-28.78880755;-22.22300044;-7.205752497;1.411432183;8.880746733;3.336722643;7.441694464;1.482383287
9.128117287;8.774325282;12.48366582;16.89897235;4.049501455;-0.229990909;-2.048387043;-6.108235979;-151.4967664;-0.577097542;-148.0116155;-34.96613233;-27.02811293;-8.478898059;-1.677526903;8.864879246;3.834787834;6.782092536;1.0325818
8.763251729;8.480970772;13.27003906;16.36333789;3.03226557;-0.56383161;-3.428341591;-8.629560115;-166.6329846;-3.333516846;-163.3897066;-44.3808678;-33.33367915;-10.54396295;-5.494116513;7.42993406;3.285370652;5.421473241;1.048301953
8.389459136;8.290318555;13.26458473;15.86226472;2.495288867;-0.894310549;-4.083110619;-10.13256088;-178.9754507;-5.455254004;-177.8060829;-53.24932871;-38.93823023;-12.31472671;-8.132114268;4.884591746;1.790446836;3.610029297;1.51372614
8.204191707;8.645589881;12.43673078;15.09551852;2.53199496;-1.037937664;-3.92642367;-10.36201797;-186.9232022;-6.46260298;-188.5276637;-57.58359788;-42.10280159;-12.60080997;-8.65387991;2.654835232;0.137504089;2.202515524;2.091915201
8.532664581;10.03736813;11.21506617;13.70033596;3.041422774;-0.896701603;-3.408949093;-10.06658871;-190.662992;-6.732596444;-194.0839772;-55.96217236;-42.68436565;-11.08111948;-7.789171147;2.231443054;-0.804411914;1.928396312;2.336356821
9.441362943;12.31143836;9.967494008;11.47164415;3.762738573;-0.549897957;-3.099777576;-10.38709046;-191.6805936;-7.106272139;-194.8933797;-50.55353834;-42.03637884;-8.699269537;-7.142380428;3.984763624;-0.797653394;2.720172634;1.987800121
10.58348025;14.40452618;8.737380123;8.654108076;4.476939718;-0.194174139;-3.197519535;-11.7847246;-191.3403736;-8.061938149;-192.5580616;-45.58316944;-41.78153288;-7.089306856;-7.647875301;6.769775008;-0.464338687;3.684611648;1.159931378
11.39249048;14.829336;7.387635166;6.002211801;5.170141153;0.02105983;-3.404210863;-13.49265281;-189.8031394;-9.223070096;-188.5486988;-44.3723261;-42.47359027;-7.407119104;-8.710327547;8.635591509;-0.80755056;3.732201049;0.275936789
11.43547655;12.61266544;5.890262503;4.410576831;5.96324345;0.112878471;-3.252184114;-14.0866884;-186.1958969;-9.689989024;-183.4032501;-47.16332188;-43.24460981;-9.452976934;-8.866699238;8.109146711;-2.374317901;2.326046269;-0.214089328
10.63453534;8.002145601;4.413830163;4.288168228;6.843409521;0.223799856;-2.561079367;-12.78568138;-179.7976941;-8.937526128;-176.9875161;-51.30575028;-42.70196085;-11.78335396;-7.411125134;5.108453747;-4.718835918;-0.246620249;-0.140527157
9.224406717;2.415972075;3.140336148;5.160679016;7.467002218;0.453680362;-1.596428866;-10.36465545;-171.0845678;-7.463561872;-169.3545648;-53.52062048;-40.2802266;-12.74885563;-5.467662404;0.864619945;-6.612042892;-3.219411099;0.279624251
7.558447267;-2.321948054;2.063579563;5.905206209;7.295760661;0.724022635;-0.792805428;-8.781476136;-161.6008488;-6.5242416;-161.2123638;-52.37728538;-36.85581957;-11.66561163;-5.372828363;-2.99175319;-6.868247152;-5.912487544;0.622402944
5.96871298;-4.907143529;1.04306765;5.544299916;6.04440613;0.815803337;-0.317387646;-9.669184775;-152.691799;-7.064796157;-153.4374816;-49.06721463;-34.04681757;-9.224551557;-8.686526739;-5.425562491;-5.174473303;-7.995334385;0.588619647
4.762406085;-5.027802375;0.091510093;4.025069527;4.093443689;0.566186888;0.100817708;-12.86634918;-144.2080772;-8.706169435;-146.0628556;-46.03030175;-32.74973422;-6.853832318;-14.45753159;-6.355636381;-2.298562419;-9.290769843;0.229232729
4.248771729;-3.178240017;-0.424525757;2.33539095;2.463584228;0.05435843;0.903005193;-16.24732678;-134.4172251;-9.710742361;-137.798807;-44.7370674;-32.16337632;-5.576878477;-19.35575283;-6.253113812;0.473284851;-9.453691231;-0.116214227
4.647541459;-0.108802272;0.038057651;1.787755901;2.255961252;-0.401612428;2.23906581;-17.12741523;-121.3839451;-8.114510947;-126.7922947;-44.5230581;-30.21041332;-5.281967315;-19.85580913;-5.485266618;2.232051652;-7.990706192;-0.119426677
5.884733894;3.596356311;1.715406972;2.97894587;3.9090565;-0.45849973;3.751403888;-14.23036837;-104.8117982;-3.246769959;-112.2380367;-43.38013847;-25.13915927;-4.951145098;-14.93547348;-4.051828045;2.994097194;-4.730191244;0.245565519
7.471802274;7.549324728;4.172270444;5.247256291;6.831194703;-0.006290587;4.827272309;-8.689402255;-86.85031701;3.540891171;-95.5680797;-39.92582646;-17.08740276;-3.610128427;-7.17212015;-1.926077878;3.504383277;-0.344367398;0.666633637
8.67154193;11.33363876;6.456399745;7.101675551;9.730602075;0.744325004;5.111634049;-3.26982975;-71.10260784;9.581055525;-80.09187327;-34.82028903;-8.348913568;-1.207274405;-1.231620034;0.395258704;4.478544838;3.639678959;0.751519287
8.929131011;14.37306353;7.74102622;7.336098401;11.44378002;1.421619765;4.821969407;-0.393315382;-60.44948868;12.5976324;-69.11023323;-30.43080674;-2.058124857;1.261743788;-0.725015029;1.768638368;5.897066471;5.535403004;0.37012031
8.278128471;16.10396187;7.960585811;5.977897536;11.67;1.766118088;4.571553399;-0.479977975;-55.23244045;12.19683206;-63.77808937;-29.03937973;-0.22604331;2.42996623;-5.701950766;0.993935644;6.919265169;4.4948532;-0.206452126
7.382939356;16.33650802;7.888885381;4.327243942;11.08152899;1.788712355;4.844982185;-1.843695539;-53.07978058;10.06465792;-62.29635625;-31.06468384;-2.548599358;1.469817161;-12.61889734;-2.241116361;6.508557705;1.101089466;-0.49366503
7.135761124;15.48923673;8.553539977;4.050777211;10.75553498;1.690063477;5.585061644;-2.122246797;-50.44539265;8.753852993;-61.07153411;-34.68367284;-6.790965975;-1.430377535;-16.78744989;-6.812398122;4.317736426;-2.885194238;-0.159240583
8.089400729;14.47373936;10.45480035;6.030675409;11.38681893;1.630621511;6.256577488;-0.037275403;-44.72424917;9.976962531;-57.01411756;-37.05454074;-10.34572543;-5.266193734;-15.49612395;-10.5391933;1.174461792;-5.445037259;0.732381047
10.15666;14.28414348;13.24240479;9.837989444;12.87526521;1.570492136;6.331196587;3.88239678;-35.51819667;13.6342421;-49.31811145;-36.11250656;-11.74156779;-8.799245246;-9.589264678;-11.34651754;-1.223563813;-5.255103069;1.792527209
12.78961456;15.55118189;16.10905199;14.16909109;14.54628329;1.328174001;5.765455367;8.036415583;-24.38384136;18.1819513;-39.52439354;-31.62286236;-11.06533574;-11.03972891;-2.533202498;-8.458610987;-1.249956611;-2.116151986;2.622824595
15.44114355;18.2946727;18.51624851;17.80671667;15.74281999;0.800288925;5.052448371;11.15787437;-13.52372079;21.90960755;-30.02446693;-24.94086119;-9.231832414;-11.40155186;2.127865119;-2.823342736;1.660596719;3.224525207;3.092692914
17.87014378;21.92403228;20.557586;20.28993269;16.25966899;0.129256113;4.806616693;13.13922631;-4.498291352;24.06526177;-22.30436366;-17.97435856;-6.944729624;-9.682436965;2.974999503;3.483675003;6.598080129;9.506975843;3.342382745
20.01188854;25.39679704;22.59186809;21.79840358;16.28254211;-0.353994022;5.249289781;14.66102623;2.236760259;25.00739227;-16.2680583;-12.27610482;-4.295515506;-6.132773908;1.114859254;8.411810678;11.59535249;15.28098822;3.527098386
21.56980837;27.4636011;24.47787223;22.47787526;15.96107294;-0.382204137;6.039089502;16.1187712;6.962065608;25.42386712;-10.95792568;-8.771937399;-1.226060672;-1.630212989;-1.181265692;10.85223075;14.62516554;19.08245527;3.55887486
21.80123605;27.01883949;25.18589501;21.92469489;15.07425096;0.015302142;6.577153454;16.94854445;10.09850132;25.41699599;-5.812843218;-7.904573049;1.777725308;2.334267365;-2.294146469;10.80665792;14.59671443;19.70975168;3.11397763
19.85088638;23.56402284;23.31105332;19.38615236;13.15506889;0.510087891;6.501816894;16.04182776;11.96506548;24.30545249;-1.255560681;-9.67510662;3.611455784;4.150230647;-2.130644353;8.915859122;11.81364101;16.7413265;1.936081256
15.49282471;17.62516598;18.23342227;14.56664267;10.01312831;0.720627903;5.9410548;12.91080679;12.96884703;21.33343596;1.883599136;-13.41229581;3.338743731;2.960156579;-1.642168895;5.891372107;7.701626606;11.03065299;0.183357201
9.691084957;10.81038727;11.01751;8.33966256;6.204445564;0.509826666;5.331138504;8.544388012;13.84645766;16.67391548;3.495793548;-17.63460917;1.204527905;-0.641663146;-1.704519216;2.31305442;4.027608657;4.65119221;-1.506611085
4.406004159;5.27968901;4.213597242;2.66921824;2.988181553;0.088801365;5.004388445;5.115802565;15.56216932;11.82832525;4.75;-20.46381838;-1.095389145;-4.692564777;-2.424121851;-1.213161484;2.068501412;0.010841839;-2.347661126
1.607807828;2.766684934;0.521094882;-0.347904549;1.69903274;-0.156478723;4.936607123;4.664140036;18.84597621;8.981872157;7.46;-20.55357132;-1.31680743;-6.855800724;-3.341167649;-3.937290581;2.139429306;-1.489625738;-1.916202661
2.107601431;3.688773575;1.178319273;0.304461621;2.935292899;0.031558282;4.866729802;7.737993678;23.72872887;9.695617072;12.71323764;-17.898919;1.816593687;-5.77109813;-4.112609665;-5.231332737;3.635787783;-0.361797112;-0.459674413
5.038160039;6.944820577;5.212171556;3.947518144;6.133147956;0.596544881;4.637887565;13.02922901;29.45779026;13.851458;19.90058458;-13.83052935;7.627666707;-1.875363255;-4.893982469;-5.12790011;5.462056177;1.251022528;1.239453636
8.392070621;10.58959454;10.07595908;8.615309042;9.833310301;1.236698656;4.404442593;18.23478899;34.86430882;19.607499;26.99668858;-10.11108936;13.8342621;2.870802484;-6.057032938;-4.60552563;6.572839831;0.9856285;2.347480431
10.25909546;12.9559509;13.19612407;12.17151936;12.46059774;1.645783425;4.490233167;21.45439644;38.91175888;24.40900691;31.92225617;-7.813267124;18.01712151;6.162856284;-7.605893277;-5.160493926;6.381842096;-2.126838614;2.455911548
9.897940787;13.45860594;13.33403481;13.36461888;13.10506601;1.712908494;5.029760127;22.12034397;41.07857649;26.38143945;33.9374742;-6.855737471;19.12471313;6.642353449;-8.96864892;-7.773459149;4.927928327;-6.995290573;1.723886883
7.933092138;12.56116601;10.90835729;12.19593541;11.84517697;1.529145096;5.746096636;20.94480276;41.43046866;25.22176763;34.00251755;-6.494093185;17.92448577;4.490841709;-9.454890411;-11.99153165;2.809796064;-11.2395655;0.639593674
5.654481069;11.04859959;7.275241645;9.545634708;9.509157573;1.235026906;6.105284058;19.16445962;40.48364211;22.1067038;33.88720564;-6.222509831;16.15926691;1.075183836;-8.973510701;-15.932361;0.950116953;-12.82425438;-0.35705423
4.057643141;9.282771457;3.708983569;6.505766601;7.134670049;0.878173113;5.739768008;17.7787707;39.02109187;18.80962583;34.79651633;-6.216277548;15.16778973;-1.957494203;-8.283575339;-17.40147656;0.250939442;-11.35523584;-1.084643925
3.371778119;7.07385337;0.885074283;3.932902725;5.502436113;0.416145512;4.77388617;17.25431797;37.90254467;16.67261862;36.59840409;-6.939184893;15.06891288;-3.48200666;-8.436364105;-15.42572537;1.218483834;-8.140937523;-1.550205432
3.328111072;4.209568957;-0.926875972;2.390988252;4.95927839;-0.159691864;3.754630527;17.6363133;37.80458975;16.04864048;38.1774717;-8.382452768;15.05063158;-3.197262261;-9.823050658;-11.06915159;3.688600786;-5.094885718;-1.745617982
3.769386156;1.064958481;-1.422193689;2.272676742;5.493266971;-0.728974817;3.231827243;18.71559303;38.90111141;16.42055194;38.50754524;-9.779124667;14.35926034;-1.488239068;-11.66998076;-6.838136358;6.816240136;-3.409873647;-1.552410969
4.95335162;-1.372099944;-0.18296841;3.804922154;6.887638802;-1.095635865;3.338135853;20.06503359;40.67638604;16.96087117;37.51530874;-10.16793538;13.0569322;0.849235818;-12.49989571;-5.028501152;9.417365383;-2.99976351;-0.857511155
7.250808839;-2.181302861;2.889654757;6.881672466;8.824220655;-1.15514362;3.717757385;21.09923828;42.11618777;17.10749674;36.07685333;-9.301388038;11.91625614;2.830760101;-11.25564771;-6.214156207;10.55618721;-2.986539789;0.246156261
10.54917742;-1.320994365;7.089367634;10.94021507;10.93071541;-1.014432495;3.848395731;21.37691788;42.29663563;16.84254985;35.25142133;-7.969532955;11.63397584;3.51029235;-8.180711644;-9.018619759;10.06648643;-2.651688561;1.398810612
13.98644792;0.20843955;10.97537625;15.11477072;12.83096583;-0.932202203;3.46752375;21.04151863;41.02142576;16.60924792;35.4399835;-7.310121952;12.133974;2.328913379;-4.715135521;-11.33804511;8.658212024;-1.987803871;2.154311902
16.36677421;1.103762135;13.14343916;18.6402544;14.22093083;-1.111684792;2.743124304;20.94652699;38.98501674;16.98989371;36.10798561;-7.678807631;12.59267028;-0.50727097;-2.477456912;-12.041179;7.479114728;-1.459970409;2.275652218
16.98390559;0.833083147;13.16359541;21.20408807;14.92809297;-1.525000429;2.070616586;22.10981727;37.19754076;18.32260547;36.15582306;-8.200058594;12.12066156;-3.94403179;-2.167662393;-11.78354385;7.368858478;-1.341041011;1.899343739
16.16226284;0.09938649;11.89262253;22.94223883;14.90862934;-1.934284669;1.704494909;24.73628007;35.97056189;20.40923845;34.49434538;-7.60428528;10.43404792;-6.546878214;-3.276849179;-12.28778146;8.297876286;-1.335102494;1.424038033
15.0098696;0.212537173;10.8115189;24.07671204;14.20091317;-2.102892258;1.555171709;27.62349881;34.19569098;22.43622148;30.33236444;-5.749905913;7.897760012;-7.367166361;-4.776922505;-14.70864718;9.400632818;-0.864366603;1.21175574
14.53284871;1.852155289;10.84517164;24.52824047;12.90534247;-2.013038542;1.306560659;28.68142353;29.55428874;23.19490696;23.08406223;-4.420423448;4.961704342;-6.633745955;-6.110078125;-18.48406927;9.6059766;0.284570175;1.34618619
14.83233398;4.325918551;11.60857236;23.88900842;11.22682078;-1.889580332;0.71502678;26.44247801;19.67526918;21.59243569;12.22618549;-6.409854268;1.624843759;-5.688577669;-7.556805556;-21.69553699;8.41727431;1.632255178;1.634292909
15.08217765;6.095743075;11.74260537;21.83300063;9.52140766;-1.997272208;-0.193198655;21.46;3.548355382;17.27333004;-2.535343243;-13.34131953;-2.450500902;-6.092147544;-9.653999097;-22.68974276;6.256308142;2.388399509;1.821491272
14.35332116;6.252090822;10.13852163;18.63192828;8.238152348;-2.385442103;-1.185859293;16.30863143;-17.74855067;11.01976952;-20.8082642;-23.91062769;-7.215119942;-8.484523982;-12.24269163;-21.58630291;4.098410583;2.254429183;1.812613348
12.61916361;5.67200077;7.093429405;15.2985395;7.71908039;-2.812202864;-2.054705042;13.8590684;-41.51896186;4.615800295;-41.19104041;-34.15877288;-11.64631047;-12.04525283;-14.12928127;-20.28786676;2.677227853;1.907518543;1.706331019
11.06670627;6.677717703;4.422613591;13.1461092;7.971181474;-2.930415237;-2.775670373;14.96167795;-64.81687078;0.116304305;-61.52863714;-39.87929985;-14.08446604;-14.98726552;-13.84558096;-20.80448357;1.897136574;2.642932921;1.636426995
11.35746318;11.18241691;4.328332053;13.02486839;8.61083545;-2.58625029;-3.457748869;17.40546284;-85.82273307;-1.160316291;-79.76494351;-39.51442885;-13.51026656;-15.73742376;-10.98389403;-23.17426882;0.953433279;5.369767204;1.593634457
14.3336999;18.67362714;7.799824545;14.77941103;9.09121988;-1.972635738;-4.161095998;17.26602224;-104.3769578;0.649068451;-94.89044569;-35.34968188;-10.81462478;-13.92792964;-6.941233993;-24.77946308;-0.894753698;9.754641495;1.412384423
19.16174325;25.77606145;13.73012036;17.32386683;9.096895151;-1.495009436;-4.791071679;11.92505373;-121.442175;3.988027136;-107.3268938;-32.00942093;-8.837916611;-10.48823873;-4.248782793;-21.90143853;-3.498009188;14.25224424;0.943656229
23.62626187;28.09292069;19.44714171;19.27176009;8.809561596;-1.450962099;-5.185946304;2.546726186;-137.9868409;6.705107375;-118.4531874;-33.29187306;-10.75142234;-6.85259014;-4.789457682;-12.59475937;-5.62460258;17.07151682;0.253461352
25.43571204;23.25371307;22.33046828;19.66097135;8.791887608;-1.788406976;-5.307760155;-6.075299657;-154.0938082;7.200813743;-129.5814311;-39.65036101;-17.69781649;-3.979666768;-8.219582388;1.23567847;-5.629601107;17.36824339;-0.345385081
23.63201545;12.97924232;21.39476558;18.29466086;9.509295922;-2.146284205;-5.330316461;-8.550078125;-168.831182;5.207066247;-141.0656952;-48.11772624;-27.42216971;-1.956883647;-11.93123321;14.29108632;-2.549066579;15.75932998;-0.475444538
19.11482504;2.479183139;17.7546915;15.5670641;10.81797456;-2.147249955;-5.513637839;-2.817841041;-180.8389704;1.738949648;-152.0928958;-54.60128726;-35.14623463;-0.395083914;-12.80163676;20.83938252;3.15934557;13.78289793;0.049244307
13.95096137;-2.640482334;13.70455325;12.047363;11.83737123;-1.702479979;-5.968535743;7.897554681;-189.1280725;-1.697327094;-161.1988025;-56.73465651;-36.39059319;0.876328109;-9.565918346;18.2853525;9.757418592;12.74573938;1.093751594
10.0232786;0.076215934;11.12872185;8.218171072;11.39197348;-1.080985584;-6.535769721;16.73747592;-193.5429893;-4.069770586;-167.0788857;-55.19453719;-29.94739446;1.518255883;-4.0303459;8.905612625;15.13340187;12.84629142;2.286227785
8.00341769;8.400370107;10.38628551;4.531483753;8.795077638;-0.692849728;-6.906705502;17.53537094;-194.6594277;-5.303202705;-169.1588283;-52.69818968;-18.92434926;1.062576951;-0.070355526;-1.483370749;17.83221828;13.20048671;3.22538992
7.308471135;16.98197747;10.4017412;1.591178164;4.45568018;-0.768565529;-6.884160702;8.918093059;-193.2913438;-6.001094156;-167.6659447;-51.67430674;-9.019723021;-0.439662757;-0.961230864;-7.050888931;17.55465296;12.67299049;3.643630214
6.915842155;20.90850614;9.781913635;0.128073746;-0.150965343;-1.191958606;-6.54294963;-4.649290652;-189.9951179;-6.697391474;-163.3270369;-52.45968442;-5.098470294;-2.189894513;-6.892863851;-5.328582386;14.94227832;10.82112291;3.437081458
6.293894382;18.76851253;8.051512202;0.633272271;-3.214390075;-1.607758921;-6.139593539;-15.61661407;-184.8926383;-7.272158933;-157.009089;-53.26899512;-8.335288124;-3.146294994;-14.51749021;1.708142554;10.99824008;8.239497879;2.616918093
5.716177787;13.1597214;6.070746345;2.879101755;-3.616450237;-1.700165396;-5.86045283;-18.05257557;-177.8894676;-7.02539914;-149.5268682;-51.74652497;-15.79266727;-2.875482055;-19.00565037;9.352387077;6.654387017;6.109012231;1.294357758
5.802601932;8.468722708;5.352688308;5.753558382;-1.623447841;-1.413764133;-5.657910128;-11.20464492;-169.1088438;-5.378219197;-141.6152443;-46.81392834;-22.60381742;-1.987144444;-17.29383762;13.31295218;2.702604996;5.356261335;-0.269559809
6.772971089;7.670775627;6.829529619;7.668037118;1.21317081;-0.955253411;-5.343619082;0.284937329;-159.2262572;-2.647874422;-133.9211827;-39.51495328;-25.16804973;-1.697117695;-10.28762708;12.1676986;-0.113891586;6.058778847;-1.645268695
8.092458406;10.45979194;10.01618831;7.378532409;2.930475887;-0.601440698;-4.852907786;9.421200839;-149.4268972;-0.223574379;-126.905027;-32.43293952;-23.18636718;-2.817018036;-2.427072586;7.720554434;-1.189964192;7.472595876;-2.366126457
8.813249461;13.89409678;13.21323285;4.714303692;2.309116026;-0.483669944;-4.406792948;11.04281007;-140.910372;0.131319032;-120.6768435;-28.22153967;-19.31152154;-5.003443146;1.189785473;3.397636769;-0.400618205;8.578132927;-2.198103014
8.313742211;14.85885329;14.62028123;0.715365583;-0.370224513;-0.511812887;-4.369664152;4.567605929;-134.1611024;-2.525398795;-114.8916145;-28.18309021;-16.8963186;-6.925245047;-1.769129354;2.011356403;1.619880144;8.719384379;-1.362568126
6.809508626;12.41694801;13.56183633;-2.947568185;-3.433925288;-0.469669612;-4.885276888;-6.108887432;-128.4407777;-7.431644107;-108.8162583;-31.59138273;-17.54839524;-7.247311401;-9.214504482;4.335245862;3.664343641;7.936116822;-0.490534477
5.21041273;8.375717113;10.94018109;-4.922730849;-4.757092693;-0.181905623;-5.615198743;-15.13476748;-121.9584227;-12.24007813;-101.595134;-35.97423867;-20.14071943;-5.631628197;-15.9033486;9.110780723;4.648956821;6.85616331;-0.260171688
4.438934963;5.819386785;8.582299806;-4.905930509;-3.01967792;0.375985749;-5.865082644;-17.95448936;-112.84;-14.20236359;-92.6487915;-38.19796237;-21.76547077;-2.932647683;-16.82553293;14.10856263;4.357414746;6.284576576;-0.932457821
4.754565852;6.817470643;7.941719456;-3.707302909;1.449102342;1.078876781;-5.07070475;-13.5205635;-100.4804842;-11.75777041;-82.07629203;-35.96501235;-19.78172658;-0.447621548;-10.47943478;17.38696709;3.604172946;6.739979508;-2.127179264
5.607899967;10.97858621;9.083277879;-2.643641067;6.755744808;1.726457933;-3.287203927;-4.53554784;-86.4560815;-5.544406654;-70.89158507;-29.12787659;-13.52027419;1.112731188;0.121875105;18.07611383;3.587720024;8.154351953;-3.039365045
6.112562926;15.76903969;10.68297609;-2.660730296;10.4510716;2.123175239;-1.274234932;4.125412715;-74.2658047;1.832764917;-60.92445635;-20.09327168;-4.644169909;2.04330407;9.360560084;16.49962923;4.886338098;9.860951529;-2.973114632
5.738023606;18.22750034;11.05147673;-3.735594872;10.90639749;2.132145236;-0.062322745;7.907852335;-67.80979428;7.178629017;-54.30730009;-12.82333184;3.847896141;3.119739367;12.55991915;13.79402418;6.924334495;10.89453953;-1.817793939
4.677280542;16.83600645;9.452482742;-4.912540013;8.252311634;1.713860073;-0.29239685;4.826425751;-69.36390738;8.41884874;-52.67267709;-10.6873309;9.197042482;4.647898347;8.836273179;11.26288583;8.424346442;10.50431334;-0.120161629
3.630250143;12.37484579;6.76572294;-4.929785054;4.303363445;0.957609324;-1.807304072;-3.530642393;-78.2663943;5.636364527;-56.41594669;-14.32886369;10.11703568;5.999197634;1.438522152;9.680606469;8.555932893;8.640166101;1.297365744
3.217048623;7.388631915;5.003138962;-3.039906295;1.491257749;0.077940387;-3.785756866;-12.74812112;-91.20103568;0.860665574;-64.45096406;-21.03880063;7.17554694;6.115611148;-4.543592712;8.810314981;7.847547976;6.109159996;1.887507738
3.51240413;4.766432549;6.001163809;0.481510688;1.444547424;-0.661891298;-5.299711094;-17.83322634;-103.9758;-3.19042856;-74.67306533;-26.34400649;2.355690121;4.57878207;-5.496853752;7.456267875;8.025775237;4.225925218;1.701027516
4.065754151;6.32672229;10.19624111;4.454277419;4.086234866;-1.088740774;-5.875559872;-15.91642217;-113.7050033;-4.610693809;-84.91750572;-26.96909367;-1.85667142;2.269081566;-1.423596562;4.208559843;10.76922146;4.091067827;1.273929683
4.362774565;12.08983979;16.32354748;7.476596306;7.797680069;-1.237910675;-5.675984802;-7.935413174;-120.020561;-3.17110309;-93.84955412;-23.13561972;-3.477829558;0.920216034;4.411912573;-1.409736906;16.2760505;5.931567717;1.200761726
4.330315821;20.41569188;22.21412202;8.761646519;10.51014764;-1.349848162;-5.237998831;1.780990991;-124.6033228;-0.142825346;-101.2399461;-18.41120843;-1.814767976;1.803520088;7.922008823;-8.134125189;22.7841572;8.967368139;1.725802001
4.464580911;28.7644074;26.09490078;8.606197903;10.98849396;-1.718327547;-5.029657238;7.948576676;-129.48627;2.665333405;-107.5074891;-17.04681646;2.218506644;4.575225696;6.954833245;-13.23301006;27.50885551;11.93773866;2.628178402
5.4744645;34.68055854;27.48299862;8.179602042;9.474466187;-2.481853298;-5.170646431;7.399081281;-135.4024515;3.969755956;-112.9508804;-20.71459028;6.436600473;7.287369603;2.520683531;-13.97498919;28.37951881;13.93690243;3.429559394
7.719234335;36.64426515;27.12300324;8.744160237;7.326793191;-3.510892063;-5.471960348;0.874562555;-141.3353536;3.538260413;-117.3134426;-27.17124716;8.334075826;7.678343621;-2.197541101;-9.483786045;25.32519479;14.95053154;3.726373093
10.87701896;34.53613576;26.1502865;10.79717297;5.994780944;-4.482851607;-5.679505108;-7.624405542;-145.4779284;1.978257216;-120.0222213;-31.9792915;6.278670589;4.822797828;-4.179426448;-1.687943365;20.19491584;15.69430764;3.407506382
14.09598203;29.57445348;25.20636623;13.70466294;6.089725079;-5.09400636;-5.682618728;-13.49367221;-146.7452005;0.082349258;-120.8418214;-32.00552419;0.335464408;-0.116972989;-2.536782144;5.489106516;15.43912866;16.90240088;2.655865426
16.5110261;23.74;24.18380805;16.09643258;7.178333263;-5.249111802;-5.540439424;-14.37201381;-145.6128734;-1.738885137;-120.2863705;-27.90992188;-7.772552425;-4.639531455;1.187165208;8.378610325;12.59274828;18.66532623;1.802721659
17.74550592;18.9181313;22.71044486;16.78748679;8.344803517;-5.08858631;-5.365576218;-11.26059013;-143.6312579;-3.552222806;-119.3060187;-23.54521756;-15.57231304;-6.612796876;4.419270906;5.848249663;11.66725105;20.38552061;1.168629301
18.05185141;16.15633568;20.86971445;15.61845925;9.004064956;-4.845991478;-5.208897016;-7.266591625;-142.0221394;-5.52459452;-118.4019666;-22.64517086;-21.06270732;-5.677673258;5.508584561;0.059378152;11.75777107;21.40231867;0.967176986
18.03056689;15.41667287;19.48429816;13.63721615;9.317522607;-4.663166745;-5.042000516;-5.041741673;-140.4832581;-7.419103384;-116.899778;-25.4369271;-23.49031345;-3.335920564;4.815562426;-4.876762889;12.18518121;21.74960388;1.261718467
18.17073952;15.93078524;19.67893098;12.47495942;9.932140963;-4.513719744;-4.814858521;-4.871712572;-137.162465;-8.395135118;-113.1026358;-27.99367578;-23.25352822;-1.724265954;4.276646822;-5.480190712;13.13323746;22.35091961;1.944037359
18.54973145;16.90040168;22.0485247;13.3141455;11.31363872;-4.282261274;-4.503779542;-4.776273866;-129.8694186;-7.328779979;-105.3939315;-25.01945318;-21.15281392;-2.042582957;5.912597209;-1.004759566;15.27096656;24.39146382;2.747929773
18.8673184;18.06625124;26.08911434;16.12286691;13.23753944;-3.911004298;-4.10617587;-2.394933198;-117.6634608;-3.506179953;-93.55553404;-13.99696032;-17.66003906;-3.789665066;10.41536754;6.292572756;18.78351938;28.29996199;3.340596975
18.72279799;19.77197637;30.34702298;19.64667959;14.83374688;-3.475604087;-3.616413104;2.903530649;-101.6859703;2.736445438;-79.28185132;2.533716991;-12.78812772;-5.276732531;16.73949273;12.77487158;22.76123585;33.15351201;3.489118628
17.88843581;22.51276206;33.19085912;22.13957262;15.12478512;-3.126242924;-3.035830347;9.332933055;-84.66332969;9.871153062;-65.38741662;18.39510613;-6.585099303;-4.920680012;22.81172813;15.73115186;25.57510958;37.04787628;3.210343955
16.39243111;26.32345073;33.6630679;22.34393828;13.63739525;-2.955026372;-2.412291212;13.90033974;-69.4423739;15.71835051;-54.16820548;27.86090546;0.279509713;-2.318856878;26.72496266;14.81367598;25.98935577;38.24433964;2.779099244
14.41871444;30.46598204;31.86046941;20.11422817;10.66790252;-2.912881005;-1.845803608;14.53439515;-57.54132814;18.45226229;-46.04200381;29.34897457;6.455908498;1.603534982;27.61103673;11.80875292;24.09247793;36.2878977;2.552592267
12.17817399;33.65375789;28.68676616;16.36625083;7.090627181;-2.847290911;-1.417282971;11.52519644;-48.59975113;17.54658267;-39.42705593;26.03979928;10.54711767;5.320103261;25.78941168;9.152732468;21.24581393;32.28648607;2.716139873
9.885194206;34.67259732;25.2626602;12.48402085;3.924064501;-2.62078562;-1.088002854;7.285076862;-40.938866;14.10881814;-31.93221872;23.17141458;11.98226378;7.652493484;22.34113871;8.365536043;19.05598869;28.15875729;3.137450403
7.823331927;32.9967489;22.42587983;9.60648921;1.954804836;-2.203795138;-0.680046387;4.725575172;-32.73048866;10.35186877;-22.00054237;24.24994729;11.4263867;8.276268484;18.5264181;9.412952627;18.19102335;25.41548289;3.446963941
6.36029184;29.02345226;20.54987491;8.187454182;1.556306767;-1.670720496;0.001326228;5.480058594;-23.00097972;8.432871582;-9.872627176;29.02109324;10.35681438;7.588649171;15.35174818;11.18524534;17.99219265;24.35084695;3.28644555
5.803441125;23.8167756;19.60149275;7.966926366;2.640469344;-1.123613574;0.977337987;9.141587595;-11.96182315;9.281594287;2.707551942;34.43409259;10.08802298;6.239547884;13.33885694;12.49392101;17.17460467;24.16301281;2.534880193
6.15458174;18.55829862;19.23566274;8.240437206;4.648287744;-0.628919083;2.004804894;13.81760526;-0.668687155;12.09551382;13.69974094;37.43910396;10.96225476;4.756776086;12.43467417;12.7932892;15.01197153;23.80368761;1.34759128
6.972441669;14.04705796;18.85520745;8.225023317;6.616357861;-0.22369244;2.697217522;17.39106721;9.626595035;14.82797546;21.96600162;37.23440514;12.28717432;3.448598529;12.07444532;12.24181707;12.01198731;22.84306415;0.008375941
7.527899755;10.50803416;17.74878426;7.380249942;7.451893723;0.035902099;2.793712027;18.58267874;18.0381973;15.41835122;27.69277711;35.35947418;13.0121614;2.455930918;11.47524471;11.29105938;9.524691497;21.70319039;-1.252135715
7.227442341;7.746400574;15.41649289;5.621295409;6.438738045;0.060302105;2.366047796;17.30093842;24.33049937;13.05034361;31.94041671;33.96168851;12.57643097;1.757117894;10.11709889;10.26106779;8.617761489;21.16;-2.313625814
6.041390177;5.48136071;11.97093119;3.373567686;3.73514926;-0.214666135;1.781352459;14.37245367;28.92953417;8.676957333;35.8346864;33.9565706;11.27886255;1.113469004;8.133841356;9.207414848;9.160975462;21.58257399;-3.083041087
4.610497937;3.623613818;8.289969694;1.406104276;0.470012207;-0.744266643;1.433327113;11.04979169;32.72881039;4.476416538;40.01782823;34.59482636;9.950622296;0.127794696;6.259856098;8.048835687;9.892287734;22.53396396;-3.405109828
3.898506401;2.338617094;5.663092586;0.445229563;-1.781161518;-1.360058594;1.453814665;8.575380392;36.73649698;2.558194889;44.59971661;34.52898535;9.276998689;-1.470108323;5.248344122;6.732382067;9.437801701;23.0268543;-3.107654729
4.584105192;1.893208637;5.039887778;0.72925693;-1.914766817;-1.86583355;1.641143764;7.824486846;41.6366683;3.713657988;49.40193006;33.19107715;9.348308846;-3.465867089;5.141845844;5.28087563;7.482253716;22.20989709;-2.175609255
6.597969794;2.417136554;6.37116558;1.794735907;-0.013802409;-2.179152135;1.66141442;8.990116717;47.43969435;6.98861594;54.15775012;31.22032487;9.75993345;-5.080078125;5.022436182;3.750256066;5.156095182;19.96550571;-0.88740151
9.133817207;3.751457676;8.56729962;2.717596451;2.690342211;-2.393869058;1.347445033;11.43424557;53.45854521;10.34113684;58.5520477;29.71717663;10.08766688;-5.379178145;3.589123658;2.209414593;4.311571889;17.01285071;0.259763492
11.13690726;5.486825032;10.18349204;2.738567311;4.651203228;-2.692954892;0.840852806;13.93711955;58.72666228;11.95839023;62.25549177;29.1911168;10.27180574;-3.97794788;0.239111644;0.77989061;6.212525024;14.49082337;0.834919947
11.93397311;7.160527716;10.37153193;1.87032974;5.071443928;-3.170959234;0.465298577;15.38305077;62.6783356;11.38578129;65.12010561;29.23106359;10.58257601;-1.494183249;-4.192313338;-0.3414485;10.59694847;13.33153126;0.761085194
11.56904361;8.46560735;9.384000742;0.999856489;4.416053165;-3.715171961;0.454506072;15.51932788;65.65093681;9.746892889;67.45214502;29.11746571;11.252478;0.699770311;-7.745680717;-0.958801198;15.77452005;13.80419302;0.356595818
10.62743236;9.308959019;8.228475613;1.300454353;3.976283106;-4.056559093;0.776486104;15.20288417;68.79154316;8.925942225;70.05592342;28.66442276;12.16177925;1.366225824;-8.635551668;-1.021659903;19.65238964;15.4278704;0.065975095
9.704620248;9.662358446;7.73259975;3.2846713;4.804264856;-3.96034003;1.194705296;15.81703439;73.32185851;10.26;73.83563056;28.41528773;12.88905476;0.311112293;-6.621694077;-0.706222783;20.93885824;17.20736212;0.082631004
8.930146066;9.318904756;7.767742574;6.175324039;6.833985735;-3.403147922;1.487506148;18.17915676;79.60622986;13.60503472;79.12710815;29.01643494;13.07702125;-1.419800698;-3.361190635;-0.33974902;19.71697264;18.01656961;0.178818964
7.903989869;7.775628621;7.276552314;8.13900328;8.874362313;-2.59030407;1.61403834;21.75603279;86.69931511;17.39021438;85.26460119;30.433475;12.75996239;-2.294833569;-1.359994786;-0.218514315;17.09919711;16.97248285;-0.096979838
6.088683823;4.411106144;5.115888925;7.351879242;9.49126547;-1.801373866;1.686666788;24.87755513;92.79115507;19.62572879;90.8175426;31.829739;12.33505113;-1.4839682;-2.231014991;-0.471345447;14.33975989;13.72053626;-1.001782656
3.359708497;-1.077799601;1.061851918;3.245001217;8.107370659;-1.197970924;1.808741932;25.90275881;96.34886595;19.20237106;94.44676163;32.26647218;12.19939368;0.442494602;-5.554497198;-1.065431134;12.09938636;8.590990005;-2.304900506
0.296844684;-8.241662523;-3.830947606;-2.924749414;5.481652585;-0.755396076;1.965817982;24.50125401;97.21;16.63137137;95.80578942;31.56717941;12.39912051;1.911772429;-9.209085032;-1.894454261;10.33923257;2.574835585;-3.379768084
-2.020318257;-15.78029181;-7.832593789;-8.628322321;3.211034495;-0.36439675;2.091550368;22.03559505;96.83778884;13.73930898;95.80858068;30.51263755;12.63858355;1.609442753;-10.90663399;-2.805776157;8.787642949;-2.92872312;-3.631182076
-2.604741379;-21.94704077;-9.670827019;-11.4464929;2.640161029;0.004920653;2.23383804;20.6706004;97.48267174;12.51619293;96.02962463;30.16708174;12.66348658;-0.351983202;-9.732489687;-3.520855705;7.499295091;-6.56760342;-2.930773447
-1.168103747;-25.30144764;-9.350151169;-10.41958976;3.989733598;0.238408626;2.620271228;21.8233052;100.7560031;13.86511465;97.66;30.96668958;12.66132968;-2.318236081;-6.531896648;-3.588823055;7.010078125;-7.548602724;-1.720934892
1.646096702;-25.39633863;-8.062551055;-6.523782141;6.30717006;0.177764767;3.501602795;25.11282431;106.5602763;17.05854815;100.7810049;32.42767245;13.26269561;-2.227260636;-2.959873472;-2.568326481;7.95473011;-5.979555759;-0.710465281
4.554265449;-22.98101118;-7.294738283;-2.017056525;8.199085976;-0.207293057;4.875090858;28.61262636;113.1056149;20.23448652;104.453496;33.73258963;15.05655845;0.791353234;-0.105125583;-0.439577524;10.45737987;-2.8553047;-0.40388746
6.281766201;-19.57894716;-7.826685069;0.871997894;8.745052823;-0.740670376;6.343956965;30.21249261;118.0074051;21.58080273;107.4818869;34.60182984;17.98021278;5.562648938;2.113897328;2.052219889;13.7949643;0.340862834;-0.819451672
6.198814166;-16.6830206;-9.344954786;1.068000081;7.935782724;-1.141415975;7.291309531;29.05186916;119.7263344;20.41631169;109.2130058;35.57321547;21.11514877;9.478761268;4.334835113;3.522352512;16.64121654;2.254370429;-1.576866873
4.595748426;-15.04583086;-10.87367528;-1.047744916;6.419970818;-1.227904907;7.284027171;25.9628622;118.4017087;17.47514143;109.7825494;37.3824525;23.14087852;10.22282013;6.600482379;2.660078125;17.77540369;2.208913998;-2.234772863
2.466825626;-14.46820566;-11.59706707;-4.188374665;4.888726955;-1.049633743;6.402306835;22.66659117;115.5824333;14.26482672;109.7363921;40.03061474;23.17775139;7.391818476;7.857264096;-0.853083535;16.79296908;0.426060317;-2.584506285
0.946140217;-14.15770899;-11.40462304;-7.060631937;3.63952473;-0.830606629;5.219861261;20.44038843;113.1350616;12.00527842;109.4748266;42.48624739;21.41182609;2.829028043;6.708134012;-5.903381693;14.33247361;-2.185999369;-2.689616556
0.719580356;-13.36781402;-10.78578738;-8.979812162;2.617119336;-0.773656854;4.429865134;19.33383034;112.1399429;10.92067896;109.049291;43.42480643;19.02673262;-0.609388385;2.84834525;-10.43396751;11.65405686;-4.553837902;-2.702587876
1.73294114;-11.87753827;-10.25226199;-9.886020347;1.781363804;-0.898252252;4.397779538;18.49424033;112.5091313;10.3648569;108.4449565;42.43228168;17.47560533;-0.989291382;-2.119768228;-12.64703744;9.849022053;-5.981670838;-2.668973764
3.337533064;-10.01971893;-9.81642783;-9.92566353;1.391525658;-1.053086571;4.97804668;17.22162955;113.4694015;9.625215537;107.9919677;40.59462745;17.61079939;1.447216372;-5.394680909;-12.10456307;9.217347898;-6.411403625;-2.499789634
4.75976667;-8.297703005;-8.95180944;-9.043676943;1.917499709;-1.085863753;5.709283331;15.7911935;114.4167302;8.735786931;108.4158804;39.85732262;19.27168332;4.595337656;-4.85198986;-9.90612297;9.231823659;-6.260078125;-2.107857656
5.592196095;-6.912606655;-7.036968137;-6.945053679;3.648820715;-1.0093233;6.195777797;15.31978106;115.4359912;8.620618369;110.3802501;41.59085022;21.55993793;6.109720038;-0.672283909;-7.782092007;9.086590575;-5.961760279;-1.548162778
5.994515431;-5.568917267;-3.905548314;-3.439621731;6.346633859;-1.005315283;6.354838142;16.78587921;117.1147982;10.40168424;113.8732122;45.51045969;23.51559324;5.125807928;4.629845058;-6.782370321;8.400078125;-5.546700356;-1.015759741
6.481311146;-3.713863357;-0.078470003;1.138495131;9.249244238;-1.256689614;6.359113339;20.03651197;119.8675792;14.36643501;117.9848435;49.83089915;24.65302378;2.817466965;7.917647504;-6.582053379;7.525512124;-4.581866714;-0.707370692
7.452488111;-1.046431173;3.470483569;5.812681425;11.45228164;-1.756934901;6.383002877;23.63743523;123.360649;19.40026946;121.3269082;52.5153572;25.00137093;1.404851569;7.63296477;-5.952781281;7.219910864;-2.544735473;-0.686168404
8.810685704;2.076776378;5.822237496;9.304434878;12.39614057;-2.274203135;6.418372511;25.74312683;126.5221225;23.39706115;122.8161215;52.59492294;24.73641171;2.379644366;4.802971582;-4.009961745;7.928590313;0.635565413;-0.875365275
9.965240938;4.66610783;6.551880093;10.65653909;12.13278434;-2.513114537;6.327436198;25.34676969;128.148739;24.46074342;122.2422272;50.5477983;23.8166696;5.290951119;2.084462485;-1.195907015;9.270885693;4.307189731;-1.168608423
10.25201588;5.603550625;5.868525621;9.750378836;11.22881945;-2.342310543;6.056232473;22.97262937;127.6688947;22.11152688;120.2321513;47.587718;21.99060589;8.013379053;1.619364993;0.855727737;10.19027646;7.371593585;-1.52856423
9.479684748;4.342926251;4.449224675;7.379591122;10.41641343;-1.894953822;5.775720871;20.30937808;125.5236964;17.66069917;117.7244785;44.6274454;19.18460206;8.316163662;3.404567962;0.533399236;9.720483316;8.972253882;-1.968029455
8.182830282;1.35148708;3.114059756;4.817232152;10.23092358;-1.458269013;5.791756468;19.08113344;122.9238944;13.46907677;115.435608;41.85087707;15.9210919;5.582955169;5.446718134;-2.392476828;7.801878088;9.1017096;-2.444290048
7.341901631;-2.038054266;2.501074309;3.130839266;10.81579628;-1.250275687;6.291907576;19.9825446;121.1734733;11.56452295;113.7165083;39.1494228;13.34844546;1.405929267;5.531748736;-6.354441273;5.480470134;8.630102353;-2.803081587
7.715106861;-4.336445235;2.836292784;2.654941685;11.92819123;-1.275538892;7.157942377;22.38680432;120.9988509;12.51835809;112.7701184;36.82696413;12.74143117;-1.415867294;3.152542068;-8.897329658;4.254379772;8.664298671;-2.867051914
9.241517697;-4.763165026;3.850846991;2.926144407;13.07727492;-1.375226289;8.017901919;24.9186123;122.2497272;15.27482299;112.8440024;35.75279014;14.73713662;-0.79405668;0.031017317;-8.273414803;4.994046803;9.676663491;-2.608059712
10.96884562;-3.724211325;4.888264056;3.090770732;13.71942168;-1.410718889;8.497612392;26.37918327;124.0618983;17.96103779;114.0757766;36.73060378;18.80214989;3.159159182;-1.190917562;-4.566837416;7.236170766;11.07356005;-2.229752701
11.60989713;-2.572949797;5.207409019;2.500732636;13.46587937;-1.403356834;8.461435385;26.36074078;125.3240246;19.06957122;116.0930212;39.6703198;23.31899907;8.119561545;0.941912692;0.432947766;9.417052447;11.58402307;-2.04412612
10.37863354;-2.776737833;4.381187349;1.111248639;12.25790099;-1.49954623;8.059462103;25.23525441;125.2077292;18.24036018;117.8373199;43.40376158;26.31199587;11.03932483;5.452505374;4.444122729;9.918917243;10.22662085;-2.217354703
7.535595886;-5.009497325;2.580029297;-0.551514289;10.43238539;-1.796435883;7.58403709;23.70517002;123.5688318;16.23924376;117.9984324;46.42017341;26.44698078;10.12665036;9.530947066;6.070078125;8.179878448;7.136818625;-2.607560337
4.259292191;-8.754357985;0.535074825;-1.78383955;8.605070581;-2.197221176;7.296199254;22.35603694;121.0925119;14.31158509;115.9195001;47.93629137;23.76777413;5.994213296;10.54367557;5.411362845;5.058641262;3.604245115;-2.864584939
1.928237689;-12.66799528;-0.847442404;-2.154392422;7.385635807;-2.444585279;7.365180741;21.50925988;119.0918136;13.4440364;112.3116313;48.37130659;19.76003906;1.248976447;7.963094375;3.652305077;2.207702155;1.256588126;-2.734193313
1.30621586;-15.44611015;-1.001403545;-1.700466985;7.064974178;-2.322612825;7.906734988;21.33251268;118.9439644;13.98612868;109.1005862;48.80947516;16.67755714;-1.146301636;3.814039797;2.120807647;0.955911439;0.985971859;-2.30643183
2.172789818;-16.5950648;-0.005804718;-0.778749026;7.468382434;-1.862250441;8.986286155;21.94907959;121.3311005;15.71440997;108.3235213;49.94509853;16.44415503;0.36805822;1.341830698;1.570662708;1.543486169;2.418802611;-1.968425122
3.604811553;-16.59993881;1.531405349;0.253152483;8.078136548;-1.371630084;10.50650388;23.36090623;125.6718778;18.10555226;110.7657709;51.47737793;19.67272562;5.168437358;2.87244991;2.073464057;3.226830747;4.307965884;-2.071230302
4.653401504;-16.42456936;2.917177585;1.24109952;8.345630827;-1.253891504;12.07507494;25.25277997;130.1811972;20.55291454;115.335053;52.51024376;25.306915;11.01764445;8.344373874;3.334960684;5.056320693;5.509097006;-2.587734864
4.917228626;-16.75704258;3.807143346;2.174988222;7.980621766;-1.749157353;13.05240884;26.91933306;132.7134754;22.46210537;119.7031213;52.5794977;31.09553529;15.46292749;15.44589825;4.987754465;6.618384922;5.765019936;-3.076382339
4.64749192;-17.5706558;4.310689798;2.971065587;7.036207185;-2.794977645;12.86822414;27.48799251;132.0198506;23.34752546;121.8152896;52.32636114;34.68234108;17.09806388;21.15905314;6.624600141;8.134723653;5.711623272;-3.017673148
4.399113153;-18.29539793;4.724252771;3.355921758;5.77934448;-4.095833358;11.43932952;26.36380136;128.6408515;23.03038356;121.1923605;53.12381774;34.75237885;15.97541591;23.61076947;7.732138575;9.916554684;6.168201167;-2.259539903
4.560622144;-18.40926823;5.157479298;3.024958854;4.501409695;-5.322305346;9.356292487;23.61606413;124.743502;21.84942018;119.0777689;55.89712484;31.62446635;13.13192914;23.03217916;7.829021518;11.74849904;7.345948871;-1.187819057
5.123000982;-17.94289888;5.398416493;1.98627352;3.439892535;-6.271652559;7.621727281;20.03803057;122.8544647;20.66051301;117.3435417;60.12996493;26.97856343;9.768622254;21.30257367;6.85622381;12.82728021;8.637506604;-0.452210079
5.803121824;-17.48630704;5.14719958;0.790538482;2.842364757;-6.882624884;7.06128063;16.82641298;124.243094;20.49781204;117.0056566;63.93875801;22.90300929;6.70988901;20.49181487;5.485965669;12.3670176;9.134964669;-0.456197965
6.346208123;-17.70559367;4.414119554;0.385408083;3.042040463;-7.142018187;7.813592814;15.0717451;128.0625997;22.04484681;117.4839896;65.21725915;20.83751519;4.389068651;21.40809096;4.933578669;10.3586112;8.411005249;-1.03489909
6.72720334;-18.77706376;3.712509469;1.612083453;4.38707036;-7.012658191;9.278048544;15.34290771;131.9167978;25.27134136;117.1518757;62.96770701;21.01498199;3.125926882;23.08536126;6.22376543;7.7875213;6.899420207;-1.599593914
7.106914668;-20.20649151;3.827079446;4.663705018;7.006840701;-6.471462152;10.55747438;17.54783174;133.5260538;29.5143919;114.7171607;57.80200725;22.64643095;3.27223843;23.50778985;9.383438845;6.044517609;5.572432157;-1.63465576
7.628161717;-21.1818606;5.286631975;8.896215869;10.58309999;-5.617666983;11.05250321;21.06616075;132.331397;33.95060144;110.3411712;51.30393392;24.59902428;5.015881447;21.07601194;13.21868878;5.948068398;5.204388647;-1.127345254
8.257324248;-21.17532649;7.930078125;13.14772317;14.34713896;-4.721844415;10.76434074;25.0251004;129.8605251;38.08975345;105.6197903;44.85544963;26.03861251;8.023182698;15.842402;15.95431795;7.149857586;5.829457843;-0.562448275
8.804654389;-20.3152144;10.90962625;16.35793635;17.38018758;-4.125229346;10.12426673;28.58688618;128.5557857;41.90277973;102.4387173;38.87434192;26.63368877;11.30815311;9.666086501;16.34065027;8.408243124;6.798916894;-0.484973044
9.08310837;-19.24119683;13.15607312;18.07134545;19.05993173;-4.035344418;9.559877784;31.18088287;129.9101383;45.51259971;101.5779311;32.95369358;26.32364346;13.56388837;5.113468579;14.42568765;8.522333306;7.328768596;-1.007453434
9.054166639;-18.56952336;13.99164123;18.51705482;19.36470758;-4.374135648;9.191098725;32.65463576;133.3022678;48.76476202;102.1212195;26.60524113;25.00257964;13.80945738;3.770430904;11.41980596;7.198237251;7.056574643;-1.689206896
8.845789647;-18.3942961;13.47581989;18.28686269;18.83239753;-4.813834915;8.879585467;33.30668666;136.4225931;51.11370643;102.1085598;19.89071748;22.48201219;11.92110191;5.100812451;8.783421216;5.196514092;6.19361524;-1.896097849
8.655174758;-18.20603197;12.27755713;17.91045008;18.20999354;-4.99288332;8.50850191;33.75242126;136.9906348;51.98833182;99.94321097;13.4742479;18.78177178;8.671466973;6.715504032;7.271190984;3.705514165;5.256108392;-1.33563766
8.638256516;-17.27459576;11.20559572;17.63868454;18.03539516;-4.757446831;8.172210489;34.62794417;134.4821857;51.35737766;95.53135411;8.215231683;14.44669119;5.254038386;5.998505943;6.665691069;3.490068359;4.7008801;-0.311977184
8.865913353;-15.19660067;10.73921996;17.51269355;18.41165768;-4.248331548;8.080735267;36.24833291;130.569229;49.98627851;90.36230707;4.760126334;10.51574497;2.637343419;2.044599417;6.330418134;4.483235632;4.780292608;0.512332209
9.337896654;-12.21109692;10.84628771;17.54155465;19.0681711;-3.772646373;8.294813472;38.41392257;127.9444128;49.08234586;86.51976336;3.418231086;8.05209413;1.184408772;-3.480969619;6.018520783;6.056109407;5.626944013;0.638668686
9.993523563;-9.087310062;11.13281311;17.75873436;19.59860241;-3.567082992;8.591897677;40.50698999;128.4121452;49.5173963;85.35046786;4.196800236;7.535665567;0.728437616;-7.303728389;6.178745041;7.620561305;7.316325455;0.09460498
10.69488256;-6.700566587;11.14526329;18.10294848;19.67996934;-3.639130322;8.636163848;41.84385594;131.654576;51.19272144;86.68994977;6.714306713;8.576820695;0.929554401;-6.791317029;7.466140356;8.993984577;9.710549932;-0.656091305
11.23126724;-5.596306311;10.60007813;18.28750558;19.15276434;-3.802471563;8.308958229;42.0642755;135.5367299;53.04657836;89.08861977;9.98269455;10.18100918;1.552862214;-1.957294898;9.888702962;10.24996764;12.20003906;-1.149495803
11.40555988;-5.792914176;9.437957349;17.86434955;17.98548524;-3.864384587;7.86628401;41.3;137.6463083;53.7329372;90.78034964;12.42034072;11.36545683;2.444373821;4.266641575;12.37798795;11.29295065;13.69436303;-1.305378431
11.18149134;-6.878884381;7.756760552;16.5080507;16.22687838;-3.805428344;7.730318519;40.01777804;136.8815037;52.49375099;90.69864085;12.43897707;11.66383929;3.302894571;7.804692578;13.24970251;11.65045351;13.08188027;-1.427118483
10.77219422;-8.287996902;5.736090191;14.3110542;14.01290574;-3.805387256;8.076293425;38.66860751;133.9586468;49.60964551;88.9284623;9.43363049;11.17892728;3.562258187;6.090427385;11.28464323;10.74975431;9.951122075;-1.841962963
10.55149134;-9.587435391;3.608223724;11.82372364;11.60198812;-4.096465108;8.605415567;37.42043023;130.6083003;46.14833641;86.44271717;4.448873184;10.24293129;2.613553934;-0.254403353;6.626659866;8.4611335;5.026615988;-2.528381073
10.80231687;-10.66171013;1.642798266;9.763011516;9.36239508;-4.760351434;8.757545268;36.16923174;128.2198355;43.25733691;84.43425188;-0.189830789;9.065622687;0.277969245;-7.902866042;0.807420455;5.403769309;-0.115118742;-3.08
11.47811607;-11.73756017;0.089906369;8.592475426;7.674211765;-5.626203365;8.214311661;34.79423827;127.0118968;41.54568601;83.7123138;-2.257988086;7.708690355;-2.836886587;-13.09380278;-4.128330716;2.692042019;-3.949509185;-3.043290403
12.18571537;-13.23598558;-0.917597063;8.293167883;6.789243033;-6.347879513;7.243169935;33.41611394;126.2621116;40.95423662;84.45537125;-1.110095215;6.366044475;-5.448400649;-14.02858321;-6.75466301;1.286787616;-5.899167465;-2.325160912
12.44112938;-15.48949725;-1.436456384;8.487393532;6.734014462;-6.607088971;6.535698028;32.41563275;125.2292507;41.08349424;86.30881915;1.902652032;5.591187339;-6.206593923;-11.69608793;-6.869661725;1.465006753;-6.545050113;-1.304555695
12.01606732;-18.45141199;-1.693966457;8.779958935;7.30865492;-6.302597704;6.636676105;32.17713498;123.893552;41.60834268;88.63033834;4.488037379;6.122655173;-4.442178875;-8.664363532;-5.256151062;2.814991401;-6.999999453;-0.55040664
11.08810312;-21.59497786;-1.981181892;9.009019405;8.167242156;-5.600533691;7.452455108;32.76725805;122.8995191;42.42557024;90.70788914;5.167692143;8.332441242;-0.561160303;-6.916020154;-2.937775791;4.699445197;-7.968899211;-0.400288766
10.04801204;-24.14677255;-2.533920203;9.205889802;8.92861898;-4.818105763;8.295165802;33.83388075;122.8312144;43.49183082;91.91038408;4.330087891;11.73212872;4.180451507;-6.452720657;-0.577958007;6.730852617;-9.27515665;-0.769681693
9.109406488;-25.58480101;-3.48059358;9.350554807;9.282832994;-4.22177226;8.462048913;34.8387147;123.5236316;44.60734922;91.81985632;3.710087891;15.02713532;8.363447083;-5.680039063;1.583325408;8.833701907;-10.22714224;-1.339430926
8.063396032;-26.08126318;-4.86738738;9.209499394;9.088354022;-3.871457513;7.861163287;35.45298363;124.0443884;45.41685742;90.36296955;4.725774093;16.81318868;11.09473603;-3.119686949;3.398161122;10.89496164;-10.46078519;-1.916419538
6.434140524;-26.50650771;-6.697356154;8.463933736;8.449865098;-3.608594795;7.122882697;35.78833387;123.3657912;45.6447454;87.87110808;7.088272471;16.46656927;12.281901;1.034492556;4.557806245;12.42621331;-10.46142518;-2.606432461
3.962356347;-27.86260917;-8.913021141;7.045741783;7.728513499;-3.193146738;7.069711468;36.25121999;121.1414347;45.31991706;84.97214383;8.899029687;14.55603531;12.40606107;4.800619848;4.739137035;12.67364511;-11.23324691;-3.625079661
1.035357089;-30.45560108;-11.32059553;5.365962196;7.424629924;-2.499971259;7.9861244;37.12060372;117.9233848;44.73838644;82.3087469;8.193192422;12.42420084;12.05401907;5.806301694;4.010937725;11.18444929;-13.34274761;-4.931664024
-1.333608032;-33.40915061;-13.53369394;4.175454631;7.936643868;-1.643692684;9.326203576;38.20339355;114.6537249;44.1695928;80.22254061;4.636473357;11.2216447;11.57472774;3.062889163;3.040917291;8.354218916;-16.16431833;-6.066410461
-2.051398362;-34.98180353;-15.02723192;4.11015901;9.311559589;-0.940269787;10.12956876;38.89430481;111.8926283;43.58620287;78.61071408;-0.077800776;11.11843055;11.04102024;-2.266431979;2.778515122;5.400408125;-18.05931183;-6.409331193
-0.669221053;-33.60378532;-15.3184199;5.26961778;11.16242968;-0.714911768;9.79851253;38.65214628;109.4609115;42.71078961;77.07322517;-3.492515937;11.29333404;10.41571195;-7.63472975;3.770301806;3.646815046;-17.46893255;-5.690339674
2.242053659;-28.97753225;-14.1889684;7.179819816;12.85322751;-1.071964068;8.568686525;37.54124866;106.8008586;41.38809769;75.27148921;-4.254616659;10.69471434;9.688526369;-10.74308346;5.659597805;3.608007936;-14.11102928;-4.313269384
5.367474033;-22.4495996;-11.81607024;9.176593211;13.86649382;-1.783193828;7.273554827;36.37634337;103.7237251;39.95722786;73.25651106;-3.012593448;8.95997203;8.855971829;-10.78682587;7.350828004;4.600404802;-9.317661721;-3.167355489
7.405404138;-16.32347209;-8.729177311;10.88046386;14.11089021;-2.389018568;6.625113604;36.27056214;100.8605987;39.23147521;71.52461296;-1.609799664;6.760589258;7.826879903;-8.512906657;7.800420159;5.238191327;-5.193737303;-3.016403119
7.783443299;-12.53719387;-5.61734879;12.34667429;13.93700297;-2.470687489;6.653593764;37.84287798;99.36358589;39.98891388;70.73437673;-1.317930027;5.301226862;6.431642374;-5.294854524;6.847592342;4.473719003;-3.209321622;-3.928505666
6.848683896;-11.60849166;-3.096964672;13.75910682;13.82919386;-1.926920042;6.788779054;40.64323377;100.0248282;42.30367307;71.25086198;-1.688953164;5.370253119;4.596235544;-2.137224005;5.393711537;2.387425703;-3.29750074;-5.209577729
5.447348952;-12.56653274;-1.554533298;14.95622249;13.98865195;-1.067398706;6.471870096;43.24838241;102.479843;45.23958249;72.80954843;-1.063580502;6.682427614;2.531514094;0.608270008;4.705213913;0.109805775;-4.133513775;-5.914166433
4.253186296;-13.86334385;-1.11233023;15.25868336;14.12152544;-0.445121683;5.703169126;44.02256795;105.1349788;47.2002464;74.52427109;1.679961234;8.013027105;0.707305816;2.784644345;5.310484653;-1.064200117;-4.33703026;-5.543468807
3.352335331;-14.5417005;-1.684476541;13.8334875;13.60575469;-0.523132569;5.00357392;42.05776205;105.933482;46.74932699;75.24951791;5.666968041;8.00881494;-0.458277235;3.866206079;6.337022388;-0.677124297;-3.623491892;-4.38881928
2.349049721;-14.7842515;-3.054898605;10.36192626;11.93010904;-1.387830791;4.83269082;37.67080024;103.4695012;43.36588698;74.09512193;8.196479275;6.068202284;-0.982444987;2.948572477;5.872626686;0.540561294;-3.002324303;-3.266287813
0.836884962;-15.49159399;-4.929461733;5.477765725;9.094453851;-2.693974589;5.03898446;32.14891315;97.73344172;37.66;70.8178312;6.539927705;2.678293337;-1.42274784;-0.624667994;2.202987924;1.212626584;-3.901956665;-2.875249606
-1.177605295;-17.31014871;-6.961040281;0.580008545;5.689923886;-3.871313351;4.911499691;26.96672307;90.06420919;30.9824898;65.91156576;0.010236556;-0.958553297;-2.521213928;-6.533079821;-4.88662187;0.30337348;-6.948092338;-3.298956137
-3.222403904;-19.93680655;-8.776371692;-2.89543741;2.614098661;-4.450171183;3.84378445;23.04714395;82.43219379;24.77722164;60.40098875;-9.299527625;-3.661971572;-4.583117976;-13.30096078;-13.66003906;-2.201291478;-11.35985867;-4.022486611
-4.672631832;-22.2568964;-10.02866892;-4.231465035;0.631115444;-4.296089926;2.015874229;20.55023905;76.56021122;20.12115899;55.48246277;-17.66293714;-4.835638141;-7.062508043;-18.8758612;-21.19833173;-5.370039063;-15.40217553;-4.407326776
-5.139666905;-23.16842968;-10.4724584;-3.677711759;0.067092082;-3.623311316;0.423327053;19.23342312;73.36838582;17.63603541;52.17806831;-21.86985849;-4.539360119;-8.739030733;-21.57975215;-24.94505952;-8.000794367;-17.50172376;-4.203048172
-4.634050677;-22.39462704;-10.0323816;-2.05997469;0.794294674;-2.814781855;0.139620995;18.98768382;72.9021131;17.60598188;51.09668803;-20.83870882;-3.160960726;-8.443934466;-20.80947377;-24.07432741;-9.322263308;-17.16886197;-3.684143655
-3.431641336;-20.62930848;-8.8325717;-0.113444781;2.433422687;-2.19254027;1.407706496;20.05765731;74.57560887;20.01225943;52.31616947;-15.72796907;-1.029290614;-5.849575084;-17.11914639;-19.8510842;-9.239243014;-15.09898351;-3.343671881
-1.827003687;-18.93496347;-7.168106565;1.920227745;4.575286168;-1.881638756;3.367253682;22.7572351;77.47204198;24.38684239;55.37539715;-8.805289925;1.743907269;-1.744294723;-11.78514496;-14.80933537;-8.087334309;-12.50635242;-3.44675346
-0.01560724;-17.92540773;-5.424827654;4.16051419;6.87305508;-1.815733613;4.709940263;26.93665533;80.57353904;29.67768031;59.38423876;-2.144060559;5.14955826;2.424542208;-6.229566586;-11.30506699;-6.252945362;-10.29427434;-3.834066073
1.820748086;-17.40794199;-3.976129157;6.618575855;9.010165182;-1.832350535;4.742913934;31.67949723;82.95403633;34.40742572;63.26143803;2.968918761;9.052183279;5.410900112;-1.602744474;-10.33639102;-4.024309223;-8.675733548;-4.116064142
3.370345319;-16.73736865;-3.094379166;8.85949784;10.65903831;-1.774329905;3.950434672;35.53660881;83.98661453;37.188104;66.05615464;5.882291735;13.03075417;6.809021269;1.422177528;-11.28324155;-1.718648578;-7.396230217;-4.049541666
4.199534855;-15.52362296;-2.904021906;10.12256138;11.5260797;-1.551616773;3.547159327;37.18720165;83.50983133;37.31956078;67.23140545;6.305709857;16.37667203;7.041847322;2.728001936;-12.60357384;0.181577135;-6.213863028;-3.746210738
