Channel 1 - P4;Channel 2 - O2;Channel 3 - P8;Channel 4 - T8;Channel 5 - C4;Channel 6 - Cz;Channel 7 - Fz;Channel 8 - F4;Channel 9 - Fp2;Channel 10 - F8;Channel 11 - Fp1;Channel 12 - F7;Channel 13 - F3;Channel 14 - C3;Channel 15 - T7;Channel 16 - P7;Channel 17 - P3;Channel 18 - O1;Channel 19 - Pz
41.83188131;18.88710803;47.08629097;36.17573446;31.74146401;34.53834897;-56.83610782;-5.382074567;-7.014201693;18.20111555;18.84529909;60.62854041;9.377422208;38.82671762;15.36453096;13.63577132;36.38245522;53.41114211;26.85651754
32.56223302;8.624917157;40.9417353;25.02843447;22.14643371;26.73394106;-74.39707851;-23.35103803;-41.94338068;-2.56562501;17.32425437;63.61386609;-10.24524277;28.3778137;-1.203197913;-8.116195863;27.80606811;42.02345942;17.63611355
14.83863156;2.08985637;25.40908721;6.492594654;5.942326862;9.776954724;-58.69343748;-32.40355912;-68.0224746;-23.64159958;-1.511978957;51.60732718;-21.94803744;10.98066254;-14.32927754;-20.4490278;12.17873123;21.4359737;4.031068533
-0.321593631;2.44721339;10.98708234;-7.8343178;-6.295429774;-6.27159392;-17.68258187;-28.12312493;-68.61583576;-33.86224771;-21.57438299;36.88191848;-17.92949582;-1.552228381;-13.66995468;-15.49738999;-0.045694776;3.712906973;-5.810970555
-4.686132091;7.989044811;6.307855246;-9.548470341;-7.472597288;-12.95824737;24.51671644;-14.31181277;-45.31395162;-29.10578561;-28.12476075;31.91552227;-1.101415587;-1.616881611;1.811800027;3.001145857;-1.470437477;-1.947689961;-7.139109913
1.853566707;13.60402136;12.28832006;0.796080625;1.281509276;-8.901289045;44.21472581;-0.104236289;-15.467697;-14.77092123;-17.687518;40.69769951;17.43526476;9.301492739;23.16553434;22.9567317;7.453857644;4.805567834;-1.428443117
12.12741336;14.68714938;22.21700916;14.59032387;12.05187835;0.126002439;33.86089625;6.391693498;1.53929541;-1.459928794;0.947738889;56.78754241;26.70783773;22.66929776;37.93658812;32.98703773;19.62275844;16.27501697;5.478458777
17.62998169;10.43988221;27.33640191;21.80582639;16.35838786;6.163094428;5.552755844;3.201420784;-1.748724122;2.650835671;14.59964255;69.0445612;23.45038468;29.81306806;38.85896435;30.20141409;27.09469213;23.19612433;8.161033754
14.68683799;4.04465316;23.32050225;18.11346846;11.21106307;5.008834936;-19.40518619;-5.221006213;-17.1935379;-3.072417723;15.73447347;70.1307901;13.31671704;28.05319488;28.26088747;20.9486526;26.73157158;21.50700093;5.483589194
6.208393304;-0.273457427;12.70228923;7.166399032;0.516554469;-1.33079371;-26.18988124;-12.25147497;-29.51798652;-12.65992832;6.937491274;61.20889017;5.358409754;21.48023618;15.20252834;14.54106674;21.41267823;14.21941407;0.702902492
-1.752856539;-0.80298531;1.862785536;-3.209368418;-8.734110729;-7.125418014;-15.48135382;-14.25509446;-29.14386314;-19.16053562;-2.863241782;49.7790755;4.642702986;16.40539783;8.065951719;15.43994954;16.44915217;7.538075413;-1.839001416
-5.269237771;0.4056275;-4.414595614;-7.390506744;-12.00046384;-7.872228661;0.004554205;-12.64399827;-18.91540994;-20.06943297;-6.411407607;43.16917265;8.942490368;15.75909034;8.632584385;20.2142307;14.69939406;5.077351153;-0.440641238
-5.164114263;-0.425982059;-6.186900181;-5.701159054;-9.974497655;-3.620782167;7.26260415;-11.6232648;-10.02028807;-18.3152332;-3.495248396;43.25648429;11.69855721;17.15808209;12.07220973;21.33011102;14.59256179;5.214665787;2.861461788
-5.17177322;-5.236560956;-7.024605395;-2.903140938;-6.79671885;1.706743913;2.972692426;-13.93670316;-11.52155625;-18.55553372;0.279664692;46.34393202;8.233298184;15.89035129;12.23653689;14.17662959;12.42981552;3.521856968;4.457353907
-7.731125583;-12.03757785;-9.789891762;-3.267124019;-5.767927293;3.9601547;-5.764488862;-18.31622873;-22.69412827;-22.4086157;-0.55688158;47.5059733;-0.190679176;9.804800997;7.421823806;1.32058962;6.545643394;-2.316978471;2.485715054
-11.36268085;-16.10318844;-13.52630799;-6.664705409;-6.451876407;2.095108137;-9.193906873;-20.62741765;-34.24331795;-26.82531437;-6.242810046;45.18202566;-7.668999508;1.65790945;1.739735438;-9.407012939;-0.567000861;-9.730142667;-1.584894
-11.92722807;-13.5505837;-14.22619796;-8.884073691;-5.510147903;-1.450944696;-3.706107022;-17.49543582;-36.62792974;-26.8206088;-11.82552572;42.12181675;-8.834302862;-3.085858499;1.222692827;-11.16057491;-4.08979564;-13.16484136;-4.34153731
-6.523421648;-4.467115994;-8.680851141;-5.589313801;-0.222803436;-3.281513416;5.752518471;-9.218530538;-27.9622123;-19.96953682;-11.84116971;42.32780967;-3.311537857;-0.957019972;8.288063138;-3.390127592;-1.017610393;-8.967947646;-3.422531651
3.519056433;6.908693851;2.104988282;3.676656492;8.597032642;-2.03112089;10.94091185;0.424507077;-14.94074679;-8.695944173;-5.187563143;47.11214651;4.238200475;6.471496672;19.41113029;8.012711509;7.074753815;1.112448813;0.509035443
13.23183773;15.10206452;13.02985721;14.84947325;16.87094147;0.726608322;7.946614199;7.136856297;-6.599442602;1.532308373;4.067097733;53.84573322;8.238732997;13.80688829;27.91843379;15.53795221;15.08386007;10.94267707;4.427176997
17.7089134;17.14257022;18.54109985;22.43959849;20.40161504;2.185273123;0.364545309;9.233843939;-6.75025802;6.412077805;10.35509118;58.29512295;6.764916013;16.20578493;29.36289901;15.67913309;18.36061683;14.73575994;5.537907453
15.78051418;14.2924222;16.77229889;23.61203775;18.13016288;0.895916538;-4.359210491;8.391381904;-11.56441696;5.789883627;11.24994638;58.20411299;2.702399422;13.11896136;24.8207606;10.86446311;16.23480166;11.50036094;3.521307183
10.61904354;10.5955451;10.75297064;19.87674014;12.76196595;-2.070390914;-1.71696746;7.634290382;-13.8918852;3.052875012;8.967825196;54.8562747;0.761602233;8.303535583;19.39261998;6.548939221;12.14995087;5.489511264;0.573624576
6.901203568;9.577318091;5.781593903;15.25039275;8.371030319;-4.25776683;6.072400451;8.511505667;-10.04361668;1.748486614;7.65655279;51.39684359;3.145355911;6.276232969;17.41;6.320078125;10.42768802;2.382282295;-0.631526132
7.023015786;11.74032714;5.239247367;12.75224288;7.142606798;-4.070971186;12.3709911;9.91995049;-2.982990497;2.538014422;9.199003223;49.69028955;7.632934198;8.381111084;18.65492986;9.203736942;12.52797301;4.526551009;0.793800673
9.511289398;14.67145913;8.284728059;12.29066357;7.99034064;-2.085237706;12.11790441;9.436265115;0.601962076;3.062205513;11.43955151;48.70918624;9.581692089;11.82287388;18.90410387;11.14299815;15.98850073;9.246810597;3.376318001
10.763029;15.39664627;11.13601506;11.524953;8.023141721;-0.35620401;6.069637409;5.8026211;-3.566738306;0.589964268;10.39230808;45.88918999;5.965669914;12.34359475;14.24758934;8.98278304;16.82501781;11.49279876;4.741729559
8.409800814;12.90852735;10.60495505;8.611117312;5.379732827;-0.492309288;-0.266133508;0.314229269;-13.4942693;-5.092595168;4.336828371;40.07854408;-2.022643556;8.094543939;5.287387238;3.359214103;13.19440168;8.399267991;3.712204522
3.376866101;8.864455806;6.812178103;4.231813428;0.91976785;-2.273916974;-1.701673413;-4.053263878;-22.50260089;-11.14569684;-3.972645667;33.24534735;-9.875221403;1.349047811;-2.608178655;-1.870462257;7.122643496;1.815987827;1.210085449
-0.984496716;6.098546626;2.926930242;1.159104788;-2.572881286;-3.991284204;2.249903788;-4.929789411;-24.60868372;-13.87702429;-9.051411614;29.26637703;-13.22856033;-3.323081521;-3.417110524;-2.918400398;2.85843115;-3.259327578;-0.703872922
-1.741884054;6.358614724;2.401029072;1.8839412;-2.808334876;-4.08;7.444029381;-2.261138048;-18.96828753;-11.66200846;-6.958500284;30.79076601;-10.93988456;-2.759281821;4.429900666;0.876717292;3.330425014;-2.878282098;-0.68150152
1.321790931;9.140757686;6.184630289;6.487177086;0.135661304;-2.520841163;9.215706235;1.907798516;-9.857601811;-6.070168548;1.502896503;36.915657;-5.429930637;2.358501097;16.26397347;6.729371904;7.742042747;2.639144831;0.83675874
5.810440336;12.40665019;12.19105173;12.56189394;4.009324405;-0.782182922;6.589051749;5.196022687;-2.732744447;-0.399800811;11.29825571;43.69492676;-0.38548955;8.248506137;24.32463636;10.82915028;12.27282957;9.086811677;2.187895943
8.888525411;14.36752505;17.19621179;17.10495198;6.305498201;-0.448529593;2.824468234;6.569281804;-0.106994576;2.906586768;16.87105384;47.02855881;2.003166851;11.12918193;23.39929737;11.25218567;13.18672612;11.85655127;2.071910262
9.495714154;14.76025687;19.33205534;18.63944214;6.14;-1.826902714;2.061321499;6.592442867;-0.64791293;3.699296965;15.96295609;45.48397975;2.057786106;9.989435102;14.50766002;8.965441811;9.696429754;9.500735054;0.691861015
8.75702909;14.65626016;19.06718666;17.82141841;4.568103784;-3.757734675;5.346715009;6.318460796;-1.665891258;3.407011482;10.59924152;40.80637023;1.454139704;6.854199583;3.830068359;6.40210979;4.293510564;4.495666004;-0.523207346
8.49178648;15.1769723;18.11381842;16.28016824;3.309623923;-4.713675068;9.724056167;6.078953382;-2.166491547;3.191529516;4.831898257;35.98752521;1.328956194;4.630666072;-2.075128085;5.175330702;0.483690527;0.841599858;-0.27475779
9.38190558;16.35538882;17.54880198;14.99075465;3.212268522;-4.128255623;11.0970388;5.359070842;-3.51523231;2.885881223;1.454839188;32.81879169;1.431657396;4.59036462;-0.885869095;4.994001043;-0.018324174;0.74680546;1.432893557
10.48465849;17.11;16.95361741;13.70728518;3.825292675;-2.767154213;8.102477838;3.753975308;-7.359075297;1.656223489;0.418654235;31.04924372;0.837198459;5.602401392;4.502495292;4.501607595;1.669270117;3.169464886;3.324142725
10.38998792;16.24284839;15.2403041;11.81413992;4.283057873;-1.889029478;3.390832625;1.900298144;-13.15350541;-0.478029174;-0.128973572;29.56994553;-0.78558905;5.524315423;8.966516443;2.958116501;2.950248364;5.175637141;3.984813256
8.790239092;13.51654122;12.20297467;9.566577099;4.476000761;-2.043071554;1.1872935;1.306213909;-17.92830163;-2.000598283;-1.578678072;28.12833465;-2.716834269;3.303176676;9.326379018;1.070929504;2.108934173;4.651174411;3.037522128
6.943796134;9.912125654;9.222767996;8.38367148;5.326026334;-2.623158011;3.435869292;3.11453266;-18.65003906;-0.976801043;-3.571544378;27.72947002;-3.912524122;-0.077944732;6.310949345;0.279427722;-0.376079049;1.970068359;1.343401199
6.643894493;6.965633171;8.433024816;9.840212957;7.937682559;-2.545589858;8.071743209;6.941291648;-14.96131945;3.068796068;-4.655756863;29.34638682;-4.03704056;-2.466546524;3.110492311;1.338091492;-2.488185375;-0.600464336;0.148278328
8.718222403;5.847333895;11.11276647;14.28615148;12.49227056;-1.370370079;10.95445164;10.95757751;-9.652908755;8.318513276;-3.933864236;32.36245957;-3.665980086;-2.272446727;2.227009413;3.648879633;-2.465821348;-0.925587763;0.026168089
12.45723555;6.91810113;16.74434591;20.38232935;17.95221697;0.196125688;9.63585009;13.26619191;-6.331193288;11.85326925;-1.956893213;34.53139747;-3.459764152;0.465431782;3.501299781;5.963753777;-0.075480593;1.44200429;0.572763652
16.40854606;9.914756886;23.48579515;25.97528508;22.8130307;0.880496564;5.511598474;13.39351199;-6.371086692;11.96636558;-0.070248745;33.78109599;-3.241261199;4.406643699;4.822218429;7.689745093;3.586959572;5.36296789;1.033687848
19.65100161;14.3157476;29.49133485;29.49817026;26.1268503;-0.032267676;2.4460418;12.53455022;-7.936534858;9.548000142;0.96072413;30.28529716;-2.064673522;8.074241305;4.525876864;9.444233598;7.290937;9.413686033;1.17136935
22.25398252;19.40492586;33.82932013;30.65380179;27.81118191;-2.047493405;3.198779644;12.27342596;-7.961156695;7.208317751;1.542699488;26.73932261;0.649820699;10.73218844;3.116880743;12.27290486;10.59444471;12.95763044;1.497649181
24.50943804;24.06029194;36.29660633;29.89074065;28.03063426;-3.856910834;6.94382769;12.899285;-5.263061576;6.814636452;2.447313132;26.28070303;4.026221372;12.38498836;2.774425126;16.2947516;13.70989155;16.0488175;2.657150486
25.82345911;26.76425879;36.61089101;27.37239407;26.41777736;-4.41159345;10.10767541;12.87435235;-1.917482329;7.615380967;3.499557666;29.69275699;5.938861569;13.25913202;5.224161244;20.15662819;16.68375168;18.55769782;4.590968719
24.58624432;26.21708607;34.08597083;22.6089696;22.10035396;-3.720474699;9.690679037;10.04731557;-1.583008169;6.711223859;3.256703048;34.38505723;4.621041136;13.50599394;9.993682624;21.94705726;18.91649702;19.69215039;6.338574723
19.43408828;22.2878385;28.33584867;15.2168322;14.69455053;-2.70545995;5.997086376;3.657058525;-6.23398295;1.606523865;0.2304695;36.25768533;0.373261927;13.38285875;14.60650528;20.80996562;19.59768008;18.57492795;6.737557707
10.88912105;16.49046726;20.36330224;6.065831734;5.366085785;-2.300818051;2.299963766;-4.597356758;-14.1997673;-7.30565285;-5.391229158;33.04645935;-4.245441066;13.45429495;16.45564954;17.75227297;18.58753108;15.30933042;5.421418432
1.778177673;11.34446046;12.77070652;-2.453198079;-3.202589624;-2.631706482;1.807909054;-11.42942879;-21.26642844;-16.52389125;-11.24873894;26.32403741;-6.165596967;14.25685273;14.64316691;14.80183396;16.73172576;11.31175382;3.201888389
-4.263587876;8.848796986;8.481835235;-7.59953697;-8.232714162;-2.985006418;4.754691682;-14.17742308;-23.91129458;-21.81155674;-14.28947951;20.33835153;-4.200556985;15.53873011;10.24940617;13.18317822;15.13056899;8.332356179;1.453969932
-5.224439142;9.149122582;8.765266375;-8.107140933;-8.679179296;-2.544648996;8.270411511;-12.61957047;-21.91498657;-21.28896879;-13.15531955;18.53444056;-0.09149361;15.89738613;5.02974087;12.15800459;13.98989426;6.937629795;1.01794519
-2.14372105;10.50593337;12.20053034;-5.13799957;-5.977944951;-1.191563844;9.101902559;-8.9703744;-18.20728016;-16.73762402;-9.431898294;20.65355102;2.76751816;13.52791887;-0.058888614;9.682777699;12.24447974;5.942278422;1.575242103
1.721299098;10.72607137;15.63757993;-1.445985211;-2.999615612;0.346982459;6.632656387;-6.123960611;-16.23772501;-12.08941427;-6.544172584;22.91874047;1.96693659;7.793096879;-5.106131254;4.442387817;8.530256253;3.54807327;2.038238842
3.418177567;9.013564056;16.56279187;0.677349501;-1.962404131;1.099798196;3.405900936;-5.603837526;-17.23076326;-10.39396371;-7.075707723;21.25155273;-2.055933821;0.332836453;-10.20789575;-2.480864613;2.785787094;-0.655453816;1.591763641
2.504693503;6.747885306;15.00046161;1.021099849;-2.950542234;0.644481442;2.683438741;-6.81996921;-19.61408093;-11.74539961;-10.70546222;14.87092573;-6.451301721;-5.49637787;-14.40851051;-7.865862365;-3.000520493;-4.666012378;0.448251923
1.143451054;6.462530925;13.33399406;1.290715625;-4.205441744;-0.596805821;5.32166724;-8.059367253;-20.87816273;-13.74037997;-14.51046194;7.227090251;-8.297491454;-6.774114826;-15.93653304;-8.533044849;-5.808516509;-5.206476109;-0.35572182
2.023341051;9.728146034;14.11217266;3.29865564;-3.883257003;-1.764074404;8.885385744;-8.191436474;-20.01449284;-13.87259673;-15.40996376;3.401677616;-6.879961077;-3.21358457;-13.73799665;-3.790746303;-3.770857681;-0.355102394;0.07051486
5.857171798;15.59707026;17.63161396;7.059124334;-1.751522908;-2.256180405;9.861825576;-7.576544757;-18.32926997;-11.71670954;-12.71137841;6.053056078;-4.042462918;2.434521614;-8.895898519;3.827995529;2.212377509;8.465955253;1.613636645
10.5692524;20.92763949;21.36728416;10.45921725;0.626449153;-2.104830019;6.968471944;-7.478156029;-18.02614405;-9.086459305;-8.627555558;13.22979265;-2.415560867;6.298846356;-4.387329962;10.20388369;8.863249638;16.97630109;3.186979329
12.88775499;22.4874126;21.85534818;10.88290515;1.36156842;-1.768460887;2.502211348;-8.623264289;-19.96639778;-8.18321125;-6.350398815;19.86643458;-3.113880758;6.23861078;-3.006455876;12.44070175;12.77320214;20.8848994;3.634649271
11.05937007;19.3301157;17.59708506;7.520982393;0.081223927;-1.628155268;0.427781529;-10.25673979;-22.65723627;-9.453226854;-7.318331758;21.76712392;-4.870700056;3.366775698;-5.001060583;10.73714765;12.80693962;18.98694245;2.720258907
6.466847174;13.66365273;10.63909778;2.474524843;-1.467697041;-1.688341019;2.871027218;-10.53953078;-23.32799727;-11.02188968;-9.966896764;18.86200699;-5.271359884;0.9825976;-7.471777139;7.980058594;10.77124206;14.05930546;1.338638118
2.813452266;9.512233026;5.471950553;-0.334171083;-0.631082914;-1.719081971;8.166777397;-7.950726313;-20.10867258;-10.14806993;-10.98527498;15.13067046;-2.933623517;1.765675743;-6.310981973;7.486577115;9.830919422;10.78378429;0.769893482
3.489099934;10.09486973;5.987458684;2.265490154;4.064111763;-1.620312779;12.24639917;-2.525938524;-13.47780454;-5.444584543;-8.025845046;15.28523394;1.265766947;5.54143238;0.60492326;10.65536633;11.96105041;12.27600085;1.620924054
9.146407928;15.76075533;12.7488271;10.47193138;11.61038339;-1.591584585;12.15324415;4.033139161;-5.928314031;1.929202492;-1.671830498;20.87102632;4.91022543;9.463648566;11.39715665;16.18603857;16.46186745;17.88661758;3.349595373
17.2808924;23.86866628;22.56256374;21.19144316;19.03025937;-1.924225648;8.551561355;9.372266001;-0.355033844;8.940175383;4.852214225;28.83408585;5.993307825;10.43508285;20.99289421;21.20340501;20.63809755;23.88868949;4.743163509
23.9960623;30.56443867;30.56199912;29.76407855;23.27615053;-2.641208548;4.993335946;11.76244624;1.438046003;12.5432999;7.900424809;33.60161206;4.387987727;7.712276671;24.29660596;23.22476207;21.96669481;26.36626809;4.905026679
26.49746548;33.10491029;33.17516249;32.49122725;23.05786854;-3.378372047;4.628587949;10.7384187;-0.852251389;11.28031428;5.785965474;31.00949361;1.655189496;3.50990488;19.4717745;21.50316332;19.93964512;23.96755151;3.906636711
24.47984067;31.13977946;29.87157668;28.3468626;19.30444334;-3.662313091;7.354031385;6.875926043;-6.51806554;5.641003054;-0.386507299;21.1288761;-0.479755899;1.133916748;9.012596496;17.0158297;16.17087342;18.47238385;2.601769593
19.62596615;26.27134589;22.71116237;19.02070293;14.12007813;-3.334239281;9.998533984;1.195882026;-14.3732259;-2.662560084;-7.790534392;8.064392732;-1.540009766;2.252726403;-2.054031009;11.47700983;12.8708781;12.99759275;1.841746632
13.94752578;20.49169207;14.42460509;7.621425722;9.230965778;-2.70172436;9.38360427;-5.201625032;-22.83160364;-11.64210169;-13.78144133;-2.854702701;-2.385491237;5.590156527;-9.43485873;6.311873168;11.0918649;9.505632744;1.809187117
8.429627439;14.78134173;6.665578614;-2.929553412;5.141569014;-2.247030143;5.456657954;-11.14269999;-29.87592442;-19.53777925;-17.18872403;-8.286057458;-4.04501924;8.057045682;-11.99437302;2.229965675;10.17315187;7.618378057;2.011384376
2.920329409;8.825778285;-0.394566427;-10.91396908;1.457204367;-2.151911054;1.570987354;-15.38798863;-33.5690275;-24.93414041;-18.32838674;-8.316800249;-6.490159185;7.267567804;-11.83393075;-0.652559179;8.662295288;5.446288031;1.847811297
-2.970048828;1.844580397;-7.227886407;-15.97670806;-2.178027621;-2.097173949;1.527266384;-16.99671934;-33.13746036;-26.94433373;-18.15714144;-5.536088418;-8.520664573;3.299848471;-12.28711739;-2.581215789;5.732533183;1.446764602;1.17564331
-8.975975933;-6.277747814;-13.89803736;-18.70936493;-5.477637331;-1.55629151;5.944255174;-15.91287498;-29.76505113;-25.63310357;-17.46273494;-2.854307623;-8.83472666;-1.664141431;-15.4430838;-4.085277079;1.834211438;-4.342015399;0.36616549
-14.1067305;-14.4623972;-19.73668679;-20.06934555;-7.735433652;-0.337102147;11.23945085;-13.21744942;-26.1159774;-22.27582191;-16.61550402;-1.776875677;-7.24381183;-5.307324823;-20.86622128;-5.910651309;-1.852488734;-10.56155717;-0.133540545
-17.35129116;-20.84334304;-23.84309613;-20.8835575;-8.551833631;1.130379939;12.2933672;-10.62715961;-24.58678462;-18.91247824;-15.74019942;-2.1033674;-4.884217446;-6.938241926;-26.12394729;-8.699205184;-4.492541163;-15.76900015;-0.255091801
-18.41804258;-23.74143716;-25.7604723;-21.52713249;-8.313050401;2.05670889;6.656102999;-9.454732566;-25.54046268;-17.21231843;-14.88076589;-2.788774527;-3.23902074;-7.585901563;-28.4890556;-12.46199377;-6.152343399;-19.40081621;-0.321518987
-17.83239742;-22.51846331;-25.67436977;-21.84521164;-7.958113675;1.910288136;-3.246769267;-9.794369996;-27.05539107;-17.41088803;-13.98060569;-2.995584977;-2.893188353;-8.570579221;-26.6034719;-16.28082815;-7.406141542;-21.69174174;-0.622069988
-16.38156266;-17.82964965;-24.07740822;-21.37975825;-8.243411202;0.860177346;-11.80050678;-10.60218542;-26.58089582;-18.22776352;-12.8687469;-2.56265099;-3.16897754;-10.03862552;-21.1731309;-18.65711352;-8.510529657;-22.87505074;-1.000224048
-14.49404775;-11.25330866;-21.3832452;-19.82289705;-9.150230315;-0.34777627;-14.3970103;-10.62668748;-23.22268875;-17.95101593;-11.45804477;-1.806796704;-2.938735296;-10.85222662;-14.49088215;-18.42363528;-9.034099746;-22.63233297;-0.90693873
-12.1309091;-4.612984779;-17.92560371;-17.40176788;-9.921122843;-0.982257902;-10.69229078;-9.422526821;-18.69171995;-15.86255133;-10.0213803;-1.075568309;-1.798981157;-9.852465758;-9.205742465;-15.5758131;-8.307427829;-20.39046167;0.078469066
-9.210741843;0.655138683;-14.25156884;-14.84959624;-9.651378258;-0.879308886;-4.367882289;-7.607708057;-15.97651128;-12.80887622;-9.159838737;-0.460987888;-0.458749808;-7.187810344;-7.007660838;-11.31871109;-6.196359026;-16.11964975;1.733421722
-6.054245716;3.897566169;-11.20473616;-12.8867995;-7.92233399;-0.492960532;0.156808329;-6.187292659;-16.7520499;-10.40244865;-9.290476169;0.231185858;0.046172632;-4.354343331;-7.83185573;-7.201237453;-3.357153084;-10.72960079;3.202822614
-3.328719125;5.360972866;-9.46198133;-11.56541504;-5.001930157;-0.429479568;1.134042938;-5.584126718;-19.7212241;-9.524497693;-10.01695588;1.386086751;-0.434558015;-2.846103592;-9.944045726;-3.968404011;-0.645152906;-5.538925215;3.607227201
-1.489342563;6.034993;-8.806610109;-10.03954551;-1.558981219;-0.900225166;0.230018311;-5.257877437;-21.39314477;-9.444153528;-10.04;3.454300508;-0.720187783;-2.672675199;-10.90278915;-1.04596665;1.778769484;-1.233195297;2.77138655
-0.251885781;7.227657748;-7.870856799;-7.063426934;1.771503065;-1.576396075;0.310357918;-4.242536735;-18.75884175;-8.36624453;-7.911246613;6.766835294;0.864667466;-2.184102316;-8.953423622;2.89979899;4.725237286;2.693096583;1.443858882
1.327153382;9.956401518;-4.847667814;-1.942885775;4.603093549;-1.94499404;2.543162777;-2.092219552;-11.67842582;-4.981450911;-3.161713799;11.27553361;5.045592843;0.535273961;-4.079781145;8.743440924;9.239440656;7.384852101;0.776446027
4.101699356;14.38353831;1.135717353;4.752854022;6.717584803;-1.808775716;5.478238032;0.639308546;-2.998840793;0.29820426;3.136975599;16.36399624;10.82475578;5.901169106;1.982468673;15.97653839;15.41705725;13.35133093;1.449128523
7.978965661;19.60692045;8.988666388;11.29170395;7.91264811;-1.459818282;6.753873122;2.820039063;3.666697994;5.484411616;8.963080293;20.95609267;16.10078212;12.2773901;6.870553879;22.8052668;21.84912406;19.58283386;3.134529805
11.68792309;23.99801864;15.90243222;15.66911691;8.023408735;-1.378735969;5.612754404;3.662524844;6.594526323;8.42481172;12.70304443;23.97632319;19.17310888;17.16573184;9.152019259;27.19949244;26.31415415;23.92516331;4.731446414
13.45856908;25.97709069;18.90902237;16.67446304;7.124149736;-1.760339968;3.740672367;3.291625041;6.820477587;8.297959444;14.16598633;24.89645257;19.83013705;19.11287789;9.205432213;28.11207897;27.27342514;24.53100405;5.182585202
12.18128851;24.81925586;16.75786527;14.4151495;5.67745827;-2.322820902;3.622276009;2.443930841;6.607809448;5.977065493;14.37416503;23.95451295;19.10069422;18.67155421;8.734302129;26.01185303;24.98850081;21.26490725;4.237993786
8.211835664;21.0216695;10.77814656;10.03007813;4.402615337;-2.580979042;6.016199297;1.608510625;7.007693562;3.06127876;14.31782247;21.85806356;17.9706753;17.61368795;9.255986924;22.4396616;21.3358133;15.92436777;2.593436852
3.219736475;16.00574639;4.069840893;4.928846871;3.877623961;-2.318865581;9.025117171;0.453535636;6.768543341;0.509992159;13.83899698;19.22617996;16.32251778;17.17230423;10.76463114;19.00498402;18.44299911;11.07366917;1.340699099
-0.836114022;11.33207341;-0.437958687;0.151927233;4.139693196;-1.803178804;9.756706074;-1.877599123;3.605354785;-1.923394387;11.76501972;16.27643689;13.15568678;16.95057677;11.69628628;16.54264622;17.2210655;8.379296956;1.184363681
-2.903922598;7.901242948;-1.715634456;-3.800132952;4.580696375;-1.519944616;7.108597712;-5.841833674;-3.300184084;-5.063751038;7.298429787;13.05071078;7.941414233;15.49643243;10.28717521;14.8940431;16.91282681;7.683843277;2.004467724
-3.403805035;5.60658653;-0.9886496;-6.782258997;4.228702336;-1.670625981;3.058199206;-10.80798298;-11.84299148;-9.19473294;1.434301547;9.949616967;1.834367274;11.98350558;6.217926968;13.27;15.90946748;7.415787027;3.024155196
-3.812260111;3.608245909;-0.574473983;-8.811867103;2.248593444;-1.906256852;1.107342639;-15.29483711;-18.000665;-13.54110649;-3.03676676;7.986081734;-2.538135708;7.389261964;1.107488215;10.825315;13.07227745;5.888643493;3.377829176
-5.579791345;1.014573605;-2.118053654;-10.05119809;-1.615326441;-1.577244685;3.117600896;-17.9913239;-18.61751347;-16.81406808;-3.272352797;8.344466428;-2.792177689;3.98952042;-2.675878455;7.106512409;8.490639859;2.458892757;2.638260201
-9.106410018;-2.469363675;-5.482453729;-10.82971873;-6.850779567;-0.30796365;7.337568519;-18.67658933;-13.75334157;-18.25482541;1.347097937;11.44259992;1.290073242;3.523398865;-3.971248875;2.260665821;3.20681976;-2.211123921;0.983854613
-13.4172812;-6.309859042;-8.979629453;-11.47508976;-12.28256979;1.605075581;9.508327725;-18.2104664;-6.72806533;-18.1617584;8.266361337;16.22137955;7.26607913;5.636688362;-3.869421166;-2.959470686;-1.652603975;-6.748707751;-0.999732267
-16.70472895;-9.432702576;-10.63210844;-11.96478505;-16.40843974;3.337350133;6.287273584;-17.58860684;-1.874123735;-17.41444714;13.07241817;20.33896457;11.53186109;8.033861239;-4.814331935;-7.378187703;-5.494792203;-9.897946072;-2.663987042
-17.36278086;-10.81831775;-9.483727239;-11.72217916;-17.87318492;4.12167673;-1.834050795;-16.91644767;-1.799437274;-16.48782213;12.25149939;21.30678084;11.75759135;8.290582872;-8.346773378;-9.795469021;-8.182311105;-10.98920431;-3.567132459
-14.86436508;-10.0280796;-6.061123736;-9.87930533;-15.96044171;3.789439884;-10.59843218;-15.25873325;-6.190353607;-14.93921454;5.373452968;17.86996411;8.392601034;5.80688287;-13.3331112;-9.531577104;-9.559376934;-9.944017067;-3.588496104
-9.960330861;-7.359827188;-1.77927979;-5.934224117;-10.92098321;2.822002156;-15.04282423;-11.54507738;-12.77331499;-11.88572022;-4.898494943;10.70442896;4.080314148;2.232050718;-16.30313175;-6.848649558;-9.239838411;-7.103011447;-2.918321858
-4.115647933;-3.579671873;2.166957823;-0.292553431;-3.938296565;1.892685342;-13.08086568;-5.740496585;-19.31115119;-7.018899931;-14.88818002;1.969919245;1.48457392;0.010313875;-13.89396611;-2.913446744;-6.960525497;-3.133168386;-1.959614365
1.423329137;0.558185488;5.59337332;5.836552685;3.3372032;1.312666412;-6.77454008;0.791461069;-24.90942;-1.162930961;-22.41248012;-5.946986645;1.27479372;0.320992957;-5.63101061;0.797829853;-3.128318447;1.037169596;-1.14767538
6.303742852;4.673822752;9.270519831;11.2117377;9.490451946;0.854925106;-0.455709274;6.114758175;-29.8159984;4.199815806;-27.84747143;-11.65717392;1.827766937;2.186215601;5.162701213;3.330048828;1.104651664;4.46968493;-0.723751259
11.02446695;8.77457583;14.11585937;15.3958608;13.87634021;0.077125122;2.564392851;9.054585335;-34.3458589;8.021809627;-33.16605362;-15.24354862;0.761080781;3.463957978;13.20907266;4.741278113;4.488557985;6.664802104;-0.583928837
16.20624974;12.93660601;20.23091823;18.90703399;16.64312382;-1.178473331;1.99667532;9.881357145;-38.2129939;10.37282447;-39.98779339;-17.85824867;-3.065210986;2.782818245;14.64756308;5.874628732;6.553633864;7.873527665;-0.346340007
21.70711158;16.91079193;26.46098137;22.47524438;18.25355905;-2.569290089;-0.06313281;9.753931017;-40.91175026;12.05291452;-48.31130707;-20.87216834;-8.737825049;0.681167245;9.497836209;7.565794536;7.89175888;8.884304664;0.348746375
26.28256471;19.97439285;30.80528691;26.00791987;18.90686476;-3.507449096;-1.426608635;9.456349729;-42.59321974;13.51089805;-56.8;-25.14762786;-14.24229596;-1.027216121;1.424553359;9.896102003;9.478357326;10.30154624;1.500063477
28.1533416;21.19271923;31.46812593;28.22468379;18.35926346;-3.644173895;-1.547334305;8.632758775;-44.32762898;14.1632906;-64.06936062;-30.74166679;-18.23814677;-1.028136703;-4.955577798;12.07611412;11.56297724;11.86885798;2.655842846
26.18875388;19.97341317;27.93912574;27.43793115;16.31071202;-3.147531376;-1.326392443;6.30059714;-47.25486673;12.89233143;-69.65;-36.99526967;-21.06580446;0.224163081;-7.165854296;13.04130231;13.15525915;12.51019519;3.206213108
20.89667186;16.57660519;21.45098728;22.97894817;13.01425541;-2.539033119;-1.576320142;2.236401878;-51.28880846;9.385280986;-73.79197053;-42.81108834;-24.12532747;0.911385474;-6.098882777;12.27898486;12.71200235;11.23782882;2.871749248
14.44536142;12.23623574;14.50654006;16.12637067;9.512296464;-2.254644945;-1.918473752;-2.069436914;-54.61719837;5.079052077;-76.47512944;-46.98998938;-28.22353569;-0.43082685;-4.646003581;10.25726138;9.582316505;8.283728175;1.989501186
9.568329723;8.760331331;9.703090855;9.682751818;7.168494529;-2.327656184;-1.253586003;-3.953426089;-54.64443645;2.673618102;-76.76650758;-48.59482032;-32.40989157;-3.438677019;-5.001591321;8.195214081;4.994008969;5.455742768;1.311793595
8.005750664;7.776508677;8.502084238;6.385018241;6.76436575;-2.45537128;0.785849539;-1.429071597;-49.77438788;4.380524972;-73.30528792;-47.28632381;-34.42543083;-6.046411712;-6.8406168;7.443541648;1.598087078;5.2073722;1.423047481
9.520358646;9.991254011;10.63720136;7.281660348;7.864641176;-2.349584706;3.066049237;5.060618801;-40.65272437;10.24563012;-65.58518093;-43.48293358;-32.50940859;-6.155270705;-7.743110437;8.95856394;1.71907037;8.930928141;2.231766822
12.17056291;14.82837262;14.47777469;11.26456567;9.02216446;-2.021852032;3.865136651;12.50253159;-29.8865992;17.95748617;-54.88288382;-38.20549511;-27.10645301;-3.42068136;-5.397885022;13.10187755;5.577452939;15.7161146;2.986232524
13.65606455;20.62392722;18.08605355;16.04507042;8.754001141;-1.740343551;2.702766421;17.11360858;-20.48148971;24.39137396;-43.91604135;-32.64903441;-21.00312732;0.380121509;0.257642562;19.5977038;10.90016564;22.60406259;2.858201221
12.80229827;25.29534974;20.29262152;19.75339921;6.583917851;-1.721317593;1.207791672;16.85448572;-14.21315145;27.70692426;-35.38756831;-27.73436631;-17.62546503;2.71159986;6.677590931;27.38597803;14.33240074;26.30305372;1.653661511
10.17775192;27.19415552;21.13880639;21.93128512;3.352653268;-1.872225818;1.876310193;12.78204656;-11.07511137;28.35022934;-30.51790981;-23.91397172;-18.68625649;2.211128628;10.39957721;34.44177732;13.68230712;25.22244556;0.059794225
7.4910937;25.76981247;21.48254208;23.28425777;0.552808447;-1.848897426;5.57960663;8.196703746;-9.956568861;28.22927011;-28.65441714;-21.28583294;-22.92319188;-0.414152496;9.4827006;38.01690335;9.371825833;20.40297747;-0.819356316
6.290983056;21.74007813;22.12632313;24.61337995;-0.78803757;-1.383132939;10.09653206;6.215929408;-9.732166492;28.85503384;-28.12483557;-19.80314783;-26.88657947;-3.182321253;4.876948566;35.67782507;4.059041098;14.70724682;-0.307517928
6.934115288;16.66854522;23.11562642;25.94979802;-0.800980412;-0.570914387;11.31769768;7.599601531;-9.810540578;30.0638047;-27.5142186;-19.32307793;-27.23382211;-4.521996273;-0.225253548;26.85364603;0.764809268;10.88210784;1.286747142
8.499385041;12.13767599;23.68728757;26.59979475;-0.524593767;0.162892986;6.482172702;10.42516413;-9.898005851;30.36603699;-26.34178745;-19.46986035;-22.91256398;-4.357884977;-2.509275285;13.88083581;0.9046951;9.868891169;2.867127485
9.583435915;8.955989586;22.86487672;25.92511133;-0.951008347;0.411443143;-3.157424549;11.7646389;-9.533498391;28.52456796;-24.79437317;-19.55893712;-15.74250422;-3.746952035;-0.597502517;1.486218341;3.599104825;10.4775428;3.372784711
9.311256428;6.8832341;20.25805123;24.05364634;-2.155658709;0.139363992;-12.64706401;10.01036718;-8.080129952;24.91528167;-23.04238941;-18.83138697;-9.083579887;-3.554282165;4.310108869;-5.4329902;6.60442293;10.51592806;2.591292527
7.859326847;5.095281376;16.51952833;21.87418509;-3.188123983;-0.280552942;-16.66653787;6.092810624;-5.259390554;21.46145602;-20.9203849;-16.93118297;-5.599344843;-3.477362047;9.484856714;-4.559119493;8.028649732;8.475584205;1.32212692
6.255255199;3.123184146;13.17377037;20.40012464;-2.759248322;-0.393200471;-13.36202016;2.775543448;-1.641444614;20.21039683;-18.23137094;-14.22187321;-5.65286234;-2.326132603;12.53714001;2.394671923;7.552212786;4.608537651;0.762474465
5.745954131;1.589618692;11.93136895;20.16290251;-0.138182295;-0.070576824;-5.608693595;2.68649264;1.539567924;21.79213802;-15.21713757;-11.56512329;-7.318050521;0.739083814;12.81301083;10.67985057;6.400366968;0.769249447;1.598424212
7.206137618;2.077114505;13.86858277;21.17743011;4.423852476;0.354540734;1.323296504;6.590898027;3.233141251;25.05112299;-12.56124008;-9.634111578;-7.842812245;5.197871475;11.50128692;15.44026403;6.286103324;-0.749804022;3.503501511
10.84548396;6.00732575;18.86254825;23.3656845;9.966451156;0.354139059;3.785252746;13.05944395;3.374049815;28.0760117;-10.82064245;-8.328292203;-5.494209175;9.351316637;10.55405468;14.62884344;8.189617719;1.399958133;5.406449518
16.1635449;13.19075583;25.50470719;26.81748805;15.43490446;-0.349646761;2.189057692;19.54269411;2.884999468;29.65258968;-9.856306727;-6.884293366;-0.606653797;11.55963479;11.2436233;9.919066858;11.76856306;6.804778047;6.280631773
22.00928883;21.14762141;31.51610307;31.44965698;20.087409;-1.529072095;0.007237882;23.89338243;2.821972409;29.88892038;-8.930515421;-4.708952509;4.709528368;11.44707088;13.29745809;5.062300935;15.61748612;13.39718422;5.824653519
26.75193551;25.96508578;34.53655761;36.34452242;23.45638793;-2.58912772;0.402206563;25.27738559;3.40481211;29.60335249;-7.504434358;-2.243088122;7.877517625;10.03609849;15.10339547;3.012273186;18.04485436;18.37207313;4.539126603
28.70446273;24.44123675;33.04039284;39.57940006;25.10517;-2.975284994;3.491046878;24.09824324;3.821460127;29.21249266;-6.000336812;-0.980950659;7.326371017;8.753715121;14.80374514;3.988819092;17.87073327;19.47167249;3.216710391
26.8181489;16.23899422;27.03144847;39.08923442;24.60182542;-2.520878624;6.556065433;21.3455904;3.018261827;28.2557957;-5.681515126;-2.403040913;3.309564648;8.248827851;11.59007813;5.826090621;14.92076432;16.08077693;2.315482723
21.34157202;4.534294631;18.16075828;34.16714923;21.85395438;-1.484488927;6.841713114;18.02887762;0.790309184;26.0125626;-7.554440038;-6.571193731;-2.281662847;8.069383362;6.410864291;6.118404796;10.1193279;9.620728437;1.720997903
13.94419089;-5.498454885;9.097946659;26.42808918;17.49899459;-0.300694984;4.30150888;15.00326836;-1.814093032;22.57283934;-11.17406696;-11.609193;-6.907849945;7.401955724;1.633370376;4.30825356;5.183596257;2.965781829;1.02736087
7.030437659;-9.568779472;2.366652639;19.23527628;12.88027833;0.714750026;1.761192671;12.99472758;-3.176358997;19.2494369;-14.50183292;-14.72316878;-8.616953993;6.081434704;-0.2121948;2.028574;1.957318046;-0.95474055;0.024375806
2.534939606;-6.704894807;-0.777452112;15.71989085;9.450058594;1.477102284;2.319702485;12.48737275;-2.327559904;17.80859012;-15.17484286;-14.16537083;-6.924317056;4.858155006;2.06804593;1.52647463;1.555798112;-0.705338456;-1.062089648
0.952050834;0.366148713;-0.782236875;16.72838659;7.963802056;2.033611849;6.312486597;13.42725457;0.314422921;19.10539722;-12.3099958;-10.64337469;-2.953529908;4.653425044;7.464294421;3.583029872;3.71073543;2.850546711;-1.774360805
1.277692441;7.13399331;0.723682995;20.25786815;8.080998646;2.409763918;10.59783218;15.05542085;3.285376252;22.30979382;-7.376874253;-6.96502881;1.186299521;5.531561881;13.10109717;6.706941025;6.775135726;7.064703778;-1.864361986
1.909612554;10.18491191;2.070462792;22.89444644;8.709603569;2.565378957;10.91797778;16.1927085;5.160594123;25.43638994;-3.320710262;-6.061651295;3.457123388;6.42297396;15.6735713;8.26429458;8.560655331;9.116709052;-1.562719195
1.832724944;9.083747214;2.53825079;22.23220018;8.835529992;2.476794584;5.402848904;15.91239102;5.453144984;26.76315586;-2.524840742;-8.875903292;2.847759109;5.94846046;13.20215765;6.580554965;7.621510707;7.731099243;-1.427311464
1.199473186;6.075441481;2.54523348;18.46552974;8.180509904;2.221377379;-3.730270144;14.1230993;4.628979946;25.95418421;-5.189996594;-13.7848364;-0.25437069;3.645952889;6.096532151;2.271284693;4.180102164;3.858880359;-1.892462245
0.905707186;4.028200383;2.974890389;13.98349582;7.183243941;1.948140509;-11.70854367;11.56856602;3.36576077;23.98061923;-9.405610185;-18.02540843;-4.448852418;0.467320385;-3.085667816;-2.261687565;0.015760734;-0.135787148;-2.896696561
1.577729906;4.262710708;4.229054001;11.36030759;6.380363851;1.753546068;-14.68464145;9.198683411;1.828284125;22.00419173;-12.81444239;-19.95266001;-8.215038386;-1.975494033;-11.0121052;-4.703724941;-2.681784169;-2.177744389;-3.900721812
2.856905894;5.853958221;5.781260611;11.36996;5.774317355;1.59557185;-12.32462918;7.404013639;-0.362013139;20.2844388;-14.47306518;-20.26064348;-10.7679002;-2.806667236;-15.24109457;-4.516807805;-2.731543143;-1.819005781;-4.285251083
3.600519217;6.754916594;6.580706328;12.56650808;4.772102404;1.348970616;-7.534822726;5.750387084;-3.490946116;18.09678111;-15.38484539;-21.15517927;-12.36441103;-2.690745653;-15.22994057;-3.115194007;-0.654038033;-0.258878516;-3.813231304
2.83398176;5.677213084;5.956545191;12.66522613;2.765135532;0.958514724;-3.821464539;3.450087891;-7.114037254;14.69068619;-17.32946459;-24.19360838;-13.90482246;-3.279357926;-12.22820894;-2.489495597;1.844332942;0.872469334;-2.797198686
0.648344485;3.170778954;4.261349584;10.52386507;-0.155900629;0.535416989;-2.656151747;0.188733679;-10.07151755;10.35495519;-21.04894829;-28.64843283;-16.1329253;-5.714301266;-8.314204771;-3.491590565;3.181061703;0.928022934;-1.851865845
-1.72364413;1.101269811;2.705630137;7.115679744;-2.99554095;0.285561405;-2.957747838;-3.38196419;-11.18911863;6.560039063;-25.35683107;-31.82745188;-18.99433254;-9.458691141;-5.274878362;-5.184600789;3.008324104;0.706942354;-1.432967439
-2.738296895;1.060479849;2.496224178;4.781176376;-4.382597196;0.322612203;-2.775917208;-5.90989947;-10.06349269;4.990989809;-27.91061784;-31.13446741;-21.58579462;-12.49531972;-3.947472988;-5.704781712;2.323698107;1.63945506;-1.515043797
-1.618761633;3.066801235;3.957110361;5.448309239;-3.445154136;0.543902603;-1.360345799;-6.176397851;-7.264775241;6.294738825;-26.96859157;-26.1741963;-22.71041305;-12.78976291;-4.193444927;-3.831751314;2.576622245;4.434252789;-1.64
1.166619967;5.595250711;6.321791632;9.263620159;-0.35836559;0.701499908;0.317094276;-3.860923199;-3.826021979;9.628025455;-22.66185925;-19.15219599;-21.63963444;-9.84405245;-5.25456341;0.04175171;4.521966627;8.356325105;-1.283954315
4.360078125;6.843152014;8.343372004;14.62912351;3.830906072;0.617470367;0.881814773;0.316458937;-0.512527399;13.37920212;-16.79180187;-13.24112607;-18.56306107;-5.086048915;-6.138629524;4.257203085;7.69683509;11.74463592;-0.261828271
6.877701919;6.150202491;9.224947133;19.45576188;7.910843406;0.344107314;0.228828976;5.108183607;2.495429376;16.40209982;-11.44163675;-10.26919776;-14.45357222;-0.811695708;-5.875646936;7.156159185;10.83605123;13.31966312;1.123339828
8.482926621;4.437406744;9.148994497;22.54178371;11.15710248;0.107213148;-0.206448066;9.440515056;5.310719758;18.67597281;-7.636859902;-9.61;-10.49351713;1.419952842;-3.715341892;8.18248163;12.79400994;13.17047861;2.284461608
9.67864117;3.390766652;9.03833846;24.0503848;13.46162806;0.071511311;1.111139386;12.76639336;7.819328187;20.8614469;-5.116287566;-9.095520096;-7.487602487;1.648957694;0.626326171;7.999870665;13.21575171;12.59919098;2.754288099
11.01139236;4.132965243;9.796467793;24.91852274;14.96124201;0.147698872;4.093096771;14.91529124;9.489112185;23.24026893;-3.208701279;-7.067745992;-5.63807303;1.043392128;6.7189678;7.694319529;12.51133039;12.97598344;2.502486507
12.44924462;6.465233376;11.64515304;25.87675563;15.61003906;0.042429201;6.804927084;15.75096416;9.705214289;25.08150354;-1.842061827;-3.791849278;-4.743235346;0.649492205;13.36285872;7.847804219;11.30743366;14.58392424;1.946177876
13.36742888;9.201931318;14.03203314;26.91362195;15.12912522;-0.463904826;7.132419196;15.0784674;8.306980056;25.07440077;-1.69308748;-1.099017154;-4.561575684;0.51194936;18.88116853;8.241687865;9.931983555;16.41724734;1.646772763
13.10600517;11.19390975;16.08820001;27.47116785;13.36349026;-1.250754223;4.86998545;12.93791246;5.81491343;22.48176643;-3.375984438;-0.697427027;-5.006181497;-0.118777012;21.69751633;8.296143418;8.34582453;17.07481346;1.900272186
11.57039546;12.1328988;17.20639757;26.99800407;10.66496438;-1.861021797;2.214581056;9.980143995;3.139892192;17.98959843;-6.514391416;-2.697353853;-6.037683433;-1.797942159;20.93383006;7.711739335;6.463774227;15.9743815;2.504900963
9.346437564;12.52128153;17.29817896;25.30144876;7.87655477;-1.812915593;1.994774498;7.458220933;1.043690182;13.46398133;-9.666175466;-5.610019531;-7.419808073;-4.107753671;16.74501754;6.701462455;4.461947231;13.87105274;2.878016051
7.258877019;12.95980367;16.62436617;22.49782358;5.854963332;-0.982910712;5.045295057;6.656018551;-0.188744918;10.75898364;-11.27475184;-7.715840452;-8.633307631;-5.839025111;10.27137423;5.679768616;2.743109331;12.27046461;2.461619176
5.785919388;13.46251365;15.44973621;18.81512827;4.901995941;0.260839365;9.060990876;8.077330845;-0.654485031;10.52221885;-10.84722291;-8.501029195;-9.099980513;-5.973332517;3.281549631;4.809453328;1.611353852;12.24500828;1.151401007
4.830885878;13.40764576;13.85417821;14.58273033;4.589247098;1.301008369;10.12140058;10.99995829;-0.518515798;11.92524376;-9.308154623;-8.880877165;-8.574455714;-4.565537549;-2.343631637;3.898377012;1.006448381;13.62045649;-0.551530305
3.999499226;12.12597929;11.82113384;10.41266572;4.145353516;1.703181011;5.7971495;13.79619385;0.15231079;13.45084649;-8.185019596;-10.09099852;-7.375699369;-2.717598924;-5.16675566;2.741758736;0.585315187;15.15419044;-1.796151613
3.081683502;9.579215136;9.455265848;7.240173015;3.101832337;1.490087891;-2.688694936;14.87041917;1.263842886;14.01527647;-8.31379947;-12.34927637;-6.225913633;-1.657036389;-4.68890064;1.536889661;0.089429868;15.51023969;-1.898663849
2.292066317;6.548455576;7.098701627;5.952599697;1.67077596;1.044017553;-11.0807062;13.59468753;2.486596174;13.51998903;-9.184761613;-14.5638906;-5.777650818;-1.736671118;-1.624476116;0.913720463;-0.353674309;14.24109225;-0.782526912
2.083536396;4.207222402;5.252167416;6.772755666;0.547161801;0.738095404;-15.06345088;10.60674088;3.276893364;12.51786785;-9.492105158;-15.3598228;-6.183223;-2.238265385;2.256835687;1.496256117;-0.300338958;12.06;0.962395392
2.744869846;3.453493015;4.390713739;8.930620354;0.30404721;0.621523978;-13.23891115;7.290058594;3.186980626;11.4666966;-8.399044007;-14.45754574;-7.05365654;-2.141957535;4.819324624;3.368885503;0.601227928;10.29406851;2.451149459
4.159168869;4.496179771;4.811754449;11.03222914;0.881814702;0.424650344;-7.809644618;4.836257053;2.188982781;10.3230652;-6.407119238;-13.10079945;-7.85164079;-1.164254377;4.565508675;5.927246089;2.21371076;10.00535718;3.054634339
5.908540701;6.894211402;6.556361824;11.95857113;1.591645617;-0.136428734;-2.599613579;3.562018778;0.684062662;8.803979384;-5.0628705;-13.09525601;-8.400663686;-0.129393583;1.426992206;8.248466526;3.876778428;11.40181936;2.752573063
7.574286264;9.863590516;9.352091829;11.61059203;1.635277711;-1.037367533;-0.178930497;2.928512324;-0.830156714;6.962071763;-5.734055294;-15.28807601;-9.074648485;-0.323549474;-3.192443579;9.651924257;4.783590979;13.82530899;2.057651063
8.929778913;12.55389909;12.56280118;10.87131621;0.735043031;-1.89668234;-0.406282507;2.177511852;-2.108333518;5.433348231;-8.4712281;-18.83142289;-10.47609776;-2.368585447;-7.237461392;9.976312521;4.478908739;16.16673512;1.594438303
9.883175948;14.19263735;15.24990416;10.7941543;-0.607601495;-2.248029844;-1.30626954;1.061677977;-3.169551349;5.066289608;-11.87972741;-21.8688287;-12.83488791;-5.570477192;-9.201362179;9.399597441;3.114077236;17.37736963;1.660884873
10.31496277;14.22860431;16.47381161;11.70484584;-1.409998918;-1.901711628;-1.178708972;0.114829967;-3.970800033;6.262043405;-14.07278802;-23.00977489;-15.6190293;-8.298266492;-8.903664602;8.076447852;1.319384756;16.86259192;2.088338691
10.06758757;12.59122486;15.79092939;13.00034394;-0.831253882;-1.091279771;0.035647957;0.278343949;-4.12069132;8.643788076;-13.91024242;-22.27471177;-17.71442716;-9.092203623;-7.312341869;6.02557872;-0.145030377;14.72243463;2.464731866
9.162110233;9.933502694;13.64901582;13.8184628;1.323718398;-0.2912652;1.180593256;2.179434331;-3.014915656;11.36311201;-11.56787014;-20.7132852;-18.09060247;-7.619233085;-5.583487316;3.410663322;-0.687809975;11.82511428;2.501969104
8.025143044;7.541848572;11.31366489;13.95888235;4.535395301;0.129607887;1.397471372;5.596841522;-0.356740668;13.75212955;-8.107575874;-19.13558922;-16.47132345;-4.759697965;-4.09530154;0.901621726;-0.001132775;9.60425369;2.240563011
7.417775514;6.74923449;10.22177036;14.17718891;7.918691175;0.131428791;1.093665982;9.495242234;3.412580575;15.71784989;-4.543397893;-17.21229446;-13.50331876;-1.842372111;-2.25555004;-0.366645946;1.933860377;9.483763178;1.952019887
7.992559004;8.115880226;11.10398288;15.51233802;10.70071754;-0.058580315;1.423727318;12.5954853;7.243047855;17.54069573;-1.222303015;-13.84599952;-10.29826089;0.293559084;0.768868196;0.595571066;4.81989981;12.08007813;1.866830665
9.769398387;10.96007813;13.47923228;18.19107355;12.51062784;-0.200565861;2.901961783;14.07957755;10.13609103;19.31861173;2.050692457;-8.514807689;-7.711884631;1.675239253;5.017259118;3.830912646;7.995778583;16.63810143;1.989339009
11.96995398;13.67671882;15.92860897;21.09358994;13.35683925;-0.24606806;4.66027298;13.9602323;11.77547463;20.63449177;5.405854194;-2.337859192;-5.920622559;2.817564816;9.281956437;8.093188123;10.51492776;21.18619046;2.152362731
13.41167938;14.71138772;17;22.34274447;13.40184383;-0.321415388;5.223716049;12.90417978;12.54801987;20.80007813;8.457657539;2.212563618;-4.594496004;4.029880152;11.66272819;11.34119895;11.46126073;23.49007813;2.224829916
13.21662222;13.51662379;16.10741563;20.63183673;12.75209514;-0.535857571;4.116855689;11.68667773;12.93965944;19.46510326;10.42578111;2.866542929;-3.45839815;5.045986037;10.73842461;11.81592772;10.39389853;22.28933559;2.241633927
11.32046344;10.78651005;13.78281698;16.24903918;11.41528704;-0.815727252;2.660269624;10.69363483;12.9262918;17.01873659;10.69497496;-0.825415665;-2.70622996;5.261589521;6.469635056;8.988749854;7.621952221;18.00480446;2.311848702
8.418657147;7.821258577;11.14533706;10.97016184;9.422240881;-0.927494313;2.9552223;9.81669486;12.03321242;14.39799738;9.315784678;-7.104824593;-2.865980756;4.315083276;0.17776986;3.761665963;4.067801774;12.41981131;2.397146179
5.437313892;5.568041504;9.06507742;6.904061627;6.987168315;-0.668194382;5.772658531;8.769656475;10.08574028;12.46973815;7.051320415;-13.13074639;-4.205907689;2.483917583;-6.304463222;-2.13651378;0.776643317;7.568357245;2.208999326
2.979909174;4.125294383;7.706987197;5.207996119;4.560039063;-0.047713214;9.272305452;7.530344585;7.902890124;11.54137039;4.983090165;-16.69073176;-6.209335626;0.574464016;-11.5915528;-7.056022927;-1.580649191;4.638811992;1.387878922
1.168315626;3.064703925;6.768053897;5.639209077;2.70237525;0.698945246;9.96644622;6.521682987;7.08321512;11.40735112;4.002200507;-17.20216565;-7.645559569;-0.572378014;-15.11027149;-10.02330324;-2.858267633;3.639130901;-0.139721374
-0.087324128;2.187619964;6.094830362;7.158371796;1.836658457;1.273400076;5.433279294;6.35795366;8.812151726;11.80439348;4.491614461;-15.44173655;-7.300849879;-0.553890211;-16.77313228;-10.79269213;-3.191372902;3.916858666;-1.938603699
-0.736222295;1.942147139;6.039117098;8.92560056;2.013171079;1.503952904;-3.378190704;7.338877058;12.63186382;12.75401837;6.262415993;-12.54917195;-4.872906854;0.464603967;-16.486017;-9.591568723;-2.657851948;4.937420385;-3.228666089
-0.535015537;3.043169475;7.171172709;10.78947473;2.852459999;1.410786225;-12.29421869;9.100742467;16.3746386;14.41035422;8.634335961;-9.327251066;-1.33950093;1.963770119;-14.09470792;-6.946779752;-1.214414127;6.587316864;-3.380938917
0.647488935;5.594164962;9.590864378;12.93507083;3.736764714;1.121820883;-16.63712083;10.74326402;17.58462153;16.57427545;10.59450035;-6.34174206;1.533064266;3.382079862;-9.855726157;-3.717533233;1.015185938;8.789376934;-2.389834672
2.487234383;8.532544052;12.49673957;15.17707228;4.169382036;0.74868565;-14.49685884;11.39352903;15.41147796;18.43995163;11.09205576;-4.399057166;2.236701482;4.293678272;-4.904511158;-1.102006223;3.408976725;10.91415857;-0.938399238
4.208322468;10.0182926;14.49689216;16.69889123;4.085851696;0.346081611;-7.994426345;10.80972538;11.36717175;18.97372222;9.495348798;-4.588126577;0.395139908;4.4201201;-1.088580426;-0.326362066;4.891630392;11.70235385;0.03084194
5.009466785;8.598947565;14.50683885;16.57346564;3.8911598;-0.02999691;-1.559584672;9.555117879;8.153189489;17.70380265;6.017413623;-7.597128111;-3.136049789;3.602739458;-0.070850696;-2.046932782;4.471752203;9.952892767;-0.062151146
4.59157343;4.282005327;12.53559914;14.60831105;4.156704286;-0.262259582;1.357535434;8.570512558;7.405277415;15.21168812;1.74844902;-12.907272;-6.963968777;1.84077625;-2.316607532;-5.879774428;1.922221616;5.487194151;-1.082101907
3.348072847;-1.348662783;9.705320091;11.69195355;5.158010885;-0.208402031;0.516246902;8.436036135;8.249699173;12.77766631;-1.903349683;-18.78305796;-10.09064077;-0.636709643;-6.791453966;-10.50296306;-1.948758229;-0.445157915;-2.348547482
2.05923257;-6.098834459;7.46700672;9.23859184;6.590240723;0.17915679;-1.588608302;8.885287745;8.005794427;11.36904436;-4.094515707;-23.32034974;-12.39260843;-3.376169927;-11.67044671;-14.36085953;-5.712732045;-5.756826404;-3.17289087
1.35507358;-8.4812723;6.639801079;8.156769165;7.714632961;0.770372583;-2.253723641;8.982725972;4.567876203;10.82183007;-5.101055056;-25.75695299;-14.35179297;-5.826484795;-15.51647783;-16.48287743;-8.154285067;-8.727809473;-3.330893436
1.391872488;-8.399726743;7.033184217;8.23635096;7.884688912;1.319569464;-0.854648354;7.8831109;-1.520510125;10.00354234;-6.015378427;-26.8417685;-16.33548302;-7.504070274;-17.97416648;-16.79848177;-8.907996017;-8.917846573;-3.119876443
1.962410839;-6.775086274;7.890654343;8.501958884;7.086289017;1.648834313;1.020899558;5.62177086;-7.142477593;7.926871318;-7.703725198;-27.8070027;-18.05048873;-8.077897511;-19.44376875;-15.74976464;-8.448174621;-7.120106047;-3.007801742
2.845951381;-4.573026514;8.677178728;8.211954022;6.059490173;1.80084127;1.50651452;3.309012542;-8.893689449;4.891894551;-9.825287557;-28.80545546;-18.62176433;-7.360582914;-20.11587947;-13.62730985;-7.522076436;-4.499072899;-3.208557666
3.995168641;-2.137092522;9.45802592;7.578694039;5.844919166;2.013485114;0.53250508;2.509723427;-5.717832543;2.589569282;-10.80474648;-28.33894404;-17.23363964;-5.315770997;-19.35627457;-10.31274291;-6.56438435;-1.723087539;-3.544028404
5.356238253;0.633242919;10.53237386;7.519291893;7.036163326;2.515900159;0.047559101;4.195832425;0.325960936;2.914546409;-8.958406127;-24.47498622;-13.8334118;-2.176620183;-16.15346746;-5.727784003;-5.589373247;1.162681148;-3.675144704
6.535994775;3.548104943;11.71894849;8.635172914;9.28320569;3.308529653;2.117593035;8.008817856;5.802073326;6.368107539;-3.99502531;-17.03189704;-9.358191585;1.399367421;-10.36634931;-0.57325955;-4.571131184;4.112171253;-3.457363754
6.752858981;5.664210251;12.06898129;10.3685558;11.44722997;4.117950862;6.610401654;12.38172642;8.61765015;11.39641467;2.330508219;-8.814050217;-5.307502029;4.364690473;-3.66888289;3.452767223;-3.842349883;6.427997301;-3.086102679
5.286614517;5.679904105;10.43075607;11.19179815;12.33247387;4.575905275;10.64600557;15.46628122;9.368263735;15.33581859;7.085582284;-4.491176631;-2.951561933;5.663537592;0.83901068;4.420132617;-4.020992319;6.862165055;-2.909667283
2.144730404;2.961344608;6.490280448;9.787608671;11.47195732;4.480853943;10.52215457;16.23309677;10.23094973;16.3260395;8.04753419;-7.580422336;-2.696226452;4.827138185;0.371519112;1.514566335;-5.445819537;4.542260169;-3.097705508
-1.65074338;-1.682395158;1.376089027;6.249307605;9.38267125;3.928250968;4.671283691;14.99315302;12.57195892;14.69393395;5.235401539;-17.70583806;-3.984215804;2.371752627;-5.595912117;-4.076394864;-7.634314604;-0.039081266;-3.479660555
-4.543362389;-6.246146344;-2.834262086;2.215338285;7.102063049;3.208503891;-4.77306179;13.01594073;15.59877094;12.6662491;0.895458336;-30.36386083;-5.738228083;-0.384961497;-14.64525478;-9.591224784;-9.354488585;-4.927098359;-3.702516923
-5.461208776;-8.747875934;-4.481424832;-0.292202107;5.373921468;2.570752118;-13.16973294;11.57119964;17.35383214;12.59571717;-2.09528115;-39.62046412;-7.021537309;-2.084799069;-22.63385191;-12.31905839;-9.40512152;-7.776770961;-3.558839329
-4.629061825;-8.530691588;-3.546615944;-0.432228502;4.128029403;2.06025166;-16.47970288;11.10931477;17.03558332;15.101622;-2.219222006;-41.88569712;-7.508446136;-2.1882384;-26.05635417;-11.31306316;-7.540112964;-7.368869103;-3.179910411
-3.485853445;-6.628839575;-1.714362414;0.794062916;2.66521362;1.561727282;-13.9165491;11.14147346;16.21995963;18.61297207;-0.210477877;-38.01132452;-7.529658186;-1.300137309;-23.94743415;-7.912806345;-4.751574579;-4.394202962;-2.915317308
-3.668954888;-4.898348817;-1.125788068;1.395558385;0.393671468;0.990873143;-8.162123606;10.82330237;17.49105303;20.66689714;1.767548744;-32.21697113;-7.736888688;-0.680775021;-18.08576915;-4.653866058;-2.591154302;-0.860101401;-3.010372386
-5.77503995;-4.596680495;-2.729337297;0.109010909;-2.487478883;0.443436653;-3.131858285;9.724120431;21.5513355;19.88790796;1.928817754;-28.78486187;-8.636548206;-1.279124711;-11.53410923;-3.385912504;-2.005527309;1.424775241;-3.379000299
-8.839490863;-5.528252672;-5.515132002;-2.430840853;-4.932498043;0.15456165;-1.156168774;8.171587684;25.68855694;17.03737373;0.19680527;-29.11500621;-10.27434447;-3.016849008;-6.714185045;-4.046482363;-2.612047771;2.078864108;-3.681824552
-10.9701229;-6.396546751;-7.273771541;-4.082474615;-5.70584015;0.299087231;-1.741150015;6.944477406;25.61953052;14.31709465;-1.931819882;-31.29154716;-12.2247808;-4.873205781;-4.373157293;-5.013204705;-3.02666795;2.12694417;-3.638445988
-10.69916557;-6.017901188;-6.332908079;-2.897591355;-4.271183507;0.813885189;-2.639835162;6.620419886;19.66070382;13.56353228;-2.743908966;-32.19783579;-13.84434009;-5.688768271;-3.908142533;-4.682668573;-2.004333136;2.819670657;-3.286989402
-8.06;-4.371631588;-2.934594428;1.219995718;-1.239196575;1.409688173;-2.07404932;7.142845017;11.54969902;14.86291192;-1.665978209;-30.21103609;-14.59835992;-5.026195966;-4.389970315;-2.930656312;0.534044646;4.356180763;-2.95118285
-4.592999897;-2.632209136;0.836423812;6.259600803;1.971395716;1.774200369;-0.158341514;7.959577387;8.683375035;16.71578537;0.510941367;-26.23606301;-14.25152364;-3.385208796;-5.219477766;-1.217619448;3.4426921;5.63898635;-2.94316253
-2.284405994;-2.185838966;2.557500038;9.51445947;4.01715863;1.798857657;1.552993269;8.591926224;16.16884127;17.54143312;2.632546437;-22.42966457;-12.83100796;-1.616182312;-5.938022899;-1.239938577;5.320927023;5.287667313;-3.274048454
-2.224373361;-3.456986092;1.28459058;9.588435155;4.424742352;1.639115672;1.790475442;9.125864979;31.08418431;17.17809188;4.431280451;-19.98408805;-10.45214034;-0.065134005;-5.687267029;-3.26477112;5.706898865;3.030350322;-3.639923427
-3.943731592;-5.498307585;-1.689173808;7.441955239;3.758339309;1.561664589;0.916816757;10.17565232;42.14078371;17.05863483;6.85609339;-18.05377568;-7.206433816;1.770292243;-3.231961505;-5.598280916;5.480642013;0.225454969;-3.699859068
-5.854171609;-6.661266985;-3.71084197;5.663747506;3.102624929;1.714082551;0.672438472;12.30879855;36.31014724;18.89096417;11.14881171;-14.76833849;-3.251271021;4.716183333;2.097132045;-5.744862018;6.099715316;-1.034570642;-3.392949195
-6.410892382;-5.811780191;-2.645881647;6.525947304;3.287433743;2.014220097;2.542483009;15.38684816;8.416088583;22.96815824;17.46430386;-9.34426125;0.965098584;8.92846616;9.223628331;-2.426369501;8.259937442;0.404965683;-3.000777019
-5.149750137;-3.168855829;1.592849599;10.29312823;4.408585721;2.247516363;6.174830767;18.39003906;-33.35355611;27.5804948;24.27899241;-3.300766906;4.597175156;13.28964678;15.12861148;3.129213144;11.07660572;3.646467716;-2.891561902
-2.925054239;-0.18638715;6.924963535;15.01980802;5.915324621;2.279213414;9.248822379;19.95003906;-70.78372692;30.10722463;29.20741441;0.429437374;6.649668219;15.81216681;16.27932863;7.72128794;12.49950802;6.125393966;-3.176158526
-1.289746606;1.362629854;10.41926294;17.91787912;7.097525717;2.192457318;9.002511451;19.26570389;-86.31176577;28.97446677;30.6707464;-0.164472465;6.546056208;14.88102815;10.99519217;8.244217859;10.71245236;5.278531982;-3.594784214
-1.523431848;0.407763717;10.09295182;17.23082726;7.557809167;2.230850518;4.284917476;16.74508597;-73.94682264;24.92752783;29.11805977;-4.35808361;4.651894992;10.46365537;1.066102503;3.820523208;5.495968268;0.284751013;-3.749413707
-3.94548374;-2.940985404;5.996913808;13.27291545;7.348829238;2.591265027;-3.417446334;13.86573886;-42.81407529;20.58467707;26.80989069;-8.979899018;2.285060398;4.364127994;-8.795475438;-3.532974691;-1.44557907;-7.37503125;-3.478762941
-7.845857398;-7.620353277;-0.015584714;8.0117418;6.765912317;3.23573042;-10.74519458;12.28550588;-10.86813761;18.58747785;26.28315316;-10.63309384;1.037473057;-0.734066734;-13.60754964;-10.15474747;-7.415999589;-14.8805367;-3.029260539
-11.92994268;-12.22202557;-5.51713282;3.660582121;6.038822457;3.872211749;-14.46939575;12.7803358;6.670734592;19.75190143;28.62893824;-8.077509853;1.760543544;-2.812309003;-11.19499273;-12.97470301;-10.24084034;-19.78353342;-2.845514706
-14.92843314;-15.53548399;-8.834107146;1.363918587;5.182697439;4.11905871;-13.34662839;14.73472518;6.030039063;22.59977878;32.83300463;-2.891686909;3.921653952;-1.603515249;-3.532122224;-11.17965217;-9.341830672;-21.24071389;-3.146305634
-16.06464221;-16.81310202;-9.679780298;0.819540544;4.082938368;3.733423393;-8.645171409;16.54787813;-4.90728249;24.56464318;36.5927421;2.014005589;5.8786502;1.472463203;4.670111537;-6.289472753;-5.76776194;-20.03787396;-3.663721664
-15.25936595;-15.83824002;-8.891732263;0.886624137;2.688163276;2.752073544;-3.148552171;16.69316403;-14.10534386;23.90129859;37.9252698;4.708966818;5.983362484;4.382898993;9.185144643;-0.836630737;-1.357174566;-17.64550881;-3.805285277
-13.09484542;-12.95406063;-7.664437347;0.548914127;1.129034207;1.471146414;0.568087199;14.71822027;-14.38835309;20.86204825;36.37314658;5.470713845;3.768267385;5.74708101;9.017511981;3.234425328;2.270398443;-15.19012515;-3.139304746
-10.58937379;-9.062838959;-6.865132845;-0.493206378;-0.321186343;0.301797833;1.462069488;11.51299789;-7.382530261;17.34051164;33.03242485;6.044216092;0.332544104;5.443181779;6.724436004;5.343938561;4.270351061;-13.08933895;-1.808129916
-8.828747004;-5.455532379;-6.788511352;-1.888813503;-1.39187344;-0.402961742;0.249544311;8.674139059;-0.333894092;15.36799896;29.56760868;7.746029016;-2.402209877;4.289847799;6.145580287;5.939258137;4.542597478;-11.4028974;-0.504919019
-8.547157821;-3.383623637;-7.313232882;-3.113927673;-1.954733778;-0.470907181;-1.391597886;7.407770459;0.686105472;15.64809355;27.07495125;10.14624027;-3.037141155;3.232053428;9.286603471;5.632945917;3.421306042;-10.34189902;0.004340132
-9.827866451;-3.515372858;-8.18313877;-3.90072088;-2.083677616;0.047129605;-1.994711981;7.718204309;-4.565642277;17.17277775;25.61546835;11.46416667;-1.625765737;2.733272844;14.70770622;4.660853271;1.446463121;-10.35035495;-0.546910465
-12.09495436;-5.600334751;-9.168927999;-4.340642431;-2.025154054;0.911128673;-1.121991412;8.425518164;-11.27455465;18.0787422;24.59419814;10.27608978;0.521489478;2.767446795;18.61402894;3.029083043;-0.693253058;-11.67623373;-1.713034221
-14.42694214;-8.596688981;-10.06264419;-4.710306972;-2.097027292;1.78827992;0.568580201;7.990506967;-14.31482361;17.00650487;23.49513587;6.999388049;1.978011183;3.233124496;17.80463428;1.016623097;-2.222410488;-13.88359739;-2.660267801
-16.01688377;-11.21813007;-10.61994201;-5.244079552;-2.53159582;2.388422317;1.924030699;5.58954455;-12.53202423;13.96971583;22.31223173;3.832548418;2.345124564;4.277936173;12.24601195;-0.598415734;-2.512324805;-15.84141251;-2.781009465
-16.5;-12.56596797;-10.57868978;-6.014047079;-3.298054518;2.58926852;2.130491649;1.72976202;-9.082767193;10.22271183;21.40016179;3.162807679;2.460578387;6.182652973;5.327327043;-0.899507689;-1.408187175;-16.3060692;-2.12447254
-15.97334845;-12.46584967;-9.778270246;-6.919238746;-3.997835133;2.483226294;1.262268265;-1.988711717;-8.05169534;7.374025972;21.00910979;5.741898005;3.519833526;8.929103348;1.587653029;0.509144768;0.627286996;-14.68475591;-1.320582715
-14.76962394;-11.35903653;-8.295632352;-7.715502668;-3.960742526;2.303879616;0.218947781;-3.800746628;-10.66906131;6.444586828;20.99694662;10.10172761;5.885558933;11.92021076;3.567774193;3.146760051;2.752221119;-11.39402129;-1.075082245
-13.22135076;-9.910836919;-6.489520315;-8.073382545;-2.595457641;2.265212628;0.092246052;-2.808106054;-14.43943872;7.451320821;20.97892215;13.64003906;8.639104642;14.2158034;10.05031502;5.953612513;4.25433136;-7.551204351;-1.639900776
-11.61020821;-8.649204046;-4.907056372;-7.716396504;0.137546547;2.418491219;1.367747501;0.502312443;-15.67875836;9.613742454;20.7333025;14.46200632;10.29796384;15.17792942;16.89599599;8.012448067;4.959339708;-4.266195421;-2.660223013
-10.28332217;-7.846095061;-4.096900301;-6.64686437;3.433850754;2.632344839;3.50908171;4.523062483;-12.97995368;11.86213937;20.43693123;12.5249484;10.10120626;14.99797962;19.79173677;9.081287191;5.213379667;-2.08835394;-3.486998846
-9.732665801;-7.623716625;-4.42572223;-5.333212043;5.822988174;2.714361014;5.261935295;7.366824141;-8.528472474;13.25663231;20.46272363;9.287446458;8.728471296;14.59618909;16.91597806;9.485775744;5.447833381;-0.986118819;-3.683295938
-10.45600866;-8.108481626;-5.983078884;-4.661058191;5.846701837;2.580118386;5.533821887;7.776323621;-6.272061621;13.15903178;20.88122986;6.30044387;7.760615052;14.86977804;9.725046298;9.488760784;5.68157532;-0.769765793;-3.327845261
-12.6358683;-9.471568443;-8.600483171;-5.560616673;2.905489279;2.333272229;4.256108003;5.627045236;-8.708324245;11.26133011;21.11183217;3.969558973;8.272933847;15.84;1.538046378;8.737916993;5.378760249;-1.51227359;-2.90739991
-15.88702813;-11.8282266;-11.94361299;-8.46672167;-2.256460141;2.190663255;2.563772685;1.83673659;-15.07297636;7.635740652;20.10257577;1.466329805;9.759333379;16.4229171;-4.818788959;6.36016792;3.802339642;-3.562821198;-2.918492184
-19.32425706;-15.08361631;-15.60265483;-12.94908276;-7.801074566;2.314700409;2.054580655;-2.168052465;-22.27023298;2.827352752;17.02074882;-2.239324651;10.39274681;15.12946321;-8.530189314;1.729966645;0.610978464;-7.125553943;-3.502954915
-21.96638897;-18.83267829;-19.1262359;-17.79487464;-11.70323452;2.692000016;3.560766285;-5.093820015;-27.44222195;-2.153060091;12.0112448;-7.154235679;8.537541628;11.27372084;-10.54233348;-4.672074634;-3.745899497;-11.76669088;-4.378364451
-23.21468996;-22.37261673;-22.00768151;-21.54426253;-12.79042198;3.154709638;6.299145302;-6.226277815;-29.82836445;-6.079202548;6.454451075;-11.87235816;4.328729875;5.792312602;-12.0723387;-11.05954756;-8.131951996;-16.2996137;-5.074354387
-23.06725274;-24.8380198;-23.69313343;-23.17339475;-11.27632164;3.516241876;8.097352171;-5.545564117;-30.48866022;-7.96795554;2.441128965;-14.33965861;-0.035226885;0.965815026;-13.29611954;-15.1056439;-11.26625239;-19.22147926;-5.262270949
-21.93398093;-25.44293514;-23.68501454;-22.51941796;-8.470855207;3.697416933;6.68486475;-3.552936063;-30.54034802;-7.511114552;1.696733343;-13.19323769;-1.674281537;-0.904552523;-13.30731547;-15.25058333;-12.35477204;-19.45972665;-4.933130992
-20.23308698;-23.77737829;-21.74176088;-20.22027088;-5.892665936;3.737353439;1.265479496;-0.951094315;-29.82746;-5.202268636;4.585869486;-8.696306425;0.880313829;0.984714142;-11.244556;-11.67290682;-11.43521602;-16.94688909;-4.331256165
-18.11196888;-20.03937348;-18.07021505;-17.25876779;-4.391919418;3.696576745;-6.685537629;1.667605333;-27.31861817;-2.051021585;9.832147081;-2.632534537;6.483219303;5.298038717;-7.453356657;-6.22556115;-9.273709629;-12.64421465;-3.742189013
-15.50570623;-15.04314381;-13.3585415;-14.42503169;-3.84165707;3.561083385;-14.0044069;4.010431542;-22.71605695;0.957130119;15.1744653;2.72211099;12.03643425;9.310487383;-3.540404333;-1.335681358;-6.924962639;-7.993923765;-3.313668324
-12.43958093;-9.917475592;-8.567072371;-12.00515698;-3.521686622;3.250226472;-17.51719187;6.096060337;-17.52163637;3.32737713;18.59639114;5.835020029;14.56792928;10.59671554;-1.178831118;1.417799506;-5.222458642;-4.143814769;-3.021150841
-9.264762485;-5.603515216;-4.553483636;-9.811744992;-2.82680736;2.7240584;-15.80479548;8.103778298;-14.30503836;5.170019531;19.38368929;6.580829404;13.18817107;8.528061385;-0.671894256;2.114608832;-4.44926551;-1.42023658;-2.758397051
-6.575943749;-2.447372214;-1.741844522;-7.457428599;-1.739488768;2.080087891;-9.976405447;10.14729548;-14.66625174;6.918611694;18.3496072;5.988365442;9.489064806;4.560918993;-0.586192312;2.184229475;-4.315478462;0.645987217;-2.452374978
-4.842919198;-0.176892757;-0.036508529;-4.67385985;-0.738632832;1.52923462;-2.996261173;12.10617795;-17.72577351;8.866908188;17.09207795;5.320986237;6.160019531;1.1412878;1.073498788;3.235891733;-4.221802081;2.792480262;-2.116968908
-4.049695416;1.70302455;0.981006888;-1.514964543;-0.274824052;1.251479267;1.997815882;13.62768072;-20.63248478;10.85203545;16.78801705;5.126742869;4.946224096;0.017631942;4.996118112;5.85548298;-3.668042616;5.366270867;-1.830820588
-3.650797303;3.397844178;1.732868032;1.620940006;-0.273396784;1.251709358;3.358413668;14.31483513;-20.81979043;12.3032819;17.35682077;4.87729259;5.509476591;1.147499633;9.554985012;9.188331883;-2.59203898;7.984817205;-1.67904621
-2.912066579;4.623705564;2.437742974;4.13620512;-0.087821147;1.349615987;1.616027241;13.99031964;-18.13948975;12.6231793;17.58817092;3.432733344;5.973019628;2.923385184;11.65703509;11.5636905;-1.434212723;9.760522294;-1.702413075
-1.404934042;4.91727154;3.131989898;5.484042663;1.036324213;1.324737302;-1.130322978;12.85601644;-15.01785793;11.63523944;16.15617588;0.040066528;4.59924583;3.477711338;9.009036935;11.69777808;-0.852921894;9.951557367;-1.872153085
0.690666577;4.207569206;3.824091854;5.421909824;3.326763363;1.097747787;-2.65207565;11.41792608;-14.4385302;9.776773715;12.78726871;-4.809216218;1.228338187;2.068938381;2.146567552;9.626760079;-1.238024761;8.588230181;-2.092063426
2.670330193;3.120845184;4.570029297;4.13703817;6.157586166;0.791271914;-1.934924274;10.19774711;-17.4280951;7.878090036;8.694999523;-9.322420426;-2.60607307;-0.453645413;-5.415637326;6.720357323;-2.351787875;6.599431704;-2.231444204
3.69478094;2.655175569;5.34910802;2.14187643;8.29207265;0.61687486;0.374120506;9.408078018;-22.16921683;6.650795503;5.892912327;-11.34043299;-4.873228715;-2.384207222;-9.244233261;4.765629339;-3.401292403;5.280364857;-2.190004883
3.219139329;3.392349249;5.848791093;-0.041236571;8.55679341;0.688654552;2.617769452;8.814487787;-25.4927975;6.222470593;5.821172888;-9.763028139;-4.548367725;-2.480296578;-6.933404427;4.752582947;-3.567444308;5.416469351;-1.970889229
1.222687266;4.882023919;5.422816276;-2.222352768;6.515687231;0.928176556;3.380810168;7.899790402;-25.4840881;6.049814507;8.272957601;-5.50459272;-2.276703579;-0.862575771;0.13703471;6.203770319;-2.648755398;6.679483861;-1.708312338
-1.825051221;5.803168012;3.399870946;-4.652101205;2.724484182;1.140470485;2.480681094;6.246421111;-23.00520995;5.303679336;11.44476759;-1.19095538;0.210773805;1.139194733;7.543038991;7.523493084;-1.316753859;7.787404072;-1.603559958
-5.165952574;4.930882246;-0.373489589;-7.751767107;-1.567407685;1.184030623;1.02912135;3.894054584;-20.87295897;3.494502399;13.13721118;0.388291451;1.376713854;2.008669975;10.62442364;7.141447818;-0.709016482;7.404326298;-1.784104925
-7.991032583;2.241306046;-5.138124428;-11.596749;-5.052255202;1.074463541;0.540108618;1.423862255;-21.41973965;0.916421283;12.27030433;-1.878059296;0.862913677;1.120823423;7.468584746;4.665772128;-1.586985774;5.191100623;-2.176626826
-9.646488366;-0.740450881;-9.349098303;-15.5263636;-6.943664928;0.929587456;1.734428829;-0.317404757;-24.5117178;-1.421226568;9.606157921;-6.591867351;-0.460969532;-0.915894867;0.063183515;1.233325136;-3.679543689;2.233266802;-2.504149652
-9.798471378;-1.75287424;-11.37024082;-18.24492708;-7.192449279;0.819389747;3.932471026;-0.707458318;-27.68079453;-2.374799077;7.128637482;-10.73076588;-1.270697427;-2.832143853;-7.098321489;-1.212710998;-5.767237591;0.458278988;-2.442808561
-8.535730116;0.704907706;-10.36050648;-18.47018804;-6.28809403;0.67874463;5.530561772;0.249243209;-28.23022673;-1.400477202;6.524140702;-11.73300157;-0.72144689;-3.666359885;-9.930849186;-1.236327089;-6.524513247;1.375515601;-1.847875727
-6.348202135;6.250908685;-6.785406947;-15.76737374;-4.840591832;0.380443087;5.260399807;1.880624135;-25.52581743;1.053373647;7.896308076;-9.312139325;1.097017062;-3.364526511;-7.207246597;1.104749072;-5.518546507;5.007302085;-0.882660217
-3.937093472;12.72738895;-2.196920141;-10.99642191;-3.225345946;-0.096166649;3.296911704;3.231873398;-21.55014336;3.791115582;9.69510389;-5.631855203;3.367609205;-2.604522323;-1.006079711;4.313663783;-3.572341677;9.799527483;0.065764583
-1.914856865;17.51603189;1.597700734;-5.993817594;-1.482042682;-0.574713581;1.308303018;3.667836685;-19.25171589;5.628303387;9.941485838;-3.645700683;5.133687455;-2.077338871;4.937323529;6.538962935;-2.142889023;13.62160154;0.645050586
-0.56083761;19.15144393;3.456849351;-2.611595483;0.525022088;-0.786319056;1.28039805;3.317994421;-20.03423467;6.177970043;7.849991151;-4.810009766;5.835601545;-1.85822328;7.702970518;6.932449055;-2.137515865;15.16955221;0.787183725
0.206973351;18.10707422;3.357438484;-1.69789508;2.83202723;-0.603704013;3.895446012;3.049077411;-22.4236924;6.128171947;4.631310224;-7.910058594;5.53179868;-1.369488513;6.828440829;6.299440752;-3.084862583;14.77410616;0.754176979
0.631557333;16.2495513;2.163646303;-2.679698735;5.181409919;-0.197995655;7.685034059;3.926924485;-23.00296127;6.787790451;2.84139665;-9.927943353;4.794413367;0.080917505;4.214819262;6.542001485;-3.363175614;14.04192351;0.929248989
0.857893957;15.43222643;0.952474569;-4.020843812;7.041035064;0.047885416;9.714436574;6.468305478;-18.92338711;9.161531637;4.699065735;-8.312479884;4.407319468;2.665277774;2.616555212;9.257742952;-1.390590719;14.61553496;1.500682384
0.840328689;16.28081943;0.382086748;-4.240562134;7.842918627;-0.168780215;7.467246399;10.16521862;-10.11187822;13.14997249;10.53927921;-2.910485648;5.00098724;5.832641307;3.864628036;14.48150209;3.090998793;16.97952731;2.281199435
0.501465707;17.99754098;0.478141897;-2.807889794;7.321286951;-0.804686228;0.671215813;13.64071448;0.430465335;17.42310105;18.46751093;3.92440311;6.740531645;8.684111053;7.932025486;20.4809508;8.631807528;20.1797227;2.815106781
-0.001900571;19.19804595;0.873764822;-0.338494774;5.759870237;-1.466143742;-8.242481277;15.40698559;8.399280037;20.09941162;25.43127483;9.099660363;9.198820057;10.60421577;13.22825956;24.78037854;12.93089792;22.61255878;2.708977847
-0.171280245;19.05098281;1.240536554;1.975019874;3.980978839;-1.695444643;-15.44026316;14.77767855;10.73445406;19.83763392;28.96471309;11.01904797;11.52991589;11.64277847;17.70269894;25.71669773;14.33511592;23.23729921;1.94332535
0.624560826;17.86021946;1.584618808;3.241163445;3.026991161;-1.329016661;-17.91226366;12.33028572;7.237287836;16.65825586;28.47;10.55171462;12.9223905;12.36985285;19.96606099;23.45864815;12.88552223;22.28062217;0.924197573
2.727841537;16.74341086;2.243155114;3.423155964;3.65440603;-0.633712707;-15.14784385;9.567478811;0.35304066;11.95941061;25.30109032;10.06549044;13.09878686;13.35417866;19.82196088;19.81041044;10.15611493;20.93818879;0.221147842
5.860857373;16.75622601;3.637402809;3.21771709;5.89443577;-0.100402205;-9.199900714;7.95552555;-6.484672774;7.697247756;21.75517971;11.41815188;12.51893103;14.69234201;18.07574115;16.97955712;8.040809693;20.36524229;0.17328411
9.152240892;18.14994249;5.961852762;3.417278166;8.940783333;-0.055750838;-3.220894764;7.969225825;-10.71778244;5.243720272;19.74;14.57822474;12.09573591;15.94010622;15.89637832;16.18670725;7.41763783;20.76596714;0.649433579
11.53155645;20.24027764;8.975602207;4.26806905;11.47183089;-0.406459492;0.434518734;8.807734077;-11.61998147;4.654372605;19.94314483;17.9257149;12.58356226;16.46150856;14.15074452;17.0407123;7.664103088;21.25911789;1.14014778
12.23447874;21.86135952;11.98326305;5.293024477;12.26926439;-0.723072612;1.284972292;9.001082544;-10.02948169;4.815247902;21.85512481;19.82631565;14.07878459;15.89914367;13.03236003;18.00660802;7.307644568;20.56264733;1.117369241
11.0950657;22.00864852;14.0224927;5.670058594;10.80487508;-0.591266413;0.450312505;7.494884304;-7.354857957;4.351714123;24.39972072;20.03029169;16.0179711;14.41386161;12.10368176;17.52841542;5.234265128;17.92952284;0.40247155
8.484307263;20.27225065;14.22092209;4.844610482;7.466493451;0.058052513;-0.50149178;4.4391981;-4.645309102;2.662576697;26.63105306;19.68856477;17.67374852;12.55210191;10.6741349;14.99375963;1.515545186;13.64527821;-0.719929868
5.022802804;16.92119722;12.21281342;2.912216624;3.303467569;0.902612035;-0.624457256;1.103860989;-2.23990762;0.353288997;28.08797403;20.0568254;18.73563034;10.88095107;8.296916154;10.96181513;-2.708333719;8.805211739;-1.715975436
1.324414894;12.73854294;8.422292;0.513613212;-0.534084369;1.488631729;0.095607428;-1.023757261;0.001047931;-1.238319975;28.74881877;21.13727596;19.48254676;9.667541286;5.115944224;6.667759444;-6.085509577;4.647076932;-2.179232774
-2.074979747;8.75285337;4.00563428;-1.639624155;-3.307142879;1.570722474;1.150531709;-1.294322245;2.234104391;-1.080963621;28.79607048;21.55146609;20.39823237;8.798947629;1.86288866;3.283143448;-7.918025871;1.971277841;-2.093299871
-4.667310207;5.926437057;0.381724847;-3.233807844;-4.856432802;1.256985083;2.082830096;-0.322745449;4.320345714;0.708864708;28.4227962;19.81249194;21.57034923;7.943155309;-0.508974933;1.437934586;-8.402581663;0.983510932;-1.797475897
-5.9841865;4.821966557;-1.461234312;-4.477984048;-5.393847982;0.864463165;2.723122806;0.523334925;5.8360057;2.859470087;27.76416732;15.86785339;22.42412587;6.803909138;-1.346877581;1.172929868;-8.189649099;1.484519661;-1.696167127
-5.764219594;5.349307426;-1.482312269;-5.822926209;-5.150993463;0.634399399;3.051374579;0.169279817;6.33625402;3.805509699;26.90145421;11.47496556;22.07325568;5.308929617;-0.658324307;2.139421733;-7.744354556;3.091723863;-1.936904541
-4.161902155;6.777219414;-0.558177589;-7.507177866;-4.193973276;0.55616286;3.015106862;-1.390493468;5.667763066;2.806328941;25.87280288;8.953546008;20.04045981;3.656248813;0.915966473;3.786524693;-7.063802618;5.286577462;-2.293468805
-1.771573783;8.111544645;0.14172556;-9.26643747;-2.539946584;0.430908804;2.590849234;-3.165216692;4.131490576;0.498960517;24.69402274;9.299592366;16.76092616;2.233098412;2.489835581;5.464685163;-5.907642666;7.374946547;-2.329809631
0.64606078;8.682025545;0.001212138;-10.40461373;-0.430053711;0.089422684;2.012575959;-3.995184396;2.400648558;-1.534709307;23.42768255;11.28243054;13.43220806;1.458641477;3.421825829;6.566264394;-4.225121331;8.599196893;-1.714741506
2.587172603;8.549441169;-0.561595618;-10.17031928;1.543260686;-0.442382546;1.821282466;-3.452490184;1.236017167;-1.87909414;22.28380635;12.38389941;11.29372305;1.600815488;3.603359845;6.789681177;-2.331714794;8.483627936;-0.4600354
4.056532393;8.390688632;-0.367009317;-8.19699133;2.651026555;-0.966388514;2.514164;-2.099162843;1.148966271;-0.258589741;21.65168378;10.88522235;10.87072238;2.621673186;3.402915329;6.387272963;-0.682386788;7.184771502;1.071974211
5.419393641;8.879239586;1.623073735;-4.754661373;2.487832821;-1.277986895;3.990198468;-0.927209433;2.189117829;2.336724768;21.96064131;7.378741185;11.72767717;4.122640789;3.356012156;6.107736944;0.49822646;5.485099774;2.370507035
6.939458036;9.99725916;5.371519134;-0.695928963;1.336257776;-1.308632382;5.293699221;-0.477128793;3.959458648;4.437210953;23.38812447;4.385497148;12.85437301;5.452104669;3.817686396;6.700815798;1.331641079;4.297305601;3.031003585
8.372867531;10.83659726;9.484273033;2.85652464;0.112483595;-1.123724628;5.018903902;-0.385818369;5.827831699;5.164016282;25.59148703;4.304291868;13.3269575;5.967746078;4.754128508;8.246434167;2.013846374;3.977850536;2.903109276
8.988865848;10.1216007;11.85946132;4.934303211;-0.13959546;-0.807830176;2.223769691;0.254277975;7.198371525;4.759357774;27.69194872;7.332877261;12.74328398;5.339858151;5.727268229;9.85323807;2.430642203;3.997940442;2.08546764
8.07178456;7.135502175;10.91570373;5.096576194;1.110490025;-0.377516204;-2.767737881;2.027723048;7.702004621;4.203927574;28.61044022;11.09277973;11.20515226;3.720532452;6.043618141;10.11550112;2.089974851;3.316777226;0.839263698
5.559454963;2.383400771;6.625947659;3.617625243;3.5494485;0.17848728;-8.304509542;4.555573915;7.254015058;4.284893164;27.61553158;12.3445052;9.023411505;1.65654672;5.028984814;8.149466754;0.533443341;1.255079407;-0.483664028
2.312829323;-2.528641614;0.669743194;1.398967048;6.239099097;0.777257858;-12.22355427;6.637627577;6.023632458;4.904768767;24.76481793;9.481248352;6.488360149;-0.222275112;2.379541757;4.476059706;-2.079567432;-1.790166101;-1.477690994
-0.258481328;-5.769175109;-4.435776827;-0.407746313;8.223895261;1.185855989;-13.04976556;7.089711695;4.380892361;5.194911453;20.94630356;3.826788474;3.868152842;-1.553519998;-1.538468309;0.978545494;-4.762565087;-4.408810439;-1.748849182
-1.022981284;-6.341221273;-6.718765802;-0.953916447;9.081673478;1.132049662;-10.80736327;5.612978041;2.828420515;4.309846239;17.45791735;-1.310142526;1.499818331;-2.407438913;-5.656082408;-0.223146848;-6.173894152;-5.076553194;-1.066538374
0.141273816;-4.62797531;-5.81723534;-0.170149442;9.027049204;0.520902451;-6.937775469;3.000694203;1.874242484;2.205359402;15.35446284;-3.097706116;-0.257840296;-3.158182576;-8.599448819;1.7156147;-5.516102107;-3.278869502;0.445904617
2.226618106;-2.09271281;-3.092851934;1.133456339;8.533293181;-0.427071755;-3.418064146;0.525379142;1.835759477;-0.273520012;14.9467309;-1.23625437;-1.242227783;-4.146872065;-9.418714331;5.582448218;-3.192565308;-0.009202106;2.235122585
3.694804222;-0.373519952;-0.746878195;1.694827324;7.81745255;-1.262060982;-1.665849607;-0.989535141;2.666026405;-2.067572804;15.74841563;1.978546461;-1.645085475;-5.363145952;-8.224849319;8.752101512;-0.656787411;2.793937157;3.494377028
3.410048828;-0.374781768;-0.489803372;0.592134853;6.633201227;-1.581544324;-1.885115106;-1.667969419;3.94895672;-2.747746819;16.88532119;3.585882324;-1.861808536;-6.362893322;-6.22656796;8.930506297;0.5226558;3.524128733;3.567504479
1.297792731;-1.885484588;-2.565187048;-2.060208108;4.554197262;-1.29573203;-3.16642848;-2.275109782;5.125835624;-2.780161725;17.68825749;2.327388849;-2.075298904;-6.488549101;-4.995213217;5.803058682;-0.261733992;1.996676789;2.354764658
-1.67925418;-3.859310461;-5.691137389;-5.011470998;1.515310229;-0.675201287;-4.181540803;-3.402255862;5.829671396;-2.966962634;18.07735067;-0.406289161;-1.946918668;-5.264566923;-5.372392695;1.371647673;-2.231525931;-0.440334887;0.43174879
-4.166234474;-5.085129006;-7.915971538;-6.545353709;-1.854725987;-0.143319025;-4.007314143;-4.849978795;6.078958127;-3.557436313;18.48984558;-1.75066176;-0.792081272;-2.726278191;-6.812534137;-1.328291578;-3.77537845;-1.855592738;-1.247887714
-5.218349931;-4.814828578;-7.832579877;-5.570934076;-4.433198591;0.021217476;-2.610448198;-5.736234986;6.161270473;-3.852884228;19.41718933;0.306040781;1.781567216;0.52710622;-7.734226826;-0.253366463;-3.573362549;-1.05022002;-1.90467272
-4.733627117;-3.034908743;-5.389114484;-2.419913142;-5.245991639;-0.158751053;-0.762468118;-5.240985866;6.289832027;-2.734470026;20.89449175;5.282479468;5.273844884;3.605593837;-6.710591775;4.324078759;-1.457205808;1.711340641;-1.375884899
-3.287184961;-0.321942714;-1.798625606;1.254369912;-4.102459684;-0.448302813;0.521253167;-3.363264207;6.334249879;0.266547058;22.33267524;10.50742334;8.322971552;5.782835445;-3.617035716;10.13382305;1.613245784;5.051024463;-0.141417611
-1.565133415;2.563575607;1.367967963;3.50284084;-1.752214097;-0.637520431;0.667164835;-1.051055698;5.895633845;4.271347019;22.85165602;13.097457;9.5036866;6.866598792;0.200894474;14.59223952;4.384183052;7.587542637;1.076798246
0.149628919;5.097802372;3.281441587;3.383403023;0.564677626;-0.717330001;-0.073880099;0.424238226;4.704258914;7.411922764;21.90587109;12.07276775;8.357412736;7.249464555;2.938953678;16.57101755;6.255436954;8.932350403;1.833478839
2.068249198;7.204236552;4.37993078;1.622535191;1.860744347;-0.855621195;-0.812697997;0.362669067;2.999664511;8.076237697;19.74818872;9.017111799;5.820643397;7.582367678;3.739529391;16.93622602;7.580938449;9.815845025;2.201491763
4.528750596;9.14085767;5.931193404;0.107318642;1.92035767;-1.214837796;-0.687206757;-0.90308076;1.504958317;6.092973792;17.35111604;6.827412426;3.613120969;8.252166215;3.307721553;17.51011625;9.104614705;11.27950788;2.564385603
7.480301107;11.12555593;8.916980213;0.502919059;1.261789759;-1.781692037;0.440563722;-2.33399125;0.917214239;2.878864696;15.77702513;7.526024279;2.971640461;8.999940996;3.156095107;19.32605315;11.02781171;13.59747015;3.152457933
10.2397983;12.94504205;13.04457427;2.963789528;0.628312687;-2.353620057;1.799995492;-3.027234463;1.273530161;0.365373368;15.413254;10.75700276;3.696894504;8.970511329;4.067366978;21.57944432;12.51697026;15.80237829;3.7276556
11.74924019;13.86572332;16.6631208;5.904853311;0.424086534;-2.680944237;2.269457121;-2.905989274;1.738176219;-0.481612029;15.64315398;14.03;4.300798203;7.229583341;5.124781089;22.12193623;12.11984024;16.23113577;3.704455188
11.20286355;13.01798583;17.75392375;7.069834988;0.507772419;-2.634038097;1.332239538;-2.724621523;1.087443782;-0.361038894;15.25701332;14.48857631;3.197542494;3.46285154;4.290775837;19.14136302;8.831491584;13.72840795;2.631914858
8.633783823;10.08622076;15.36962668;5.179286055;0.446192133;-2.260579986;-0.320841823;-3.404667812;-1.380350135;-0.959455674;13.37302076;10.92382336;0.039403771;-1.60139841;0.226528153;12.74798714;3.011367971;8.634749015;0.648515966
5.043998931;5.826173192;10.49561994;0.969311807;-0.02981881;-1.708953493;-1.143347675;-5.234560457;-5.17491445;-3.413729576;10.22077344;4.652667769;-3.848260927;-6.379876806;-6.114969246;5.248593514;-3.572696444;2.819488247;-1.481399552
1.941544585;1.930527505;5.638901809;-3.173847442;-0.756110456;-1.109569841;0.06336945;-7.556268087;-8.740176534;-7.1630164;7.174672257;-1.278282047;-6.292549069;-9.190292407;-11.58394298;-0.130426283;-8.661704171;-1.308052063;-2.819163711
0.535913322;0.167415429;3.329417884;-4.775275243;-1.26018954;-0.52327943;2.95786443;-9.175670679;-10.3684931;-10.17384228;5.931518293;-3.960787524;-5.745892217;-9.146614577;-12.79535638;-1.172141426;-10.76449348;-2.158855864;-2.868937553
1.081453931;1.283399763;4.52551938;-2.939648797;-1.159283733;0.018224963;5.503028682;-9.186345349;-9.298761989;-10.44;7.359453124;-2.313434795;-2.312379363;-6.640873269;-8.568706438;2.089466519;-9.899142043;0.198495904;-1.894750264
2.782041234;4.446495379;8.034852245;1.058693291;-0.499419407;0.450382013;5.18691469;-7.605191752;-6.234006484;-7.616704475;10.82911418;2.442045045;2.386377704;-3.105999661;-0.931890298;7.603583745;-7.356132709;4.231879019;-0.698357697
4.317985768;7.710516764;11.36624782;4.673353472;0.235261284;0.676194721;0.870466466;-5.379756814;-2.922000995;-3.491127719;14.53108957;7.690604133;6.31530347;-0.214236925;6.183407481;12.71814135;-4.738419435;7.962760324;-0.036258535
4.656047491;9.257575793;12.40695364;5.80538108;0.447827401;0.638451749;-6.113734242;-3.790087891;-1.106759436;-0.867269093;16.58576329;11.01340383;8.221911498;0.981333247;9.601025457;15.70213718;-3.014841726;10.0737511;-0.126447016
3.625287378;8.559188242;10.73383844;4.106886114;-0.158519036;0.389898519;-12.56070635;-3.676854241;-1.574164183;-1.6643259;16.17480827;11.41142065;8.096504006;0.45415354;8.850554811;16.36851702;-2.222857297;10.39855482;-0.605500932
1.910634233;6.60676174;7.666173207;0.983537337;-1.376662706;0.081098513;-15.39292858;-5.001347807;-3.886731306;-5.633742646;13.90889362;9.477827398;6.742137123;-1.01091072;5.917436901;15.57664387;-1.892207614;9.600287999;-0.92442219
0.517820095;5.048172094;5.125038612;-1.596323194;-2.627446782;-0.137117626;-13.64912225;-6.970039063;-6.867256698;-10.61388906;11.2147092;6.590721825;4.988116891;-2.41405576;3.128261529;14.23280485;-1.703503707;8.436577769;-0.826304476
0.115314776;4.914916088;4.239952765;-2.512862801;-3.311363325;-0.215428363;-8.993434296;-8.565900094;-9.383530421;-14.06321562;9.246964998;3.822977049;3.227313683;-3.087453635;1.065621988;12.6589052;-1.781807099;7.239734046;-0.510605405
0.710619731;5.945093361;4.760735016;-2.068704561;-3.132281378;-0.22296317;-4.385621747;-9.101013915;-10.87588335;-14.67962982;8.154730551;1.360014648;1.52221152;-2.897421481;-1.648112963;10.73837333;-2.413046313;5.9669349;-0.377276715
1.837982554;7.012708953;5.620627833;-1.396903603;-2.200671744;-0.267597795;-1.970048828;-8.464028203;-11.37711993;-12.94290114;7.2137422;-1.242364841;-0.031558031;-2.111402272;-6.524772008;8.522340041;-3.509433494;4.650508167;-0.606934627
3.039208567;7.24986211;6.049378568;-1.312840562;-0.89648449;-0.395834446;-1.815379808;-6.992709433;-11.1951546;-10.3360576;5.638974911;-4.28534964;-1.160554712;-1.148671012;-13.03777584;6.608377219;-4.37943567;3.737313879;-0.9627469
4.214285426;6.865093629;6.229868071;-1.616792684;0.378337911;-0.562779601;-2.38708869;-5.149306098;-10.61524872;-8.033873602;3.37290135;-7.340058594;-1.637653958;-0.406760063;-18.22447544;5.868568981;-4.090661044;3.922552422;-0.992451206
5.561658808;6.928431078;6.950870246;-1.410155707;1.395792081;-0.690933214;-2.184742858;-3.253012094;-9.830440039;-6.163229347;1.210085449;-9.36813272;-1.577124881;-0.18085797;-18.71280748;6.737014521;-2.183391029;5.554642165;-0.449933009
7.199678332;8.306319606;8.628635628;-0.091156121;2.160314381;-0.750289702;-1.048835882;-1.414962924;-9.022174256;-4.136664449;0.195116018;-9.478443859;-1.3977824;-0.580727327;-13.64543191;8.705169103;0.847532891;8.118075914;0.44301801
8.852137837;10.71059244;10.65600231;1.901440821;2.845555062;-0.776681972;-0.0240593;0.358483867;-8.374706801;-1.597248174;0.831372851;-7.700705933;-1.397775083;-1.415442198;-5.977450299;10.53643952;3.739218251;10.31716306;1.141208717
9.940058594;12.77701542;11.77071723;3.32269603;3.677632539;-0.814646568;-0.013913489;2.037976046;-7.928745708;0.979678274;2.766737672;-5.097968295;-1.334937686;-2.167723625;-0.770564411;11.11405179;5.231064087;10.8397536;1.222360377
10.06636165;13.20845737;11.22110495;3.213111342;4.823627916;-0.853869951;-0.583547247;3.5375452;-7.414462093;2.608229511;5.185267044;-3.049511047;-0.493366658;-2.211928184;-1.554029929;10.28249843;4.861653705;9.309994774;0.762393095
9.497269547;12.03835847;9.724070918;1.939045961;6.311214245;-0.837675746;-0.153558557;4.778764868;-6.299186716;2.73559111;7.515272784;-2.229159867;1.691771462;-1.246067309;-7.552816478;9.002132867;3.199707881;6.704537346;0.311599092
9.169546549;10.85754618;9.259994829;1.217990384;7.988517344;-0.744003477;2.451125961;5.757625909;-4.126573214;1.905496281;9.799410128;-2.11362285;4.933089629;0.352030802;-14.07801662;8.655524906;1.351974497;4.831529211;0.467672503
10.08596436;11.64870187;11.65444054;2.931549582;9.536377564;-0.651121712;6.455851727;6.518684909;-0.943523411;1.455484749;12.39172989;-1.481566566;7.970269468;1.600714596;-15.93607607;10.01082431;0.147016325;5.148266985;1.376397328
12.46973141;15.06420832;16.94866636;7.532896185;10.54388827;-0.697228373;9.114818349;7.03602146;2.53215078;2.414298897;15.2743717;0.442342703;9.270019531;1.510399966;-11.28465908;12.62732832;-0.374844919;7.719960951;2.559614091
15.32389936;19.56055916;22.87965385;13.28825002;10.63536429;-0.941637325;7.516447037;7.107758442;5.204156495;4.513944981;17.67003906;3.136878375;8.097246349;-0.152717508;-2.948443886;15.15642713;-0.806278647;11.08096682;3.21710449
16.82873115;22.22499096;26.05131684;17.06598947;9.604969151;-1.247748353;0.92033743;6.39249746;6.210513756;6.208999809;18.4091673;5.011619435;5.13540116;-2.526011985;3.804906747;16.30790508;-1.735849471;13.1472837;2.780900786
15.42319594;20.80614607;24.10656009;16.25948155;7.502801856;-1.319535998;-8.265294225;4.618800281;5.450979317;5.789190957;16.84930904;4.64652568;2.127780666;-4.09649969;5.229863359;15.75115672;-3.182565989;12.57760694;1.311074365
10.87972862;15.44785488;17.38675019;10.54486535;4.637250685;-0.90366932;-15.78173599;1.848225809;3.652374224;2.742686612;13.59782294;2.086936665;0.757797404;-3.713446994;1.675841497;14.28576722;-4.562046375;9.644012553;-0.547487741
4.612759253;8.769978643;8.856204383;2.21919699;1.496970989;-0.013458804;-18.22565611;-1.410019531;1.90952617;-1.73515404;10.34844592;-0.93164077;1.582575785;-1.452767933;-3.158875692;13.18224581;-5.182602219;6.01044121;-1.994051134
-1.052186292;4.168656667;2.2879424;-5.166150669;-1.377021265;1.018146804;-15.1694436;-4.365485109;1.006756066;-5.543146976;8.813529037;-2.174586255;3.789695974;1.352676832;-5.48876701;13.21411141;-4.832095127;3.588176453;-2.563030881
-4.209994556;3.564875527;-0.051132736;-8.967194355;-3.535184;1.730379254;-9.16600278;-6.335547543;0.972800347;-7.193658875;9.492348789;-0.693732125;5.902540241;3.010009766;-4.426749265;14.105401;-3.961016935;3.280396855;-2.342708452
-4.442661216;6.244780531;1.363156195;-8.946166365;-4.750946662;1.845332662;-3.766210621;-7.121725454;1.147480495;-6.869359392;11.23139628;2.216032776;6.844128671;2.659658087;-2.275872109;14.77092745;-3.32327816;4.478401614;-1.816556661
-2.928772656;9.587426519;3.93450904;-7.138734497;-5.106263731;1.459860491;-1.157750841;-7.117012168;0.677564567;-6.197019138;11.98456257;3.78093256;6.551723031;0.862337023;-2.073873615;14.1224391;-3.391353436;5.609194059;-1.492818927
-1.557002237;11.04715732;4.885722682;-6.275135589;-4.984661168;0.962397051;-1.157823869;-7.057778261;-0.923595283;-6.939131729;10.26711232;1.793873802;5.755446496;-0.88808677;-4.665153945;11.82160923;-4.0339857;5.286573513;-1.598339826
-1.673465126;9.869350552;3.104512278;-7.915415918;-4.934671655;0.735439252;-2.053604802;-7.578067247;-3.528843492;-9.654700617;6.233830138;-3.590869158;5.213570788;-1.363434401;-7.902254247;8.457230286;-4.701309306;3.232204053;-2.012202313
-3.30710241;7.327098551;-0.337352366;-11.57103208;-5.422737738;0.878700658;-2.300550493;-8.859936668;-6.587571035;-13.37177779;1.563744943;-9.772588961;5.077042716;-0.575941805;-8.663852455;5.094581763;-4.925709726;0.363214333;-2.418551829
-5.344092687;5.464908216;-3.202038121;-15.30411435;-6.578298864;1.170650642;-1.594361053;-10.59437215;-9.56;-16.46729759;-1.769981877;-13.51589843;4.866992107;0.250441877;-5.885093921;2.600744189;-4.693331338;-1.922905645;-2.527570232
-6.449048952;5.443361767;-3.779471328;-17.23344385;-8.081087715;1.288474203;-0.623370829;-12.23478702;-12.24533792;-17.97224149;-2.914354132;-13.33555481;4.003443924;-0.291822441;-1.874472091;1.248558366;-4.378759396;-2.687613497;-2.22225934
-6.041513347;6.756669858;-2.031867999;-16.80559833;-9.291584715;1.093889251;-0.055759912;-13.32342998;-14.76181178;-18.21487009;-2.663605585;-10.60014411;2.394894764;-2.567902261;-0.636506202;0.809821832;-4.332035388;-1.958973976;-1.585034008
-4.656814683;7.795438517;0.517541145;-14.9744885;-9.584864612;0.744130042;0.124035312;-13.65623478;-17.22045279;-18.31397586;-2.713953681;-8.437803452;0.609718644;-5.453372597;-4.504638822;0.938974801;-4.51275476;-0.544727082;-0.839967641
-3.497878703;7.165435658;1.925896108;-13.29356754;-8.701839392;0.542725068;0.36243396;-13.22092597;-19.378113;-19.01609656;-4.241861243;-9.243871536;-0.468572569;-7.04807605;-11.90875488;1.460616147;-4.517038496;0.595578181;-0.26095364
-3.552675188;4.693134127;1.126763706;-12.69386125;-6.893375563;0.668367317;0.820158806;-12.03947531;-20.57949272;-19.90670028;-6.913555768;-12.72945359;-0.201802229;-6.034722243;-18.24412184;2.334736959;-3.986779769;0.918959264;-0.070899509
-4.913307479;1.441607048;-1.465159234;-12.85789966;-4.75185131;1.020117426;1.102931137;-10.09811766;-20.07969318;-19.67789463;-9.083228091;-16.06987185;1.435368144;-2.66670543;-19.26618957;3.411500161;-3.038927979;0.465123905;-0.348128937
-6.738819006;-1.102629162;-4.313570757;-12.57353543;-2.834782475;1.31033301;0.810703739;-7.423842392;-17.53946492;-17.21839028;-9.008694045;-16.07354113;3.884703509;1.348223301;-14.32460539;4.294976509;-2.312151875;-0.354888801;-0.976808166
-7.832986369;-1.945940998;-5.719527765;-10.71262136;-1.338616356;1.319303169;0.309788698;-4.198569377;-13.33239363;-12.59401626;-6.137812233;-11.68444146;6.33953183;3.972787686;-6.833324114;4.532301664;-2.538487954;-1.070026855;-1.687582155
-7.407497802;-0.975816371;-4.735622402;-7.080932712;-0.056003344;1.087272097;0.751800918;-0.761120887;-8.423725514;-7.097002483;-1.495065216;-4.84970597;8.143970001;4.149750191;-1.591748413;4.025224057;-3.950342625;-1.319158098;-2.192538782
-5.528249483;1.262726156;-1.557972377;-2.569298655;1.350308207;0.877960879;3.028950331;2.526463811;-3.894625892;-2.349032533;3.076929301;0.927301933;9.058311479;2.384918671;-1.101731736;3.307270007;-5.992995375;-0.864455226;-2.343433845
-3.00386923;4.023573049;2.691180899;1.40764717;2.962020518;0.948117285;6.487839784;5.410926321;-0.453743642;0.759288479;6.180738875;3.192063028;9.314094902;0.267084132;-3.803680297;3.372879837;-7.596453503;0.399255632;-2.204051875
-0.855087903;6.651949191;6.558718483;3.71903279;4.412313377;1.324025264;8.713068692;7.7252297;1.719842168;2.40981107;7.644726598;2.23854408;9.461597908;-0.650624196;-5.575274502;5.071599354;-7.841475623;2.334852991;-1.978780595
0.259981471;8.642513906;8.900788991;4.02943791;5.06437031;1.775927942;6.945947913;9.228512111;2.738466345;3.268629671;8.277027857;0.59277342;10.04862856;0.1953664;-3.215950182;8.441447664;-6.562011764;4.440297743;-1.851128648
0.323349937;9.668249058;9.308244185;2.780249638;4.469588916;2.008228284;0.267521075;9.52013262;2.649680565;3.599650603;8.901056616;0.769449185;11.2355837;2.168884616;2.896387486;12.46366737;-4.476311347;5.916496009;-1.862424891
-0.167263796;9.734399473;8.190393633;0.80095043;2.789117202;1.900078125;-9.189532121;8.236619033;1.345134688;2.968419206;9.543532891;3.174051643;12.55436337;3.96894435;9.052488336;15.47663837;-2.773448119;6.021587837;-1.926520134
-0.57362896;9.335599695;6.515612181;-1.110922933;0.853529682;1.5941255;-17.16903789;5.483777342;-1.130888134;0.856729202;9.47233417;5.868904348;13.04189217;4.446118857;11.09421289;16.05403835;-2.437546178;4.548505031;-1.953419361
-0.477453585;9.338108182;5.32395477;-2.415365854;-0.236580213;1.36625975;-19.89015519;2.14987404;-4.154814985;-2.386520011;8.029997856;6.365366619;11.80049087;3.17948935;7.62485311;13.83338952;-3.722018951;2.086547803;-1.953511295
0.171397106;10.49175265;5.228557849;-2.869751646;0.249455635;1.394468088;-16.46987115;-0.299340196;-6.474843102;-5.241043532;5.507721447;3.924021697;8.706351455;0.578804112;1.083075214;9.793086929;-6.041894891;-0.181294492;-2.013368462
1.145752175;12.85342714;6.152886491;-2.517727567;2.195531494;1.621260506;-9.381973566;-0.5999665;-6.803248252;-5.848138253;3.23871591;0.414856908;4.757217609;-2.392325996;-4.045010684;5.803113075;-8.283021634;-1.077341218;-2.16366824
2.150501922;15.5974032;7.447922265;-1.697018843;4.647759161;1.814223117;-2.654229384;1.408289202;-4.758357438;-3.455575147;2.724449856;-1.039905094;1.683285602;-4.639288658;-4.425389077;3.696262864;-9.327163023;-0.059852283;-2.279647389
2.990930834;17.45710084;8.318924463;-0.995562167;6.330058594;1.759147403;0.785752048;4.450850612;-1.431442231;0.71443498;4.433702861;1.400185688;0.941873101;-5.334216216;-0.106502845;4.362890721;-8.547934878;2.514447985;-2.142126891
3.610921576;17.54172399;8.29639852;-1.049144913;6.3616397;1.418465474;0.661725062;6.446416405;1.034736417;4.043196319;7.255475736;6.614635743;2.736380717;-4.215196537;5.702646108;7.333385173;-6.096007371;5.637528173;-1.637986194
4.024675314;15.93176663;7.461216749;-2.202623804;4.73937473;0.933675279;-1.14875299;5.792466076;0.791886209;4.289275493;9.141441737;11.09528024;5.799147926;-1.724191462;8.921222456;11.03670476;-2.876214265;8.203790042;-0.924310482
4.23822262;13.60122676;6.314845639;-4.231758192;2.298232118;0.491820535;-2.455181663;2.449879605;-2.282531273;1.280773081;8.564059702;11.42025309;8.19267276;1.113665811;7.207872872;13.58436769;-0.198129646;9.50369181;-0.374978137
4.244939535;11.74473435;5.440822189;-6.358306385;0.194926603;0.184226545;-2.324216042;-1.97387584;-6.14967722;-2.810583445;5.743827726;6.800660791;8.627557867;3.113591326;1.199666783;13.69525579;0.810832584;9.410692425;-0.302670564
4.099698491;11.05712541;5.230998535;-7.616599466;-0.745607621;-0.027307096;-1.263434888;-5.253343139;-7.67299054;-4.926146168;2.698620321;-0.186121377;7.354846333;3.517269454;-6.136953774;11.32986399;-0.200997166;8.280710857;-0.664230737
3.992952294;11.51489521;5.848495514;-7.368882475;-0.417282706;-0.230509559;-0.232888886;-5.976752057;-4.632114313;-3.29046816;1.990615165;-5.194989788;5.954208654;2.41840211;-11.29670472;7.736311624;-2.530306201;6.752892687;-1.015310216
4.225676848;12.74461326;7.362773104;-5.637878177;0.650073242;-0.461315093;0.370263902;-4.368741626;2.624630693;1.299056451;4.991336814;-4.860087891;6.150247568;0.722151858;-11.95498437;4.864885116;-4.688964654;5.59073346;-0.803234551
5.051665694;14.54731954;9.834624975;-3.048734479;1.72719882;-0.676847401;0.834082948;-1.960847731;11.0623815;6.003421969;10.85521134;1.23887796;8.531401706;-0.390811183;-7.814918853;4.396211769;-5.168516162;5.532881876;0.197058982
6.464292041;17.04102508;13.19680778;-0.456870898;2.340728411;-0.814702503;1.472221775;-0.444097321;16.54976072;7.858394747;16.9157717;10.62611265;12.12837797;-0.169437972;-0.48900855;6.840611004;-3.302033541;7.046466445;1.650073242
8.078905106;20.2790531;17.01296797;1.449385017;2.440781568;-0.866635364;2.071786803;-0.623206676;16.167991;5.628792206;20.24612186;19.72931713;15.1523382;1.30589932;7.264282352;11.18769373;0.311675987;10.00072296;2.845827783
9.233282105;23.73794128;20.38497455;2.315212299;2.215908044;-0.88896825;2.126886354;-2.221797778;9.769106972;0.290630609;19.35456788;26.02984807;16.308978;3.2893555;12.61709227;15.354764;4.134575505;13.48715038;3.194430172
9.299002213;26.24857837;22.22542977;2.036263555;1.761888831;-0.942686398;1.603494788;-4.527810576;-0.143802875;-6.034013338;14.94450214;29.16154806;15.68810975;4.95044364;13.80838695;17.2667047;6.601423284;16.06064181;2.657902536
8.045356707;26.58414283;21.82974294;0.62926013;0.90988385;-1.029048518;1.309967549;-7.173758827;-9.9923806;-11.67806144;9.340731399;30.51507527;14.59470373;5.920689592;10.99380881;16.00812889;7.042789324;16.43468941;1.777124384
5.832075672;24.31988183;19.39135599;-1.7404869;-0.625315113;-1.089781378;2.261966958;-10.30622317;-17.02511971;-16.26635222;5.061842147;31.96854616;14.52236473;6.419910091;6.325085742;12.37577853;6.016106994;14.27676899;1.263145652
3.486941144;20.2721377;16.05765603;-4.592268162;-2.891727468;-1.073787256;4.472876526;-14.02834769;-20.36935131;-20.2723712;3.492218819;34.75219058;16.09912667;6.936440834;2.952056422;8.453582157;4.840650988;10.54791665;1.46880682
1.910474796;16.099579;13.39485013;-7.068062116;-5.447345463;-1.003066571;6.351117511;-17.72574196;-20.80859302;-23.91814877;4.409493671;39.04496769;18.77959579;7.784432575;3.259804015;6.407673986;4.681397252;7.049399074;2.153853629
1.624298635;13.30060526;12.53752471;-8.210418085;-7.464997714;-0.968481722;5.532664217;-20.04797843;-19.76822384;-26.55519661;6.475772872;44.21048827;21.41110393;8.910120193;7.333686761;7.208520794;5.825341569;5.38319293;2.719899875
2.524236185;12.33029049;13.54377206;-7.5315109;-8.187668818;-1.053852205;0.728731858;-19.74736102;-18.37815992;-27.14450763;8.200922484;49.21992953;23.1231254;10.05001953;12.75178173;10.07897575;7.625055712;6.00325927;2.712585913
3.979312752;12.47808513;15.37189247;-5.493190183;-7.441886729;-1.25870756;-6.875113024;-16.76132369;-17.16059504;-25.39185481;8.719007161;52.96101344;23.81842387;11.01763322;16.04756544;13.03521617;9.083761508;8.033917285;2.178609704
5.209444026;12.55826924;16.50586994;-3.452292485;-5.832383842;-1.495110224;-13.96361179;-12.59368355;-16.25439077;-22.44202237;8.005287196;54.47649662;23.96433522;11.80876075;14.99832129;14.1836407;9.605071445;10.00413498;1.596101169
5.712163126;11.84943552;15.85051611;-2.949723068;-4.437630591;-1.665335789;-17.12901591;-9.536230818;-15.70861514;-20.37416786;6.605248076;53.28718906;23.98880965;12.43567235;10.18104235;12.9271934;9.357477794;10.96344852;1.455248051
5.492556055;10.56712058;13.3613616;-4.729426114;-4.173446521;-1.749209942;-15.13262176;-9.205290469;-15.51313261;-20.78284518;5.208629014;49.73583236;23.86182643;12.70264959;4.643544212;10.28353789;9.036319559;11.13777979;1.850943708
4.981488099;9.56214345;10.05345969;-8.163562097;-5.24024438;-1.817501196;-9.665179817;-11.47141909;-15.45034703;-23.5704738;4.352979372;45.03790488;23.19897515;12.22252412;1.858430046;8.115955927;9.266182355;11.61960952;2.425128812
4.713570629;9.54961417;7.410106541;-11.55798291;-7.030807627;-1.955011403;-4.043108206;-14.6087405;-15.09527153;-26.97649544;4.317837585;40.79943611;21.725582;10.74757697;3.391992501;7.824982846;10.12260035;13.33417881;2.690998167
4.962875502;10.49570804;6.545258522;-13.21445231;-8.566959823;-2.162478342;-0.89767933;-16.56350834;-14.12709766;-28.88751037;5.105963678;38.17900082;19.63928753;8.553706328;7.942979021;9.420332896;11.11099975;16.10649601;2.447986077
5.538042562;11.59841804;7.581253961;-12.55968996;-9.169550053;-2.329851833;-0.638031081;-16.38388338;-12.73318002;-28.4248947;6.423075801;37.25889081;17.54312208;6.494891182;12.38965961;11.61561889;11.56753178;18.60141542;1.928880927
5.83736722;11.79984984;9.559801507;-10.55531671;-8.904766962;-2.311039046;-1.725510452;-14.7544914;-11.69319515;-26.56739685;7.690539109;37.13433187;16.02856487;5.577401498;14.00278781;12.85012578;11.14284632;19.23716775;1.560195348
5.129236592;10.38742283;10.91600691;-9.079946917;-8.505349794;-2.037757745;-2.277698527;-13.30410653;-11.95053996;-25.33567874;8.191375791;36.69475117;15.28702613;6.310440609;12.17621021;12.46982289;10.0102114;17.39253419;1.553698077
2.922732864;7.258374065;10.26583669;-9.693209402;-8.827153179;-1.572666708;-1.541166969;-13.30013682;-13.9304904;-26.20670012;7.369511746;35.48617731;15.06903088;8.319124687;8.49114195;11.18550495;8.680673106;13.95534583;1.691380833
-0.740240368;2.759219442;7.108905344;-12.62628937;-10.21623243;-1.05506646;-0.106176124;-14.75419869;-17.1337732;-29.00723255;5.1442769;33.94065167;14.98081353;10.54102209;5.252434264;10.46257426;7.6;10.72981267;1.496946225
-5.208243851;-2.653831317;2.087805165;-16.67486276;-12.2151148;-0.588791345;1.030068359;-16.55343092;-20.35601239;-32.10820779;2.02383695;32.78;14.82365239;11.88724851;3.752608364;11.29927078;6.831185094;9.089431124;0.65192439
-9.4147601;-8.62395994;-3.341332455;-20.02747682;-13.8022055;-0.173691273;1.478677413;-17.39209228;-22.39532962;-33.69038187;-1.102194803;32.13203756;14.68547761;11.89211488;3.586083151;13.32662176;6.03;8.866399037;-0.698876824
-12.28856724;-14.86671822;-7.66984685;-21.42203291;-14.00459256;0.258610277;1.610381817;-16.70841981;-22.72957448;-33.04684704;-3.396943383;31.19594075;14.7503425;10.89516166;3.382056787;14.94959755;4.704884452;8.334377039;-2.018530302
-13.21607801;-21.04273449;-10.12419728;-20.8430329;-12.49034724;0.740950327;1.88919884;-14.94804743;-21.69235375;-30.94958554;-4.477155888;28.85728478;15.04371516;9.674207345;2.180873615;14.48482735;2.57566948;5.356124116;-2.776623561
-12.33642056;-26.72350038;-11.03113395;-19.35168433;-9.775118947;1.20012658;2.258419912;-13.09428348;-20.09460041;-28.9166793;-4.535522714;24.81265851;15.35717183;8.863107137;0.263104286;11.49003906;-0.191245729;-1.085539244;-2.852075084
-10.49809661;-31.5005446;-11.53207875;-18.26620489;-6.932068217;1.493664884;2.305050337;-11.96028693;-18.65302379;-28.06520804;-4.126504395;20.23563342;15.40148702;8.608196022;-1.182619089;7.292383778;-3.005667865;-10.04182135;-2.612721133
-8.86304181;-35.11894502;-12.80637277;-18.31537556;-4.998289501;1.530909703;2.002653332;-11.79532387;-17.65631869;-28.44889927;-3.777319066;17.29266391;15.0270129;8.669000225;-1.151057918;4.265390789;-5.123547623;-19.02127648;-2.610540354
-8.341642933;-37.49697165;-15.2860618;-19.31415221;-4.436723918;1.374906457;2.101952108;-12.36586908;-17.0135483;-29.26835604;-3.680605517;17.72615774;14.31733801;8.787080755;0.323022193;4.302290693;-6.02771897;-25.38029811;-3.143822725
-9.161669308;-38.63177721;-18.37541867;-20.47231469;-4.95562173;1.230221268;3.504588618;-13.25559904;-16.48961785;-29.61267296;-3.641714006;21.53286945;13.50957996;8.958764912;2.256236459;7.53151834;-5.721085411;-27.74080036;-4.038570574
-10.82063767;-38.52954414;-20.87346579;-21.00919973;-5.762358595;1.314593273;6.027932854;-14.05687752;-15.8525517;-29.06386154;-3.270482385;26.78835296;12.85458263;9.388376347;3.613675784;12.17861742;-4.762131376;-26.54429479;-4.813791644
-12.45298678;-37.28195188;-21.8263956;-20.61784535;-6.077273956;1.710175092;7.800907523;-14.38673987;-14.86432537;-27.76851614;-2.261618787;30.83604039;12.54532566;10.21180095;4.188232079;15.68235087;-3.99523833;-23.50387295;-5.080736764
-13.38653494;-35.24398157;-21.23016304;-19.53141342;-5.596612245;2.309456464;6.207143122;-13.91686951;-13.28075634;-26.11582059;-0.587051671;32.00975057;12.72043734;11.27633028;4.687735111;16.29441181;-4.104114642;-20.46003906;-4.84464187
-13.5371855;-33.11468065;-20.08898214;-18.26939279;-4.637785109;2.895748159;-0.047391048;-12.5686803;-11.01744017;-24.44416357;1.486477726;30.62662315;13.44421187;12.18254571;5.957756128;14.06557344;-5.248221056;-18.45211727;-4.471498049
-13.39222481;-31.74817279;-19.76992966;-17.31869807;-3.892682162;3.292279603;-9.359109727;-10.74497847;-8.392900587;-23.02224215;3.524512034;28.5293535;14.6022448;12.53760094;8.016051662;10.5801524;-7.022111785;-17.52374402;-4.364715216
-13.60427267;-31.73199982;-21.07998848;-16.94677236;-3.947557806;3.464974439;-17.64626837;-9.28477212;-6.156806072;-22.16666809;5.100792241;27.55553592;15.79537268;12.18486651;9.75259477;7.704002304;-8.780350566;-17.18118737;-4.630686988
-14.47989773;-32.99366941;-23.68729725;-17.1693538;-4.870990213;3.508442123;-20.77501231;-8.997696586;-5.116648692;-22.19274044;5.93227971;28.1118798;16.39670105;11.22316565;9.624304331;6.295603632;-10.10846484;-16.99402031;-5.010151622
-15.71766762;-34.73542435;-26.2755798;-17.78678048;-6.13739341;3.54069344;-17.32119686;-10.04913528;-5.549002556;-23.11679959;5.931562523;28.91978116;15.83626879;9.843322541;6.873446104;5.802140515;-11.08943191;-16.85687855;-5.124355041
-16.57760412;-35.79937916;-27.32735612;-18.43168546;-6.95053586;3.598843148;-9.575091579;-11.72071051;-6.873961258;-24.38938376;5.183891306;28.08454296;13.9608112;8.174987328;2.348804075;4.963831048;-12.14496151;-16.81799773;-4.823535571
-16.36595463;-35.27196901;-26.02444277;-18.65576416;-6.77204925;3.615586278;-1.976005529;-12.85313027;-7.95273235;-25.03133568;3.885018986;24.64633106;11.18911937;6.299314959;-1.751441149;3.017351012;-13.5553428;-16.76474733;-4.342308933
-14.90337754;-32.96705812;-22.70515124;-18.09662035;-5.707878102;3.483412935;1.85836694;-12.7106339;-7.869755256;-24.22216541;2.283129335;19.44956536;8.297697717;4.392851764;-3.145691641;0.446086705;-15.03891426;-16.32931025;-4.12435822
-12.66036446;-29.50205696;-18.63454698;-16.67655381;-4.475638535;3.145528542;1.289576246;-11.58007813;-6.598694849;-21.93100918;0.655158797;14.72122586;5.960167932;2.820144125;-0.949738349;-1.289462688;-15.76504885;-15.12184399;-4.446793277
-10.47599834;-25.93836658;-15.28534892;-14.69240551;-3.944440383;2.642005998;-1.488924856;-10.56021038;-4.972212148;-19.04;-0.683982397;12.70872905;4.3816792;2.033957068;3.620326999;-0.809960771;-14.85610795;-13.07063228;-5.139602901
-9.058453052;-23.21373152;-13.59265622;-12.68303703;-4.537922263;2.085578466;-3.530344769;-10.65043972;-3.926607761;-16.77624594;-1.378663231;14.35903956;3.309645177;2.330211903;7.854964601;2.158585808;-12.03728812;-10.54189725;-5.630930981
-8.601239752;-21.69081477;-13.59101045;-11.12071728;-5.909571021;1.5973485;-3.335876732;-11.87396194;-3.63123398;-15.85399048;-1.089945169;18.89673312;2.395230198;3.653716854;9.173405617;6.561645095;-7.940525158;-8.107997044;-5.307015804
-8.751212504;-21.05;-14.55475736;-10.13471739;-7.133533233;1.252648465;-1.50774742;-13.19735986;-3.266714495;-16.01171237;0.368684677;24.45225517;1.583788017;5.6145402;6.792097259;10.72621265;-3.804160218;-6.147756588;-3.940583384
-8.912920587;-20.55052438;-15.4642426;-9.481265836;-7.300768364;1.0642251;0.348988547;-13.36513123;-1.701122127;-16.32249359;2.873966223;29.17889276;1.188838931;7.689958341;2.371669339;13.43267225;-0.764570976;-4.616759449;-1.88587159
-8.652058711;-19.49297067;-15.49290501;-8.791077116;-6.115570102;0.994315083;1.228413901;-11.97583451;1.464206831;-16.0061592;5.928657661;32.08138968;1.58195557;9.434812811;-0.858791235;14.54652822;0.750874355;-3.184129313;0.101731132
-7.919806159;-17.62769463;-14.28374102;-7.895064722;-4.073524321;0.973036689;1.376923919;-9.879587894;5.373471941;-15.04184289;8.783065628;33.13018032;2.771983317;10.55028524;-0.074218468;14.80304516;1.105693174;-1.616797889;1.306801746
-6.974183319;-15.28620248;-11.95545244;-6.952144711;-2.094774458;0.913755723;1.62902302;-8.522107416;8.416544007;-14.06336611;10.7234093;32.80356309;4.253100072;10.83272344;5.244854718;15.01675295;1.005208734;-0.072402981;1.468072766
-6.100078125;-13.15758777;-8.92057996;-6.26219352;-0.88067674;0.734074407;2.327421562;-8.757547101;9.392571716;-13.6642276;11.3789742;31.54357916;5.278329518;10.15715121;12.71720892;15.40336797;0.918908328;0.971937642;0.902456027
-5.361132727;-11.82678385;-5.648384973;-5.920039063;-0.464629303;0.389913105;3.000672663;-10.13035972;8.395069497;-13.77070162;10.86011523;29.53532171;5.35704918;8.597009591;18.2807354;15.54221491;0.840564784;1.123974188;0.272316171
-4.568237897;-11.34865944;-2.481965037;-5.621046501;-0.28063098;-0.089888851;3.067613829;-11.25262958;6.68466844;-13.67618096;9.639523327;26.87079835;4.590292304;6.586542811;18.59478934;14.93494254;0.529025594;0.489165972;0.160355772
-3.471567672;-11.14644367;0.43124318;-4.821384016;0.31891896;-0.596601459;2.709118847;-10.97670616;5.66059434;-12.71756206;8.266947946;23.84731463;3.596780398;4.899961266;13.15243918;13.61766434;-0.052986275;-0.270870831;0.729564105
-2.014013001;-10.3476858;3.087454331;-3.164541203;1.505011186;-0.980277132;2.835523407;-9.373958925;5.803163148;-10.96809974;7.123193513;21.08895846;3.111882142;4.319403464;4.698871985;12.2633423;-0.544353369;-0.337076134;1.674327247
-0.447604213;-8.382223514;5.494298507;-0.846667001;2.808641962;-1.12005127;4.013102158;-7.681785682;6.471111556;-9.282690652;6.37052101;19.35483568;3.572996256;5.141883602;-2.415186617;11.6663589;-0.43864526;0.670294777;2.469412966
0.773492832;-5.452121629;7.540717011;1.38478726;3.477799372;-0.984907481;5.384708053;-7.256843157;6.678791317;-8.614758267;6.075905529;19.1392193;4.957418242;6.887198855;-4.944264756;12.03817845;0.432596823;2.3364559;2.732132096
1.241982993;-2.521487062;8.958529594;2.631999768;3.07396931;-0.646324498;4.837605863;-8.426191218;6.109273577;-9.208024031;6.324964411;20.31045525;6.891018316;8.489829248;-2.750545792;12.71332484;1.630863956;3.628737767;2.453524008
0.811163948;-0.780272941;9.416702075;2.371519843;1.840454128;-0.236410264;0.615513627;-10.22209607;5.412134321;-10.41634035;7.157236575;22.01877277;8.844090537;8.908503074;1.250241658;12.53539016;2.330251414;3.51935011;1.959043045
-0.362945065;-0.913989573;8.702132561;0.731479788;0.552738088;0.118900234;-6.850457891;-11.23233825;5.488426463;-11.35371464;8.344078303;22.96830592;10.24800356;7.743597439;3.157098445;10.64470957;1.879701242;1.642646632;1.650275233
-1.951536403;-2.676619178;6.873231678;-1.65833792;-0.036537388;0.349656767;-14.56604266;-10.83917719;6.412858353;-11.80141493;9.236832551;21.96937688;10.54544155;5.417618911;0.726718659;7.073747758;0.260345992;-1.458744368;1.723766689
-3.635170629;-5.068751718;4.280931583;-4.102904895;0.265989025;0.450996006;-18.67077341;-9.780039063;7.033903069;-12.51074078;8.932030723;18.53123734;9.311052154;2.802240237;-5.23545292;2.718683784;-1.928035449;-4.661129323;2.063996461
-5.203848142;-6.993522371;1.437297192;-6.231925054;0.979704713;0.458357274;-17.08596513;-9.536439351;5.743203122;-14.54097482;6.770850652;13.18823066;6.498139032;0.605370247;-11.63716473;-1.255199052;-3.924271569;-6.928624427;2.370236175
-6.533304695;-7.921530167;-1.188051184;-8.087963196;1.32886363;0.41405122;-11.07102506;-11.05703289;1.860501146;-18.15510678;2.872351449;7.333291799;2.656355098;-0.998720426;-15.35397055;-4.106040969;-5.317871948;-7.870997729;2.404713222
-7.510943901;-8.108430749;-3.325698018;-9.920618326;0.80903302;0.346682951;-4.401514575;-13.8958811;-3.549685156;-22.27531208;-1.732481457;2.569233063;-1.140710339;-2.24944928;-15.28558294;-5.820197078;-6.207220009;-7.840423504;2.168430551
-8.023120901;-8.263554659;-4.949147832;-11.91543879;-0.493880329;0.268615397;-0.744361509;-16.50901995;-8.236878997;-25.10269609;-5.585740941;-0.118070724;-3.761921878;-3.37755046;-12.78481031;-6.894601011;-6.922985482;-7.556182132;1.877821255
-8.044916334;-8.978041;-6.219649512;-14.08921751;-2.054260924;0.184081138;-1.233205582;-17.48834423;-10.38543063;-25.51706107;-7.67956954;-0.895067882;-4.654914875;-4.315343397;-10.34126647;-7.863898008;-7.613057995;-7.568702918;1.774875706
-7.756265278;-10.36042953;-7.398311139;-16.38939726;-3.371905433;0.09897119;-4.050173483;-16.72874688;-10.04380406;-24.12724537;-8.146901176;-0.97035511;-4.21418671;-4.816374021;-9.708393104;-8.968801156;-8.079813008;-7.951516494;1.93055021
-7.550393372;-12.10298116;-8.7685333;-18.83236334;-4.356274999;0.027569937;-6.180921721;-15.56906255;-9.166472712;-23.01767023;-8.233718939;-1.859463027;-3.566011872;-4.844388668;-10.9454188;-10.15726925;-8.001689885;-8.402848994;2.198270876
-7.86332999;-13.82601314;-10.55952847;-21.4877112;-5.317237302;-0.006304143;-5.81132904;-15.77128952;-10.13422253;-24.24925687;-9.484433373;-4.45310925;-3.860443996;-4.80493866;-12.94413944;-11.2951994;-7.30599658;-8.617818698;2.347130247
-8.897963624;-15.34802021;-12.84764432;-24.28349887;-6.581558646;0.023322426;-3.464314406;-18.12501392;-13.84870249;-28.21488952;-12.64516191;-8.469178849;-5.53759721;-5.315405196;-14.73330099;-12.32455468;-6.323668219;-8.601487509;2.257769159
-10.42838371;-16.66076719;-15.45948751;-26.81371118;-8.066566178;0.128535171;-1.155659178;-21.74986978;-18.89294172;-33.14893917;-17.04598904;-12.6327661;-8.074528537;-6.647623914;-16.28811494;-13.2353502;-5.567660348;-8.666683755;2.017003732
-11.84961952;-17.70311238;-17.95782055;-28.37928132;-9.186217478;0.290801847;-0.501887025;-24.62173701;-22.4663375;-36.24583404;-20.941505;-15.45344569;-10.37740512;-8.33491634;-18.16166136;-13.94918651;-5.332886784;-9.128429552;1.836300567
-12.48219663;-18.22015592;-19.77988012;-28.32751915;-9.206056035;0.457839642;-1.445555691;-24.93184125;-22.44166026;-35.60802374;-22.6376318;-16.0876835;-11.52529304;-9.363530724;-20.42816093;-14.30325937;-5.484805084;-9.955477302;1.868133186
-11.95700754;-17.888729;-20.49747022;-26.50012901;-7.804768135;0.563017533;-2.555571279;-22.31237078;-19.01771056;-31.59871911;-21.66543746;-14.7540155;-11.3474012;-8.891752465;-22.10823104;-14.19224376;-5.629958101;-10.67783893;2.07802556
-10.43292352;-16.60023611;-20.05170674;-23.46894287;-5.419816556;0.559346117;-2.443284184;-18.1155908;-14.7307898;-26.62536135;-19.1921089;-12.50454654;-10.47518271;-6.957225208;-21.80191908;-13.72146868;-5.507742205;-10.65194559;2.27939667
-8.501034159;-14.61013501;-18.79358674;-20.35053167;-3.092951575;0.445481157;-0.966074275;-14.62560077;-12.8038356;-23.55475313;-17.35263479;-10.58276583;-9.898451925;-4.578837769;-19.07293694;-13.17473501;-5.237924467;-9.506783589;2.297793526
-6.839320578;-12.37820976;-17.27971129;-18.27364865;-1.886779489;0.264370962;0.765200173;-13.76599379;-15.01482191;-23.93245006;-17.90949156;-9.806799645;-10.36252527;-3.115251829;-15.28953854;-12.77435093;-5.193786114;-7.447959078;2.121197151
-5.849032317;-10.23174911;-15.95314601;-17.81876432;-2.254261033;0.076537774;1.435955695;-16.09513281;-20.56614391;-27.22343721;-21.10406072;-10.29991461;-11.97278508;-3.344437248;-12.9554343;-12.44404338;-5.621131295;-5.191539526;1.90731335
-5.5062466;-8.180489613;-14.93522969;-18.77510153;-3.78403914;-0.069075046;0.641231953;-20.60160442;-26.66665367;-31.44890408;-25.44321363;-11.59768141;-14.17098675;-4.96888119;-13.85581152;-11.83172868;-6.362947464;-3.562172077;1.843736053
-5.498853241;-6.084844646;-14.0733677;-20.34998867;-5.489760788;-0.144262627;-0.835870383;-25.30894098;-30.32779451;-34.58337693;-28.55748197;-12.94739453;-16.01668932;-6.914681403;-17.49376133;-10.62973288;-6.953773385;-3.024238832;1.984076545
-5.514296998;-4.025272889;-13.18581487;-21.67209367;-6.445138556;-0.131590589;-1.664108675;-28.30302565;-30.11781854;-35.66942354;-28.58752613;-13.61080767;-16.60254292;-8.153771544;-21.23303376;-8.930842653;-7.003620421;-3.451925384;2.20270215
-5.449891673;-2.477436493;-12.28271146;-22.25925643;-6.343792647;-0.01923046;-0.88608164;-28.66162086;-26.78848384;-35.01578332;-25.24644029;-13.1048424;-15.44753408;-8.373299181;-22.22765124;-7.271792444;-6.518580072;-4.266430027;2.306388478
-5.400210987;-2.028483882;-11.56412065;-22.17932499;-5.629461576;0.179092687;1.551327124;-26.86103994;-22.5498075;-33.62067474;-19.94296614;-11.38980604;-12.74688104;-7.983363764;-19.67621491;-6.260368116;-5.860781795;-4.815198671;2.204248462
-5.463208526;-2.796586338;-11.1910285;-21.85901175;-5.13968129;0.390515639;4.825940463;-24.47197414;-19.63876088;-32.44364245;-14.94875253;-8.963381342;-9.364820208;-7.541152939;-15.52798017;-6.066229323;-5.386392043;-4.723471809;1.98704471
-5.548780075;-4.059105123;-11.03296803;-21.72281329;-5.524209229;0.476980441;7.560078125;-23.27146416;-19.13374481;-32.030587;-12.15420516;-6.740553163;-6.500881132;-7.163025694;-12.93948868;-6.226991348;-5.10450051;-4.003993514;1.846849887
-5.361797933;-4.507358882;-10.63550902;-21.92119417;-6.827191949;0.289627573;8.19552099;-24.20945503;-20.62474078;-32.52485516;-12.14596132;-5.653373312;-5.114153621;-6.469392286;-13.64182362;-5.989189528;-4.683659364;-2.905262597;1.907885593
-4.582369119;-3.048879635;-9.478793261;-22.30274556;-8.48817087;-0.233471056;5.485927808;-26.81793802;-22.72283318;-33.77110843;-14.08098173;-6.115453902;-5.395910173;-5.092773639;-16.37971013;-4.938074085;-3.804394319;-1.657352624;2.116972593
-3.103298379;0.420580369;-7.352138181;-22.59317113;-9.727437057;-0.995226181;-0.784715156;-29.47162193;-23.94;-35.30430979;-16.32933332;-7.691366556;-6.650114316;-3.241089954;-17.81349128;-3.378641419;-2.519648326;-0.312564344;2.289723922
-1.138439236;4.899536714;-4.556343325;-22.60655865;-10.03635497;-1.763141204;-9.14384942;-30.40789289;-23.40872451;-36.33261295;-17.43051275;-9.266940373;-7.730201867;-1.733546708;-15.27886754;-2.101318306;-1.262955595;1.229151935;2.272297815
0.881940227;8.950234216;-1.765452824;-22.31998666;-9.449308297;-2.29396952;-16.51883896;-28.87427817;-21.14312659;-35.96902775;-16.79240578;-9.691244457;-7.779948103;-1.394161751;-9.193923222;-1.688800133;-0.471341768;3.069977445;2.077305784
2.548761261;11.6473143;0.360501679;-21.77233225;-8.443737526;-2.479879978;-19.53603734;-25.60799338;-17.84181813;-33.7451762;-14.78537645;-8.483562971;-6.749051092;-2.291454732;-3.060507373;-1.951577749;-0.16962966;5.173683405;1.874624888
3.671297563;13.0581059;1.532386731;-20.89845557;-7.57;-2.405448624;-16.55917004;-22.27090566;-14.41923898;-30.06373525;-12.27896185;-6.098211239;-5.28049174;-3.511356243;-0.886693767;-2.018836468;0.067829909;7.328637017;1.844063943
