Channel 1 - P4;Channel 2 - O2;Channel 3 - P8;Channel 4 - T8;Channel 5 - C4;Channel 6 - Cz;Channel 7 - Fz;Channel 8 - F4;Channel 9 - Fp2;Channel 10 - F8;Channel 11 - Fp1;Channel 12 - F7;Channel 13 - F3;Channel 14 - C3;Channel 15 - T7;Channel 16 - P7;Channel 17 - P3;Channel 18 - O1;Channel 19 - Pz
-18.08523383;10.71015356;-28.37712095;-21.23902111;-12.98794327;-10.3766566;124.7488414;20.8888227;27.05388195;-1.245563749;1.346463065;-26.51551676;15.36209101;-15.85822748;10.57148819;24.23104269;-11.44099459;-19.77174186;-5.672458829
-0.211113597;17.9266594;-5.727578973;1.36824388;6.981189556;2.840039063;111.1234919;26.62960497;46.01811152;20.48674417;12.23562878;-22.63764289;14.53690505;-1.1150137;7.945001537;31.5190296;4.313716923;-3.30994718;6.071847206
11.90816142;16.48969439;11.51739254;16.94384048;20.39887996;13.04292981;64.80133191;23.73096355;53.8509522;37.66951466;22.70208457;-24.07890012;4.058947226;6.327561144;-4.4259085;18.5062108;11.9807273;6.400624584;11.88231
12.2659136;7.801230994;15.09794574;17.47955771;21.08722039;14.42268801;10.90105519;14.04267876;46.59584199;42.19886068;24.72107282;-32.19865627;-11.2527942;2.552093214;-19.96950822;-6.855391001;7.753032877;3.650989794;8.866947989
2.765491314;-2.29060284;5.834478573;5.237086602;11.02417489;7.716498593;-24.08574588;3.481938304;30.97732828;34.01745877;17.59830442;-42.54347003;-22.8820427;-8.210019531;-30.73929845;-29.18575378;-4.32333041;-8.55416315;0.152759173
-8.677250444;-7.458145635;-7.52836055;-9.343937803;-1.604781766;-0.936549756;-28.54035519;-2.129357307;18.81656796;20.6727552;7.791616641;-48.31645123;-24.57483207;-17.31853993;-32.1382916;-36.62057001;-15.70125506;-21.04060425;-7.712430102
-14.04379447;-4.998403708;-14.83972883;-15.41166496;-8.384737673;-4.991255034;-11.12912021;-0.745749086;18.11911058;11.87777296;3.275840746;-45.70340153;-16.73867904;-18.45552408;-24.96759613;-28.40775215;-19.57580575;-25.31628216;-9.607574472
-10.6274055;2.757851326;-11.51175702;-9.295504898;-6.156011583;-2.307859102;7.773588894;5.263331696;27.69629805;13.01172153;7.161708913;-36.82873052;-5.935147069;-12.04089602;-14.05211055;-13.90610204;-15.25655755;-19.49158536;-5.242249558
-2.116346543;10.53285604;-0.960097656;3.560888167;1.818572205;3.847778585;11.67803872;11.58608269;39.07466223;22.05708357;15.62902687;-28.0840524;0.097431812;-4.142190838;-4.995278915;-4.579031997;-7.652319779;-8.953341214;1.268750371
4.977478357;13.96290953;8.827377702;13.3559934;9.30902002;8.025035369;-1.05113066;15.29162889;43.60619434;31.80111552;21.51332986;-25.29421121;-1.983357484;-1.191140826;-1.353614085;-5.672889743;-2.798557889;-1.672514488;4.988932192
6.382835707;12.36913044;11.53003906;13.39056676;12.04955145;7.120265548;-18.33851762;16.38981239;38.86702107;35.31337697;20.27314982;-29.60425749;-9.187783787;-4.99438995;-3.585125108;-13.77716243;-3.274937808;-2.096230139;3.895011043
2.690068359;8.586084531;6.695640739;4.524510266;10.27849314;2.535460234;-25.64219149;16.7455152;29.52536614;30.58180767;13.35866202;-37.18513153;-15.15701588;-11.91342433;-9.663026808;-21.23265577;-7.017477038;-8.349959139;-0.080275496
-2.090097656;6.297142944;-0.923965307;-6.369111831;7.358203049;-1.501394702;-17.8699603;17.70861682;22.6622922;21.18612171;6.455728501;-42.64960489;-15.42342625;-16.42923377;-16.45687774;-22.93808291;-9.953478797;-14.53516458;-3.179788001
-4.321028102;7.120101068;-5.755253482;-12.16950923;6.218970337;-1.708292678;-2.754744562;18.70353648;21.91455165;13.04313505;4.45418745;-43.1694053;-10.70989864;-15.77155307;-21.12496628;-19.82937532;-9.779624627;-15.80326823;-3.08025402
-3.559888485;9.658056592;-5.670232501;-10.68432731;6.873052158;1.661589462;6.266433064;17.93625326;25.26752851;10.06882417;7.556874649;-40.02317224;-5.809376957;-11.74934786;-22.21031842;-16.77323573;-7.598048506;-11.94856355;-0.55572137
-2.287021278;11.02402194;-2.882187796;-5.378854389;6.934073739;5.418310442;1.335619539;14.39641946;27.80766996;12.01335976;11.6680069;-36.70945022;-5.261283094;-8.588236585;-20.25196726;-17.51043252;-6.306041013;-6.870960152;1.606174503
-3.212352503;9.388605112;-1.28322276;-1.669910404;4.303232087;6.416773399;-13.54839774;9.209031591;26.48339666;15.66752454;12.36819309;-35.64768101;-9.549831256;-9.009541236;-17.56384571;-21.41592143;-7.542120905;-4.839567049;1.234231374
-6.750778339;5.425409849;-2.899286451;-2.287921011;-0.603191292;4.209752238;-25.93481534;5.036662175;22.53990795;17.93179304;8.782674735;-36.4226179;-14.91121262;-12.05677122;-16.95932727;-24.70227763;-10.09688254;-6.976761826;-1.401965417
-10.81750845;1.581788183;-6.502773709;-5.568972046;-5.085131103;1.170816952;-24.83510235;4.000186689;19.72847529;18.03992716;3.990789282;-36.87513025;-16.71577284;-14.37873654;-19.89045927;-24.50318421;-11.17580275;-10.83548608;-4.028722838
-12.88120562;-0.061188567;-9.24308425;-7.731976101;-6.535161153;0.201052064;-9.110885245;5.899038865;20.27897935;17.31740653;1.841783175;-35.71528965;-13.4518892;-13.55681609;-25.22049198;-21.82289975;-9.238309832;-13.06577077;-4.490628634
-12.25992102;0.527765632;-9.491776431;-6.767780524;-4.75596491;2.170510654;11.98789776;8.258678807;22.50320525;17.12335583;3.215822005;-34.07502353;-7.979952051;-10.37662761;-29.76852668;-20.63085085;-5.73021374;-12.55153966;-2.606798119
-10.60007813;1.48962277;-8.23946961;-4.393931413;-2.15671197;5.303177518;25.98027594;8.184665804;22.23827758;17.10550696;5.139896198;-34.54410636;-5.121454141;-8.056951911;-30.56;-24.03487996;-4.067079132;-11.22840889;-0.192892406
-10.23231428;0.866035955;-7.90394358;-4.434498527;-1.700386285;6.887529769;26.01726954;4.516120167;16.77249385;15.42139562;3.517311481;-38.62131224;-7.700921151;-9.240226518;-27.21477135;-31.1179424;-6.716727111;-12.02926831;0.633302011
-11.99845506;-1.550119423;-9.812932886;-9.178678388;-4.428698352;5.674298877;14.74298095;-1.413815003;7.646280565;10.68407068;-3.020048828;-44.97970283;-14.32791225;-13.50608832;-22.48007813;-37.36339545;-12.93471695;-15.96223742;-0.715172884
-14.52258755;-3.890399591;-12.75465343;-16.98592233;-8.676667291;2.849932604;0.934072832;-6.901241263;-0.25930739;3.783062672;-11.60278099;-50.20759478;-20.62749598;-17.62394173;-20.21398757;-38.33276607;-19.14509449;-20.97882908;-2.906273206
-15.5142548;-3.695352221;-13.92770696;-23.2556123;-11.54931101;0.848159015;-7.605030994;-9.85384448;-2.623416939;-2.198482867;-17.32051861;-51.45472099;-22.74094851;-18.29112313;-22.26116492;-33.36549549;-21.66672907;-23.58805104;-3.97653415
-13.85800319;0.021139698;-11.41539469;-23.95803889;-11.2928061;1.176607893;-9.063260087;-10.03884143;0.79050637;-4.088866178;-17.21296287;-48.6997832;-20.16169641;-14.93405055;-26.81777563;-26.08136248;-19.48971554;-21.72603846;-3.068589583
-10.59793025;5.829427537;-5.954717668;-18.76629715;-8.537173963;3.203896545;-7.178509889;-8.763537783;6.026315921;-1.073248975;-12.59118098;-44.66952333;-15.71259903;-10.15384532;-29.85377725;-21.29308844;-14.81907;-16.36756473;-1.091731088
-7.981844564;10.83495904;-0.430396327;-11.22233312;-5.493103557;4.886473183;-6.690712213;-7.498104558;8.320824898;4.583870038;-7.718700015;-42.47613598;-12.93913006;-7.491806669;-28.60486414;-21.03765279;-11.05186615;-10.57915488;0.184581003
-7.479751696;12.75386396;2.450415789;-5.887958516;-3.981772335;4.664286365;-9.057984938;-6.714851681;6.077273014;9.222268636;-6.064932631;-42.99756111;-13.24718742;-8.4888311;-24.18813943;-23.11565948;-10.00571055;-6.98644705;-0.294713255
-8.56214526;11.46443172;2.276638999;-4.889756596;-4.071270995;2.790856545;-11.88791634;-5.839869541;2.075253901;10.56987024;-7.417006771;-44.21398293;-15.10212305;-11.53392211;-20.87366513;-23.28016653;-10.73089644;-5.920587296;-2.039767112
-9.282744285;8.859928145;1.059161957;-6.631757766;-4.388207007;0.974993403;-11.94793783;-4.141971085;0.973779566;9.392244205;-8.324011059;-43.01439137;-15.70232436;-13.37257053;-22.29376433;-19.07179223;-10.75556909;-5.744417585;-3.589625728
-8.075739457;7.227389685;1.355392684;-7.527991559;-3.612457184;0.764482842;-8.622895996;-1.608290155;5.293805625;8.686778446;-5.413972692;-37.90076961;-13.47503665;-11.86466016;-27.669328;-11.97749143;-8.499118803;-4.826711301;-3.872554373
-5.127044486;7.533245038;4.095480094;-5.11253598;-1.683960854;2.178507059;-4.679701501;0.994425571;13.24926336;11.10199268;1.350227863;-30.32014911;-9.241165194;-7.619840258;-31.4879293;-6.14376397;-4.683804254;-3.201884521;-3.086427469
-2.119105648;8.981906802;7.976860108;0.092766428;0.330449548;3.780166221;-3.834463253;2.835009521;20.11858216;16.69644268;8.303043677;-23.57258236;-5.238108028;-3.238818894;-27.42337587;-4.854549941;-1.586001808;-2.37238093;-2.347920438
-0.637355849;10.09009766;10.83406141;5.33175566;1.432604771;4.034810788;-7.407360564;3.759131651;21.85309631;22.84254484;10.89288581;-20.26739053;-3.080705672;-0.99064903;-13.67421341;-7.803044348;-0.917369423;-3.52245277;-2.514876099
-0.71080962;10.25406449;11.65025273;8.096639158;1.706626113;2.67179086;-12.96022374;4.346234179;17.87717983;26.30160149;7.260318339;-20.41227088;-2.528318085;-1.006459918;4.63164461;-11.37704169;-2.276684743;-5.919976035;-3.317644145
-0.800636574;10.42489766;11.38811801;8.111950511;2.166495859;0.841402043;-15.97359196;5.26369625;10.92202831;25.72825279;-0.423925461;-21.5717852;-2.035033063;-1.462607906;18.28504133;-11.57160677;-3.512672974;-7.11461277;-3.606421104
0.771143467;12.31277459;11.95493273;7.230239138;3.631265332;0.001262029;-13.10859657;6.563140251;4.334181032;22.55656349;-7.881249058;-20.79221362;-0.402638542;-0.412312612;20.28540847;-7.029696014;-2.602996;-4.872874494;-2.471110925
4.244640902;16.80679079;14.3133452;7.563074851;5.771661539;0.602825761;-4.516709677;7.591411661;-0.68157504;19.6;-12.16716732;-16.66526793;2.06218722;2.453646202;10.86799576;0.19210961;0.646367912;0.841212742;-0.189037444
8.102544098;22.96069007;17.48635754;9.631378249;7.300774663;1.767095444;6.330744566;7.589366584;-5.627325091;18.59470019;-13.72620651;-10.01027237;3.913059139;5.629270393;-2.636215646;6.490454214;4.535786629;7.63788763;1.881817053
10.28736223;28.42437131;19.36149492;12.11571394;7.168588684;2.185845183;14.83303334;6.405090607;-12.89337121;18.75341919;-15.49262603;-2.925968288;4.024823949;7.219466337;-11.04831792;9.444336509;7.004660923;12.50153848;2.390147327
9.887637262;31.01330406;18.56775965;13.23166247;5.628035076;1.367224364;17.73957383;4.649775873;-23.38784877;17.50843783;-20.04774539;2.784011974;2.739080551;6.605651848;-9.669553388;9.188543377;7.351371413;14.10387014;1.108064698
7.83986583;30.19251415;15.74348991;12.31433168;4.113858723;0.073313285;14.43088923;3.145667862;-35.71488387;12.77033627;-27.40068649;6.570983809;1.625381798;4.899639259;-0.904120578;7.626543116;6.659198165;13.65393177;-0.894076895
6.076060435;27.34123028;13.06219737;10.14005859;3.963238936;-0.421542407;6.691387568;2.163958764;-47.44487076;4.776844921;-35.22655241;9.023374087;2.090782441;3.913448454;8.560382475;6.548187478;6.664720584;13.58493313;-2.151753964
5.892969987;24.64909998;12.42256164;7.807618499;5.109050383;0.463235739;-2.389747092;1.138269868;-57.14545912;-4.021789733;-41.13973071;11.15104821;4.122121435;4.679684758;13.41873541;6.413702639;8.171866529;15.26136991;-1.9929823
6.950561328;23.5505427;13.87084548;5.396981343;5.966104333;2.058581772;-9.655877252;-0.886628086;-65.30506761;-10.92899082;-44.83567887;13.82880765;6.307534666;6.833385108;13.58349988;6.655228621;10.42849791;17.72517746;-0.99698701
7.710393457;23.89211996;15.60704107;1.825101342;4.698357597;3.032892381;-12.9396972;-4.45305512;-73.4364341;-15.15607005;-48.18551653;17.68938542;7.111929141;9.259454768;13.29990508;6.84506458;11.93661252;18.5686378;-0.378823265
6.864785269;24.37131512;15.55177201;-3.852141029;0.81554088;2.568297589;-11.84730511;-9.206256741;-82.33706653;-18.35541273;-53.28801638;23.16964066;6.25088122;11.23566628;16.69389648;7.401287451;11.87392866;16.15917825;-0.885953016
4.493616184;23.76756518;13.13082057;-10.89429755;-4.284483735;1.057590406;-7.996027248;-14.10320149;-91.16534518;-23.09038475;-60.30973087;30.3345287;4.929514213;12.9444824;23.78832186;9.159354899;10.82486666;11.27718244;-2.174965112
1.987351479;21.93298861;9.789124672;-16.66788861;-8.325745718;-0.284697649;-4.30040632;-18.1004804;-98.1311787;-30.52573116;-67.07817307;38.5415546;4.738615351;14.94795977;30.40573377;12.36634767;10.22236899;6.752740337;-3.16756307
0.871535525;19.8108362;7.850630032;-18.25994687;-9.884039059;-0.513115799;-3.332270143;-20.74615745;-102.0765327;-39.26844832;-70.7876409;46.40456989;6.200710572;17.26896719;31.92317302;16.22418979;11.08640346;5.40815893;-3.016012973
1.579516715;18.58474393;8.709211937;-14.75674412;-9.393309151;0.252207202;-5.621441992;-22.24997475;-103.44922;-46.32898559;-70.30711669;52.36608349;8.268609221;19.08699356;27.55621995;19.50909566;13.22433349;8.023093282;-1.811897753
3.188002288;18.72189006;11.81724268;-8.293447368;-8.618369493;1.018373548;-9.191929358;-23.08541907;-103.8062725;-49.41745995;-67.08911305;55.58991647;9.236062537;19.41611309;21.47118186;21.67035391;15.55466887;12.9507115;-0.452602337
4.252050012;19.6622479;15.19669638;-2.847937894;-9.092535519;0.884990203;-10.9659932;-23.54138085;-104.3705232;-48.69879992;-63.94175699;56.45616017;8.276979141;18.12855828;19.75638524;23.29134871;17.1526926;17.56852953;0.156301363
3.961386167;20.31418861;16.93849795;-1.550916959;-10.86193691;-0.118240862;-9.206146637;-23.59738619;-105.0084763;-46.59504742;-62.77822983;56.17977195;6.273572071;16.29541398;25.72483777;25.39604821;17.99225551;20.23967543;-0.16898473
2.660828265;19.88052407;16.45162803;-4.52696735;-12.55218636;-1.072909033;-5.105120741;-23.14341247;-104.5570546;-45.83643099;-63.27360643;55.83023593;5.196939394;15.42098081;37.2972046;28.22637863;18.71714057;21.16757353;-0.840118247
1.410297279;18.35909075;14.58323467;-8.922606384;-12.60906135;-1.026840266;-2.064831674;-22.26031139;-102.155642;-47.37895028;-63.48549834;55.59904176;6.53223057;16.18852362;48.40171243;30.69166483;19.73596872;21.61359356;-1.100182029
1.081303407;16.40788512;12.73021869;-11.0929655;-10.60003906;0.130921874;-3.006629339;-21.28308869;-98.32277042;-49.86620036;-61.76752386;54.96194679;10.04137942;17.8361414;53.10403681;31.12207557;20.578624;22.38391714;-0.695516836
1.779681073;14.78272862;11.80268664;-9.266607609;-7.5075476;1.559676763;-7.808292526;-20.62705004;-94.76951368;-50.99822039;-58.25114991;53.54798728;13.86842155;18.76062306;49.252786;28.74719242;20.18811572;23.01699633;-0.029356906
2.970864593;13.81864783;11.82207302;-4.697746426;-4.885282932;2.196272704;-13.09082175;-20.57915629;-93.09501896;-49.59433879;-54.65590848;51.82831701;15.88919443;17.863185;39.20086756;24.58933157;17.91683639;22.33304304;0.278189202
4.024593049;13.29007813;12.25303578;-0.546768054;-3.70874289;1.651140971;-14.77379525;-21.23186255;-93.5005843;-46.6045588;-52.7023892;50.87022002;15.22603263;15.48205155;27.68883818;20.90711231;14.30505847;19.71742092;-0.028865594
4.609992798;12.64896335;12.56870741;0.525221883;-3.893341668;0.481311594;-11.46664015;-22.53;-94.61737284;-44.24929665;-52.58439711;51.29760291;12.77681625;13.10800058;18.97787411;19.57366768;10.88423984;15.88169487;-0.649442867
4.659725987;11.40848037;12.52768495;-1.818698851;-4.738349829;-0.359346995;-5.86728433;-24.26725196;-94.55640585;-44.05236186;-52.81538688;52.43979342;10.44400813;12.13700465;15.27023863;20.71538712;9.113865057;12.39686793;-1.047130682
4.122954498;9.445449121;12.08457402;-5.616664314;-5.700117728;-0.35560082;-2.800127112;-25.96996314;-92.27122103;-45.45191828;-51.51023891;52.60385981;9.757505298;12.73802112;16.80103972;22.73080664;9.335241782;10.45468181;-0.937213074
2.914348817;7.125572827;11.24016853;-8.259264363;-6.69917479;0.202287145;-5.267190883;-26.83489623;-88.15357237;-46.18054555;-47.94693659;50.42854115;10.95490396;13.78506682;22.51116216;23.63916816;10.61196583;9.998950517;-0.478476221
1.171883549;5.239756828;10.08750717;-8.372855852;-7.749809265;0.604305446;-11.66079656;-25.96443427;-83.53135299;-44.12960157;-43.10712158;46.21702865;13.09455506;13.85854944;30.25551418;22.60629684;11.55155243;9.979915054;-0.033171275
-0.500942028;4.735495937;8.953851444;-6.54733869;-8.448128573;0.445070374;-16.53786397;-22.92023198;-79.66519982;-39.18340431;-38.85462112;42.00271554;14.92053446;12.41115676;36.73544106;20.41066821;11.37268074;9.425700186;0.219170851
-1.221872234;6.250371577;8.327338819;-4.557323371;-8.013343733;-0.008400728;-14.58234732;-18.25361398;-77.12088664;-33.52538291;-36.56127313;40.10309517;15.69743784;10.1076443;38.22731626;18.57586085;10.32891354;8.294552678;0.412902062
-0.462126963;9.598654091;8.464185978;-3.877489549;-5.987479464;-0.129190872;-4.792078645;-13.52560291;-75.86840757;-30.14372945;-36.33379487;41.24709209;15.42624497;8.120931273;32.57902185;18.02515386;9.223625561;7.328374336;0.754082347
1.371121532;13.53815787;8.991473058;-4.680182795;-2.944999504;0.406772603;8.36061953;-10.61440616;-75.71804396;-30.68565619;-37.32868736;43.84270192;14.46843389;7.080418948;21.34177207;18.42852015;8.558467729;7.10136389;1.175431859
2.992712609;16.12870996;8.972525163;-5.955723367;-0.413619314;1.258408811;17.75811027;-10.65659432;-76.47969495;-34.2917423;-38.65684716;45.09327646;13.06912175;6.617021723;9.985347356;18.69857295;8.122686897;7.224219044;1.270335151
3.042722696;15.6645919;7.544531729;-6.477162173;0.131537537;1.709187565;18.37390281;-13.33329559;-77.68929926;-38.24342439;-39.97380412;43.14546687;11.22599217;5.855128336;5.153642172;18.0514438;7.351594086;6.513860252;0.615569554
1.068596848;11.69524713;4.65964115;-5.784359558;-1.555850974;1.336745718;10.44015308;-17.0459347;-78.35682009;-39.86365602;-41.31255551;38.55189308;8.931171353;4.338632782;10.31176241;16.62245453;6.038635963;4.021651245;-0.79813241
-2.118097543;5.431200038;1.239080061;-4.507886107;-4.183045798;0.430477144;-1.126832662;-19.90356205;-77.28094741;-38.2334885;-42.51864516;33.85173018;6.452091463;2.523929225;22.88701089;15.14280001;4.670734486;-0.012628175;-2.439180905
-5.051666991;-0.859574783;-1.515871083;-3.930347535;-5.850583978;-0.239685795;-10.34102053;-20.83906712;-73.90880946;-34.55419306;-43.00328692;31.60195995;4.328632866;1.408547269;35.36706492;14.1;4.039611508;-4.181394385;-3.563651815
-6.726826988;-5.163017726;-3.145609969;-5.179784003;-5.535976355;-0.096310838;-13.95823766;-20.07488453;-69.04399384;-31.08410699;-42.13756905;32.450357;3.080200503;1.654668513;39.9942556;13.25229587;4.480648238;-6.94016079;-3.740058594
-7.306752028;-6.865260951;-4.379149926;-8.559075816;-3.90388313;0.745976528;-12.8206595;-18.66198678;-64.63394262;-29.58873399;-39.90187979;34.77478318;2.901085642;2.990987159;33.85455596;11.96033009;5.448782636;-7.774749117;-3.130563496
-7.835100028;-6.911727567;-6.506660737;-13.3083171;-2.730183604;1.607181969;-10.21550181;-17.52244078;-62.56779576;-30.41529725;-37.09661634;36.09826943;3.610576285;4.386748852;20.6765725;9.970731481;5.83785391;-7.501001924;-2.304311974
-9.203184987;-6.865831761;-10.10887774;-17.83807848;-3.385313194;1.870454926;-8.982523739;-16.77237263;-63.31016788;-32.63837437;-34.81766522;35.05295298;4.859764373;4.798246729;8.0561368;7.83893777;4.781323975;-7.45794754;-1.769907809
-11.26565843;-7.604214019;-14.22217284;-20.32343496;-5.637888718;1.5319048;-9.716214982;-15.82345263;-65.46348867;-34.87401173;-33.61524071;32.30373134;6.359299176;3.833556034;2.251438572;6.534400775;2.256017471;-8.32408769;-1.642640012
-12.8793612;-8.688750006;-16.75696832;-19.47380645;-7.794867179;1.173177986;-11.12835806;-14.10361634;-66.68533421;-36.01791708;-33.09151856;29.79922485;7.90981563;1.84010921;4.415185674;6.572112071;-0.989613101;-9.594989362;-1.708486909
-12.85102845;-8.923726327;-15.96670847;-15.20130455;-8.077917136;1.39534941;-11.75385665;-11.74610712;-65.30940385;-35.48876031;-32.31624338;29.11695931;9.252316688;-0.518088704;10.80423079;7.4907131;-4.054542564;-10.14749242;-1.765645674
-10.9938171;-7.63;-11.83205806;-8.839444833;-6.092478849;2.245633947;-11.2968026;-9.657119697;-61.44236767;-33.12363225;-30.69439698;30.31537781;9.960409712;-2.714870126;16.29922894;8.193463294;-6.475089793;-9.34455455;-1.876866049
-8.385702404;-5.536163875;-6.208233921;-2.671230409;-3.165616176;3.165821572;-10.58226684;-8.90661378;-56.73456857;-29.12104918;-28.50305189;32.12260971;9.562157982;-4.465099022;18.13663873;7.870590866;-8.307931683;-7.672380767;-2.277456824
-6.587896286;-4.448408892;-1.550725008;1.120160315;-1.278409553;3.502891813;-10.48704807;-9.936259571;-53.09150908;-24.18415776;-26.61867409;33.09030314;7.840868816;-5.539758423;17.0037693;6.680255222;-9.741774785;-6.341933805;-3.038265883
-6.451545017;-5.849033843;0.801594349;1.546127356;-1.488774854;3.103331848;-11.04848944;-12.20178625;-51.39894176;-19.60943321;-25.70160586;32.61018376;5.058568567;-5.667692986;15.16296459;5.586187019;-10.69926546;-6.215544077;-3.837528013
-7.480658394;-9.502847087;1.432115082;-0.71920145;-3.144687717;2.440662206;-11.56640969;-14.49752257;-51.21735116;-16.96340516;-25.60019351;31.01064602;1.879920601;-4.758028353;13.78086465;5.522653425;-10.8425981;-7.005425491;-4.1059701
-8.253452827;-13.24597597;2.132129912;-3.831631784;-4.503640627;2.161908646;-11.44408882;-15.68253207;-51.513718;-17.33470215;-25.52459946;28.91218564;-0.974975815;-3.244298766;12.02393024;6.65847969;-9.955303865;-7.434836513;-3.458329702
-7.540205854;-14.26637443;4.301666142;-5.928346359;-4.201861218;2.477164798;-10.83234521;-15.27035673;-51.6435898;-20.61886768;-24.81929765;26.66877663;-3.083301156;-2.0976508;8.576686186;8.406349346;-8.286374833;-6.211626262;-2.04096305
-5.21826528;-11.01756932;7.797562826;-6.170911566;-2.346292907;2.960713477;-10.43652135;-13.52613217;-51.70261255;-25.41325349;-23.60420841;24.47272684;-4.408411625;-2.288227561;3.877169107;10.10241183;-6.482982279;-2.991895828;-0.477012844
-2.296715176;-4.364281596;11.13687538;-5.001163019;-0.367428065;2.95158479;-10.73776237;-11.13274311;-52.05142485;-29.70017903;-22.67617033;22.86967691;-5.089912004;-4.011308557;0.688239514;11.65266983;-5.149005303;1.426179627;0.565173627
-0.107180603;2.907816266;12.80384298;-3.526344711;0.179247455;2.187242004;-11.4576832;-8.775835508;-52.60901602;-31.89271094;-22.75170502;22.8986169;-5.159308424;-6.324759336;2.194128206;13.50133248;-4.434782367;5.747735606;0.829479841
0.6455503;7.874213907;12.51065252;-2.585582788;-1.158509753;1.084924037;-11.81863733;-6.948522155;-52.68098966;-31.53126226;-23.74952269;25.4129664;-4.457294326;-7.607142958;9.163985908;15.96185781;-4.028531349;9.056732009;0.589347051
0.251021992;9.250545254;11.3691532;-2.222392504;-3.442995905;0.401612149;-11.33537847;-5.994439544;-51.51928882;-29.20755834;-24.78391105;30.0478739;-2.83130757;-6.596021575;18.718482;18.60389921;-3.524213233;11.22122106;0.35982536
-0.402460358;7.916211425;10.90392313;-1.882816849;-5.143098197;0.567495466;-10.33929744;-6.179154803;-49.0683336;-25.90886229;-24.89124267;34.86601845;-0.42789895;-3.257837802;25.96495939;20.37212331;-2.781175583;12.63363619;0.478475574
-0.557347753;5.915001869;11.80823284;-1.044454256;-5.286268567;1.28742679;-9.700726572;-7.603432383;-46.15069065;-22.38737181;-23.8392359;37.29722974;2.200243372;1.166562552;27.33707154;20.4199915;-1.924794705;13.67960573;0.907566958
-0.040896978;4.807227941;13.49153824;0.317842405;-4.039088152;1.770019531;-10.00549762;-9.993474132;-43.87107581;-19.0257076;-22.29257104;35.86429532;4.299599107;4.961303295;23.00281227;18.91823974;-1.028070714;14.46968271;1.377873043
0.832855435;4.664606414;14.71918038;1.787164863;-2.354913853;1.387899728;-10.98188612;-12.59076694;-42.76676331;-16.14154471;-21.19859589;31.3576209;5.300337748;6.95561738;16.45609413;17.04458355;0.135089592;14.99829206;1.684475754
1.696999001;4.404375611;14.70317438;2.925944138;-1.111809836;0.194508413;-11.73985944;-14.33295723;-42.48801545;-14.25374948;-20.96738573;26.40614008;5.105249898;7.02455126;11.71777334;16.0705564;1.929514522;15.43068984;1.843370583
2.467033257;3.06562814;13.68866902;3.605815471;-0.501178133;-1.14337394;-11.60465041;-14.29371059;-42.29943678;-13.90819017;-21.1943626;23.64796356;4.094206551;5.812704315;10.46603933;16.30635914;4.383243273;16.12505929;1.996199252
3.332016161;0.914301827;12.61265389;3.951965056;-0.09926724;-1.920251721;-10.75281274;-12.1334576;-41.9061577;-15.15410983;-21.15161404;23.88913692;2.877431463;4.060068359;11.33037755;16.85782126;6.870114548;17.3327851;2.212585744
4.510876825;-0.540095215;12.25341006;4.041216592;0.576011182;-1.960293056;-10.04201914;-8.288384611;-41.77438975;-17.19539784;-20.54486477;25.70521956;1.994615774;2.151199924;11.67881046;16.47096176;8.356760074;18.90778646;2.422771526
6.056821499;0.372541486;12.67397058;3.748630888;1.582851009;-1.693539312;-10.19177546;-3.801321924;-42.57644598;-18.68076596;-19.78343738;26.77785497;1.742174585;0.191475052;10.1791618;14.76397212;8.121836878;20.37748147;2.546737639
7.863311499;4.159902606;13.39206984;2.957395442;2.53949844;-1.705534604;-11.09141579;0.08159468;-44.24681723;-18.55736243;-19.48464039;25.83056457;2.165771107;-1.621912671;7.925459062;12.74809062;6.37449401;21.35220065;2.653908204
9.778187935;9.629417968;13.98978999;1.917169075;2.996668967;-2.187971239;-11.8948212;2.330555377;-45.59212602;-16.86167828;-19.69516392;23.55502685;3.129770901;-2.815960992;7.292545282;12.10739197;4.207770238;21.86651059;2.939212387
11.64242118;14.53689964;14.50331072;1.307849515;2.80672383;-2.782242471;-11.817693;2.418528987;-44.98530241;-14.77065503;-19.63565271;21.81225451;4.372439364;-2.885114449;9.649601478;13.77961937;2.859740053;22.27254794;3.496798563
13.21481549;16.93483117;15.22975962;1.807787125;2.187449857;-2.934188155;-10.88616987;0.449262148;-41.70442015;-13.77679466;-18.32195882;21.88188693;5.543705484;-1.738537515;13.95443028;17.0281677;2.860723302;22.75354626;4.115668309
14.13849194;16.26484537;16.22194817;3.477655459;1.516617968;-2.41709055;-9.926568994;-2.845838163;-36.79836322;-14.55713035;-15.57147797;23.32779051;6.284521009;0.098052541;17.40776914;19.83760252;3.765651103;22.96130749;4.350321965
14.10743661;13.49814148;17.06929354;5.549159206;1.119944901;-1.545226132;-9.798586511;-6.253961186;-32.62152924;-16.38820584;-12.44775491;24.46566053;6.368740081;1.754761429;17.59324107;20.38300561;4.674401721;22.23776298;3.874145103
13.16879074;10.35163581;17.25940332;6.925057957;1.230735183;-0.898104752;-10.58842845;-8.417532285;-31.23092807;-17.57015004;-10.60202552;23.97975317;5.832914629;2.553068363;14.36113365;18.42610512;5.059500923;20.33501888;2.82386279
11.87515688;8.221601013;16.78591461;7.053039092;2.042935453;-0.821320576;-11.52121042;-8.339179322;-32.82732321;-16.56834373;-10.93788959;22.21068371;4.978749865;2.363221397;10.0149343;15.53392752;5.164294609;17.99024574;1.791719149
11.04417561;7.559186169;16.35235794;6.417810948;3.65643202;-1.158444177;-11.68067953;-5.874663716;-35.4957563;-13.05998283;-12.71139305;20.92735583;4.209738751;1.53141059;7.743386431;13.95638852;5.642365616;16.70796318;1.4055533
11.20962781;7.986369302;16.86426918;6.145811949;5.868618843;-1.441500242;-10.86690749;-1.924637659;-36.54141376;-8.176572809;-13.92914336;21.74704135;3.800496062;0.529910187;9.516372555;15.04773235;6.812326941;17.74349681;1.820685986
12.17996626;8.900195716;18.60306731;6.985845726;8.029317742;-1.346252648;-9.789488209;1.881788871;-34.46502612;-3.838971246;-12.8604125;24.58799106;3.767152066;-0.300260553;14.89046677;18.42039353;8.255560809;21.04162103;2.572840041
13.12170591;10.04238395;20.85733049;8.550941504;9.23628791;-0.989212996;-9.411853367;3.942792657;-30.08321577;-1.688537969;-9.493993303;27.54951866;3.934501618;-0.718080767;21.36111304;22.37750188;9.157509068;25.05919651;2.960502244
13.19250141;11.64923112;22.43851455;9.574483382;8.882273812;-0.80407757;-10.05530541;3.508147755;-25.92212337;-2.286326256;-5.710416336;28.39394203;4.134353509;-0.429095614;25.83178883;25.16356048;9.083211436;27.75366803;2.660457845
12.26593564;14.15922893;22.70147673;9.07723001;7.188513949;-1.125409414;-11.09802547;1.09710933;-24.32178795;-4.94681334;-3.920543548;26.40912161;4.359499541;0.868726245;26.22642407;26.03161973;8.445908241;28.04562709;2.044450242
11.14468986;17.74827067;22.16342916;7.46995836;5.246215049;-1.866463324;-11.55131806;-1.765960501;-25.66762991;-8.127394567;-5.174090928;23.07186637;4.738868303;3.154484843;22.4355359;25.4213075;8.189088623;26.59846465;1.891242948
11.02029844;22.01604718;22.09657835;6.532737172;4.406395993;-2.578726812;-10.97740058;-3.376269851;-28.06597839;-10.0681938;-8.232313524;20.9263011;5.359324526;5.778133742;16.29368447;24.32577714;8.932406721;25.24882515;2.704183212
12.54171278;26.00112033;23.36426228;8.087955287;5.385276573;-2.827770534;-9.893269649;-2.767197073;-28.69935064;-9.438798425;-10.3915717;21.58690526;6.099505751;7.606520126;10.71167337;23.49730311;10.35770282;25.50490072;4.205631841
15.20611887;28.50637386;25.49532301;12.34094954;7.739239106;-2.541680143;-9.283210991;-0.191918947;-25.8706951;-5.884125516;-9.48;24.49889633;6.637626606;7.699553607;8.321976953;23.08272315;11.42859112;27.30935567;5.458906629
17.57547486;28.58540178;26.86734539;17.29816097;10.13280767;-2.03086268;-9.674141068;3.101128624;-20.28111191;-0.353821721;-5.516619043;27.43828422;6.648500294;6.054226332;10.16320943;22.77263674;11.28706444;29.07;5.552730784
18.20063473;25.99198435;25.94984669;19.92627097;11.23047453;-1.687050581;-10.6380286;5.643539299;-14.67735101;5.013192334;-0.769376155;28.28476897;6.038849613;3.749986718;15.04622026;22.12711747;10.03081262;28.93652881;4.308929717
16.5935447;21.40045284;22.61907548;18.3166418;10.56315204;-1.652874848;-11.19007813;6.593645871;-12.16272537;7.642736419;1.822191891;26.5872979;5.025445602;2.233876012;20.09430979;20.75970285;8.646987448;26.29226796;2.448476584
13.55426829;16.26050656;18.42841376;13.20611822;8.746579203;-1.757103693;-10.71615193;6.148052617;-14.33541698;5.767850628;0.661604017;23.6930972;3.977741541;2.213555907;22.36032112;18.38861689;8.125705051;22.2739794;1.094359183
10.64710905;12.27902231;15.5499863;7.587816074;6.938799545;-1.746800941;-9.564819171;5.291313871;-20.43362574;-0.46124796;-3.530617572;21.46017322;3.133203695;3.044675068;20.63525482;14.97312379;8.53596056;18.94155353;1.018932793
9.231126482;10.70942022;15.20551097;4.594344374;5.997527377;-1.571548877;-8.745090739;5.068768301;-27.91197834;-8.782371124;-8.410164229;20.72700422;2.402207873;3.181515866;16.20722799;10.99161267;8.917364242;17.80391301;2.211444667
9.716624035;11.78080622;16.83848736;5.218925318;5.978948319;-1.440795218;-8.999226946;5.858521323;-33.94166119;-15.88311988;-11.72685864;20.81257466;1.424690508;1.410746199;11.89439367;7.577817914;8.13;18.86521185;4.029025552
11.47986118;14.58662101;18.67074337;7.627670192;6.292553372;-1.603805525;-10.10478539;7.110670128;-36.84259347;-19.21262468;-12.73538935;20.34856174;-0.138760713;-2.091486372;9.930167369;6.146968225;5.932721245;20.84939976;5.702902047
13.36747821;17.53091317;19.15159974;8.61753581;6.294651583;-2.070087891;-11.05579786;7.718970736;-36.65337181;-18.40466697;-12.33768925;18.59585516;-2.274506245;-5.746977808;10.27924589;7.521643307;3.316958014;22.27312887;6.738230615
14.36730341;19.11029264;18.10772866;6.11771598;5.806871548;-2.545054244;-10.96548929;6.780363071;-34.68352011;-15.32262654;-12.04809762;16.06071654;-4.48371883;-7.65165196;10.78065104;11.12069412;1.754596951;22.4207444;6.946732537
14.03710894;18.60199726;16.70854689;0.827063617;5.188786294;-2.653261566;-9.866761556;4.242993555;-32.50453693;-12.66071906;-12.73221674;13.93534213;-5.976842194;-6.905334227;9.115984435;14.94978901;1.980229094;21.50699153;6.254252738
12.55994081;16.28811603;16.37788659;-4.240583777;4.998470983;-2.253389879;-8.677771835;1.01428833;-31.06447609;-12.08232812;-14.09796967;12.95889937;-6.1118947;-4.165685804;5.040234305;16.64171836;3.366223669;20.10736737;4.624777569
10.54842158;13.1415338;17.62147877;-5.918541669;5.575389814;-1.563390965;-8.365504913;-1.542354803;-30.40028971;-13.22796943;-15.19093112;12.76850502;-4.820771363;-1.049856745;0.935543854;14.9539678;4.452630929;18.54486416;2.250387966
8.768491871;10.22579941;19.71017528;-3.103668227;6.854216072;-0.985939176;-9.074867736;-2.387208305;-29.98112719;-14.27119794;-15.32826674;12.30202807;-2.74371331;1.054696016;0.01916407;10.64626628;4.18588107;16.8249818;-0.217540771
7.854695565;8.194393623;21.35118509;2.581753637;8.456549182;-0.790500707;-10.0182542;-1.349663402;-29.33669697;-13.52536775;-14.65369255;10.8286076;-0.947424584;1.783676915;3.51629118;6.017293512;2.789112567;15.06639782;-1.773885185
8.031143149;7.141703737;21.64745699;8.033388798;9.88674459;-0.926673382;-10.21774093;0.890247173;-28.50877296;-10.82561313;-13.93341315;8.624272184;-0.358606907;1.632730346;9.141986705;3.371201587;1.501751714;13.8367724;-1.613598696
8.922211709;6.78438413;20.51023972;10.73576013;10.66341551;-1.114497432;-9.409076607;3.307635403;-28.03730659;-7.640019531;-13.8898684;6.668633831;-1.247085608;1.144954612;12.34722387;3.529674038;1.420516383;13.89526401;0.221798256
9.624254174;6.751113511;18.30585327;10.09550068;10.38448272;-1.108937634;-8.274670242;5.118334943;-28.52377908;-5.901920306;-14.69705656;5.664598018;-3.095675566;0.288963639;9.584771883;5.48936183;2.472597857;15.47111308;2.675443837
9.135517702;6.759482848;15.26019724;7.220279377;8.833388582;-0.895721228;-7.798672471;6.028804217;-30.0969946;-6.552381886;-16.01483724;5.322018943;-4.963670385;-1.389416589;1.122504711;7.42454005;3.442474685;17.7556105;4.255135121
6.981332387;6.61600936;11.31172601;3.611717045;6.156729848;-0.660748542;-8.348890628;6.047950832;-32.1698819;-8.943458701;-17.40936811;4.614581733;-6.115891651;-4.037716384;-8.844215233;8.171578341;3.044532795;19.19889408;4.023229844
3.629754014;6.13226377;6.566764096;-0.000145393;2.971806862;-0.591444993;-9.337432986;5.133962472;-33.68133893;-11.487026;-18.69263565;2.823470178;-6.481239015;-6.956790655;-14.95923371;7.980620025;1.10143096;18.51790446;2.258615693
0.332113029;5.083224618;1.818030074;-3.765913887;0.211750109;-0.71012472;-9.770039063;3.073914898;-33.68901052;-12.9151521;-19.87158982;0.427753222;-6.600691321;-8.856002292;-14.27610946;7.971001794;-1.220870576;15.6449357;0.24783912
-1.603423489;3.249883324;-1.565269228;-7.873710878;-1.309062362;-0.884917849;-9.16916425;-0.241724061;-31.93582972;-13.09370516;-20.83439959;-1.024557494;-7.093664174;-8.768507985;-7.968356852;8.83217795;-2.353437167;11.81022301;-0.66596742
-1.647622117;0.494153661;-2.498178521;-11.6809269;-1.359353684;-0.981429528;-8.012557071;-4.387619577;-29.02481924;-12.81214354;-21.18315597;-0.0722643;-8.05754722;-6.85423768;-0.060888829;9.942677405;-1.643450078;8.632484718;-0.046084941
-0.392595593;-3.197219438;-1.140120633;-13.71335281;-0.435709876;-0.989840925;-7.283758865;-8.267512082;-26.098161;-12.89;-20.48020684;3.376282103;-8.906565964;-4.371446812;5.568883415;9.710640838;0.081957439;6.920174839;1.409898226
0.874677336;-7.700812985;0.931151003;-12.6292899;0.55968487;-1.004629668;-7.556311207;-10.54322649;-24.24240003;-13.48088402;-18.74617119;7.70149256;-8.837143139;-2.79971919;7.45752359;6.889748509;1.191885172;6.14451267;2.526016704
1.067778686;-12.7308435;1.635604973;-8.400212585;0.894584557;-1.09289913;-8.464815805;-10.43767847;-23.99913133;-14.17513903;-16.7404265;10.51039482;-7.589243844;-2.820465503;6.51258065;1.781432559;0.586435257;4.997828684;2.618688405
-0.001263252;-17.78899746;-0.225057554;-2.753941137;0.410254313;-1.198750897;-9.052768334;-8.353515998;-25.24688803;-14.70214631;-15.67405936;10.16984179;-5.868371013;-3.964892719;4.198398213;-3.697887341;-1.444614652;2.556888571;1.978933668
-1.634370364;-22.16428725;-4.190559486;1.519464664;-0.535564135;-1.186850193;-8.670400624;-5.799405773;-27.44021286;-15.46231758;-16.47207007;6.783155214;-4.991025675;-5.147053227;0.939213125;-7.192845937;-3.541800308;-0.913392101;1.5026539
-2.919309537;-25.08791225;-8.596544808;1.973129036;-1.494031878;-0.979321106;-7.584888503;-4.583326124;-29.96872691;-17.29720236;-19.117213;1.920196422;-5.91893298;-5.554426471;-3.727243438;-7.44272688;-4.452278704;-4.156193687;1.834582909
-3.492493504;-26.05508097;-11.88607401;-2.261467433;-2.327995508;-0.641124036;-6.73418917;-5.77170091;-32.38846065;-20.65759114;-22.60056174;-2.598741007;-8.396098383;-5.129917693;-9.576334796;-5.021855112;-4.023335768;-5.919613269;2.783770083
-3.775790029;-25.1607529;-13.70613839;-10.09937924;-3.246359467;-0.321658102;-6.853183551;-9.103301832;-34.44822671;-24.95;-25.55543222;-5.866997598;-10.92427714;-4.32530841;-14.54039739;-1.786659797;-3.178064242;-5.915933999;3.500239219
-4.525806351;-23.20373734;-14.92179124;-19.07936274;-4.472067176;-0.110813155;-7.785049444;-13.23038167;-36.01151384;-28.7412839;-27.11980323;-8.146786705;-11.72059035;-3.490456779;-15.52253906;0.467749668;-2.958278847;-4.984968006;3.22625585
-6.107839876;-21.40603137;-16.61191368;-26.46310033;-5.88413438;0.039040733;-8.619220664;-16.57590538;-37.00864731;-30.74431526;-27.39344139;-10.17208681;-10.01728942;-2.545086305;-10.86565152;1.098012472;-3.531519138;-4.392267654;1.948535914
-8.120531691;-20.83890032;-18.96647877;-30.28589088;-6.997909911;0.237553196;-8.529769513;-18.19112021;-37.44919919;-30.7726302;-27.17763642;-12.23119538;-6.717329338;-1.224982398;-2.401849246;0.71580379;-4.055693497;-4.882754954;0.393944215
-9.683277942;-21.87157885;-21.05415736;-29.9787364;-7.333695902;0.501636869;-7.53764988;-18.06714225;-37.4184111;-29.81590461;-27.24564002;-13.86148794;-3.839040236;0.423112138;4.97478167;0.405138747;-3.50378565;-6.236703247;-0.593961715
-10.13397219;-23.98173524;-21.64394712;-26.4464952;-6.854500749;0.691011556;-6.490602839;-16.8116251;-36.99597765;-29.12641057;-27.73782968;-14.37531972;-3.093310124;1.887786609;6.341971339;0.801275357;-1.690039063;-7.589836677;-0.725375064
-9.548132401;-26.05078729;-20.33719196;-21.64668506;-6.065144437;0.62586464;-6.279747228;-15.06454337;-36.15110452;-29.08531945;-28.1378937;-13.67051191;-4.636512986;2.617924527;0.268202228;1.748317666;0.431991592;-8.147278541;-0.401281593
-8.65408123;-26.95799956;-17.99961449;-17.7940712;-5.645292935;0.292018793;-7.018576549;-13.13942776;-34.74412554;-28.85516481;-27.79457435;-12.52662739;-6.954983575;2.639472919;-9.922793741;2.661480888;1.476905308;-7.679074;-0.240299686
-8.228030605;-26.10748436;-16.09603603;-16.4276354;-5.897475415;-0.073606703;-7.943183415;-11.09332464;-32.69208762;-27.17578477;-26.51927525;-12.05375821;-7.992502184;2.706496781;-18.24626591;3.129383876;0.734154678;-6.478550741;-0.465826212
-8.473082707;-23.5977395;-15.48202959;-17.71620342;-6.469893339;-0.137713815;-8.122977118;-9.029941364;-30.18173668;-23.65951962;-24.76163308;-12.73034255;-6.675905707;3.7147044;-20.01524102;3.191004551;-1.269222717;-4.966494636;-0.724018919
-8.877573127;-20.00698877;-15.67648875;-20.39;-6.602644792;0.237496051;-7.321458179;-7.272177922;-27.71387963;-19.45436728;-23.24559895;-13.87277752;-3.683613743;5.817795559;-14.73572557;3.123088533;-3.207887286;-3.37246103;-0.481722658
-8.642180637;-16.01627652;-15.23564155;-22.42756065;-5.720778814;0.822852187;-6.211561512;-6.218754077;-25.86912505;-16.62137883;-22.40473083;-14.06509581;-0.893640617;8.05162923;-5.905424986;3.054047841;-3.998229727;-1.745464392;0.391167508
-7.314914166;-12.14905689;-12.9303572;-22.1796672;-3.914483577;1.154449522;-5.751821574;-6.030140412;-24.93394776;-16.64222445;-22.10514025;-12.28971073;0.024828339;8.90130297;1.864802946;2.836942642;-3.559663528;-0.173589288;1.417971801
-5.140408694;-8.753756462;-8.774255517;-19.28181968;-1.935130785;0.894824564;-6.306323;-6.458661227;-24.69349516;-19.23835976;-21.87478614;-8.884889522;-1.231595953;7.428544337;6.007918731;2.29896469;-2.710745563;1.094835729;1.89641514
-2.889910033;-6.13741531;-4.090370669;-14.78429794;-0.711406646;0.13063339;-7.321818705;-7.00014629;-24.6002451;-22.48240354;-21.41063047;-5.524673731;-3.556229821;4.03953561;7.088368904;1.573929917;-2.381107819;1.782216617;1.52342625
-1.345947211;-4.651762045;-0.589908958;-10.42459108;-0.741465419;-0.657433633;-7.849906041;-7.241595266;-24.21422537;-24.15738246;-20.89617276;-4.140357383;-5.443917499;0.228378743;7.364175505;1.122093384;-2.871624643;1.818815201;0.688331092
-0.839294411;-4.608094776;0.799316294;-7.541663914;-1.77831318;-0.949244653;-7.415469678;-7.098659313;-23.54852203;-23.30922714;-20.8332903;-5.527167012;-6.172013313;-2.510709115;8.408340152;1.344036774;-3.771697499;1.417467637;0.153651771
-1.134396753;-6.072130211;0.47918516;-6.358449722;-2.98448765;-0.579970473;-6.419617626;-6.743852193;-22.99987143;-20.77872205;-21.52497265;-8.666315268;-6.192054752;-3.695646071;9.880814171;2.112352385;-4.505151503;0.892936617;0.397109475
-1.667347302;-8.71110226;-0.230730079;-6.063615136;-3.408912092;0.153809355;-5.714190112;-6.316460449;-22.89555986;-18.32513835;-22.66755013;-11.30859699;-6.487244643;-3.958961476;10.25614354;2.677791463;-4.926536274;0.411931298;1.198314377
-1.913339961;-11.83778341;-0.063026998;-5.537436616;-2.475968244;0.764581272;-5.769094026;-5.705707001;-23.05276584;-17.08613563;-23.44239329;-11.45994188;-7.529152648;-4.214887735;8.518585833;2.116729896;-5.408809953;-0.059773484;1.837538952
-1.646336983;-14.65291494;1.410835912;-4.140234359;-0.243755979;0.987107248;-6.23353816;-4.624084621;-22.78510585;-16.63290733;-23.0864779;-8.745979216;-8.771650627;-4.694450375;5.140078125;0.020521644;-6.389662575;-0.559255913;1.727351436
-0.996851431;-16.54966858;3.665304564;-2.020293325;2.632807883;0.979093873;-6.310155125;-2.909435954;-21.42858128;-15.37040119;-21.50764818;-4.697182779;-9.116784896;-4.753986864;1.552787821;-3.106559999;-7.859883747;-0.912121753;0.913870058
-0.352556445;-17.31371912;5.708932033;0.174125401;5.165068522;1.141547084;-5.578909797;-0.772729408;-18.98339584;-11.93501792;-19.44204791;-1.743875105;-7.92917737;-3.636002829;-1.156360875;-6.066831601;-9.305506797;-0.788261329;0.007005041
-0.182509299;-17.13616363;6.721453834;1.846628007;6.412835534;1.724024305;-4.468187925;1.24938451;-16.30200072;-6.455551096;-17.99514686;-1.607295744;-5.702375555;-1.456324772;-2.932401307;-7.655052002;-10.15367694;-0.043889408;-0.385664804
-0.835039773;-16.47332167;6.416051853;2.811977691;5.873626713;2.565940246;-3.896861933;2.610630744;-14.58170295;-0.684491046;-17.89153101;-4.185588553;-3.785106505;0.563918814;-4.183206551;-7.309563822;-10.27570631;0.974267609;-0.204369839
-2.352963428;-15.84921154;5.019209934;3.250203726;3.737471042;3.201670403;-4.403171695;3.068840286;-14.49977764;3.0772958;-18.9918804;-7.678947185;-3.379895815;0.951033588;-4.694600634;-5.284957016;-10.04415903;1.539186495;0.028936675
-4.389540633;-15.67983761;3.039661453;3.401912243;0.852059355;3.236075622;-5.585356944;2.733641318;-15.67239523;3.414113848;-20.42979365;-9.83556634;-4.637051053;-0.752431777;-3.36770688;-2.299949404;-9.874410228;1.102465632;-0.286612731
-6.31881434;-16.14986177;1.039890883;3.320157542;-1.66153892;2.663126205;-6.411348506;1.837938374;-16.90716933;0.532388371;-21.24319124;-9.438627142;-6.574299991;-3.420744093;0.698546509;0.989347917;-9.691228365;-0.118311649;-1.249229853
-7.539680553;-17.15039032;-0.510340907;2.873859353;-2.987525025;1.857247633;-6.144651582;0.48546973;-17.09522071;-4.132711333;-21.00896098;-7.020925892;-7.857435198;-5.065330324;6.725325075;4.262383871;-8.861188866;-1.075500708;-2.320137606
-7.813070277;-18.3015176;-1.332386276;1.944699735;-3.042724182;1.257916878;-5.03619847;-1.353283115;-16.05863226;-8.983482007;-20.02145449;-4.365383634;-7.783944441;-4.342584612;11.98007813;7.398979802;-6.717224772;-0.530926639;-2.759944733
-7.391646703;-19.09074723;-1.408490902;0.6113221;-2.437558018;1.030684116;-4.120693768;-3.57602593;-14.6828233;-13.106712;-18.94256571;-3.207833262;-6.695035281;-1.642860869;13.40400586;10.15186336;-3.24656242;2.01877976;-2.251320715
-6.815525234;-19.11291697;-0.97086526;-0.827806062;-1.957728651;0.992190895;-4.276031955;-5.687240001;-14.22548568;-16.32902272;-18.26438634;-4.090523089;-5.562872518;1.148915369;10.05481142;11.9956694;0.67295658;5.85581524;-1.163098264
-6.501551423;-18.31053172;-0.363095712;-1.976748079;-1.930212477;0.839089533;-5.401243895;-6.865247064;-15.3475861;-18.64407913;-18.02811833;-6.151749763;-5.181032079;2.062454503;4.264690175;12.34655396;3.741836237;9.431162795;-0.233177057
-6.44056057;-17.05914296;0.165795939;-2.492156825;-1.971554369;0.451284615;-6.483449324;-6.417766919;-17.61939847;-19.68313811;-17.9705707;-7.91654019;-5.646913034;0.516314284;0.234041669;11.01003906;5.071564688;11.38813123;0.042913297
-6.25391398;-15.99521673;0.582903018;-2.176439839;-1.348897234;-0.010002327;-6.515663732;-4.320528429;-19.85129143;-18.78102842;-17.87681871;-8.417290442;-6.485226625;-2.284568693;0.901084547;8.500058594;4.731513803;11.46050496;-0.212765274
-5.571252699;-15.64251734;1.005897226;-1.020237581;0.310625129;-0.284112589;-5.432719984;-1.394721522;-20.93261843;-15.59682645;-17.75400626;-7.769186482;-7.171020065;-4.284722838;5.556135334;5.944358643;3.602810237;10.5720236;-0.42571567
-4.412448097;-16.05803543;1.514886859;0.768531878;2.546733365;-0.284649064;-4.194693938;1.084384621;-20.49164997;-10.71827148;-17.64733557;-6.797595081;-7.50825804;-4.053580202;10.29451754;4.581062545;2.701600208;10.0882305;-0.099536505
-3.239666517;-16.75526955;2.026970028;2.764852241;4.262828492;-0.198478926;-3.919833338;2.11678381;-18.90664635;-5.658647204;-17.30295972;-6.091453712;-7.547142916;-1.654013342;11.16620636;5.13169336;2.534875662;10.81963078;0.764240961
-2.62358532;-17.00880138;2.356374707;4.42076848;4.49063074;-0.315782277;-4.851338499;1.532897649;-16.78472136;-2.141677197;-16.08472599;-5.326444262;-7.225438768;1.657372227;7.575456694;7.414889055;2.958487163;12.52170313;1.702490618
-2.807030364;-16.37743002;2.386529706;5.272993462;3.129963842;-0.753422619;-6.115688537;-0.019757231;-14.45591741;-1.145539298;-13.36319489;-3.483440365;-6.20190445;4.488417282;3.089427807;10.41416348;3.53980612;14.19297888;2.207364257
-3.545362541;-15.0873635;2.153583568;5.166687085;1.051325119;-1.334314047;-6.517258328;-1.621545265;-11.93874075;-2.375805256;-9.152949086;0.161503016;-4.144358075;6.191556848;2.793608579;12.75691821;4.020078125;14.84102185;2.127221796
-4.358141349;-13.95628068;1.735111874;4.334688065;-0.552889615;-1.738638661;-5.65701176;-2.722570343;-9.330847466;-4.521284978;-4.461334622;5.087838228;-1.242541805;6.934474942;9.151857588;13.36164687;4.467058498;14.09511708;1.712090796
-4.952427104;-13.82700739;1.075318786;3.254963494;-1.063449011;-1.788583019;-4.344290483;-3.401067995;-7.142877674;-6.087197851;-0.935939967;9.489512286;1.583005964;7.115199324;19.67419977;11.95299587;5.062574739;12.28620146;1.31877002
-5.416227019;-14.84327939;0.003636724;2.386173752;-0.851679999;-1.604442442;-3.899109656;-4.091459868;-6.134883636;-6.22838173;0.086582846;11.34139802;3.101082284;6.812550696;28.38676994;9.220566543;5.820474009;10.10840573;1.097192923
-5.992128955;-16.08117991;-1.460416759;1.98528607;-0.877243772;-1.490339275;-4.956789364;-5.065060219;-6.702752905;-5.06917884;-1.48799735;9.872429481;2.592829875;5.809403122;30.11559046;6.548901912;6.552658036;8.259054483;0.957720179
-6.646103316;-15.88446093;-2.763402262;2.126337991;-1.801631106;-1.658226779;-6.859020364;-6.12158191;-8.348242023;-3.39837615;-4.3021189;6.327639012;0.442815508;4.092756828;24.3224061;5.417267774;7.104890465;7.313283928;0.811099711
-6.871908375;-12.80611793;-2.857548968;2.833912296;-3.359627694;-2.045574745;-8.200912665;-6.741566594;-9.785983367;-2.043491471;-6.298673666;3.341660886;-2.017247583;2.246950371;15.51789374;6.713400098;7.584644987;7.738340145;0.791272397
-5.988641453;-6.612308044;-0.80735761;4.124440182;-4.519845393;-2.390244577;-8.058514674;-6.549085074;-9.736771815;-1.376820267;-5.983196095;3.257479973;-3.351325001;1.262837786;9.92419108;10.27321882;8.30394409;9.78968438;1.19299377
-3.736360982;1.32314008;3.377475403;5.856020036;-4.307586132;-2.483993423;-6.795985826;-5.678502185;-7.846575141;-1.235810865;-3.345945542;6.548580754;-2.931859126;1.860253658;10.9632962;14.89499844;9.458360005;13.23151665;2.157549992
-0.654673398;8.582753433;8.376017859;7.539546307;-2.609652095;-2.361317333;-5.72314068;-4.729627393;-4.993295857;-1.222326777;0.193399162;11.48796763;-1.24257364;3.90817468;17.00890049;18.87138941;10.85764129;17.16105251;3.420898849
2.146568003;12.97614143;12.13547778;8.401978176;-0.295623037;-2.246302765;-5.91228728;-4.339691301;-2.68476808;-1.108051863;2.773212899;15.32753064;0.622620607;6.470775244;23.00735682;20.81282317;12.0099348;20.28773633;4.413569404
3.718950694;13.77336258;13.16017724;7.827488464;1.442290773;-2.313048408;-7.244921078;-4.706525362;-1.970063477;-1.044995571;3.313406794;16.15161068;1.829197083;8.465890228;24.54792753;20.34934924;12.53387091;21.66867784;4.6778801
3.951993783;12.12206215;11.61293956;5.92878748;1.988159537;-2.494593458;-8.547546874;-5.424474651;-2.690351368;-1.438558493;2.138250841;14.08273051;2.350234659;9.395144404;21.15010456;18.32674806;12.53695873;21.41385264;4.247453805
3.635148895;10.35193433;9.32659744;3.756828217;1.716702357;-2.530959659;-8.682137775;-5.742948368;-3.642061989;-2.568481486;0.62303918;11.01904778;2.813871689;9.563142714;16.3112046;16.37060071;12.58628652;20.73643168;3.631385206
3.826079314;10.5750339;8.583034636;2.82771824;1.615499381;-2.219082686;-7.58779036;-5.045693928;-3.512558387;-4.211881187;0.192867756;9.186283633;3.859476539;9.663869982;14.50298907;16.04248552;13.24559721;21.15656586;3.3854748
5.017417032;13.45144303;10.49088435;4.168982903;2.455465564;-1.630103888;-6.321031123;-3.217846659;-1.85287108;-5.547001611;1.422818173;9.64062525;5.579055187;10.14473327;17.65760274;18.04495029;14.55553208;23.36752682;3.63390581
6.770321336;17.88630997;14.18067786;7.549490677;4.188322015;-1.080759218;-6.065806679;-0.688686795;0.649790776;-5.475052298;3.838315393;11.8132528;7.48303796;10.8937622;23.90659691;21.899243;15.9170206;26.63532397;3.970350665
8.103266531;21.81411447;17.46240586;11.52576251;6.019819035;-0.870363287;-7.032038009;1.819536136;2.760609344;-3.245520497;6.446597952;14.30480762;8.946938425;11.44974753;29.37147186;26.24013889;16.50670647;29.25398187;3.840326787
8.302219054;23.51844328;18.46459361;14.36056863;7.036295545;-1.01629005;-8.261966205;3.639599694;3.634471258;0.962442716;8.500848862;16.14256952;9.702957413;11.45937811;31.33071659;29.52;15.8906755;29.7494015;3.071762284
7.478847845;22.61205142;16.99463724;15.1767609;6.843670143;-1.231159031;-8.523431335;4.413038747;3.36076332;5.905309921;9.899955988;17.40590137;9.95964094;10.93623869;30.10805097;30.70615441;14.32096137;27.89638308;2.074195781
6.432104859;20.07726576;14.5781401;14.48118971;5.739791795;-1.169627515;-7.46246495;4.178677096;2.746304802;9.78103486;10.99276203;18.73932798;10.10458377;10.13170039;28.24707411;29.60764859;12.46822619;24.74217332;1.513199047
5.964291185;17.43510562;13.19216062;13.66205706;4.380420727;-0.726965452;-5.943991358;3.329655886;2.601934161;11.17543755;12.0597539;20.28163778;10.31287285;9.223058801;27.86396705;26.73255632;10.83281106;21.6442052;1.737425247
6.252555097;15.69460878;13.74443235;13.87571071;3.30533319;-0.122022279;-5.257448552;2.489481758;3.164588965;9.910230532;12.97853384;21.08678864;10.42673289;8.170340276;28.56117102;22.86558465;9.355167391;19.1572379;2.467289998
6.800756345;14.82670149;15.51614767;15.22499971;2.725252532;0.307910097;-5.916615097;2.322399762;4.105287026;7.228953464;13.37522414;19.715413;10.18337062;6.87275836;27.74853404;18.69136537;7.56856816;16.73364847;3.03036063
6.974672923;14.06830922;16.9528986;16.86884433;2.653821679;0.410293666;-7.167232366;3.288659555;5.033230415;5.124040784;13.11418208;15.6369801;9.537146626;5.419332268;23.14425028;14.68945024;5.157587893;13.49885239;2.94241165
6.618960621;12.73596088;17.06503846;17.90047895;3.132011182;0.339400368;-7.671177155;5.41125971;5.982924156;5.164139201;12.66364834;10.26405377;8.752963055;4.128248079;15.34276827;11.28250785;2.425008595;9.416504614;2.320121599
6.204473865;10.88003906;16.22907314;18.17536656;4.250675633;0.385670566;-6.750114824;8.180642588;7.417122499;7.549850281;12.95472347;6.56726605;8.184979725;3.304651773;8.185320101;9.009980337;0.241074642;5.780286483;1.757467798
6.390138977;9.282420972;15.74452753;18.33733375;5.942239022;0.672646684;-5.044976252;10.70355509;9.734562832;11.0233224;14.76206595;7.27196043;7.960536556;2.966147922;6.381202626;8.481312905;-0.512614136;4.506054202;1.777394206
7.409503891;8.835972457;16.59326617;19.03777066;7.800361266;1.007700452;-3.971715165;12.08151617;12.73342672;13.71580983;18.04821404;12.82363322;7.876120581;2.846699679;12.04247803;10.05438216;0.433524128;6.71578716;2.3537811
8.842262389;9.824255966;18.52536952;20.11324469;9.199816176;1.034830149;-4.454335916;11.85667413;15.54948282;14.39288771;21.79665105;20.66961393;7.608450633;2.71074062;22.75688487;13.44731493;2.538808176;11.74618115;2.937884689
9.979313875;11.67952513;20.28429309;20.57614201;9.70412855;0.559865839;-6.084315185;10.29677216;17.2004508;13.28382381;24.5326521;26.57653777;7.047613433;2.663998784;32.76700826;17.61998729;4.821992746;17.42535602;2.968022062
10.45521686;13.40866189;20.76952003;19.55618519;9.437517408;-0.245480242;-7.474359109;8.3584628;17.34669834;11.95623473;25.22989222;27.24362339;6.445540775;3.10115155;36.54928613;21.13110723;6.494769759;21.46356857;2.399392075
10.57999256;14.34953826;20.10403694;17.40930216;9.068852689;-0.952074825;-7.488833447;7.325661056;16.65716774;12.3299193;23.99552112;22.46259426;6.239727666;4.267879375;32.3192723;22.85027413;7.378522136;22.91501391;1.764067624
11.06445325;14.66327409;19.64425756;15.91688383;9.359778362;-1.20743572;-6.236303618;8.270600526;16.44026642;15.47599478;22.04870038;15.30390625;6.699401003;5.830193905;23.04532995;22.60695865;7.835810919;22.61496652;1.690788235
12.36517043;15.17175609;20.87572375;17.16652729;10.60588811;-1.005652067;-4.931289561;11.55745924;17.7588506;20.95095006;20.9802307;10.15322702;7.689389931;6.916932235;14.35486046;21.32545066;8.340371873;22.31365743;2.307826741
14.21;16.65214672;24.09801857;21.8370821;12.41099337;-0.660104258;-4.767780509;16.59168546;20.6612548;27.03037396;21.7732475;9.919928732;8.734219317;6.710580144;10.89661456;20.4906731;9.053182852;23.24;3.074046949
15.71581704;19.11775602;27.99976779;28.2553335;13.97323998;-0.511178994;-5.844803583;21.93973721;24.10167459;31.62938781;24.22970754;14.30230504;9.30809386;5.134390878;13.6857365;21.23521383;9.702770942;25.22274352;3.214729357
16.01272434;21.63680858;30.50142706;33.14072116;14.6503267;-0.634928463;-7.12199813;25.82467055;26.62859844;33.32119544;27.1674286;20.22122721;9.108927879;3.0177412;20.07772073;23.62;9.795993409;26.98860834;2.399940138
14.87733115;22.85609717;30.21768098;33.68753129;14.36119199;-0.810294301;-7.42423013;26.85217261;27.35609331;31.90132646;29.22399742;24.00556642;8.129018866;1.518311135;26.04981942;26.57992491;8.959651268;27.30561296;1.072399836
12.88771253;21.89024388;27.41309498;29.53459891;13.54215229;-0.762208316;-6.547756544;24.67535404;26.51971493;28.29814676;29.69830669;23.74556479;6.534130659;1.225723041;28.91776592;28.57117899;7.187407573;26.01334859;0.120634116
11.01749553;18.97209307;23.75872365;23.14406317;12.75055873;-0.446185423;-5.438338409;20.25200418;25.21758683;24.01559917;28.86176215;20.23886276;4.510934914;1.692830232;28.57165457;28.49110286;4.892176405;24.15558186;0.155921353
10.01960663;15.4147684;21.14490386;18.23042802;12.26887297;-0.106171399;-5.284565004;15.47715366;24.5321099;20.47048381;27.57286579;16.06084657;2.217518822;1.819626097;26.66498032;26.27701612;2.786033513;23.18746692;0.998879256
10.05841679;12.89198648;20.47963797;17.31336264;12.00158618;-0.050401802;-6.382940516;12.28530016;24.68476307;18.51358057;26.53605187;13.62542146;-0.170987014;0.798047627;24.78589513;22.84337929;1.64080454;23.92971569;1.810145388
10.78218324;12.48401022;21.30150695;20.1162366;11.66723453;-0.353227545;-7.842099295;11.65782964;24.85828214;18.23901309;25.78590885;13.68753219;-2.429369173;-1.168318847;23.24031422;19.48616809;1.973398974;26.05162576;1.757541637
11.65915923;14.07565475;22.32944994;23.90534049;11.04965347;-0.762471841;-8.406734129;13.10505054;23.83239786;19.05176226;24.77498328;15.22487961;-4.330660211;-2.98209529;21.31711416;17.21383665;3.742237533;28.37799693;0.666854548
12.25561017;16.45890629;22.39047317;25.45260152;10.08891823;-0.905910381;-7.632003599;14.9707605;20.97069424;19.93153009;22.95411827;16.51761266;-5.727229647;-3.513139841;18.52595951;16.42251797;6.226046235;29.688073;-0.867900248
12.29624555;18.05558175;21.03262669;23.17895184;8.807315519;-0.616498466;-6.307347982;15.41929613;16.81472822;19.83680772;20.33914655;16.42107347;-6.562901588;-2.478008834;15.48840316;16.99193904;8.257989367;29.39987941;-1.973948506
11.61015509;17.81465692;18.54114357;18.00795632;7.239971245;-0.083979259;-5.727326853;13.51833726;12.80948735;18.15543185;17.57337586;14.88206389;-6.79269947;-0.60938492;13.57331835;18.54571814;8.805567839;27.74349111;-2.156790325
10.15308684;15.76208266;15.58266763;12.47913803;5.496660411;0.306938566;-6.48583655;9.747529338;10.32535398;15.03235989;15.42073738;12.52567508;-6.311561742;0.990345811;13.59055906;20.57265121;7.598798219;25.45542458;-1.590974313
8.138554343;12.90987361;12.86736024;8.917977109;3.880722205;0.312096628;-7.919461011;5.630726472;9.691461763;11.38358583;14.1236948;9.924782727;-5.014449385;1.720875677;14.79337216;22.35479125;5.36;23.30302956;-0.861828623
6.098483937;10.61175839;10.99574746;8.017945499;2.863368315;0.042663549;-8.720943163;2.769044925;9.990101727;8.518188321;13.21396006;7.308627549;-2.977801997;1.832455704;15.24386462;22.93405582;3.378061077;21.7230136;-0.449384326
4.68214024;9.760703065;10.36948391;8.733945309;2.818588274;-0.12740164;-8.14712009;1.935285821;9.820277235;7.509723657;12.01141173;4.913609051;-0.587669628;2.006415198;13.40391533;21.37844662;2.631550361;20.67137916;-0.425711793
4.239034803;10.29367306;11.01754566;9.360461381;3.682450402;0.123251257;-6.686219222;2.803901153;8.494717545;8.64190394;10.44212346;3.476040933;1.572472345;2.619285343;9.649454138;17.3262485;3.059819263;19.65689139;-0.588081541
4.497612338;11.27570365;12.41886935;8.870196961;4.850566159;0.800053711;-5.559036753;4.407169612;6.747427704;11.25209654;9.447663553;4.170068359;3.065642938;3.397580012;6.316782624;11.43904295;3.554579142;17.93685539;-0.825365484
4.662817907;11.49629494;13.58514386;7.547128837;5.484909442;1.599850025;-5.534855101;5.895102975;6.328471371;14.07936839;10.49031552;7.796920637;3.922150188;3.765427004;6.035536238;5.322649286;2.750460201;14.87528042;-1.310642432
3.948005208;10.2188213;13.5370192;6.577947387;5.056221744;2.162737438;-6.202300398;7.013786745;8.677093761;15.92120087;14.36601399;13.79454382;4.629883046;3.512029722;9.57154566;0.80394171;0.078578634;10.37426019;-2.307058334
2.174150077;7.641903592;11.93556129;7.029261295;3.706366497;2.334408238;-6.411661808;8.004402271;13.60871643;16.21801077;20.18372134;19.96703415;5.725026768;3.096581716;14.94146389;-1.047064137;-3.697005042;5.13649676;-3.772172716
-0.040247755;4.80611588;9.38254786;8.997048553;2.120642766;2.217210228;-5.481174345;9.113048607;19.04507533;15.24508214;25.40285912;23.38316134;7.270424369;3.256944304;18.63915262;-0.497933707;-6.887588137;0.494390746;-5.168996001
-1.68051001;3.008419854;7.076415082;11.5008081;0.994930497;1.997721963;-3.995871626;10.19612345;22.13186077;13.85305798;27.12576775;21.98254285;8.665779712;4.269423271;18.12103194;1.087929511;-7.960417261;-2.224893393;-5.726499827
-2.036514475;3.075606645;6.016776398;13.14351016;0.533183768;1.743639103;-3.37078523;10.78512418;21.08297612;12.97579196;23.88998697;15.79289145;9.012134614;5.575061145;13.62086954;2.164890209;-6.514868653;-2.461542388;-4.98507599
-1.159091515;4.922969783;6.356388417;13.06717234;0.397779076;1.373603924;-4.513770339;10.55691542;16.49935282;13.22909083;16.72581985;6.854747548;7.798710824;6.178724912;7.841407518;1.952831091;-3.468025413;-0.786052168;-3.183551302
0.275416619;7.64149555;7.416008268;11.5809114;0.148791306;0.818057017;-6.825610099;9.793152826;11.19981319;14.80031159;8.662499185;-2.133866049;5.370521999;5.507372924;3.768303225;0.769299779;-0.371866522;1.451751039;-1.150889831
1.552596198;10.03352553;8.3373291;10.05890953;-0.224308092;0.190667419;-8.539517093;9.401699877;8.6016977;17.59026504;2.933122386;-9.498584893;2.760878645;3.949223285;2.391967727;-0.42604778;1.579856163;2.994545014;0.230190413
2.454109566;11.2582582;8.808731434;10.14184231;-0.169451089;-0.227859412;-8.195803199;10.41817169;10.69452393;21.40479719;1.071430338;-15.41079694;0.968438683;2.540778304;2.205629313;-0.856188966;2.130692657;3.463208031;0.570662648
3.301239023;11.21257684;9.241044386;12.69219719;1.012233622;-0.208616738;-5.963895199;13.3259665;16.93398177;26.0207889;2.192507293;-21.3297067;0.228538095;2.033345636;0.861560302;-0.462877993;1.80207517;3.486856011;0.121805795
4.508686221;10.46649825;10.2616507;17.13657911;3.537848499;0.199227875;-3.588596384;17.69342189;24.74078878;31.12543738;3.904609343;-28.58157419;-0.130348112;2.169405639;-2.471087915;0.216877736;1.270939931;4.098362185;-0.54530712
6.074234384;9.853480115;12.00609365;21.6551904;6.84326397;0.661863745;-2.942133522;22.40380049;31.19052008;36.28221281;4.130873987;-37.1998145;-1.103854694;1.865027756;-6.136106764;0.644986466;0.858859376;5.87734661;-1.015984811
7.473351283;9.997212735;13.86834513;24.1957624;9.890988234;0.812860419;-4.435010873;26.3240706;34.71837978;41.06394359;2.502634751;-45.87509502;-3.150048828;0.20700236;-7.343487089;0.789150803;0.496009265;8.49703207;-1.264653022
8.059103364;11.03819095;14.9530316;23.7428689;11.85338438;0.560637716;-6.702915524;28.94946556;35.75684693;45.31363043;0.373720877;-52.96234304;-5.739434087;-2.585517504;-4.771978493;1.097775512;0.041968397;10.97921469;-1.501457927
7.616030106;12.65126421;14.82664266;21.02148107;12.62439872;0.177837947;-7.858149874;30.59524203;36.04916438;49.30684501;-0.423103176;-57.69345227;-7.693706127;-5.124380607;-0.179915544;1.977933192;-0.455447241;12.38425536;-1.841936557
6.578166493;14.26079695;13.87695761;18.09668278;12.76538129;0.0762163;-7.177953391;32.04237231;37.29396608;53.58783961;0.962096773;-60.66148563;-8.065889557;-5.873398721;2.499300233;3.244386146;-0.850073242;12.34607901;-2.140175018
5.712092828;15.28551033;12.93185706;17.04599409;12.97213422;0.446200034;-5.696616123;33.92203887;40.12284533;58.48650125;3.830058594;-63.28599023;-6.882495085;-4.436391209;0.032062245;4.034937411;-1.217304248;11.05731594;-2.136782964
5.525610169;15.29914179;12.46204526;18.56571528;13.53717234;1.069296248;-5.167540646;36.27584145;44.01441951;63.63336855;6.596299173;-66.7766107;-5.176390872;-2.034865787;-7.526341786;3.298874928;-2.012650449;8.822331525;-1.757717002
5.890721937;14.09669962;12.08957474;21.50025255;14.24169867;1.473223374;-6.366546488;38.56858274;47.9892825;67.90470169;8.04600341;-71.43248131;-4.292384357;-0.721327945;-16.67139591;0.494481429;-3.807616253;5.664826429;-1.25611717
6.17723331;11.71377651;10.87541561;23.6787314;14.69930101;1.308837109;-8.329891505;40.09802559;51.41135029;69.99072483;8.145575138;-76.73975335;-4.997056974;-1.902920554;-22.95447966;-4.03372344;-6.758125925;1.384309958;-1.042823715
5.760553491;8.427072908;8.172309232;23.49111024;14.77138114;0.63643002;-9.261517759;40.48488167;54.28471926;69.30624955;7.828948686;-82.03158138;-7.040838448;-5.323616418;-24.23477484;-9.26626941;-10.27010566;-3.996471619;-1.348781246
4.473107932;4.715078774;4.311547768;21.04848599;14.64552276;-0.11626226;-8.27536204;39.90507882;56.93895622;66.60490477;8.051716944;-87.05853263;-9.439774714;-9.289910965;-22.1409043;-14.12039997;-13.22170383;-9.84305094;-2.023004688
2.653991844;1.147176632;0.510842603;18.04400707;14.52560599;-0.486020945;-6.318255604;38.93356584;59.48755815;63.74521349;8.964493953;-91.99981318;-11.19832935;-11.9307626;-20.64861246;-17.99591733;-14.64831678;-15.00370041;-2.647369479
0.817202508;-1.782435742;-1.949246389;16.4073678;14.28196848;-0.319124075;-5.345695823;38.14287049;61.55412042;62.61164955;9.87062894;-97.01040063;-11.91599643;-12.48391414;-22.99215983;-20.89235523;-14.38428048;-18.38991438;-2.863704833
-0.728899901;-3.798517445;-2.606350874;16.7902912;13.46823719;0.146895137;-6.463529579;37.75266805;62.47320133;63.85557845;9.917109258;-101.8173227;-11.8897155;-11.64047278;-29.39062246;-23.10045728;-13.1523992;-19.60695288;-2.62603111
-1.983192635;-4.880452967;-2.03525769;18.07470215;11.76275546;0.51006958;-8.781576186;37.56873249;61.779626;66.37514411;8.861891617;-105.7865293;-11.75013059;-10.78547018;-37.26578408;-24.78327798;-12.01859495;-19.13180988;-2.174401656
-3.036519542;-5.169356768;-1.255582639;18.30387433;9.45493392;0.529625909;-10.13826506;37.234617;59.61653061;68.02825899;7.267365583;-108.3936723;-11.98686625;-10.84592485;-43.49166277;-25.7841892;-11.63223192;-17.90015725;-1.788728731
-3.796007558;-4.818419836;-0.861917913;16.30765106;7.48603465;0.27841656;-9.123251158;36.59777625;56.80625649;67.19963559;6.031918789;-109.6188039;-12.70367261;-11.68748706;-46.59682346;-25.75755956;-11.83407411;-16.6409846;-1.571434535
-3.941384135;-3.90224845;-0.614878203;12.72982358;6.90058688;0.020775165;-6.532996351;35.91090821;54.58019946;64.14188438;5.755676937;-109.8414524;-13.67979704;-12.45299928;-47.10256031;-24.44987992;-11.90595193;-15.48093916;-1.452978009
-3.170268892;-2.457447777;0.200698483;9.633892683;8.083557935;-0.044935073;-4.800572683;35.70236055;54.13691455;61.04947775;6.521794908;-109.2975382;-14.56890253;-12.42964633;-46.02059411;-21.88715816;-11.2247018;-14.08909841;-1.377776764
-1.513901813;-0.625888842;2.012905261;8.994271702;10.39223134;0.058470846;-5.772623979;36.38375239;56.21140086;60.66092301;8.214774323;-107.6280898;-15.0390164;-11.65460365;-43.2601953;-18.36926765;-9.789838242;-12.18109253;-1.445417833
0.560046387;1.211707669;4.474914655;11.26077241;12.51625224;0.154277711;-8.826128317;37.86314782;60.77355466;64.26490418;10.94613935;-104.0487298;-14.81170436;-10.79;-37.72490721;-14.36148349;-8.238840992;-9.936007119;-1.833329124
2.351945282;2.431094251;6.645418286;15.10465449;13.32885773;0.110539772;-11.17550659;39.45691922;66.93870286;70.51484916;15.0461384;-98.15015538;-13.69917395;-10.47348824;-29.16492286;-10.42202742;-7.393216236;-7.999826907;-2.562676896
3.280883795;2.334457563;7.631153097;18.49177927;12.60066767;-0.030360613;-10.31046975;40.21114357;73.17111723;75.98963688;20.52555891;-90.7252363;-11.71647543;-10.77059287;-19.95675106;-7.187694163;-7.723141769;-7.113738119;-3.355426416
3.127839469;0.435639099;7.119281213;20.17856964;11.06023501;-0.108774637;-6.473935626;39.46391195;77.80142311;77.25100797;26.50336612;-83.85333649;-9.203992406;-11.19174182;-14.71438777;-5.30515048;-9.117496177;-7.68594191;-3.77312185
2.046125986;-3.273671182;5.395788918;20.43950838;9.802647449;-0.023469582;-2.823985165;37.29237613;79.7107099;73.07106289;31.2609621;-79.95717366;-6.806193156;-11.19123408;-17.40467467;-5.207926368;-11.05143516;-9.608231512;-3.564119402
0.415053792;-8.218394508;2.948260976;20.51428617;9.535567059;0.152193569;-2.826268599;34.53409839;78.8525596;65.32410114;33.11356851;-80.34415135;-5.234172277;-10.65635784;-27.99740313;-6.810756291;-12.93918458;-12.37378123;-2.919834387
-1.308113436;-13.37527409;0.098566159;21.31677817;10.22074248;0.228095017;-6.937657953;32.33772817;76.27267;57.91161909;31.55296801;-84.2294903;-4.929158404;-9.960522735;-41.51396181;-9.3613431;-14.39066976;-15.33196528;-2.37903695
-2.673246428;-17.62380177;-3.005206039;22.50574853;11.29659425;0.073951883;-11.53343007;31.51037989;73.53674761;54.41128569;27.76141374;-89.00051423;-5.857572508;-9.586642413;-50.71953629;-11.66607937;-15.25973014;-17.89881884;-2.413329022
-3.322097276;-20.17942187;-6.135551891;22.65712752;12.1974621;-0.253099458;-11.35585133;32.07090701;71.86251795;55.98102219;23.98545036;-91.65610733;-7.582964269;-9.702626471;-50.80394397;-12.66047738;-15.57501121;-19.68092575;-3.024355973
-3.138352258;-20.91277834;-8.859931502;20.35119249;12.7107064;-0.549440453;-3.79809229;33.28516945;71.48744677;60.83438007;22.12668927;-90.53324931;-9.541940769;-10.06291711;-42.6022052;-12.00508673;-15.48940183;-20.57514487;-3.708682982
-2.396601458;-20.38580305;-10.78702369;15.28254999;12.93938596;-0.63512009;8.416430003;34.14200021;71.67923774;65.52062133;22.55724774;-86.21177249;-11.29726945;-10.27080272;-31.82647898;-10.30145594;-15.26862515;-20.85955453;-3.854164726
-1.735151785;-19.56296902;-11.99403702;8.560754486;13.01874768;-0.496244609;18.5454983;33.94996145;71.36868602;67.07583239;24.04597908;-81.02804283;-12.59323583;-10.11230252;-24.81788485;-8.744839146;-15.22961235;-21.17266975;-3.261014354
-1.853525696;-19.33325103;-13.16825876;2.066919955;12.9180393;-0.274306957;20.39136882;32.68575531;69.95910461;64.64948278;24.85048433;-77.54220082;-13.24407903;-9.658200414;-24.07109458;-8.417904351;-15.57730851;-22.26990755;-2.35387492
-3.073675772;-20.10138077;-15.19180215;-2.564440627;12.50988876;-0.123278621;12.71106521;30.92294175;67.7609565;59.69341684;24.13670836;-76.95922977;-13.04662729;-9.100471528;-26.97215275;-9.692190099;-16.23858457;-24.61759319;-1.890139754
-5.088945407;-21.68013027;-18.41984194;-4.615389644;11.78939945;-0.075174245;0.088048946;29.45369761;65.78862907;54.80188865;22.64332341;-78.4794494;-11.86604086;-8.550263745;-28.60635421;-12.13196269;-16.87511058;-28.08939935;-2.382409964
-7.144936458;-23.53132482;-22.26;-4.304253344;10.9778001;-0.037258244;-10.38304093;28.88;65.11062119;52.09285018;22.10615281;-79.91157443;-9.837385045;-8.020101169;-26.21144138;-14.93170903;-17.14364512;-32.03601259;-3.692960371
-8.567157604;-25.17361664;-25.48010687;-2.391038812;10.38234138;0.088837238;-14.00499845;29.40154882;66.22355158;52.1429543;23.91925902;-79.08233868;-7.458726732;-7.571081644;-21.55724251;-17.53366163;-17.03491213;-35.73388108;-5.121953473
-9.238592431;-26.46573234;-27.0651329;0.212268148;10.15007813;0.293296216;-11.25963706;30.84342861;68.84211687;53.97860088;28.07438836;-75.13554715;-5.400603711;-7.397002397;-19.30089795;-19.95583662;-16.9883959;-38.88349522;-5.913281712
-9.63062693;-27.57862191;-26.94665925;2.641561417;10.17164266;0.466300874;-6.580149839;32.81521765;72.16481787;55.92541541;33.16284863;-68.96264984;-4.099914326;-7.673100302;-22.74623459;-22.60046726;-17.61569814;-41.73761338;-5.775082255
-10.34426893;-28.72034313;-25.99787937;4.213619694;10.24003906;0.519223342;-4.446285573;34.87252714;75.36464815;56.68786915;37.37956352;-62.59015969;-3.431342715;-8.271318357;-30.62922224;-25.72276657;-19.19319773;-44.72532383;-5.021796014
-11.54235674;-29.87823702;-25.30357925;4.640809746;10.30288811;0.493283362;-6.077639862;36.63645552;77.97585064;56.04324412;39.72231537;-57.97298815;-2.742473286;-8.652621352;-37.72767381;-29.00636862;-21.32657472;-47.88440914;-4.267539768
-12.77003906;-30.82239219;-25.33507075;4.224051821;10.53621022;0.537926724;-9.191063044;37.89389132;79.99805474;54.85483154;40.4991882;-55.94303979;-1.281328774;-8.149032612;-38.91581684;-31.61052887;-23.10589259;-50.62299348;-3.954615743
-13.34007813;-31.37580766;-25.73100629;3.736583302;11.14110786;0.768028193;-10.58101723;38.68207012;81.74848937;54.48717148;40.85544099;-55.90501817;1.260661204;-6.496096362;-33.37598105;-32.68621927;-23.69176087;-52.07804997;-4.095469491
-12.9588257;-31.69499761;-25.83019305;3.892278671;12.05502272;1.133172612;-9.035172418;39.29361684;83.60303942;55.96770078;41.7898525;-56.39;4.470408823;-4.18792132;-25.45936238;-31.98348599;-22.90306778;-51.80842608;-4.387058915
-12.03293255;-32.25589723;-25.41885777;4.731108534;12.88970802;1.431543176;-6.120972615;40.12930375;85.75466233;59.33161564;43.45136679;-56.06758377;7.395780077;-2.29493602;-21.36882296;-30.07881633;-21.33905985;-50.21833051;-4.535733647
-11.35379999;-33.47488143;-24.96821927;5.496372434;13.21299523;1.470574482;-4.451645135;41.42508082;88.0664411;63.50719487;45.1889261;-54.56734574;9.063337105;-1.793814663;-24.24313486;-28.0179398;-19.92108913;-48.29070982;-4.487047536
-11.40842862;-35.23612247;-25.12937257;5.27283166;12.94915596;1.236414084;-5.233332805;43.01433957;90.07211829;66.84968134;46.18988433;-52.60620411;8.994688046;-2.877302339;-31.57285427;-26.60469626;-19.20541735;-46.8010173;-4.389280244
-11.92520448;-36.74694391;-25.97557448;3.965788498;12.512443;0.917478384;-7.328730294;44.31821831;91.15539132;68.07161717;46.12;-51.36728136;7.424719623;-4.773463517;-37.06203359;-25.84659875;-19.01033137;-45.67482926;-4.382165808
-12.09064932;-36.9361264;-26.75911515;2.742910855;12.49306649;0.75429262;-8.523411899;44.62074296;90.8618832;67.02332078;45.27363371;-51.56130728;5.147149772;-6.235687767;-35.52449943;-24.97585686;-18.64988565;-44.08571633;-4.445714922
-11.28983123;-35.17642234;-26.49599085;3.354765119;13.12689796;0.844312169;-7.661614699;43.47068352;89.18029381;64.78320354;44.20829511;-52.81448729;3.128161528;-6.357600847;-26.99582298;-23.05579089;-17.57395776;-41.27269613;-4.451165122
-9.731421952;-31.80020376;-24.89882764;6.680892071;14.02359597;1.072552364;-5.643615823;40.93885442;86.58534907;62.91926074;43.25586567;-53.81772743;2.101400169;-5.130121721;-16.8584039;-19.75024291;-15.88657665;-37.40147201;-4.336819959
-8.371513779;-27.97311173;-22.78247828;11.65725451;14.44892724;1.226486935;-4.451480889;37.55915027;83.76436724;62.3749972;42.33509202;-53.15991104;2.299749279;-3.372343302;-11.89198131;-15.69863186;-14.32184811;-33.68932641;-4.205998453
-8.139012234;-24.96283906;-21.47605338;15.64343975;13.97643116;1.18877194;-5.221337621;34.02244881;81.19839455;62.78255127;41.17535757;-50.29;3.393738662;-2.143198791;-15.28959871;-12.21124936;-13.70586053;-31.59921991;-4.230974578
-9.097733567;-23.33045024;-21.66990417;16.20921613;12.95628058;1.03433716;-7.198444667;30.87095028;78.92996224;62.77456621;39.69859629;-45.94627881;4.656483572;-2.091128329;-24.39264983;-10.48724479;-14.34817581;-31.71588245;-4.454187433
-10.29293771;-22.66953304;-22.70857008;13.07196991;12.34503264;0.949336172;-8.508638099;28.40038821;76.73616658;61.13767347;38.20514438;-41.74761729;5.328517163;-3.171853173;-32.73412562;-10.90342549;-15.8483414;-33.24592218;-4.697488697
-10.48613605;-22.10727198;-23.04146936;8.583010186;12.95789285;1.053046164;-7.960387463;26.75864769;74.57814863;57.94846;37.21449577;-39.22019027;5.058278777;-4.832733996;-34.71531483;-12.86561268;-17.44935595;-34.61155015;-4.698126703
-9.21701061;-21.1641611;-21.55931784;6.159879255;14.72122632;1.289107276;-6.163130924;26.04034782;72.90207373;54.74726542;37.11043209;-38.91974419;4.179627474;-6.426784628;-29.40724284;-15.29500487;-18.62527301;-34.69530269;-4.368135422
-7.300463305;-20.24717721;-18.71162247;7.697739351;16.56350394;1.482937641;-4.932954167;26.20512861;72.42421131;53.48987254;37.87349685;-40.22272455;3.586951601;-7.533351131;-20.84824914;-17.35651096;-19.42056323;-33.70994358;-3.934011417
-6.283562751;-20.3173956;-16.38035409;11.94469581;17.10272917;1.505507299;-5.573693654;26.87481163;73.46484863;54.99402421;39.07251039;-41.86880384;4.17628551;-8.032424084;-14.9403346;-18.88047175;-20.2883188;-32.9381305;-3.798969474
-7.235105059;-21.94806995;-16.47777246;15.22780248;15.64433228;1.387138731;-7.654313802;27.26870285;75.36423291;58.08627871;40.06843436;-42.81489837;6.151456222;-8.005134229;-15.4436144;-20.20112468;-21.59445918;-33.52131058;-4.215611648
-9.820206017;-24.5375456;-19.33727011;14.13513922;12.72786527;1.277155823;-9.413730909;26.49046878;76.57791722;60.20369212;40.25908114;-42.7933958;8.691352792;-7.617389799;-21.90093024;-21.61475053;-23.21462488;-35.30441974;-5.04249049
-12.42570825;-26.39367026;-23.2280665;8.174674576;9.792443075;1.293887891;-9.396558299;24.07944845;75.56728108;59.10649657;39.2396599;-42.25476949;10.31372779;-7.063871797;-30.58903208;-22.95928713;-24.55111084;-36.74813548;-5.807736555
-13.28061898;-25.75504666;-25.47609105;0.34443445;8.208397487;1.412579022;-7.787420504;20.43636381;71.91548539;54.46402736;36.87951085;-41.86059115;9.792507105;-6.538181334;-37.32727037;-23.69061322;-24.94392042;-36.06300217;-6.048575906
-11.72252507;-22.05044798;-24.38029713;-4.900048828;8.400019531;1.498900878;-6.210129695;16.72803017;66.79492054;48.12281314;33.37361424;-41.98480021;7.026139752;-6.17861148;-39.91222078;-23.38368445;-24.14260287;-32.6912175;-5.655211335
-8.643190192;-16.43695977;-20.44169405;-4.792583106;9.685417658;1.452517016;-6.19472139;14.23345178;62.31819676;42.85230011;29.27115006;-42.57488788;3.204914632;-6.011008529;-38.67293458;-22.19704743;-22.48104163;-27.92184693;-4.934271535
-5.797791593;-11.14419026;-15.94383081;-0.158646639;10.88436187;1.316789419;-7.748310819;13.55093882;60.16223634;40.52018602;25.40187237;-43.359501;0.090934205;-5.958959282;-35.3071829;-20.84757584;-20.64722582;-24.08058792;-4.338767988
-4.547652529;-8.040963938;-13.22639015;5.32356793;11.1719837;1.242401196;-9.357304862;14.25073506;60.47819889;41.05097002;22.63599606;-44.10575111;-1.111499392;-5.940019531;-31.34244904;-20.05873565;-19.24344993;-22.87073833;-4.091895541
-5.011229889;-7.448887834;-13.01667132;7.866508326;10.53420602;1.335387098;-9.410886335;15.25168298;61.93604518;42.85279984;21.54274025;-44.66355014;-0.475988997;-5.964873553;-27.46167227;-19.9248564;-18.45525621;-24.13632176;-4.020449338
-6.217940989;-8.066721873;-14.09816956;6.18924647;9.565034518;1.536925029;-7.71547607;15.64108028;62.87819332;44.22152379;22.14170383;-44.81520485;0.870635711;-6.127042309;-23.88649034;-19.7550454;-18.026049;-26.00211235;-3.734372704
-7.036111763;-8.043781544;-14.48985592;2.078554572;8.880600133;1.65838093;-5.68951086;15.30017674;62.66213131;44.51877936;23.92989517;-44.18173601;1.735045345;-6.468571294;-21.05273206;-18.58991864;-17.49790036;-26.2705968;-2.995887445
-7.063929654;-6.376963244;-13.10488868;-1.346020638;8.668433978;1.548771204;-5.057514922;14.85558904;62.10619839;44.23618724;26.19200672;-42.3877564;1.830184251;-6.845044365;-19.72264344;-16.01101958;-16.51733722;-23.98708152;-1.963758878
-6.782224913;-3.571662594;-10.53149904;-2.124264483;8.686539013;1.240314605;-6.259518576;15.03471605;62.6823744;44.08464007;28.3926035;-39.40173798;1.970519397;-6.943489902;-20.38373942;-12.57375617;-15.01267796;-19.98907061;-1.105643862
-6.931987026;-1.085915217;-8.362164468;-0.703703964;8.605122622;0.92905986;-8.059157425;15.99702849;65.13734987;44.0759407;30.38250879;-35.73418743;3.345193771;-6.477841896;-22.55047384;-9.463598493;-13.17730577;-16.08732464;-0.848261616
-7.71739651;-0.022669315;-7.707674507;0.903929491;8.32565531;0.797385207;-8.719286803;17.21866359;68.70157431;43.48399728;32.29305375;-32.24411249;6.457204168;-5.411876033;-24.72246754;-7.609555916;-11.32162036;-13.59692208;-1.247461105
-8.528594726;-0.115837021;-8.168079815;1.153446272;8.009218706;0.836508775;-7.647536888;18.01335941;71.55410307;41.69077577;34.23201573;-29.64169948;10.57515125;-4.01453834;-25.19013558;-6.966214019;-9.704887059;-12.39525508;-1.937237904
-8.393451563;0.175600634;-8.103679941;0.375965501;7.858466051;0.836182111;-5.960860009;18.20396137;72.15747511;39.05655169;36.04040463;-28.07809274;14.1277546;-2.696009273;-23.14562447;-6.575298077;-8.430894905;-11.19952881;-2.388780537
-6.747962952;2.51289862;-5.95567033;0.394874567;7.914300277;0.560870471;-5.414845126;18.31746743;70.35409027;36.90103186;37.30557513;-27.1803233;15.72808889;-1.773679496;-19.27676529;-5.390798662;-7.438772356;-8.758924255;-2.272062787
-3.87996464;7.336477625;-1.525467759;2.750575665;8.065697765;-0.040312966;-6.68238871;19.09899643;67.3376967;36.49976816;37.6129778;-26.51372635;15.04569742;-1.374666758;-15.39275362;-3.204021603;-6.577955664;-4.956702591;-1.651352713
-0.710728981;13.37181458;3.803904732;7.111329087;8.225526317;-0.779003066;-8.615782591;20.76312214;64.58329188;37.94918385;36.83397239;-26.05593272;12.90700677;-1.52910902;-13.32277437;-0.887276745;-5.725540283;-0.944496756;-0.892808198
1.867197113;18.38960347;8.044807189;11.26683134;8.456042204;-1.380161223;-9.250856937;22.66895629;62.69387525;39.9543177;35.23398731;-26.21974538;10.63;-2.295950631;-13.81111024;0.286823281;-4.880941048;1.765518915;-0.38199049
3.551871248;20.69359356;9.987850871;12.75958393;8.897042176;-1.705701094;-7.681678422;23.75991132;61.14738465;40.82448951;33.33808276;-27.34826875;9.161357235;-3.718240908;-16.09556429;-0.274324525;-4.17376899;2.510568119;-0.268021621
4.689350299;20.26747122;9.942494541;10.84247864;9.572463784;-1.847286954;-5.051077733;23.43288405;59.0934327;39.88058549;31.67205486;-29.11048888;8.649231203;-5.598960294;-18.3917205;-1.887031206;-3.767815578;2.049064043;-0.398668044
5.860058594;18.75638162;9.349682597;7.173688364;10.29198698;-2.006109908;-3.631455286;22.08773584;56.40382193;38.05241293;30.56261833;-30.39314629;8.660976667;-7.338776399;-18.95887498;-2.996635193;-3.722637022;2.074164684;-0.456801884
7.375522945;18.29664129;9.653402636;4.665947244;10.77576041;-2.274690131;-4.716349167;20.84245128;53.96604643;37.09182004;30.0976408;-29.9213202;8.736357118;-8.10861246;-17.11602545;-2.295725711;-3.923885773;4.043895362;-0.182298964
9.064550089;20.02178616;11.30928832;5.357979606;10.90007813;-2.528488263;-7.236629526;20.60728807;52.9155955;38.01740032;30.20800718;-27.21288715;8.780407594;-7.3548916;-13.63293227;0.31884485;-4.15582522;8.166875483;0.459928711
10.44012967;23.28652891;13.60145601;8.918376456;10.82396075;-2.534958594;-8.508301374;21.28799593;53.49555425;40.10669465;30.7581433;-23.11035314;9.034803257;-5.278551255;-10.27259274;3.700716664;-4.274683066;13.21923545;1.245300736
11.04740595;26.13393059;15.28470255;12.88327344;10.85788391;-2.184100411;-6.655386672;21.81802071;54.6119297;41.32952539;31.56891648;-19.38290523;9.756092677;-2.84594153;-8.729679253;6.336635853;-4.340315727;17.26528195;1.792131802
10.72846639;26.67108252;15.50959623;14.41806708;11.18745342;-1.625312135;-2.633545941;21.03527077;54.56263306;39.90987114;32.389356;-17.59768956;10.9234238;-1.223007949;-9.575344819;7.434845028;-4.575639799;18.77799975;1.754908126
9.687572548;24.4155098;14.39658956;12.30569204;11.71812649;-1.173980818;0.103398312;18.6933625;52.3704333;35.7449159;32.89050269;-18.06623582;12.18327658;-1.023834232;-11.8738642;7.363382658;-5.159186865;17.47508642;1.031409851
8.410058594;20.71908852;12.9627076;7.778222938;12.20278504;-1.060065918;-1.641045188;15.75859559;48.58212958;30.52769038;32.73289782;-19.66951188;12.99528326;-1.976501293;-13.7811539;7.151169938;-6.009913053;14.44078308;-0.116361099
7.523445507;18.0034266;12.54205808;3.69947526;12.53721572;-1.239955713;-7.711690439;13.72784284;44.83191025;26.51178294;31.69240253;-20.71980047;12.82681466;-3.291859286;-13.80350644;7.545560182;-6.754867014;11.55101527;-1.122281062
7.615563465;18.31007813;14.07883351;2.750148993;12.92574062;-1.442986091;-13.81142601;13.52104084;42.53823344;24.97435707;29.78132043;-20.22085439;11.32175815;-4.409384638;-11.87165532;8.454319309;-6.933928354;10.5659751;-1.379884422
8.990752181;22.08272896;17.64433109;5.849792216;13.72098626;-1.416444564;-14.03059981;14.85533501;41.86344695;25.61474036;27.30384724;-18.57017529;8.479298281;-5.433769701;-9.397635705;9.220861578;-6.296065334;12.35139707;-0.599514606
11.431489;27.92;22.36470673;11.75641565;15.05213531;-1.15409538;-5.103501596;16.59026704;41.82766709;27.24122679;24.81627822;-17.16964925;4.840228626;-6.833968991;-8.148640681;9.433666653;-4.952404468;16.56458829;0.960413665
14.1508974;33.41737528;26.77623661;17.93901723;16.58695612;-0.906232552;10.71693015;17.70416958;41.4303699;28.96169178;22.98940484;-17.24952732;1.517662471;-8.670125878;-8.698008909;9.50554238;-3.261641379;21.90405379;2.580987623
16.09280458;36.55250036;29.47845277;22.04984941;17.6892092;-0.963559799;26.43730547;18.03944792;40.71651363;30.72761325;22.38930848;-18.81339934;-0.146749311;-10.12214147;-9.68570718;10.47099692;-1.547092541;26.77416977;3.490921744
16.50399761;36.77077597;29.81496762;23.08872954;17.8841941;-1.40755152;34.41511438;18.19107307;40.76172386;32.79712286;23.22657049;-20.51452021;0.705096427;-9.902354012;-8.651073212;13.14505089;0.112607666;30.03472316;3.354296111
15.43155381;35.13994456;28.22760069;21.68053824;17.24067965;-2.045558252;31.01280322;18.6962807;42.5348079;34.79527147;25.17764958;-20.56210535;3.761603897;-7.340122891;-4.005411554;17.35655136;1.846956277;31.45986924;2.495456952
13.75134601;33.53050706;26.02175811;19.469985;16.31228405;-2.578799171;18.66556873;19.3188753;45.6609032;35.49730478;27.41077237;-17.98543491;7.458042948;-3.214072607;3.327613227;21.9227863;3.764703587;31.67141656;1.672287255
12.62432111;33.36907995;24.59759492;18.1024533;15.65549587;-2.843117914;4.081934985;19.13953908;48.28666148;33.78358398;28.88770016;-13.33583685;9.767136731;0.527577216;10.05090132;25.41550347;5.765240842;31.60255982;1.534162044
12.7191665;34.75814322;24.58608452;18.39463761;15.33616859;-2.906498746;-6.013015072;17.42695545;48.33451099;30.00547145;28.85348254;-8.344862552;9.472723908;2.128321964;12.61416764;27.11321648;7.586708543;31.83788093;2.154612622
13.77129435;36.50967629;25.48050777;20.10613066;14.88595618;-2.951306906;-8.643691019;14.52235407;45.19305434;26.3998387;27.25987323;-4.823128653;7.037511651;1.438605492;9.90876663;27.3935261;9.060115259;32.2646999;2.995946209
14.8373023;37.05246919;26.07502633;22.34892066;13.79706034;-3.074133299;-5.529513097;11.89206631;40.41466651;25.8479971;24.83674266;-3.599071754;4.334258921;0.156742626;4.449571083;27.29455381;10.32558055;32.2654912;3.344063651
15.07689738;35.60628397;25.44518614;24.31308665;12.15120953;-3.20722757;-1.021514139;11.18551838;36.73816433;29.71619569;22.70355278;-4.205554851;3.315758854;0.54360661;0.895567826;27.64722652;11.77242241;31.29761045;2.884058252
14.46212213;32.83210996;23.75404431;25.82288676;10.80386142;-3.235830085;1.153250617;13.00436991;36.12911377;36.48993387;21.71510929;-5.438480835;4.56206333;3.54769284;2.750938991;28.48509469;13.70240705;29.41731916;1.965909312
13.84251427;30.49811448;22.23531605;27.36275009;10.87354083;-3.181064649;0.028600026;16.38605356;38.3743732;42.48223211;21.95189624;-6.294218822;6.834283614;7.877240223;9.624878614;29.14914968;15.98203783;27.33795247;1.344285178
14.28832157;30.34774654;22.30180917;29.571919;12.87166511;-3.239994089;-2.745421747;19.45389021;41.34919808;44.29506859;22.71131826;-6.582589955;8.04396297;10.87743028;17.21923366;28.90620477;18;25.9597149;1.589755574
16.20973419;32.9021012;24.41905205;32.58499191;16.16003906;-3.607927476;-4.746500426;20.73802635;42.72609987;41.23234601;23.03267658;-6.819163235;6.931807923;10.60029027;20.26549944;27.51338819;19.01512945;25.71469639;2.631220364
18.94350662;37.00232738;27.61368926;35.72819454;19.22211782;-4.234048763;-4.706118254;20.12699527;41.7366154;35.77754846;22.40843826;-7.560124018;4.137713588;7.408218805;16.36183514;25.2886327;18.65376853;26.22176307;3.787487264
21.14539558;40.43120037;30.03588323;37.84299437;20.61421688;-4.761177509;-3.171916387;18.73;39.5916289;31.71489086;21.17864093;-8.74;1.776307665;3.756012951;7.847109513;22.7262824;17.17518317;26.52044557;4.260344536
21.70436916;41.24345978;30.19271691;38.04366949;19.91810749;-4.760640359;-1.713470839;17.83913877;38.30078591;31.33765213;20.30916908;-9.542623123;1.806823513;2.263412481;0.221582583;20.0799788;15.29848575;25.72222636;3.703482142
20.49600636;38.95641791;27.94569848;36.36526995;17.99081202;-4.102412297;-1.54266291;17.90321389;38.94151618;33.92198363;20.68958256;-8.927255669;4.466639402;3.622442781;-1.789374606;17.29884265;13.73323967;23.61170819;2.437051698
18.42647942;34.83368491;24.54200041;33.80812691;16.33311467;-3.143089518;-2.664097122;18.35506359;40.82312843;36.62143908;22.44148959;-6.44716016;8.01365071;6.062556935;2.390019531;14.32224464;12.7820321;20.77656179;1.172279313
16.76442734;31.08534704;21.6877885;31.71995933;16.05677868;-2.530662674;-4.077910956;18.35297767;42.17595243;36.97811997;24.73872534;-2.768267523;9.992948025;6.832272301;8.902453622;11.38788345;12.29697817;18.19492699;0.494105804
16.27715497;29.50881737;20.38331382;30.9483646;17.20484301;-2.737432206;-4.702107045;17.69606171;41.69585794;34.95542446;26.2876707;0.522862403;9.036972034;4.484894283;12.45057229;9.005823702;11.9561353;16.58753329;0.510325602
16.78657077;30.43548787;20.36701602;31.35764034;18.86981438;-3.678548838;-4.216481427;17.04735849;39.59619537;32.83268761;26.14904713;1.762144735;5.805006291;0.083255025;10.25213538;7.578666485;11.56317463;15.97397183;0.899677637
17.39907988;32.61436691;20.48991977;32.01010979;19.93210604;-4.732165914;-3.21465797;17.2459071;37.30374552;33.09423164;24.33744879;0.190384147;2.384227357;-3.658017771;3.932864837;6.989618037;11.09456414;15.69097305;1.249188458
17.16007813;34.03732205;19.61969064;31.81175635;19.8089631;-5.166629606;-2.644971488;18.33226032;36.12504167;36.10813535;21.78847898;-3.564712597;0.704831498;-4.55117464;-2.032054053;6.527505382;10.49386986;14.80384936;1.359468702
15.63115323;33.12828831;17.3420325;30.12548165;18.68122176;-4.6529523;-3.042012435;19.20690288;36.07255844;39.5572905;19.7250017;-7.846720891;1.253368547;-2.608179546;-4.021495262;5.244365634;9.480678825;12.61786291;1.28018041
13.03765075;29.557309;14.009824;26.98085932;17.14110242;-3.471080407;-4.143355886;18.32297856;35.86339233;40.13704121;18.86834412;-10.95985023;3.03156906;0.152797636;-2.167639882;2.502821474;7.645501437;9.003826089;1.115253915
10.00724181;24.261691;10.28614858;22.89936721;15.65910768;-2.266063606;-5.141442625;14.92434113;34.07770788;36.17564417;19.036071;-12.1470874;4.63589068;1.523287114;-0.183263215;-1.647807482;4.827079606;4.428984282;0.844569506
7.190078125;18.79428479;6.700162122;18.63234877;14.33857335;-1.567937132;-5.331168892;9.838126394;30.48444694;29.08311535;19.38421294;-11.90982369;5.449745128;0.938929046;-2.291272027;-6.46475845;1.461967812;-0.236518126;0.361166204
5.035429029;14.494984;3.590712433;15.03645404;13.09903284;-1.46003418;-4.639784506;5.145776908;26.42137051;22.47368755;19.09518576;-11.47539102;5.960700728;-0.228998125;-9.697794928;-10.81300536;-1.451531317;-4.003458988;-0.320897128
3.776836343;11.97936888;1.341201048;13.01078291;12.0231972;-1.631328895;-3.646617291;2.92617509;23.91488093;19.64079665;18.00590681;-11.82557001;7.05333886;-0.104361794;-19.37781208;-13.58058623;-2.852450726;-6.044739185;-0.931203019
3.487288615;11.12936926;0.485821808;13.2501102;11.47471527;-1.718730908;-3.105555888;3.974431579;24.24229508;21.30933792;16.72537022;-13.01298077;9.01507348;1.864485035;-26.11592819;-14.0586453;-2.271251739;-5.93538686;-1.077060132
4.06695075;11.42068603;1.407141981;15.75803991;11.8360844;-1.619927922;-3.362350125;7.390710712;27.0424047;25.29978886;16.16351028;-14.2593366;11.16913591;4.31890507;-26.23033987;-12.22309647;-0.169050552;-3.814477131;-0.584433291
5.177913955;12.27286375;3.813247749;19.45450926;13.09296409;-1.518036498;-4.125909534;11.25314218;30.5947692;28.22560791;16.81920589;-14.70798494;12.42033235;5.164756967;-20.16179376;-8.849516;2.298119876;-0.401427822;0.250530132
6.260359308;13.21279801;6.520761838;22.37789463;14.66165675;-1.634209951;-4.75856842;13.81417345;32.97362516;27.85485983;18.35414597;-14.17476504;12.17335673;3.459044015;-12.04315937;-5.332193083;3.931872617;3.19379514;0.772085135
6.723268102;13.86214842;7.920462055;22.64258138;15.67097455;-1.962116569;-4.826392329;14.38647304;33.18966101;24.42676742;19.78142586;-13.24506383;10.79749013;0.329331734;-6.681712742;-3.128838206;4.112142332;5.846359265;0.421977013
6.239747914;13.90145285;6.947756989;19.65921767;15.52893825;-2.235213466;-4.439480594;13.4455104;31.57043346;20.15977894;20.15598109;-12.62655036;9.274823774;-1.904171445;-6.269113548;-2.99620585;2.997857179;6.845820203;-0.788489847
4.953156877;13.13547442;3.88935588;14.72129172;14.35199867;-2.152400961;-4.09491938;12.09068804;29.28216841;17.55799448;19.2771393;-12.33890139;8.411455979;-1.660087891;-9.192854646;-4.459758202;1.25928517;6.187362866;-2.184397998
3.437466933;11.64197752;0.378761708;10.360677;12.91969564;-1.652270187;-4.169290684;11.36435696;27.48596645;17.84394957;17.87686658;-11.52350872;8.327042326;0.58172905;-11.62949768;-5.972752441;-0.379460684;4.57836834;-2.83378009
2.424056183;9.866128392;-1.505045381;8.760403586;12.17016662;-0.989550562;-4.526049347;11.82874369;26.73133255;20.49548912;17.11646202;-9.165118288;8.600600893;2.699863355;-10.53800372;-5.82506073;-1.448930664;3.140087891;-2.1817283
2.461813409;8.525249461;-0.453006904;10.31131608;12.59074465;-0.550553489;-4.616300494;13.46641775;26.86082304;23.90447427;17.71915868;-5.199360857;8.809401469;2.723919808;-5.793035467;-3.28608715;-1.766079774;2.920429222;-0.442791871
3.696439547;8.309471621;3.364742657;13.40825706;13.92564033;-0.572536097;-4.011832771;15.76250897;27.29892055;26.4428647;19.36555788;-1.029600803;8.879134058;0.469291116;-0.040135813;0.819646579;-1.319967861;4.415658038;1.544657494
5.845968078;9.512805661;8.53232433;15.69454157;15.38293644;-1.001087691;-2.893367619;17.88201843;27.43915047;27.19844277;20.83368469;1.158444887;8.945309817;-2.346671722;3.37225862;4.585667673;-0.213979469;7.303646169;2.889001719
8.325787514;11.80334231;13.31;15.83322624;16.16994155;-1.580802591;-2.012105407;18.98834073;26.93686412;26.13750458;20.8449135;-0.06683538;8.985251437;-3.547020035;2.71755726;6.270134105;1.281071032;10.52339995;3.210048828
10.43676093;14.29095871;16.54244113;14.43057652;15.97826389;-2.067777816;-2.091320366;18.70344192;25.85377574;23.90789166;19.03759064;-4.141602982;8.727006048;-2.232227515;-1.1525913;5.427568795;2.696479828;12.70954371;2.792703587
11.568741;15.90066954;17.97282661;13.38071099;15.10708052;-2.368252586;-3.161850525;17.47613539;24.63172772;21.55325116;16.33783845;-8.627714913;8.012029017;0.627047154;-5.663933264;3.094997301;3.511859928;12.82859101;2.262263789
11.40382916;15.88784116;17.92543096;14.16459383;14.17988313;-2.509509466;-4.445421407;16.48253963;23.8537711;20.18768883;14.38573257;-10.7782262;7.22;3.13174188;-8.323517783;0.928811885;3.455511414;10.72722913;2.081207954
10.07171288;14.23029181;16.79908847;16.49992648;13.67748672;-2.523084386;-4.958530085;16.90781328;23.83143382;20.55666247;14.36291954;-9.469224541;7.173801005;4.013047269;-8.125306801;0.010645265;2.739031891;7.284378471;2.2693585
8.155368975;11.66714642;14.85366689;18.47158076;13.60695893;-2.392688068;-4.361016314;18.97960943;24.24995199;22.57410918;16.0596669;-6.03;8.403247266;3.461136763;-5.747266065;0.272248927;1.997580293;4.023319774;2.523974488
6.467805154;9.327817125;12.38805514;18.06606989;13.5133916;-2.125768333;-3.299830883;21.50093807;24.20935555;25.17191539;17.91977354;-3.264301946;10.36724475;2.636242999;-2.707604839;0.92916135;1.923219448;2.341634334;2.572453736
5.657182393;8.129347065;9.989466863;14.87034719;12.81216833;-1.852359296;-2.890181988;22.42817717;22.80626055;26.76;18.12872913;-3.327507359;11.48347744;2.472135172;-0.285411967;1.439918447;2.837615534;2.781480866;2.421563416
5.858212795;8.282415514;8.466017213;10.54260878;11.22036929;-1.804161304;-3.733426252;20.28003906;19.95781091;26.17142774;16.02279936;-6.042004921;10.22789257;2.928534631;1.059074125;2.081205524;4.516496997;4.78934386;2.299824716
6.637462204;9.216349786;8.406493435;7.658675998;9.008596677;-2.142309925;-5.327950653;15.4076858;16.83035144;23.48386615;12.78339252;-8.944184844;6.562794362;3.304762619;1.576551318;3.622427456;6.382626139;7.135167233;2.385728222
7.308160747;9.996092891;9.721547323;7.860712415;6.903942246;-2.774911488;-6.439063583;10.08077309;15.37527201;20.05736518;10.82138035;-9.05700273;2.442527628;3.167224188;1.752714452;6.438899434;7.893530033;8.731781358;2.603676443
7.420751848;9.9869152;11.61519099;10.78632164;5.686953435;-3.356981423;-6.161797955;7.140188531;17.10486052;17.65185632;12.17972118;-5.071076622;0.715030459;2.886901805;1.908597166;9.940841455;8.818219477;9.314060553;2.690252989
7.08275392;9.33518682;13.10480583;14.58301823;5.72037146;-3.523958604;-4.758405134;8.081214703;21.91050204;17.22475194;17.03339368;1.682794253;3.043797807;3.233558945;2.104363799;12.91291655;9.23145798;9.52442721;2.469153165
6.868843617;8.925440765;13.72843687;17.49274216;6.707008276;-3.190589778;-3.493110299;11.97298133;27.85072702;18.31967302;23.37209304;8.153310371;8.441890647;4.463375602;2.29124489;14.50136096;9.318850987;10.36568732;2.070141756
7.384549957;9.810679627;13.87302913;19.13979594;7.848399981;-2.655041744;-3.549620414;16.07827033;32.21496001;19.5328591;28.16442365;11.64272279;13.72309569;5.8865225;2.525694233;14.94325431;9.23018518;12.42813974;1.871280622
8.809285701;12.4747283;14.42592916;20.4792657;8.3261477;-2.388136625;-4.960806989;17.77066423;33.21672053;19.68961181;29.2608778;11.4934263;15.72726831;6.455826125;3.089480866;15.32458104;9.113673587;15.44304988;2.194478017
10.75336285;16.41343188;15.99088459;22.55934736;7.807899255;-2.654911293;-6.527892436;16.33526487;31.1339168;18.78343542;26.7463456;9.239129516;13.69012807;5.884397602;4.436636273;16.54032917;9.22698737;18.45147716;3.0148981
12.51166839;20.31238341;18.27779415;25.27636776;6.645215827;-3.277767221;-6.859901048;13.31167823;28.06156345;17.92480621;22.81184315;7.284941207;9.867549443;5.178589596;6.950350823;18.40475003;9.9029634;20.41441378;3.944892247
13.49299929;22.69614533;20.16246601;27.27306723;5.624391206;-3.752615282;-5.642358794;11.16695605;26.44673369;18.36579555;20.23806572;7.22510312;7.812365538;5.913194852;10.57656605;19.77466087;11.28769327;20.78796119;4.518393945
13.49715516;22.62007813;20.39951883;27.08779411;5.434278373;-3.640710956;-3.977706293;11.38172589;27.46700887;20.4259356;20.54324619;9.009966421;9.570241135;8.738710572;14.53235799;19.62534966;13.04583435;19.6695453;4.538446603
12.67676161;19.99020696;18.46526534;24.52681002;6.214474853;-2.921981393;-3.42579529;13.45424584;30.39620437;23.20579058;23.06111101;11.3685838;13.99431933;12.43682736;17.37199548;18.0822138;14.36131291;17.49747849;4.193273871
11.29831946;15.40184552;14.90872495;21.00525212;7.490620154;-2.018189943;-4.556224145;15.53973945;33.32266039;25.2958141;25.53981114;12.91781094;17.5611701;14.51111966;17.57183754;16.36633151;14.37545047;14.63482774;3.84891453
9.559489255;9.73280588;10.96980667;18.49140743;8.523949309;-1.464278396;-6.336327854;16.0996799;34.57726598;25.85678035;25.78626259;13.01983857;17.10344853;13.01682052;14.43728923;15.58872376;12.81781705;11.20895556;3.711684518
7.612660665;3.83872524;7.776487917;17.92214998;8.805199775;-1.497145169;-6.995238942;15.14235046;33.77989939;25.16970232;23.18492012;11.87051389;12.32560826;8.192329621;8.76755308;15.48732012;10.33529964;7.301407425;3.667630593
5.705949478;-1.490219782;5.724423779;18.45243946;8.33357693;-1.895873324;-5.670229835;14.03282982;31.82765702;24.24329214;19.06713279;10.02568006;6.104293638;2.493936445;2.691772239;14.43589012;8.17515929;3.24722197;3.443142081
4.218561827;-5.452254526;4.460058594;18.20955084;7.505930797;-2.192393705;-3.345943589;14.08664503;30.02401874;23.87827281;15.75109502;7.94527752;2.311551094;-1.105673198;-1.428250538;11.00938311;7.361434524;-0.296831194;2.931652949
3.47206779;-7.308028628;3.39761249;15.92699472;6.749879541;-2.062603446;-2.124823326;15.19474626;29.15033958;24.01453437;14.98452066;5.912601702;2.854940299;-1.252141912;-2.4170671;5.879017672;7.944774181;-2.640943482;2.364240432
3.44639545;-6.712388416;2.29854304;12.05454463;6.219770998;-1.568094067;-3.342553648;15.69893136;29.16844389;23.88349146;16.86667751;4.196194012;6.241298618;0.915760277;-1.030061035;2.195554641;8.919680746;-3.502354164;2.127456289
3.678204844;-4.096924569;1.436543605;8.368344859;5.791820964;-1.060649374;-6.182484006;13.68159303;29.60493728;22.75517421;19.91118837;3.087823481;8.762611229;2.825371368;0.613150304;3.622472712;8.933077536;-3.236095933;2.354433656
3.507469501;-0.730219695;1.243233273;6.391142382;5.321773447;-0.854582164;-8.160526893;8.63882478;30.10509583;20.56881237;22.08906493;2.674310074;7.354307975;2.557538464;0.594426254;11.15170737;7.299164939;-2.649201527;2.655711059
2.541130881;1.750694045;1.766499752;5.979412605;4.898565808;-0.960623222;-7.266681613;2.161149632;30.61946205;17.89506928;22.065414;2.596208002;1.915252728;0.24741084;-1.386816339;21.17183347;4.570621553;-2.517663461;2.287919181
0.979104842;2.146913958;2.425757596;5.331379309;4.834748429;-1.103782332;-3.981925196;-2.975202622;31.14112786;15.32355767;19.81846596;2.155186792;-4.637574588;-2.284160498;-3.895102384;26.71;2.222315347;-3.148255379;0.710463325
-0.487414984;0.343530028;2.305142467;2.48168083;5.370998678;-0.990500544;-1.269039489;-4.650998699;31.37182748;12.89927809;16.35059488;0.805258801;-8.526283037;-3.24192783;-5.128047103;21.54483306;1.657275979;-4.27139077;-1.871735066
-1.170053711;-2.650469892;0.789320987;-2.929659198;6.336403295;-0.577859938;-2.224907045;-2.812346235;30.73377771;10.16671229;12.84217595;-1.377194515;-7.78768454;-2.39429117;-4.730058594;4.608594442;3.24386484;-5.28472686;-4.435815012
-0.908939439;-5.312218956;-1.936571448;-9.107319694;7.07337825;-0.110035095;-7.141827164;0.555655384;28.76490082;6.790372168;9.90652043;-3.726702784;-3.515626902;-1.158568671;-4.507503622;-18.42796086;6.058077348;-5.625294657;-5.677916456
-0.220127378;-6.462048633;-4.913563579;-13.29253343;6.745730999;0.098710186;-12.489059;2.786074387;25.53268706;3.152404436;7.416300963;-5.579885529;1.0721895;-1.261688804;-7.248839777;-37.75041918;8.477300311;-5.017775846;-4.837380356
0.063386008;-5.818851779;-6.966362977;-13.79509229;4.852041249;-0.064325494;-13.0009858;2.175345765;21.66754932;0.30705793;4.893746575;-6.919456007;2.856418189;-3.220255777;-14.36817721;-44.71906677;9.169714395;-3.512174239;-2.238976681
-0.605584676;-3.963396514;-7.407846401;-11.26680961;1.599234852;-0.418169694;-5.585482745;-1.201320396;17.96955673;-0.769760648;2.065531662;-8.431126987;0.657454665;-5.967157054;-24.19121956;-36.61496442;7.797786186;-1.404060085;0.84523113
-2.090467317;-1.858301062;-6.40589336;-8.221497087;-2.120610668;-0.642523053;7.869907041;-5.877348554;14.93147105;-0.049778605;-0.861084738;-10.82126949;-4.438704559;-7.881077067;-32.42351966;-17.94799774;5.035608961;0.838892545;2.940333643
-3.661231951;-0.335987298;-4.780743125;-7.20428852;-5.139991534;-0.533520782;21.10227023;-10.07085533;12.57456525;1.306960882;-3.36462882;-13.95535877;-10.14913152;-8.232149514;-34.76020298;2.237663442;2.021971752;2.633746668;3.22139145
-4.481401466;0.133043961;-3.410300314;-9.053734381;-6.560575734;-0.144246871;27.29956464;-12.60104333;10.67590611;1.608090349;-5.027402037;-16.64615858;-14.42351354;-7.7364027;-29.87584219;15.1660706;-0.284364325;3.415204245;1.91422878
-4.119365587;-0.597104145;-2.682888848;-12.55361106;-6.128885443;0.288981316;23.4962417;-13.1628092;9.09901401;-0.270648248;-5.851204613;-17.42844116;-16.25314336;-7.760152302;-20.55590564;16.38302286;-1.439061469;2.892359317;0.018932709
-2.736412766;-2.416404663;-2.369475947;-15.60550089;-4.280445896;0.545837101;12.39807793;-12.09742105;7.882143697;-4.150688704;-6.237706581;-15.77684213;-15.64139088;-8.94264722;-11.98593392;7.131076646;-1.466398536;1.310793317;-1.397115113
-0.885915378;-4.897273188;-1.957024254;-16.86103427;-1.89208617;0.568872242;0.386210297;-10.09474044;7.0333943;-8.699177545;-6.679995326;-12.73438903;-13.20906635;-10.51156019;-8.327728435;-7.042631255;-0.65545679;-0.512006496;-1.828695223
0.853331577;-7.215653723;-1.146296504;-16.50007813;0.096074856;0.4543377;-6.750423499;-8.055561389;6.319778467;-12.29565094;-7.424782356;-10.31542819;-9.958891543;-10.9210884;-10.0612568;-19.16791307;0.564434992;-1.517534261;-1.494937547
2.120981053;-8.327089987;-0.118645975;-15.66882859;1.027795629;0.333707456;-7.252514758;-6.957429525;5.364214971;-13.94669525;-8.359133334;-10.05482813;-7.24225257;-9.246153905;-14.05059221;-23.73315151;1.644175033;-0.975465893;-1.017157275
2.783352173;-7.496693057;0.623604022;-15.23926101;0.748278325;0.274657912;-3.716189741;-7.471706963;4.037369899;-13.63582713;-9.175975753;-11.84361221;-6.55288846;-6.090694661;-16.2330125;-18.65642535;1.994096362;1.067596746;-0.923141098
2.822134531;-4.890934433;0.702795933;-15.04078987;-0.357193914;0.279377431;-0.465416347;-9.40371018;2.772549723;-12.01034241;-9.647174739;-14.02057293;-8.884397339;-3.199795978;-14.8065797;-6.001690589;1.244200138;3.796254815;-1.341637545
2.290043945;-1.707262035;0.240744753;-14.18381942;-1.527491857;0.34273032;-0.23276793;-11.42825115;2.420227383;-9.810168406;-9.75943841;-14.67330067;-13.92748154;-2.101746239;-11.40997252;8.725057113;-0.424081445;6.130369567;-2.035430766
1.386976026;0.456079251;-0.136102605;-12.07282816;-1.969699977;0.476573163;-2.618621496;-11.588569;3.650613692;-7.529898502;-9.600523076;-13.08756533;-19.78853174;-2.936819604;-9.395764327;18.74787439;-2.168551563;7.403767104;-2.646812895
0.525872457;0.694818534;0.318503053;-9.112961194;-1.266232764;0.662517753;-5.141435366;-8.488648951;6.361716288;-5.46885966;-9.112631511;-10.15465768;-23.7120314;-4.441054268;-10.65314612;19.17098306;-2.816778525;7.755112252;-2.916450768
0.218992072;-0.42714306;1.961260751;-6.447680727;0.359212143;0.796361319;-5.637424482;-2.440961297;9.619179645;-3.925119902;-7.968361014;-7.439009327;-23.56293493;-5.043143501;-13.65375258;9.751648196;-1.53465338;7.966396614;-2.739748526
0.774786203;-1.122309974;4.476466014;-4.986317748;2.103771189;0.718033559;-3.942987259;4.350474425;12.23499328;-3.20114011;-5.748447705;-5.764286879;-19.15542655;-4.104321695;-14.45087731;-4.459167996;1.579868023;8.876512237;-2.110248335
2.009574964;0.365820572;7.005442212;-4.640650702;2.997143519;0.338861266;-1.681858972;8.915019908;13.53581853;-3.361150515;-2.35187411;-4.584031581;-12.48919833;-2.278243824;-9.956814613;-15.5296387;5.417975808;10.7881113;-1.085407869
3.235840125;4.335755762;8.591269401;-4.495367953;2.453618574;-0.238366544;-0.657218139;9.321867117;13.68585027;-4.01590905;1.664944306;-2.689451547;-6.652743054;-0.786892489;-0.871652048;-17.13484706;8.418595448;13.26494637;0.167352703
3.609967724;9.133753716;8.648217055;-3.771975157;0.627000962;-0.737185451;-1.378026581;5.935319653;13.30879286;-4.458798887;5.144466518;0.412751499;-4.066700261;-0.340112545;8.240591706;-8.445474674;9.441980029;15.41879399;1.325826225
2.638859669;12.10082974;7.184912037;-2.69634592;-1.672734986;-0.885591822;-2.893467949;1.179820827;12.77934628;-4.167589016;6.861264638;3.761472739;-5.185284791;-0.657226967;12.04221532;5.277545191;8.396578493;16.44792101;1.993788181
0.495080021;11.39111733;4.702781646;-2.43135523;-3.46148707;-0.624239853;-3.852259343;-2.083633191;11.86176051;-3.296976728;6.258331638;5.614685867;-8.434821913;-0.928023308;8.424245811;16.05332985;6.210941138;16.05643269;1.91989111
-2.087823875;7.354579937;1.899658388;-4.059212059;-4.148674689;-0.163305987;-3.703357794;-2.443628277;10.06229886;-2.693891735;3.905969101;5.033209545;-11.32412729;-0.684657171;0.288936132;18.39191041;4.184719387;14.52079157;1.203023095
-4.261120212;2.40526396;-0.611890993;-7.471979631;-3.815626424;0.179450567;-3.005173523;-0.744014446;7.390078125;-3.300164072;1.323248066;2.976986452;-11.93431935;-0.23235695;-6.42196095;12.74989859;3.167834434;12.43707283;0.285508737
-5.521446116;-0.615358045;-2.43868062;-11.17201446;-3.035310089;0.237150326;-2.723845646;0.751324481;4.789973209;-5.319630605;0.198935239;1.829889943;-9.862897075;-0.261074672;-7.091651698;4.761846851;3.113362071;10.37121011;-0.320467867
-5.870451623;-0.42505243;-3.402618561;-13.2444746;-2.391558985;0.130361215;-3.286007916;0.186843125;3.736315209;-7.794350871;1.45896427;3.582426222;-6.165769533;-1.055625673;-1.891159369;0.822277775;3.270869563;8.633357741;-0.397496051
-5.613330919;1.823797746;-3.493688093;-12.7616179;-2.064741517;0.156762808;-4.254851907;-2.437656348;5.196973933;-9.007497842;4.757053035;8.109461225;-2.512424503;-2.093447744;4.35727627;3.308032933;2.840637949;7.255953265;-0.189404179
-5.021600344;3.435701227;-2.855417247;-10.47598419;-1.78646316;0.519897775;-4.83287667;-5.274698943;8.776207201;-7.546823123;8.707255832;13.01823725;-0.183324355;-2.439580122;5.887095548;9.007145197;1.608437232;6.109756949;-0.206341607
-4.165812089;2.163335151;-1.79651393;-8.217677976;-1.177760815;1.128309375;-4.636779259;-6.065799973;12.78234584;-3.348646678;11.7008447;15.31715559;0.504840531;-1.589399056;0.47194237;11.88067077;0.121651367;5.042033699;-0.791377179
-3.039944103;-2.190657782;-0.76742965;-7.472856664;-0.189072357;1.643307718;-4.014966976;-3.911880867;15.25911277;2.013148183;12.78298747;13.65771575;0.129598835;0.01999715;-8.742945929;7.97036325;-0.695776556;3.962925386;-1.786565214
-1.816326597;-7.731404227;-0.260427354;-8.295915656;0.723264212;1.742377177;-3.671108508;-0.038683262;15.2435261;6.065707078;12.05655578;9.383536695;-0.365977899;1.317766526;-15.48456277;-1.362770199;-0.202253912;2.869861216;-2.587382614
-0.937269283;-11.94983817;-0.659544845;-9.428491144;0.856489482;1.378195487;-4.004351777;3.0268879;13.3161475;6.803585416;10.42161168;5.537368353;-0.271622373;1.476183541;-14.98415653;-10.3602198;1.493925923;1.829245121;-2.578144433
-0.888457022;-13.53308932;-2.115799133;-9.498284057;-0.201709585;0.815007682;-4.785711978;3.269673407;11.05760232;3.854347693;8.896397938;4.593108849;0.562738279;0.593790338;-7.50784708;-13.20151825;3.578169129;0.930515304;-1.626385003
-1.797587372;-13.12559104;-4.510781392;-8.285036339;-2.147864132;0.414529846;-5.423084326;0.652883283;9.866011588;-1.284968241;7.996551734;6.677325086;1.795447463;-0.406915015;1.82239642;-8.384480938;5.044030373;0.224092583;-0.242257255
-3.202937557;-12.54628481;-7.514460183;-7.00069631;-3.995929355;0.35638097;-5.515291201;-2.847276885;10.04113903;-6.103184431;7.542152;9.622550795;2.938246519;-0.569710901;6.683419928;0.199433664;5.314126674;-0.331721137;0.745534229
-4.251865858;-13.19966207;-10.69203286;-7.354630496;-4.617405434;0.527864456;-5.172420687;-4.677686971;10.76487262;-8.511917173;6.933554394;10.72372079;3.710706502;0.302488299;3.872542307;6.242500655;4.537891662;-0.878497164;0.767401746
-4.261174497;-15.00344736;-13.60639168;-10.16809079;-3.476167282;0.664314338;-4.848744753;-3.576321984;10.873108;-7.994261946;5.638593545;8.761285373;4.158639186;1.51443537;-4.859439566;5.683581764;3.37529141;-1.600838821;-0.094318707
-3.252163491;-16.6496318;-15.89017972;-14.65028802;-1.070808948;0.602955896;-4.898895001;-0.509958619;9.738780457;-5.773901281;3.554718188;4.743390162;4.4750193;2.08056719;-14.57273665;-0.517811882;2.450660036;-2.627396691;-1.199584853
-2.030854936;-16.87253335;-17.29051048;-18.89204168;1.255372283;0.422773855;-5.287636368;2.012631685;7.603708089;-3.925249131;1.054117205;0.924289032;4.69622902;1.522776337;-20.86484411;-7.493053803;1.901504119;-3.943935629;-1.853908386
-1.684047836;-15.57957747;-17.69691436;-21.15989469;2.079286122;0.354985876;-5.689037446;1.765450952;5.220039063;-4.014436168;-1.256895764;-0.981928601;4.55897805;0.208338218;-22.63096695;-10.40592432;1.369628938;-5.366118707;-1.820906192
-2.800571368;-13.87494319;-17.15465737;-20.98478595;0.782391936;0.55705432;-5.828098324;-1.558884179;3.207317792;-6.160251645;-2.886415944;-0.952116253;3.681699366;-0.987299085;-21.9808426;-8.051615795;0.431698346;-6.583665934;-1.441595844
-4.972612295;-12.99810723;-15.86;-19.27714266;-2.024913903;0.959822819;-5.718885168;-6.111342509;1.664194005;-9.122423412;-3.721060524;-0.383868019;1.9448437;-1.339718094;-21.81838589;-3.362163848;-0.897192171;-7.256640386;-1.279212231
-6.975749789;-13.15044837;-14.13687358;-17.5091652;-4.853688232;1.322659889;-5.59793229;-9.246701464;0.261489972;-11.32374493;-4.086143427;-0.809910802;-0.277536026;-0.704958683;-23.32037371;-0.606410223;-2.038412228;-7.138296536;-1.595261335
-7.553691664;-13.28052056;-12.39282822;-16.6905646;-6.268621825;1.440029297;-5.663222798;-9.49977447;-1.378505353;-12.05574666;-4.577239895;-2.724448059;-2.311667695;0.540776787;-25.31596626;-1.682334027;-2.266170354;-6.200039063;-2.100425418
-6.27887609;-12.06030628;-11.04305114;-16.89712818;-5.793246665;1.310641343;-5.895189847;-7.707643895;-3.379222572;-11.97658122;-5.73025151;-5.387472319;-3.720849526;1.856664166;-25.75513519;-4.546371613;-1.367995751;-4.715557234;-2.197878931
-3.867849926;-9.227473474;-10.38703064;-17.55020725;-4.163536716;1.122662655;-6.117527713;-6.40014944;-5.583071762;-12.52150899;-7.684236502;-7.574644937;-4.740416628;2.809226538;-23.70628618;-5.056758541;0.011162022;-3.232621664;-1.527020259
-1.694728066;-6.101841566;-10.45610994;-18.02930515;-2.739230449;1.079220034;-6.200112636;-7.854247723;-7.72734458;-14.66976776;-10.04055813;-8.522810167;-6.154719468;3.092442902;-20.09181381;-0.752450417;0.716425893;-2.375180311;-0.354627249
-0.823004166;-4.739389192;-10.91026411;-18.04660692;-2.486550059;1.227192388;-6.178471892;-12.2373437;-9.627348272;-18.03361596;-12.0630802;-8.332604815;-8.591584407;2.45981131;-16.70249833;6.498905877;-0.042689406;-2.514488167;0.535867804
-1.246389288;-6.330981544;-11.09684914;-17.57544383;-3.282223922;1.436559506;-6.177134344;-17.26393389;-11.25366801;-21.02258651;-13.16666896;-7.68386683;-11.76864611;0.81515007;-14.6242588;11.24846023;-1.942895516;-3.484494726;0.412896183
-1.904667415;-10.12835228;-10.32675519;-16.59659446;-4.077726616;1.530788517;-6.241566152;-19.7101899;-12.72091375;-22.00375873;-13.3988364;-7.283589163;-14.40548942;-1.541903726;-13.62379072;8.293027364;-3.586506312;-4.57263097;-0.796027958
-1.488464554;-13.80675959;-8.27418456;-15.04930699;-3.821488159;1.433763139;-6.274350243;-17.73905364;-14.22919571;-20.55800261;-13.52837009;-7.527287485;-15.06231152;-3.817045855;-12.9759293;-3.146396586;-3.447626457;-4.891835984;-2.33648969
0.539476393;-15.04010408;-5.263443882;-13.06702327;-2.431392962;1.199310492;-6.148744476;-12.32764372;-15.93988086;-17.80245824;-14.56012134;-8.482436256;-13.36876532;-5.051500885;-12.74161342;-18.05243861;-1.112076383;-3.970400884;-3.066699368
3.460632677;-13.09352115;-2.207039863;-11.18895649;-1.021965052;0.91593101;-5.874180374;-6.696334818;-17.77342184;-15.47491897;-16.92125042;-9.96;-10.62970478;-4.77716351;-14.04148548;-28.30303965;2.140709156;-2.174115653;-2.22436941
5.732358294;-9.225472969;-0.157066561;-10.18971626;-1.133084363;0.603223191;-5.625740491;-4.105049862;-19.25168671;-14.51142563;-19.90623027;-11.47746256;-9.131982945;-3.487824386;-17.87336238;-27.79954734;3.981341084;-0.610128757;0.009534231
6.04106619;-5.644105234;0.284923709;-10.5369539;-3.496240611;0.21657929;-5.589599243;-5.61872358;-19.6234947;-14.3326718;-21.90386784;-12.22658285;-10.47470916;-2.42821527;-23.55290638;-16.58929956;2.578692606;-0.490402523;2.549965949
4.214628992;-3.897577393;-0.694741869;-11.9187414;-7.294290502;-0.243920003;-5.773381809;-9.494884801;-18.39040561;-13.5186189;-21.41053447;-11.32263381;-14.1390274;-2.712317154;-28.4330206;-1.099202018;-2.01;-2.341921982;4.037542227
1.327242226;-3.971999293;-2.29234226;-13.32862445;-10.55355567;-0.643081794;-5.978440203;-12.63822716;-15.97571022;-11.36484816;-18.19565016;-8.371220448;-17.51429888;-4.39268424;-29.53150427;9.826239664;-7.663076016;-5.616626307;3.650800019
-1.070254274;-4.723514438;-3.657137193;-13.75241498;-11.45381282;-0.755906463;-5.975670943;-13.0007385;-13.95728986;-8.955389633;-13.73855657;-3.953937936;-17.58074692;-6.256604292;-25.91013807;10.54591206;-11.46869628;-9.005418335;1.58471313
-2.007620351;-5.145112907;-4.436445389;-12.93855447;-9.602770729;-0.435728309;-5.721628118;-11.0856937;-14.40672785;-8.64999447;-10.4768872;0.503023505;-13.14013733;-6.615872039;-19.73382561;2.197222607;-11.62219353;-11.25142744;-1.086375252
-1.647550978;-5.308770437;-4.870927856;-11.58229542;-6.298605707;0.238334124;-5.404629202;-9.410952033;-18.51432145;-12.16785961;-10.26072374;3.591300275;-5.934130253;-4.556558505;-14.85012554;-8.164600609;-8.611445413;-11.87632315;-3.045899563
-0.946865368;-6.165368182;-5.370570918;-10.70687892;-3.555233778;0.97827347;-5.27213287;-10.37403999;-25.39625005;-18.74784646;-13.06648973;4.94499777;0.288864697;-0.690377085;-13.81271763;-12.3219708;-4.820677088;-11.2969621;-3.464813039
-0.743917762;-8.415091135;-5.945926077;-10.72781119;-2.624644841;1.472259449;-5.402495367;-14.20559072;-32.11994765;-25.04235711;-16.93863243;5.557643342;2.190623333;3.208247211;-15.74527808;-6.414565072;-2.812401117;-10.28822588;-2.398979966
-1.035650204;-11.49195392;-6.027478216;-11.01880349;-3.157280627;1.588307981;-5.636660508;-18.6243746;-35.2527753;-27.16478356;-19.28553279;6.987674714;-0.96336177;5.429563622;-16.93143404;6.421873178;-3.513030414;-9.264703378;-0.662547706
-1.038076697;-13.62904568;-4.908524998;-10.42246691;-3.649688191;1.425600873;-5.727657332;-20.47477104;-33.07128281;-23.54815155;-18.65360237;9.98200335;-6.905301937;5.481465327;-13.8186029;18.03603831;-5.604814861;-7.98364825;0.700232479
0.02986037;-13.05189248;-2.502003383;-8.340537341;-2.80863647;1.178513864;-5.556739842;-18.08623775;-26.88047609;-16.41692734;-15.70994941;13.64938258;-12.00544107;4.290146471;-6.047562787;20.54801162;-6.548705061;-5.900019531;1.014825675
2.110419526;-9.3661557;0.241498035;-5.482455185;-0.722306056;0.948197236;-5.212448991;-12.5517936;-20.35043631;-10.53693976;-12.71608061;15.98173348;-13.702225;3.338664933;3.024067532;11.47261897;-4.479310481;-2.838733335;0.313035784
4.155739867;-3.996380933;1.722338483;-3.559516629;1.125604787;0.680457655;-4.879612998;-6.983845289;-17.17070585;-9.94420815;-11.88174469;15.43219514;-11.96529785;3.477801978;8.82630259;-4.629300792;0.401104536;0.630634219;-0.756660161
4.848664435;0.720598119;0.734585599;-4.059150529;1.035998807;0.282410423;-4.678523693;-4.362992886;-18.62625072;-15.00263878;-13.81059383;12.30222169;-8.864308966;4.371731521;9.103949953;-18.94976628;5.908933679;3.478404925;-1.366667901
3.65558645;3.099102016;-2.568107343;-7.030039063;-1.464586792;-0.208654741;-4.628031644;-5.614767383;-22.85268807;-22.0446673;-17.15512137;8.728963122;-6.776680687;4.978686494;5.564139942;-23.7649903;9.340723344;4.946554681;-1.030372068
1.360512988;3.114466749;-6.558833478;-10.86970854;-5.085581888;-0.590037842;-4.747684027;-9.267902655;-26.32648062;-25.97742497;-19.66640693;7.156576003;-6.694395226;4.596730429;2.287268256;-16.85837971;9.243024407;5.1119021;0.102544674
-0.393074768;2.11841293;-9.068070876;-13.34368877;-7.598408861;-0.65347318;-5.138634815;-12.76378433;-26.47247035;-23.98447329;-19.78693009;8.456054436;-7.818741183;3.553690082;2.262466401;-2.383251651;6.270462276;4.790990209;1.355447027
-0.246147527;1.580440785;-8.758429586;-13.08680609;-7.414559189;-0.404579682;-5.892871362;-14.27003906;-23.43506755;-17.57587001;-17.59311862;11.23396649;-8.499349;2.950048828;4.989638839;12.04993747;2.624574227;4.854192863;1.979442905
1.911821342;1.941222334;-5.96381277;-10.44652306;-4.714708679;-0.125390545;-6.884231926;-13.64105783;-19.73503045;-11.45691293;-14.48;12.96071544;-7.569291488;3.680039063;7.160666359;19.92247231;0.571691612;5.528662362;1.671202724
4.904048596;2.50365195;-2.374218776;-7.055829001;-1.285920713;-0.187099174;-7.680885137;-12.0218131;-18.18927075;-10.08049667;-11.98494053;12.0583744;-5.028120856;5.570372408;5.768808487;19.11512767;1.100925676;6.287315679;0.807333487
7.181561121;2.355162891;0.201011542;-4.53501468;0.773108565;-0.747323827;-7.763447777;-10.70595569;-19.78360639;-14.47;-10.7544971;9.253346758;-1.769180357;7.38427802;0.891928281;12.26902955;3.556328203;6.41725885;0.209747953
7.974740554;1.414272003;1.067201619;-3.384810703;0.477055909;-1.589687607;-6.944401393;-10.29685062;-23.1227408;-21.62900698;-10.41582935;7.050954226;1.12450641;7.728476196;-4.307374712;4.542571739;6.316656856;5.764924449;0.566421252
7.784831401;0.597402795;0.962332861;-2.911590768;-1.524438794;-2.259608012;-5.629780704;-10.71740097;-25.73777759;-26.84044104;-10.28397019;7.711010283;2.810078125;6.160636188;-6.356221209;0.552817745;7.905727826;4.986475372;1.892251732
7.850919686;0.896447749;1.257531249;-2.12815787;-3.60653056;-2.398955745;-4.623654543;-11.73666308;-26.04601288;-27.00322768;-10.14849115;11.35064994;2.652129875;3.620658236;-4.524573861;2.310877392;7.763290286;5.048475723;3.428121741
9.043834017;2.167044751;2.69876832;-0.769989853;-4.387589873;-2.004210907;-4.552186652;-13.27082845;-24.34345081;-22.51449417;-10.40277483;15.73098714;0.141464564;1.826841656;-1.364260731;8.878980115;6.299342337;6.376119833;4.098761079
11.08568644;2.776276274;4.68880579;0.472529055;-3.550512894;-1.392266845;-5.357411908;-15.10864783;-22.14776218;-16.49;-11.442885;17.93614108;-4.783220224;2.068491203;-0.160009155;17.31414145;4.408921306;8.372994403;3.252087678
