Channel 1 - P4;Channel 2 - O2;Channel 3 - P8;Channel 4 - T8;Channel 5 - C4;Channel 6 - Cz;Channel 7 - Fz;Channel 8 - F4;Channel 9 - Fp2;Channel 10 - F8;Channel 11 - Fp1;Channel 12 - F7;Channel 13 - F3;Channel 14 - C3;Channel 15 - T7;Channel 16 - P7;Channel 17 - P3;Channel 18 - O1;Channel 19 - Pz
6.257914655;27.4831577;1.382358798;6.777562752;7.185194438;5.655852415;49.82842019;21.4037076;-12.5121284;7.509069257;-40.00664837;28.32827578;31.80378162;10.27864097;32.55166315;57.03966967;4.310688643;9.545740022;11.8330163
5.183703285;17.79583831;1.800774813;11.30618563;12.66999844;12.29285258;26.7465334;32.23647333;40.51663778;28.17979715;8.499593953;10.4570693;28.282421;8.089822224;10.89378737;28.85975271;-0.102553565;0.9736807;10.93497007
-1.351405893;2.154602302;-2.514560675;10.76069631;11.24513935;12.74284955;-1.667869092;31.86786499;57.27059286;35.64415749;29.85676216;-9.111217207;13.31690224;-0.650670123;-13.79757406;-8.937747727;-9.894553;-10.99890469;4.65119971
-9.834449208;-11.91409798;-9.110078125;7.024179013;5.168812122;7.597336033;-19.14862375;24.85882438;45.31724172;32.10451685;25.63024152;-23.29205939;-2.560594304;-11.86283069;-29.03696939;-37.31390005;-20.87959762;-21.89176472;-3.502808775
-15.21760059;-18.26292339;-13.66317975;4.043102654;-0.277107727;0.994805124;-18.58149503;18.88548312;25.35205449;25.13022227;10.24768971;-27.60051067;-10.0361571;-19.77277703;-28.55378236;-44.05199427;-27.77102332;-27.35301011;-9.036699423
-14.56761217;-15.98905327;-13.02803671;4.863785624;-0.876649418;-2.569794702;-5.682294342;19.16655495;15.96492997;22.12620515;-0.060146187;-22.74253934;-6.850419035;-20.75905038;-16.44638224;-31.12460564;-27.7020202;-25.84693558;-9.505751868
-9.088138015;-9.413508483;-7.385008231;9.533187667;3.401724565;-1.420142381;6.802051345;25.00893179;22.21762473;25.56626568;2.094775004;-13.88113822;1.813020172;-15.67330971;-3.74516613;-11.9638599;-22.08312189;-19.56630359;-5.923721184
-3.045305895;-4.44769394;0.02721371;15.33936249;8.638124767;2.499717633;9.392692401;30.88499048;35.40770961;32.1952701;12.34023567;-7.167134553;8.139188052;-8.940815225;-0.103324591;-1.155822685;-15.45231322;-12.90606968;-1.648954873
-0.556740875;-4.325334582;5.251823811;19.00643432;10.22145015;5.579364078;2.594885658;31.03165448;42.56253147;36.38468382;20.38749378;-5.988408533;7.660494632;-5.190078125;-7.01616487;-4.465279808;-12.23038626;-9.591256358;0.244022377
-2.77932902;-7.93595081;6.180078125;19.01657598;6.455684019;5.493175216;-4.799510351;23.99023518;37.32551596;34.80524327;19.17304635;-9.428834663;1.91118531;-6.002475694;-17.59350884;-16.30576861;-13.80686722;-10.48768347;-0.955048821
-7.547433138;-11.70705792;3.496679891;16.31626076;-0.308876876;2.780719552;-3.849600644;13.69974496;23.95380102;28.81987947;10.03772164;-13.71799197;-3.764071059;-9.181725763;-22.66571049;-25.71069024;-18.00575481;-13.54531645;-3.524409183
-11.4692581;-13.10046969;-0.441845219;13.10411217;-5.743351524;-0.012922491;6.81298764;6.476368902;12.42613153;22.98545659;0.549300451;-15.33787848;-4.939671362;-10.91792565;-18.13466044;-25.45905696;-21.08723189;-15.70989024;-5.047109809
-12.6027077;-12.66801673;-3.635594584;10.93834326;-6.974856198;-0.675102806;19.78681217;6.312987023;9.729937132;21.14762554;-2.369987723;-13.46739982;-1.418208775;-8.994165596;-7.80772298;-17.16990281;-20.5702322;-15.24398473;-4.386517179
-11.58663178;-13.06896216;-5.684025309;9.787218006;-4.605313968;0.8993255;24.85882841;12.06708359;14.71550302;23.38303288;2.00315681;-10.17872234;3.24096476;-4.499075245;0.174785502;-8.961245437;-16.74346205;-12.75477131;-2.336959851
-10.56007813;-16.1470128;-7.4129228;8.654630192;-1.852402078;2.872858752;17.10875343;18.51924374;20.17247671;26.17720608;8.262872016;-8.553077338;5.077710384;-0.821784252;0.068244455;-8.298909742;-11.96621004;-10.35210586;-0.626612693
-11.04411739;-20.79265313;-9.491301127;6.984202694;-1.740793755;3.226416556;0.76542029;20.3152444;19.58767015;25.53063842;9.930331226;-10.30452109;2.916134107;-0.886930784;-7.113100038;-16.08283444;-8.632974991;-9.806762304;-0.316352464
-12.66346581;-23.55230262;-11.42489715;5.427333253;-4.740940626;1.493822942;-13.91608645;15.75344131;12.56758213;20.36869235;4.91921383;-14.62958836;-1.138269033;-4.884825273;-14.88332784;-26.42224312;-7.551252515;-11.22111224;-1.006775423
-13.68137401;-21.51636708;-11.84743995;5.237175448;-8.684565901;-0.974653772;-17.99522966;7.709329992;4.648647997;13.50338959;-3.053160663;-18.9181793;-3.909508878;-10.21367725;-16.80998867;-31.66798285;-7.876528232;-13.15150646;-1.425795659
-12.70289971;-15.02532574;-9.807059785;6.865475483;-10.79363198;-2.300842227;-9.717435023;1.277318531;2.228504292;9.452896629;-7.877516458;-20.5953267;-3.888148163;-13.52629715;-11.60087474;-28.24916098;-8.326718027;-13.896794;-0.731999047
-9.977284795;-7.851164548;-5.854857082;9.109005026;-9.97039885;-1.690903092;5.117563233;0.104569014;7.241322348;10.93508354;-6.093461963;-18.71052657;-2.174807303;-13.17800549;-3.753307306;-18.76029347;-8.413386372;-12.80685012;0.687295791
-7.208446101;-4.601710537;-1.928560582;9.705635222;-7.461803746;0.01832343;17.83627962;4.12314661;15.92760338;16.81216817;0.635778834;-14.28993454;-1.10880733;-10.21999966;0.423816555;-9.207147225;-8.633880709;-10.59852487;1.601242702
-6.13886302;-7.377722524;-0.075618399;7.019007087;-5.52377238;1.240962379;22.60540175;10.08714143;22.26765049;23.00278698;7.323635083;-9.458287036;-2.067884007;-7.355978406;-2.075404192;-4.20122433;-9.644195045;-8.577044376;1.089845632
-7.187098876;-14.29937693;-1.044160936;1.47285172;-5.397627808;1.067088485;19.11640605;14.16456836;22.81090627;25.51278731;9.829890327;-6.127086817;-4.426548301;-6.855700741;-8.820940034;-4.075431712;-11.35226035;-7.539368015;-0.604255762
-9.265089608;-20.98160068;-3.858846033;-4.463922096;-6.362724155;-0.039149673;11.14505375;14.4935567;18.88086464;23.18033585;7.805648161;-5.132531971;-6.404946996;-9.059091978;-14.22882379;-5.785900272;-12.84761609;-7.28569208;-2.277396348
-10.81122805;-23.70272998;-6.660555062;-7.809055394;-6.573251267;-0.801726592;3.077555323;11.95510171;14.74191573;18.13284272;4.23459857;-6.188969286;-6.806342834;-12.4397029;-14.10323929;-6.191565199;-13.22359797;-7.049701513;-2.808098395
-11.05782849;-21.79180983;-8.071535055;-7.007104295;-4.826215517;-0.352384516;-2.613486377;8.95292952;13.75813062;13.84684855;2.420509415;-8.406754752;-5.987512121;-14.91392576;-8.718685695;-4.657002021;-12.48928171;-6.362777652;-2.100565199
-10.46536264;-17.56209687;-8.002202874;-2.890929742;-1.687445675;1.017375766;-5.588983044;7.427108373;15.92222968;12.50026297;3.244463875;-10.86362521;-5.288823293;-15.24940209;-2.227040568;-3.004030669;-11.68862307;-5.56091616;-1.114305858
-10.08513881;-14.15794963;-7.375778208;1.936815039;0.941150116;2.197594958;-6.453135625;7.637441079;18.52933007;13.64100903;4.917503236;-12.89587657;-5.627224988;-13.59576812;0.752118983;-3.358050696;-12.07954577;-5.524266959;-0.994699965
-10.55321761;-13.23239951;-7.172297538;4.743717782;1.357227448;2.309632611;-5.851623237;8.406706914;18.92194951;14.96816935;5.072787903;-14.12092514;-6.643759509;-11.01322676;-1.547806982;-6.096809768;-14.08156831;-6.922121691;-2.093427015
-11.64269536;-14.23869296;-7.680870698;4.152643475;-0.640415654;1.480165187;-4.535908909;8.338802685;16.68607643;14.34962928;3.077552123;-14.39137589;-7.146838328;-8.61450344;-7.248176383;-9.651999831;-16.90606755;-9.626441235;-3.718662015
-12.68183314;-15.57661023;-8.531694963;0.603971915;-3.715269226;0.666274547;-3.627705618;6.9384573;13.56377075;11.41235197;0.515725801;-13.80684102;-6.313975945;-7.017496032;-12.71622616;-12.04139917;-19.1770954;-12.76163264;-4.77895659
-13.31312417;-16.28750034;-9.30924278;-4.224226294;-6.119886143;0.745656936;-4.07391497;4.861767339;11.5782124;7.613946998;-0.384996408;-12.72539544;-4.441287754;-6.331778726;-15.25116552;-12.53150659;-19.99404229;-15.29675395;-4.709208722
-13.79620979;-16.7218364;-10.04175354;-8.405918523;-6.949088685;1.727030419;-5.445006952;3.306978129;11.32993248;4.999015762;1.213733182;-11.64419027;-2.551760893;-6.409807337;-14.45463784;-11.96540881;-19.53630188;-16.65833678;-3.869460749
-14.55841693;-17.71162761;-11.05333535;-10.51407498;-6.509170091;2.776913681;-5.442889511;3.14322374;11.93867074;4.762610796;4.106653108;-10.93440762;-1.327611346;-7.007267762;-11.64641059;-11.68607257;-18.7439789;-16.88721518;-3.122004073
-15.46476833;-19.19729768;-12.33934547;-9.912816482;-5.660135226;2.989675385;-1.258737676;4.404385847;12.36339659;6.657524659;6.219587344;-10.59400503;-0.484251212;-7.774527107;-8.356662643;-12.23194732;-18.41259001;-16.2963564;-3.025430733
-15.5849066;-19.73272708;-13.1410622;-6.775664123;-4.872794428;2.170246831;7.785538404;6.379380293;12.5765112;9.451817989;6.414785703;-10.23078068;0.765127089;-8.265304424;-5.377683425;-12.99390755;-18.50428204;-15.01108319;-3.382217197
-13.79565457;-17.46210754;-12.26817696;-2.027634246;-3.885943766;0.934613462;18.49427201;8.105937928;13.41071377;11.85588231;5.292809475;-9.336653068;2.625253845;-8.111826526;-2.941652739;-12.96615598;-18.23196705;-12.83537834;-3.507882637
-9.780655452;-11.80692814;-9.048744572;2.828434024;-2.20344661;0.090476847;24.92987942;8.906719971;15.35875003;13.18283991;4.404376831;-7.678946345;4.160661355;-7.258915889;-1.375866837;-11.711016;-16.78025633;-9.565353795;-2.923499429
-4.579579089;-4.411603073;-4.16485952;6.159394966;0.122579332;-0.087601958;22.20969869;8.694356435;17.68775801;13.4359609;4.751255844;-5.518532422;3.961257142;-5.999336327;-1.246298889;-9.615987747;-14.01291725;-5.458824602;-1.817299121
-0.166416985;1.552440128;0.384716866;6.883557995;2.206410152;-0.018129853;10.34003906;7.947561268;18.88967678;13.02518218;5.995283103;-3.477850951;1.546025308;-4.711952064;-2.738313221;-7.355670696;-10.59788256;-1.414383133;-0.871063687
1.686736084;3.318489899;2.322485277;5.025521157;2.835558723;-0.298823594;-4.999609099;7.39983672;18.1067581;12.46599233;7.006916949;-2.144066689;-1.791115976;-3.524905266;-4.989774344;-5.264692982;-7.524818455;1.369120029;-0.64269117
0.443352478;0.31080457;0.480720594;1.714291732;1.343038502;-1.047103728;-15.67661758;7.582839685;16.12875991;12.20724557;7.095247042;-1.697573215;-3.624785647;-2.257207529;-6.277148188;-3.30212264;-5.481118199;2.074906456;-1.084943063
-2.974163246;-5.480296361;-4.410509062;-1.464465041;-1.884042624;-1.74431456;-16.18127926;8.452748743;14.89096506;12.50279017;6.686507214;-1.839275821;-2.183980347;-0.750978617;-5.165110563;-1.548813111;-4.579430286;0.834404557;-1.62582581
-6.833294813;-10.74386279;-10.078549;-3.35677327;-5.64346712;-1.740235467;-6.90835247;9.346117223;15.81191431;13.25355972;6.833456253;-2.062234376;2.140950784;0.706257346;-1.73716508;-0.549910188;-4.538171949;-1.232522482;-1.707497024
-9.556823687;-12.79212666;-13.9582184;-3.760048828;-8.652284706;-0.938235941;6.614734256;9.36767406;18.45774371;13.93590658;8.092976416;-2.051656474;6.878105571;1.340204321;2.196409231;-0.970349179;-5.016023757;-2.579981515;-1.273790513
-10.3429141;-10.91016383;-14.5138815;-3.258438771;-10.17284934;0.003378541;17.6670743;8.02100932;20.79750897;13.80920705;9.892546751;-1.905448563;9.187610484;0.407114689;4.217502728;-2.813369164;-5.755854892;-2.091737674;-0.771485212
-9.185577417;-6.379641202;-11.84470539;-2.604632711;-10.12645315;0.180444895;22.27849299;5.650277887;20.891141;12.39539139;10.99683077;-2.015649398;7.899326839;-2.088571757;2.933186617;-5.03561807;-6.488877503;0.27156185;-0.69445937
-6.540338045;-1.403305426;-7.335669639;-2.199022831;-8.793520569;-0.768270932;20.43810036;3.311637774;18.52900475;9.910205863;10.60853461;-2.721583312;4.270324641;-5.119250875;-1.129301936;-6.124892927;-6.844267746;3.42430767;-1.113248109
-3.040596444;2.215446564;-2.736130817;-2.038856867;-6.516995021;-2.29716833;14.41093583;2.08314809;15.34853297;7.244138593;9.033197044;-4.025285301;0.886221793;-7.162704282;-6.001405767;-5.285624292;-6.492030946;5.755942495;-1.622815857
0.56856815;3.838476217;0.693219291;-2.028117616;-3.695230193;-3.357460674;6.375960711;2.285850912;13.30867156;5.399797091;7.271829681;-5.605768325;-0.376642738;-7.231948301;-9.65163371;-3.190583269;-5.445755517;6.052295712;-1.737418404
3.439742626;3.94022032;2.525081544;-2.2213522;-0.956143595;-3.237032626;-2.310338086;3.228630189;12.88926758;4.766207785;5.951558689;-7.120927645;0.307527969;-5.621558933;-11.15087894;-1.526759498;-4.197231291;4.212929822;-1.349153192
4.806188047;3.510039063;2.984687667;-2.717205877;0.83433133;-2.12157591;-10.00858737;3.726224571;12.65041328;4.815908861;4.660500749;-8.539368091;1.081215298;-3.735640124;-10.84186671;-1.616539339;-3.440840693;1.33726415;-0.82293019
4.334825407;3.386440559;2.536826715;-3.355165454;0.919599874;-0.907126953;-13.77292322;3.021004043;10.58091024;4.51442512;2.387445353;-10.20058107;0.082095423;-3.069416093;-9.647641678;-3.280904713;-3.525802334;-0.891769132;-0.65031503
2.378804348;3.868261998;1.564111364;-3.639278073;-0.844192002;-0.444051658;-10.37329452;1.375676128;6.058141118;3.14842946;-1.291218143;-12.50948199;-2.981242756;-4.110039063;-8.304578882;-4.97506986;-4.09014211;-1.176993639;-0.992963495
-0.14130024;4.696663072;0.279642375;-3.112796849;-3.757447552;-0.870512942;0.856105266;-0.161605585;0.669444241;0.90842453;-5.400135904;-15.47949435;-6.597959361;-6.014151406;-7.160869583;-5.132383463;-4.250538583;0.650155214;-1.537639025
-2.210128318;5.316059723;-1.184404519;-1.909900054;-6.576531468;-1.587704334;15.88326156;-0.640803917;-2.879512714;-1.254519258;-7.992908074;-18.50311626;-8.663593863;-7.312743572;-6.489413296;-3.562913719;-3.272573988;3.56667289;-1.787229861
-3.221517403;5.241843492;-2.658961191;-0.916496728;-8.172977957;-1.851695788;27.16390388;-0.002979084;-2.881791873;-2.378507123;-7.598855493;-20.59967116;-8.090541728;-7.078811649;-6.751443377;-1.66690504;-1.20978573;6.001548273;-1.511624895
-3.16508501;4.34453141;-3.90418848;-1.229033044;-8.08583334;-1.429018875;28.15036335;0.902052829;0.005733249;-2.223118408;-4.517378258;-21.03715592;-5.557709118;-5.637094139;-8.396056325;-1.24926411;1.021619679;6.755026322;-0.947761809
-2.425538411;2.895812229;-4.686097023;-3.235589395;-6.601259981;-0.743229068;18.00540389;1.103189093;3.280952421;-1.388098401;-0.829916127;-19.90506988;-2.912032081;-4.28274683;-11.37940199;-2.956932386;2.225527849;5.593023292;-0.58147753
-1.442110324;1.343408803;-4.912476061;-6.083383362;-4.391031114;-0.421469923;2.643962504;0.422189215;4.536397251;-0.754347681;0.975947816;-18.1861694;-1.799253185;-4.272541332;-14.97406365;-5.699154509;1.723230672;3.16623857;-0.727335404
-0.534475603;-0.033033265;-4.732882847;-8.085879333;-2.072194755;-0.686373461;-9.168852838;-0.302345648;3.20644305;-0.750879114;-0.263290401;-17.19509335;-2.598893642;-5.901387463;-18.18384931;-7.544292774;-0.248830309;0.398639866;-1.290546106
0.034296661;-1.311750457;-4.509047226;-7.873443981;-0.030947519;-1.153410844;-11.93637734;0.081387948;0.758225893;-1.064344209;-3.625248174;-17.71286899;-4.365797583;-8.352828416;-20.42774283;-7.292021023;-2.814332746;-2.140444621;-1.904639748
-0.03802352;-2.775744479;-4.624729905;-5.428670367;1.461508936;-1.204050294;-7.038732756;1.984638484;-0.671142638;-0.988325051;-6.844017691;-19.41013191;-5.653189697;-10.36022728;-21.79741088;-5.353517625;-5.124739699;-4.407125103;-2.282928364
-0.993043819;-4.507991106;-5.218559067;-2.169609164;2.101684346;-0.578457554;-0.978738509;4.590533538;0.067068982;-0.051613305;-7.912709011;-20.99864328;-5.506171477;-11.09744861;-22.56088544;-3.22599718;-6.849641353;-6.537656172;-2.438552678
-2.743012012;-6.086907492;-6.021803761;0.02385521;1.622683848;0.357548575;0.239544265;6.393628355;2.527871461;1.633521995;-6.307313239;-21.05843918;-3.952074106;-10.61998918;-22.38474094;-2.11074706;-8.130570658;-8.373523832;-2.579710945
-4.723625495;-6.717742359;-6.466237376;0.102876651;0.046874949;0.911733096;-4.091570234;6.350745553;5.41744405;3.549862123;-3.01705554;-18.99775358;-1.804291263;-9.617205804;-20.181622;-1.950197018;-9.139569474;-9.344361089;-2.814983831
-6.128971581;-5.793641519;-6.057456818;-1.516428388;-2.157800349;0.660624466;-9.372136493;4.686144893;7.804296214;5.225256378;0.427225431;-15.47910204;-0.070338256;-8.793879595;-15.02451167;-1.714291468;-9.718639837;-8.861962338;-2.987252962
-6.445559486;-3.470399388;-4.78301628;-3.396679019;-4.249062049;-0.186539991;-10.31299012;2.671425121;9.646919105;6.485869156;3.01911659;-12.00042364;0.610761189;-8.413104438;-7.512505174;-0.589890593;-9.456791525;-6.893320345;-2.817987019
-5.858294067;-0.735655183;-3.230812241;-4.151594165;-5.628936539;-0.967606977;-6.010613957;1.57100624;11.286476;7.305148976;4.64160761;-9.915487386;0.244274019;-8.28824985;-0.288599827;1.088672167;-8.118666375;-4.172667779;-2.222616073
-5.118980994;1.191787121;-2.256044365;-3.266020641;-6.161244782;-1.123369195;-0.888682566;1.656541118;12.593344;7.49703059;5.660448954;-9.58314582;-0.569218654;-8.093134027;3.138386556;2.050373703;-5.992254145;-1.786528826;-1.468346351
-4.897492808;1.734343931;-2.376488388;-1.120696282;-6.094747526;-0.646046741;-0.545005147;2.124259442;12.75021763;6.68497317;6.312643613;-10.24582198;-0.941079585;-7.64945907;0.734102369;1.234721874;-3.792805408;-0.409745505;-0.980964946
-5.125623401;1.408813056;-3.336132704;1.572079605;-5.653553749;-0.051310144;-6.128940459;1.954186811;10.96339183;4.688173525;6.481381575;-10.70866392;-0.16278349;-6.983086077;-6.283014393;-1.203085586;-2.176227421;0.18185307;-0.948566251
-4.934724465;1.440840899;-4.214680721;4.259585378;-4.687356584;0.07313178;-12.39629426;0.925019627;7.417306406;1.976920036;5.947796359;-10.30641036;1.833248181;-6.219144605;-13.82705097;-3.966055781;-1.288985819;0.870480414;-1.093799313
-3.339841788;2.781228057;-4.073246142;6.532771253;-2.755751549;-0.458916015;-11.58312293;-0.130088501;3.478973888;-0.339623017;4.729021983;-9.437681859;4.283609608;-5.513262309;-17.55808132;-5.701280446;-0.763910726;2.361725206;-0.866133236
-0.178433387;5.279014667;-2.694176456;7.805878054;0.361346688;-1.320361499;-0.165954621;-0.059192089;0.825432618;-1.174929361;3.102292901;-9.27182023;5.898215514;-5.092914093;-15.96877944;-6.10904598;-0.172763551;4.413642385;0.067792403
3.472755755;7.685494851;-0.850516084;7.27199699;4.15268929;-1.967617375;17.20359871;1.537944717;0.18814662;-0.335760408;1.3215889;-10.84954839;5.605078138;-5.283687556;-11.59624587;-6.093336021;0.473265253;5.794463264;1.450039063
5.820437483;8.521242783;0.139411577;4.429480718;7.358599104;-2.053816565;30.25735345;3.86636478;0.820798426;1.151328756;-0.603767945;-14.24574181;3.310779242;-6.366115712;-9.26709356;-6.873296539;0.642308453;5.085630837;2.522933448
5.494959129;7.148431132;-0.71973733;-0.209298586;8.574353646;-1.615227346;30.51789101;5.529546345;1.195537861;1.665083114;-2.764558833;-18.40946857;0.114703766;-8.300703415;-12.52194521;-8.909564091;-0.275720202;1.76782488;2.552390705
2.471151249;4.223497973;-3.433273671;-4.995767142;7.093589182;-0.933760818;17.75431951;5.651793126;0.347926588;0.198015571;-4.958154478;-21.79029431;-2.278499429;-10.56894926;-20.8473727;-11.60184124;-2.36547697;-3.231981222;1.375890058
-1.917820118;1.202331436;-7.027926677;-7.995385296;3.393499637;-0.268726984;0.253656807;4.555014246;-1.295353581;-2.775065049;-6.493043857;-23.28656021;-2.616175148;-12.35737707;-29.84260614;-13.92786532;-4.944073909;-7.97253426;-0.466514539
-5.860789389;-0.680417395;-10.20237087;-8.31375791;-1.081030346;0.278318129;-11.39129202;3.4169327;-2.323412156;-5.510872634;-6.510984927;-22.83866089;-0.885893666;-13.03116798;-34.27647548;-15.30390436;-6.914397378;-10.62047317;-2.118885166
-8.153494348;-1.15134792;-12.10309988;-6.822036504;-4.666148905;0.68481118;-12.03124743;3.243279706;-1.614588801;-6.210946036;-4.650804255;-21.28336005;1.752007499;-12.55033102;-31.79936904;-15.81267519;-7.457722085;-10.47036125;-2.990848655
-8.69526108;-0.829877053;-12.65783816;-5.54210916;-6.246117382;0.864967968;-5.110329552;4.079387666;0.645051366;-4.339095761;-1.48769255;-19.64387913;3.832816716;-11.47115371;-24.56702196;-15.6690409;-6.53486886;-8.177753459;-3.067263256
-8.135050142;-0.504413665;-12.29387635;-6.024902957;-5.597598066;0.66274554;1.064665505;5.134320041;3.076748128;-1.029079157;1.699239293;-18.42420094;4.577427251;-10.50052508;-17.60611016;-14.62728787;-4.829807022;-5.130826307;-2.732419916
-7.098894054;-0.407903488;-11.37248261;-7.975491948;-3.246970871;0.009772532;0.553409851;5.6313176;4.229263077;1.734676988;3.718110536;-17.41832489;4.245115775;-9.960575683;-15.18441276;-12.11163357;-3.220920069;-2.502295498;-2.315663811
-5.705601823;-0.074280528;-9.863987896;-9.305475594;-0.104106166;-0.922588604;-5.605097462;5.52885317;3.711167144;2.524635476;4.197775361;-16.10716663;3.637706953;-9.616977009;-17.87307868;-8.060374022;-2.219408743;-0.675407492;-1.78616139
-3.735534168;1.178623496;-7.527967469;-7.699154337;2.841389222;-1.767713258;-11.07501661;5.404789061;2.376722984;1.387290246;3.673311449;-14.2561099;3.257297426;-9.01491138;-22.362767;-3.598709322;-1.79068571;0.643908627;-0.862757693
-1.197182332;3.604078876;-4.393703345;-2.533282078;4.698039062;-2.207428058;-10.41769602;5.633413187;1.477299894;-0.386593163;2.986569524;-12.20150607;2.884006514;-8.012051771;-23.98587699;-0.634255193;-1.622695166;1.87618747;0.584014304
1.306324182;6.749531284;-1.068685983;4.360405777;4.847148153;-2.207715278;-4.200773;5.724796312;1.591780466;-1.375726385;2.554811422;-10.60253468;1.926697358;-7.00892401;-19.9712363;-0.44778451;-1.539555293;3.105673626;2.228695587
2.794739041;9.704768214;1.442584242;9.730039063;3.182821228;-2.022608991;1.510333001;4.608479552;2.279447622;-1.104320772;2.150451088;-9.886572604;0.178534942;-6.641125426;-11.13398651;-2.456384448;-1.677932357;4.052208118;3.392909771
2.55055338;11.60027243;2.301890034;10.9828935;0.272765966;-1.949689241;0.831342081;1.750202236;2.678122756;-0.271415662;1.340285977;-9.864698668;-1.770983008;-7.192742811;-1.071454553;-4.434952957;-2.285183159;4.400218967;3.503893824
0.644146841;11.96728763;1.354307318;7.778853846;-2.801376368;-2.059804607;-6.127890235;-1.909262365;2.391688858;-0.062568799;0.108249832;-9.84803403;-2.906822375;-8.269466089;6.209223246;-4.314834078;-3.335277831;4.126114491;2.54739475
-2.077971672;10.80945061;-0.78041384;2.057463829;-4.972759506;-2.16082999;-12.58627663;-4.230795329;1.787008153;-1.190790149;-0.986263082;-9.183772921;-2.653860461;-9.064235008;8.409022681;-2.175171236;-4.311135724;3.539018608;1.146546823
-4.494094506;8.525874913;-3.069929796;-3.332217752;-5.789283058;-2.041158742;-10.46275165;-3.422167976;1.436538784;-3.434879621;-1.312198599;-7.787191253;-1.45967938;-9.02183753;5.56590483;-0.600231873;-4.367969747;3.055439296;0.194029371
-5.765428066;5.862351677;-4.578586273;-6.244589896;-5.627232254;-1.765422562;2.542742514;0.293559172;1.300833462;-5.936057736;-0.868830605;-6.243345459;-0.522873356;-8.327726479;-0.675715419;-2.770897871;-2.802649957;2.957118466;0.306588258
-5.55109722;3.853737934;-4.776410891;-5.989790092;-5.302678099;-1.722762256;20.15441069;4.360704373;0.526063395;-7.871740272;-0.473416451;-5.385413092;-0.834131098;-7.76592808;-8.111800287;-9.612456895;0.463693699;3.33643881;1.483647807
-3.854293869;3.55227321;-3.544325784;-3.035154705;-5.354064874;-2.339538283;31.60634515;5.44981561;-1.840184863;-8.901586487;-1.148551776;-5.659448438;-2.32302677;-8.028751009;-14.50160332;-18.3567176;4.691248731;4.199527602;3.169650077
-0.808141446;5.475336277;-1.042068548;1.660603195;-5.583503433;-3.681982606;29.54853243;1.884071721;-5.811254219;-9.106391248;-3.166280408;-6.74612802;-3.852461132;-9.054187626;-17.64370592;-23.96517656;8.545554248;5.532323664;4.618956213
3.311915159;9.072705984;2.350672487;6.93906235;-5.267207607;-5.302397541;15.51857929;-4.921371595;-10.08068544;-8.649528838;-5.591735634;-7.714402022;-4.099680587;-9.97440615;-15.70485101;-22.60079361;10.64891162;7.208340883;5.286892921
7.890626272;12.72369057;5.99942275;11.3187099;-3.883484064;-6.495025555;-1.34694534;-11.23628675;-12.757003;-7.59429177;-6.81427813;-7.591241291;-2.60797622;-9.755534082;-8.183847076;-14.55602524;10.21156587;8.843154365;5.024860861
11.91171186;14.51336149;9.061273181;13.07593222;-1.733070192;-6.778488425;-11.24258728;-13.55482094;-12.68986775;-6.053040868;-5.728375193;-5.945450313;-0.140281672;-8.019120949;3.046789751;-4.288650382;7.450219089;9.829440834;4.044566257
14.28068268;13.41745519;10.75987049;11.02724371;0.123451099;-6.217623582;-10.68738667;-11.03115157;-10.29795496;-4.424988861;-2.636480692;-3.104095682;1.949745692;-5.368284796;13.75941141;2.601929064;3.571075185;9.656486358;2.758590974
14.4029418;10.06182268;10.79352581;5.666697769;0.619550389;-5.324507507;-4.157086186;-5.968578959;-7.188485976;-3.34213337;0.878826487;0.09335083;2.792989417;-2.946297661;19.08797019;3.225635829;0.269472597;8.328517174;1.611319427
12.57558334;6.39366316;9.567435318;-0.402248038;-0.473020633;-4.631228203;0.541701002;-2.003557062;-4.874355907;-3.237667956;3.047323159;2.779461357;2.633181407;-1.589581619;16.25404218;-0.815965161;-1.060725695;6.52580854;0.940831534
9.832874993;4.380573062;8.001627493;-3.551969316;-2.321212524;-4.29899655;-1.017647601;-1.403544713;-3.664453963;-3.887808142;3.120268765;4.441284176;2.514152281;-1.262177345;6.54445007;-4.982503283;-0.01383946;5.296569488;0.870223376
7.324843747;4.650876253;6.992575425;-1.357987925;-3.6301417;-4.082912597;-6.696751696;-3.549583827;-2.647941548;-4.405621552;1.762222364;5.001761869;3.330120994;-1.205942749;-5.021363527;-5.347033946;2.650718536;5.437951366;1.25511685
5.714324751;6.117625536;6.918591121;5.55769651;-3.56417452;-3.652594723;-10.4972887;-5.691670053;-0.74319298;-3.814873692;0.371047583;4.656406959;5.055365306;-0.638212976;-12.40902105;-1.340595335;5.491894252;7.007541554;1.746778825
5.06218011;6.909266497;7.574682646;13.60840298;-2.213339208;-2.959802775;-8.450536441;-5.260078125;2.136319713;-1.797956725;-0.061622998;3.677523115;6.778239682;0.605049576;-12.02925828;4.314897874;7.267071566;9.338164044;1.985310827
5.22306079;5.898316053;8.568881011;18.46446576;-0.238290287;-2.316097455;-2.388025335;-1.847536056;4.834666773;1.004937712;0.390633607;2.348526868;7.464088962;1.991488847;-4.683446683;8.150935106;7.647127854;11.54069758;1.825776318
6.295962538;3.617967581;9.803758304;17.94157533;1.92854062;-2.114824687;1.721645945;2.648315962;5.845904654;3.430868481;0.886033676;1.009723961;6.775991483;2.781293454;5.246629859;8.723714754;7.2769705;13.08980896;1.431545493
8.619169903;1.827094459;11.57650362;13.43484317;4.535029154;-2.455464648;-0.607515432;5.683979292;4.566983078;4.62590844;0.710009766;0.062079212;5.28248485;2.614527636;12.69308134;7.389626278;7.139109187;14.03043329;1.140532762
12.24663084;2.069048146;14.16692976;8.795129658;8.1343972;-3.015765501;-7.767577861;6.071141441;1.817472411;4.580520553;-0.068016153;-0.187902127;3.936905283;1.69747736;14.82929477;6.681154037;7.697824793;14.67447113;1.189903927
16.39674494;4.385222899;17.26866381;7.482266589;12.68568074;-3.294186737;-12.64608657;4.703565812;-0.827189492;3.925644276;-0.746253659;0.216495789;3.319594229;0.491626576;12.13750034;7.877903829;8.489122488;15.09741384;1.519730247
19.49750504;7.214994072;19.81970375;10.14318672;16.99080172;-3.014843685;-8.231138335;3.551557035;-2.311213213;3.202182064;-0.768099172;0.73987916;3.282561114;-0.738305401;7.220097656;9.889881614;8.496466298;14.914539;1.828136583
19.9916205;8.545767116;20.49739188;14.38501559;19.13030059;-2.343972733;6.257940279;3.910330708;-2.881557743;2.296385679;-0.378736759;0.520375519;3.241881879;-2.065713828;2.585218336;10.29705647;7.03765158;13.5667229;1.839584106
17.38084641;7.375002164;18.58186684;16.75979612;17.72269242;-1.734541013;23.82780633;5.415338893;-3.712029569;0.591082459;-0.527387862;-1.166674806;2.803054173;-3.611780073;-0.834998242;7.517136127;4.463346093;10.88974926;1.553473222
12.6878429;4.334681588;14.53779625;15.28939473;13.0595142;-1.540853062;34.26325225;6.571692505;-5.712481584;-2.278987948;-2.06296759;-4.404059789;2.158691033;-5.138975527;-3.532877948;2.209804352;2.087275922;7.471912765;1.245588858
7.903118691;1.05825718;9.837000792;10.59104084;7.150768274;-1.739354396;31.3858448;6.209626488;-8.57808735;-5.775443493;-4.916557371;-8.437931768;1.936726222;-5.978782155;-6.165053068;-3.19091324;1.357423347;4.457907255;1.21151671
4.774362237;-1.098008845;6.12063315;4.955382826;2.524243754;-1.988872602;17.43127587;4.531983551;-10.93309067;-8.589768729;-8.008671752;-11.98771345;2.652242248;-5.450287182;-8.50759239;-6.28982776;2.874351821;2.906390339;1.482054291
3.827247421;-1.90292338;4.305795299;0.422128451;0.616945035;-1.961805318;1.219987768;2.859989142;-11.48424244;-9.575374129;-10.01993412;-13.9336076;4.216059598;-3.466835976;-9.548624988;-6.321975675;5.986359323;3.17559055;1.781331077
4.319701584;-2.050842047;4.258761044;-2.438874663;0.951743464;-1.646306569;-8.338504677;2.369526745;-10.22172528;-8.744264398;-10.42906023;-13.98125235;5.866229684;-0.814826365;-8.503330203;-4.321478101;9.241399619;4.789116633;1.786155418
5.072936221;-2.239291741;5.181514094;-4.17817211;1.695965382;-1.356762407;-8.318029208;2.986970983;-8.632027594;-7.439934707;-9.97247919;-12.87512825;6.545264513;1.183308876;-5.70595404;-1.983942048;11.32;6.847215853;1.461440338
5.432531075;-2.436934129;6.302444184;-5.191700614;1.127556299;-1.452889014;-2.88721755;3.438239632;-8.679988821;-7.422274707;-10.1254386;-11.98928732;5.45250569;1.429647427;-2.510048828;-0.382207631;11.74218404;8.625987997;1.153105866
5.573508077;-2.000930787;7.292128238;-4.951420382;-1.14047003;-2.019478326;0.987785489;2.406530376;-11.3193236;-9.5121265;-11.97911853;-12.51268587;2.453503916;-0.290235601;-0.288929674;0.395659165;10.8836935;9.897173186;1.319068095
5.990915509;-0.473579885;8.155906502;-2.568966525;-4.069371608;-2.782543955;-0.556877916;-0.223328227;-15.68498965;-12.87146822;-15.36569078;-14.71691934;-1.820413696;-3.196313039;0.531485581;0.624151098;9.425396154;10.77858506;2.107726834
6.748353146;1.750510993;8.8594157;1.866191219;-6.181923297;-3.324400135;-5.604576052;-3.13139097;-19.5999261;-15.54501087;-18.89195837;-17.76344446;-6.178357865;-5.991876728;0.519657015;0.188011178;7.782837339;11.33721968;3.157014416
7.244515709;3.571061167;9.156085321;6.583637605;-6.733611278;-3.40569087;-8.914911444;-4.566207175;-21.02527991;-15.89583188;-20.8512562;-20.18284179;-9.295879474;-7.574775006;0.355080697;-1.446575363;5.988732747;11.35894218;3.822742789
6.744856643;4.064868732;8.826350827;8.97225437;-6.120958851;-3.126058848;-7.08910936;-3.756927234;-19.39135904;-13.83605118;-20.34104411;-20.73954369;-10.24219672;-7.532008218;-0.096036502;-4.513336027;4.029432082;10.51782278;3.678883669
5.183715231;3.32619506;8.071709954;7.449821065;-5.302715653;-2.809342081;-1.839688045;-1.563189499;-15.87783046;-10.89120688;-17.79849521;-19.14871927;-8.927961371;-6.190787018;-1.774245541;-8.261886342;2.21369788;8.795669965;2.880902635
3.452194943;2.486624367;7.59427047;2.803128085;-4.851127916;-2.735259675;1.512896111;0.168418624;-12.51651177;-9.044893522;-14.6263564;-16.2007527;-6.229103601;-4.312250789;-5.363677346;-11.09395533;1.15288512;6.755872425;2.076476287
2.826556513;2.845743268;8.15951988;-2.234754272;-4.494283709;-2.950749131;-0.948584269;0.011407232;-10.82374347;-9.260019531;-12.2355505;-13.22302936;-3.609809316;-2.674100423;-10.08693357;-11.52504719;1.334144633;5.377638273;1.919409358
3.978312811;4.833667829;9.954567744;-4.93419771;-3.493930083;-3.298492675;-7.575521834;-1.995536037;-10.92502324;-10.8069484;-11.19553874;-11.23192904;-2.338039383;-1.740642706;-13.56035648;-9.176405112;2.684411639;5.518213636;2.577586265
6.429460488;7.691754576;12.32668673;-4.47188373;-1.429220059;-3.600682263;-11.64097209;-4.456974829;-11.69308033;-11.87641034;-11.03649267;-10.32604586;-2.720745873;-1.494302956;-13.12223185;-4.947251467;4.558909713;7.385446337;3.633066305
8.969422006;10.14475811;14.22154109;-2.209970112;1.375824426;-3.814663625;-6.479385084;-5.729749247;-11.67924848;-10.96071854;-10.75366496;-9.712282205;-3.89290123;-1.444385898;-7.791309971;-0.254215049;6.205413953;10.41;4.441927408
10.71122611;11.47936895;15.02834655;-0.15738855;4.162909904;-4.029033253;8.679644652;-5.118594947;-10.13052281;-7.939505987;-9.60260525;-8.339920415;-4.392845617;-0.839441123;0.651763089;3.946087287;7.306926174;13.60440484;4.637502413
11.86695452;12.09096986;15.11764044;0.993253506;6.454982331;-4.328152798;26.9904563;-3.256918761;-7.439151102;-4.106629758;-7.640815649;-5.716273194;-3.195932069;0.923441106;8.432249531;7.488818315;8.111605958;16.13276031;4.354496861
13.51693356;13.02208346;15.53960109;2.465147447;8.462340975;-4.667400076;38.12886365;-1.481192113;-4.833586926;-1.224540714;-5.698298645;-2.357141085;-0.483436443;3.839330799;12.00487717;10.48287296;9.021569782;17.68080825;4.010291443
16.50312256;14.89237151;17.03767945;6.029104752;10.7651474;-4.875509287;35.42619092;-0.789719785;-3.60979821;-0.389879033;-4.845726187;0.432762546;2.443938918;7.079542934;10.21179168;12.5674075;10.01325463;18.39720155;3.870420109
20.37226027;17.15328119;19.16079729;11.83283433;13.55617423;-4.774230711;20.65164058;-1.212179698;-4.410078125;-1.520087891;-5.719382639;1.311158944;4.079184425;9.27391788;4.863262734;12.77882667;10.44400013;18.51805244;3.80202637
23.32678265;18.33271564;20.26780954;17.40895254;16.17305863;-4.303671304;2.77;-1.988751172;-6.930724521;-3.689823772;-8.110753938;-0.304782218;3.776467065;9.249468541;-0.623500308;10.25847784;9.47933402;18.00981265;3.430857047
23.34352967;17.0989389;18.54671898;18.94998523;17.4190266;-3.551166676;-8.413505307;-2.289158068;-10.14396603;-5.893123227;-11.05026578;-3.90389916;2.161059875;6.805734759;-3.501386865;5.18092032;6.819320546;16.5144462;2.540339169
19.63846295;13.28215689;13.33795853;14.03730906;16.45834477;-2.678044552;-8.903752966;-1.847724942;-12.85749484;-7.602283097;-13.3322973;-8.205357453;0.575514933;2.969736785;-3.283760019;-1.004069645;3.099993848;13.62077832;1.329035512
13.31739621;8.026281132;5.745863236;3.691729486;13.51981834;-1.822789306;-2.501413742;-1.074077721;-14.31286688;-8.817677817;-14.19032646;-11.90973784;0.014903948;-0.537772338;-1.666686657;-6.356000674;-0.420296327;9.235917451;0.276302373
6.665540501;2.960945248;-1.972048623;-7.981116677;9.763668223;-1.058010564;3.106999591;-0.680189799;-14.54262845;-9.786612438;-13.74839121;-14.38807031;0.398878952;-2.33483661;-1.06466163;-9.677354426;-2.691009362;3.77715828;-0.26750839
1.608408731;-0.925014222;-7.810965755;-16.42579785;6.382181951;-0.410248685;2.763669586;-1.207294331;-14.32356483;-10.77100208;-12.98829339;-15.89534878;0.73364354;-2.212643256;-2.950009766;-11.18654237;-3.57067431;-1.937268446;-0.386466635
-1.459101418;-3.813581765;-11.17019112;-19.61578683;3.692005992;0.105364851;-2.453954513;-2.79990546;-14.74302765;-12.04243282;-13.23182666;-17.23080378;-0.018940329;-1.170766192;-7.115666923;-12.07692169;-3.836168071;-6.99757777;-0.505082287
-3.579194711;-6.61121939;-12.9;-19.13735325;1.018237554;0.475960261;-7.034469488;-5.278522302;-16.58678671;-13.94887276;-15.41226883;-19.12199542;-2.108652925;-0.621706795;-12.12869719;-13.35757256;-4.489876881;-10.69849986;-0.963257622
-6.00149594;-9.94185668;-14.26497698;-18.59955199;-2.496626709;0.698523212;-6.49990438;-8.319083136;-19.87365252;-16.79679083;-19.54093693;-21.74958983;-4.869459333;-1.352910156;-16.37555828;-14.97373888;-5.921711146;-12.67124632;-1.643891202
-8.860620535;-13.42042134;-15.69358858;-20.64833213;-6.841336995;0.77097703;-1.660217383;-11.55185626;-23.81337976;-20.52713882;-24.67138821;-24.68698461;-7.341282323;-3.015019589;-18.87325827;-15.93521109;-7.595506835;-12.85818276;-2.012483464
-10.86959331;-15.78911116;-16.33858415;-24.89731289;-10.7792329;0.66501652;2.126257823;-14.57191105;-27.23747606;-24.47923251;-29.37564986;-27.23199179;-9.058324421;-4.493218662;-19.46216645;-15.29207883;-8.499640448;-11.4471766;-1.571975519
-10.30707757;-15.80349109;-14.8109822;-28.32208;-12.57488164;0.325702282;0.122207244;-16.98230999;-29.2634032;-27.57985746;-32.44981337;-28.87007813;-10.32347029;-4.83523416;-18.58393596;-13.07953036;-7.988982489;-8.862041305;-0.356330978
-6.525921052;-13.19172366;-10.50907002;-27.74747012;-11.2851374;-0.26295946;-6.713943394;-18.53580788;-29.79139146;-28.96813932;-33.44999008;-29.57213015;-11.77685313;-3.996274408;-17.04335818;-10.42161893;-6.347480641;-5.790743646;0.977124662
-0.780058594;-8.990236604;-4.48;-22.49488315;-7.590239828;-0.979306945;-11.44568686;-19.28232007;-29.52651936;-28.6414822;-32.79202345;-29.77958575;-13.69178748;-2.838434371;-15.88359071;-8.741702107;-4.641793725;-3.139303494;1.574190827
4.314981483;-5.04027869;0.903049471;-15.2054384;-3.470614119;-1.534752413;-6.45085617;-19.56021848;-29.51965166;-27.58679686;-31.42628927;-30.13413237;-15.644332;-2.430465126;-16.16725452;-8.781142542;-3.99809074;-1.819584902;1.006807996
6.332543157;-3.006381429;3.274997624;-10.26128768;-0.938629191;-1.595407267;9.769764081;-19.78318352;-30.52687594;-27.20280125;-30.32836032;-31.13170836;-16.83825806;-3.233095714;-18.47718973;-10.22664995;-4.857729036;-2.407004264;-0.409190882
4.495586801;-3.538489133;1.704776663;-10.96165179;-0.773871503;-1.013213828;30.00157602;-20.16586862;-32.58661853;-28.37169738;-30.08988706;-32.87569377;-16.77278221;-4.801558132;-22.34052344;-12.15382401;-6.738218459;-4.838945081;-1.862470392
0.048132854;-6.028862952;-2.75941702;-17.40332669;-2.189015171;0.001270721;42.58327682;-20.60525232;-35.04544248;-30.84279471;-30.76470322;-35.01860719;-15.65063881;-6.184910833;-26.1132054;-13.78475997;-8.610582452;-8.351769077;-2.658917659
-4.640058594;-9.012884401;-7.756723598;-26.40505568;-3.606215489;0.933999772;39.65450104;-20.80582038;-36.9602435;-33.37769352;-31.95269274;-36.89113773;-14.18094336;-6.647291651;-27.70233977;-14.86743016;-9.560686065;-11.73681618;-2.70141872
-7.530078125;-10.92667801;-10.99488986;-33.38131819;-3.873235984;1.263307133;23.0583402;-20.52334273;-37.58543513;-34.53823676;-33.01286935;-37.75957188;-12.98182108;-6.130214083;-25.86414677;-15.43714376;-9.264049261;-13.80724517;-2.458594147
-7.931893012;-10.8276223;-11.43267392;-34.87852501;-2.974790501;0.806867761;3.156908655;-19.71047241;-36.65670057;-33.53459276;-33.3092038;-37.11959131;-12.12921377;-5.149929518;-21.21267229;-15.3461046;-8.022345023;-13.84019009;-2.474830956
-6.525758653;-8.777693195;-9.588351447;-30.26525449;-1.779019842;-0.142541369;-8.673994779;-18.46662971;-34.3713313;-30.55846613;-32.436828;-34.91331496;-11.2367092;-4.308280754;-16.09255154;-14.14747488;-6.456159043;-11.78420801;-2.852130244
-4.592154294;-5.768394951;-6.94500577;-21.77817275;-1.160442406;-1.014368818;-8.075012551;-16.90271817;-31.17622525;-26.47166811;-30.38260545;-31.56431335;-9.955413721;-3.871329907;-13.21503637;-11.52663261;-5.14059643;-8.179666205;-3.146221489
-3.141220712;-3.247189931;-4.980048828;-13.14869481;-1.29091331;-1.356371077;-0.043581341;-15.1125381;-27.55746873;-22.21076667;-27.55161581;-27.79243728;-8.412997589;-3.734258642;-13.90273177;-7.882483248;-4.40606411;-3.909405328;-2.762600019
-2.533903432;-2.458503278;-4.459526359;-7.717939636;-1.655102043;-1.131871604;6.021950497;-13.30553451;-23.95110366;-18.40200118;-24.60892851;-24.28917337;-7.192228858;-3.7076022;-17.17365624;-4.448163419;-4.328773527;0.047873446;-1.516498629
-2.681613643;-3.901662618;-5.320550066;-7.015442604;-1.679550893;-0.694331957;4.286299052;-11.93474683;-20.75581105;-15.38832235;-22.18142549;-21.43451222;-6.884588373;-3.787259641;-20.35855797;-2.71111645;-4.800855497;2.778156309;0.116044422
-3.456544906;-7.168607844;-7.022203208;-10.37217306;-1.354796052;-0.473827344;-3.160817465;-11.5890246;-18.34578301;-13.45581527;-20.5788354;-19.22822052;-7.631997133;-4.135804872;-20.85416391;-3.507857121;-5.585847594;3.560965922;1.27555793
-4.881732553;-11.22731141;-8.997337647;-15.57795821;-1.291640066;-0.640203748;-8.973362915;-12.61396752;-17.00758412;-12.89613437;-19.71296149;-17.46790983;-9.05153952;-4.814206253;-17.79387835;-6.470283934;-6.360219808;2.065024003;1.317551916
-6.973916662;-14.95196786;-10.89716191;-20.13678489;-2.188257688;-1.015306087;-7.658462811;-14.7250145;-16.81570289;-13.77354802;-19.26628175;-16.02167182;-10.56587949;-5.557479069;-12.49420854;-10.22756844;-6.789800388;-1.3998777;0.272669996
-9.468009959;-17.5535828;-12.56037856;-22.45754403;-4.203251817;-1.285858163;-0.766102914;-16.98556812;-17.53393323;-15.63433214;-18.968639;-14.96315731;-11.8007143;-5.853838734;-7.442083243;-13.18003906;-6.646417724;-5.755387208;-1.174767561
-11.75035115;-18.66935016;-13.84677857;-22.39990731;-6.787526871;-1.310505197;4.495157855;-18.28885094;-18.63087903;-17.53078854;-18.74937526;-14.44761422;-12.69520052;-5.307017859;-4.624931738;-14.27619894;-5.901499355;-9.381690888;-2.158162069
-13.11742183;-18.16442232;-14.52416149;-20.95912929;-9.103105124;-1.242614107;2.095172988;-18.06132841;-19.43639395;-18.48375547;-18.64141116;-14.43923495;-13.29411945;-3.996749422;-4.400921764;-13.33360875;-4.729553267;-10.7492754;-2.189139771
-13.1724193;-15.94233245;-14.30642532;-19.37221222;-10.64311771;-1.364705638;-6.564073406;-16.65852448;-19.38833375;-18.09276898;-18.54723694;-14.5622307;-13.5197352;-2.537573651;-5.613456309;-10.87864814;-3.425036705;-9.184147044;-1.410083008
-12.04534474;-12.02520274;-13.01235311;-18.27873048;-11.51261105;-1.794129024;-12.77057103;-15.10227864;-18.26826374;-16.80829543;-18.12847674;-14.27974412;-13.22675735;-1.77368587;-6.702674886;-7.803491238;-2.303018018;-5.285954134;-0.400084229
-10.26878612;-6.862440702;-10.73600501;-17.50915199;-12.15069725;-2.337365713;-7.438815521;-14.30996934;-16.31831519;-15.60710841;-16.99323066;-13.32742206;-12.51806922;-2.322535206;-6.890019531;-5.096792248;-1.642430492;-0.643615227;0.272942659
-8.419712004;-1.52591223;-7.91473296;-16.59003906;-12.77196693;-2.636809245;10.69684769;-14.39127169;-14.16843751;-15.28520818;-15.07738393;-12.05820448;-11.96757206;-4.265143331;-6.571106878;-3.636513183;-1.65631168;3.065248539;0.409075967
-6.808150941;2.546543408;-5.230160135;-15.47785251;-13.04148945;-2.487900873;32.65909309;-14.56785123;-12.57611721;-15.8990858;-12.88513593;-11.34144194;-12.40731768;-7.135301726;-6.723900863;-3.899570079;-2.428784048;5.042135886;0.212731591
-5.425603874;4.240150154;-3.35522147;-14.82338096;-12.27899966;-2.044190803;45.0970547;-13.79346785;-12.07122813;-16.76913583;-11.29977273;-11.96861186;-14.31852504;-10.14081181;-7.87682305;-5.617108733;-3.809421028;5.741581848;0.041252785
-4.1344834;3.4413881;-2.643857917;-15.44760098;-10.01901644;-1.718746336;40.11599809;-11.59250297;-12.66890326;-17.00557779;-11.00492986;-13.9413503;-17.28477101;-12.44780118;-9.455587188;-7.678705738;-5.357531147;6.371309382;0.096992629
-2.887508082;1.163099572;-2.915758473;-17.40808866;-6.446326819;-1.854947549;21.26765401;-8.454907345;-13.8132757;-16.11362896;-11.91663367;-16.20897691;-20.01896371;-13.41905673;-10.00547441;-8.587188971;-6.459704893;7.872058444;0.297119038
-1.768302374;-1.057062738;-3.473601863;-19.48109686;-2.338404293;-2.44529984;0.836739905;-5.48128247;-14.61800214;-14.21685849;-13.09999479;-17.17458084;-21.06912527;-12.80051103;-8.149290301;-7.36144253;-6.631272922;10.13901507;0.392113603
-0.826937252;-2.091980258;-3.385968998;-19.6482753;1.431669189;-3.141003702;-9.431821156;-3.574903967;-14.30867583;-11.7993488;-13.32408372;-15.7306433;-19.75865027;-10.85918547;-3.640259066;-4.294679982;-5.828772199;12.08637394;0.215318804
0.115392164;-1.814351346;-1.918083884;-16.38806378;4.415286247;-3.547022409;-6.732113988;-2.831565899;-12.63847611;-9.274721916;-11.91439757;-12.12472472;-16.6873113;-8.389998458;2.197376437;-0.902758784;-4.519571891;12.51475737;-0.135080768
1.47127294;-0.92297316;1.110376294;-9.852734638;6.715665313;-3.552661331;1.870143983;-2.595211467;-10.03713581;-6.786626452;-9.28622219;-7.979220955;-13.41609345;-6.466443854;6.97601301;1.065892734;-3.391036284;11.10404339;-0.31686654
3.629021106;-0.205672996;5.23407097;-1.988692824;8.656045392;-3.418127203;6.312264305;-2.089501088;-7.392398041;-4.369421142;-6.731250302;-5.342910356;-11.55082342;-5.933823875;8.466838342;0.912309829;-2.861436155;8.73644608;0.042601735
6.586435529;0.109853285;9.557319611;4.585982522;10.31126055;-3.546654946;2.153589287;-1.074400918;-5.5793456;-2.228382015;-5.569291814;-5.365052538;-11.85617131;-6.882353329;5.857552692;-0.429635264;-2.75185642;6.876032108;1.076555297
9.754423151;0.375660365;13.13567156;8.168356844;11.32395347;-4.136787653;-6.314432158;0.008137904;-5.01093344;-0.789991569;-6.261379596;-7.518877557;-13.9607616;-8.476139639;0.296933808;-1.03910748;-2.401598523;6.491635304;2.525674079
12.12224496;0.956555808;15.30320452;8.854337098;11.16323476;-5.003593948;-10.77622651;0.475697949;-5.475104035;-0.423581979;-8.128215627;-9.967158327;-16.7492088;-9.364887533;-5.650161436;0.545521576;-1.184452914;7.394220846;3.808355955
12.73338377;1.665790727;15.79779103;8.08209021;9.594236857;-5.707299178;-6.94215649;0.011862269;-6.347380114;-1.097407327;-9.877777119;-10.85900254;-19.0701693;-8.510019531;-9.371702479;4.189551297;0.944397993;8.536297058;4.293085465
11.19567891;1.803942408;14.69740269;7.244688534;6.945667601;-5.87062053;1.332703998;-1.096978973;-7.032339449;-2.342942397;-10.54697626;-9.650731248;-20.26588912;-5.901340457;-9.592580776;8.244753155;3.298244206;9.033405137;3.630692287
7.907736573;0.845533205;12.29894142;6.50613552;3.936823717;-5.423925503;5.573316205;-2.274929539;-7.344363632;-3.630691775;-10.16015395;-7.4871074;-20.27438597;-2.635760325;-6.902141004;10.80460462;4.852431359;9.054731112;1.958081951
3.861108807;-0.822323904;9.058643032;4.769332157;1.199941606;-4.601262621;0.760721162;-3.204100776;-7.581162116;-4.84760255;-9.629450399;-6.338347361;-19.40512665;-0.24123968;-3.092396101;11.13906047;4.918426024;9.807197772;-0.152686923
0.150836261;-1.843932951;5.59554433;0.798859955;-1.110583682;-3.730950041;-9.26443906;-4.090577696;-8.246662261;-6.409330029;-9.994077647;-7.500766319;-18.05436828;0.32290195;0.190811308;10.17018221;3.615947179;12.56306877;-1.981146327
-2.497556538;-0.72888537;2.652150829;-5.436673022;-3.305209882;-3.021826074;-14.13470008;-5.399185979;-9.613049908;-8.826760841;-11.58127318;-10.56072347;-16.53984208;-0.70975181;2.452161568;9.632065944;1.805214332;17.47386755;-3.017835261
-3.919353684;2.986525554;0.913904911;-12.31410617;-5.762711097;-2.51202859;-5.444153251;-7.296920646;-11.42386894;-12.05320712;-13.71256978;-13.61010681;-15.0574556;-2.117194181;4.220492324;10.62093048;0.534293225;23.12284834;-3.185551271
-4.374414374;8.16048214;0.714684855;-17.39487868;-8.486892406;-2.172683526;15.62220565;-9.321063162;-12.95489751;-15.20944686;-15.16120308;-14.59461593;-13.68459908;-2.579893423;5.931047818;12.70725569;0.393112959;27.21300163;-2.801048922
-4.261695663;12.5588074;1.796442132;-18.93721375;-10.98936736;-2.016950248;38.06054104;-10.60418803;-13.41626086;-17.03266077;-15.01569304;-12.83261627;-12.40474442;-1.612805795;6.865932597;14.28639586;1.200530453;27.91088728;-2.327146593
-3.922561447;14.12888859;3.32168638;-16.95833406;-12.60113717;-2.08487136;48.72285158;-10.50253092;-12.44582254;-16.78835242;-13.32638964;-9.589723537;-11.18274473;0.133720482;5.291453733;13.82903241;2.185707267;24.87335512;-2.097633003
-3.633463698;12.11630072;4.212406536;-13.09880191;-12.96295518;-2.325336431;41.86970578;-9.109841856;-10.36615352;-14.92900627;-11.08926276;-7.25903047;-10.07495337;1.405310105;-0.021225236;11.0105132;2.485492318;19.26;-2.193554608
-3.683760878;7.260078125;3.682136022;-9.46;-12.29494036;-2.522685391;23.05011702;-7.215400167;-8.017130288;-12.901472;-9.599072229;-7.702843995;-9.263192572;1.296598941;-8.023969782;6.880133431;1.615110175;12.83320538;-2.515663642
-4.348060708;1.057912746;1.680029297;-7.310058594;-11.2179302;-2.388128525;4.452684793;-5.721486045;-6.252604025;-12.15168846;-9.627794652;-10.92640992;-8.907089771;-0.079115071;-15.0512553;3.060922451;-0.340492407;6.909001723;-2.943906
-5.678297845;-5.196355196;-1.016364975;-6.551865492;-10.25398678;-1.776158088;-4.232517151;-4.984800754;-5.42195539;-13.04297331;-10.96899374;-15.02736708;-8.876818331;-1.678132695;-16.72118153;0.712537975;-2.844411517;1.928653812;-3.426249586
-7.261572668;-10.82526895;-3.141051865;-6.194094471;-9.391532885;-0.845308278;-2.074279671;-4.60801423;-5.181711517;-14.53145832;-12.61013823;-17.46022193;-8.61891685;-2.281888033;-11.08264108;0.04894272;-5.195277154;-2.182054788;-3.930858725
-8.210848241;-15.44299206;-3.553851937;-5.321948619;-8.062407974;-0.00134792;4.244417528;-3.833099976;-4.768970312;-14.89076686;-13.37487709;-16.72833047;-7.393614814;-1.356887125;-0.687207802;0.615721109;-6.819444932;-5.364135861;-4.340686287
-7.538732184;-18.41206267;-1.815292774;-3.792737246;-5.575291665;0.36504708;7.166347661;-2.196878472;-3.554906494;-12.96840993;-12.60397899;-13.33173383;-4.832082781;0.588458173;8.340150305;1.879393013;-7.470187059;-7.154948221;-4.434101221
-4.769746118;-18.78717389;1.573863735;-2.212025563;-1.712636397;0.15431017;4.438075012;0.087925514;-1.501802749;-9.036351625;-10.47156737;-9.348852891;-1.411514297;2.371377348;10.07436644;3.531274337;-7.296554974;-7.036795092;-4.017275746
-0.402454043;-15.95698568;5.385224261;-1.339969337;2.925616141;-0.368673268;-0.271128361;2.312032776;0.78516217;-4.610516489;-7.803428426;-7.000932044;1.618392907;2.934801908;2.954836692;5.319384203;-6.762733606;-5.04223928;-3.121442978
4.142480504;-10.47185916;8.206958436;-1.456947823;7.077233358;-0.762586028;-2.017887473;3.822240985;2.433000641;-1.409749993;-5.575482243;-7.236415152;2.954579769;2.014458067;-8.757464773;6.739677697;-6.42209938;-2.019105504;-2.090437412
7.139373466;-4.255629302;9.036328702;-2.151306163;9.385903212;-0.710713132;0.347513824;4.468080609;2.825861697;-0.265763096;-4.428574264;-9.299585012;2.147162095;0.238678076;-17.59337455;7.03846648;-6.624018335;0.722593773;-1.448224216
7.404151938;0.172784866;7.636651807;-2.619927696;9.04191052;-0.205539371;3.420333507;4.587117878;1.913059228;-0.779124838;-4.46992318;-11.49866159;-0.024136909;-1.364499707;-17.94117417;5.62;-7.315653254;2.105517172;-1.606475893
4.864337276;1.043524971;4.5281075;-2.219945399;6.139348021;0.503978434;3.118261613;4.588349338;0.115599028;-1.883153072;-5.415685975;-12.52979328;-2.088735707;-2.088965201;-9.974534046;2.504681375;-8.092675997;1.769319327;-2.606910977
0.526411655;-1.672273887;0.68945018;-0.90349496;1.597962246;1.125772306;-0.912790412;4.53323153;-2.045680763;-2.764542311;-6.913964952;-12.36504839;-3.00117378;-2.0155856;0.480211591;-1.600284671;-8.501293166;0.02695714;-4.07769594
-4.087198739;-6.309701196;-2.820720206;0.699594414;-3.244312277;1.507068344;-4.839191154;4.092432537;-4.28583543;-3.373722243;-8.801867255;-12.09733546;-2.969245362;-1.930147785;6.120270418;-5.694911186;-8.388705554;-2.52821527;-5.430144447
-7.640446597;-10.52066489;-5.134374194;1.568600288;-7.123431232;1.652085365;-4.640829987;2.906544176;-6.609203881;-4.180223088;-11.12997649;-12.93500918;-3.285991604;-2.763147281;3.34359636;-8.986324981;-8.019747404;-5.311280981;-6.157378317
-9.418705992;-12.50503723;-5.685153415;0.798278691;-9.218093293;1.605669846;-0.594989548;1.014304538;-9.092033174;-5.496184114;-13.96641033;-15.1511034;-5.235558205;-4.914647426;-5.380186715;-11.05986837;-7.831655411;-7.679247853;-6.048364865
-9.35330325;-11.66646421;-4.244298708;-1.905496755;-9.320426527;1.349261684;2.44101803;-1.051007676;-11.6306151;-7.030171617;-17.14955503;-17.78180268;-8.927925168;-7.890477919;-13.62180982;-11.64991946;-7.995774558;-8.71936703;-5.220058594
-7.795474397;-8.439849552;-0.983624486;-5.977427526;-7.836162031;0.822069139;-0.264750435;-2.608646597;-13.89733432;-8.07805976;-20.19348587;-19.27753692;-13.03479227;-10.48603171;-15.86583226;-10.37135731;-8.15116569;-7.341508424;-4.004337387
-5.300123216;-3.674438575;3.442450712;-10.15130547;-5.653264024;0.039582249;-7.807525301;-3.347351203;-15.54260483;-8.161456548;-22.44428297;-18.60121047;-15.70150078;-11.42743197;-11.3927574;-6.826132377;-7.577674678;-2.861869524;-2.791978562
-2.535458985;1.836045764;7.931364326;-13.00559614;-3.882413131;-0.826668229;-12.83491867;-3.586462436;-16.4554139;-7.520857711;-23.41172323;-15.9651277;-15.94306524;-10.10262099;-4.309189114;-1.094704053;-5.729741743;4.283159891;-1.904046569
-0.224313263;7.40424488;11.21933506;-13.6462461;-3.479783431;-1.515060596;-7.077068726;-4.061381639;-16.84963414;-7.005032108;-23.07531363;-12.69799776;-14.40218079;-6.946582052;0.072727966;5.851750359;-2.730734769;12.35540037;-1.498111864
1.031011274;12.28610145;12.38562863;-12.14361957;-4.846433735;-1.85286099;10.9795243;-5.397114834;-17.10984369;-7.435256686;-21.96865043;-10.38042308;-12.83802002;-3.234294025;-0.484144545;12.3324153;0.58614356;19.02554589;-1.505293912
1.031954297;15.68244331;11.31542352;-9.446000479;-7.592329941;-1.897286184;33.01746428;-7.671883887;-17.54729124;-8.981522614;-20.97574245;-9.888870366;-12.7422717;-0.383606937;-3.547749011;16.76281279;3.168979359;22.61715919;-1.636415704
0.165384327;17.02910263;8.790152358;-6.81748509;-10.64304809;-1.904541286;45.80506121;-10.37739637;-18.27962038;-11.06867765;-20.9401882;-10.99283905;-14.19368534;0.826363467;-4.203335268;18.51822472;4.422148733;23.00103054;-1.5142944
-0.743818886;16.31778937;6.067482686;-5.172887064;-12.70481228;-2.135017019;40.81201804;-12.75221309;-19.30250772;-12.86241702;-22.28792233;-12.69739541;-15.86329492;0.652339064;0.861742702;18.14651128;4.552615385;21.43450199;-0.917215868
-0.906872677;14.09197852;4.171056635;-4.741238346;-12.87238819;-2.645906608;20.91626707;-14.18836932;-20.61606778;-13.8888309;-24.84489717;-13.98569999;-16.13272606;0.162388051;10.60192095;16.72807166;4.32271169;19.44397507;0.007408904
-0.071506947;11.06;3.362688575;-5.212580113;-11.0351393;-3.239283854;-1.437311534;-14.41282975;-22.21507268;-14.25246237;-27.92051011;-14.39434114;-14.38347723;0.541612981;20.19028987;14.92046357;4.412672725;17.63598969;0.752286497
1.340313281;7.665193078;3.185115152;-6.131245961;-7.833242903;-3.608233493;-13.41189768;-13.39560853;-23.91601532;-14.30450862;-30.60057773;-14.07355988;-11.4098918;2.371729518;24.28599596;12.5301076;4.902817698;15.41138849;0.755999114
2.604654371;4.034762334;3.057024688;-7.135362477;-4.200876422;-3.563779829;-11.02318069;-11.19186872;-25.21947571;-14.1215949;-32.11364158;-13.42398965;-8.67434702;5.325843206;20.44464161;9.0078327;5.277825762;11.82595617;-0.159262863
3.319939016;0.377886802;2.962282061;-7.861111649;-0.812971818;-3.165823126;-1.106546854;-7.951505299;-25.45184519;-13.32868394;-32.1202563;-12.69622884;-7.09449627;8.42762315;10.3394413;4.424885527;4.924740043;6.867997549;-1.546807698
3.790217752;-2.573250621;3.656899422;-7.731539794;2.184177269;-2.666519784;5.295860924;-4.110851648;-24.20634172;-11.48015741;-30.81227699;-11.8792634;-6.403952169;10.65179074;-1.640468994;-0.005529441;3.6998958;2.024457088;-2.53555732
4.827917343;-3.615715523;6.15228754;-6.03728171;4.992061902;-2.325327306;2.335804991;-0.532092248;-21.78399644;-8.682881132;-28.78072947;-10.88682871;-5.582474537;11.45216561;-10.9740228;-2.466015125;2.100541138;-0.453784967;-2.398673194
7.082606992;-1.768935299;10.79659505;-2.465147865;7.704138323;-2.243817014;-6.381159299;1.672758193;-19.22605157;-5.877597059;-26.70606888;-9.777365466;-3.906863125;10.91306197;-14.92160485;-1.826882409;0.91370074;0.885281963;-1.102163527
10.39146141;2.847216504;16.63696244;2.270898864;9.962475464;-2.331384405;-11.99492787;1.648639978;-17.78614858;-4.440293532;-25.01984243;-8.749126135;-1.656095888;9.520811979;-12.97748819;1.327328573;0.637212856;5.495790351;0.596757918
13.66047847;8.68289696;21.60304858;6.320643828;11.02899974;-2.397528184;-9.006894223;-0.673779906;-18.1467807;-5.329053081;-23.72921517;-7.910941902;0.151404282;7.80341452;-6.386232168;4.833165269;1.129795803;10.9660183;1.624128132
15.40185777;13.37280411;23.48626786;7.457446746;10.24873308;-2.278061083;-0.513732222;-4.444444134;-19.95829014;-8.409244826;-22.52962115;-7.086711378;0.728938723;6.110058594;2.392307477;6.245701615;1.73683126;14.44699196;1.318735178
14.57104013;14.97543694;21.11582375;4.369698559;7.565352834;-1.907124606;4.65855372;-8.335174023;-22.09697799;-12.48999777;-21.15761197;-5.916324564;0.308088723;4.618989978;10.06826366;4.364464923;1.75633926;14.36339428;-0.121198961
11.14124294;13.00955962;14.98420806;-2.386493759;3.687778794;-1.318399067;0.407642697;-11.31169792;-23.49858084;-16.06917882;-19.75129607;-4.246096341;0.01390078;3.454612809;13.29245976;-0.134498271;0.877169238;11.20698513;-1.813891593
6.069219574;8.588461342;6.959130318;-10.52379361;-0.245873367;-0.617414128;-10.19308105;-13.21413089;-23.94732997;-18.24554567;-18.9339884;-2.492666793;0.910473174;2.740562415;10.15711048;-5.368143398;-0.69621786;6.941117381;-2.854506102
0.750859376;3.619916299;-0.664538879;-17.24629663;-3.289688829;0.038932892;-16.48367853;-14.72963619;-24.19826574;-19.14674322;-19.49681711;-1.606176251;3.03355598;2.534500261;1.739420735;-9.608424203;-2.434404012;3.578920249;-2.944599005
-3.61777773;-0.297229986;-6.134695227;-20.74459639;-5.168337947;0.466208785;-8.969155863;-16.77314269;-25.31955965;-19.61591216;-21.84883194;-2.539431537;5.248100569;2.744642884;-7.74475973;-12.2498178;-3.77025849;2.022602331;-2.508496852
-6.390811682;-2.514797246;-8.701043311;-20.94937736;-6.293105879;0.512038274;12.00421925;-19.72900013;-27.76883148;-20.46697592;-25.61752452;-5.542798169;6.06719098;3.158134133;-13.01610725;-13.72103331;-4.274594773;1.910053711;-2.237559529
-7.451207422;-3.210443485;-8.485730851;-19.12098796;-7.338722807;0.147055519;35.16024574;-23.11157144;-30.94748815;-21.90636821;-29.72880505;-9.807206911;4.759659878;3.590756128;-11.11702483;-14.60397051;-3.692379175;2.360788255;-2.468208466
-7.01638227;-2.818592085;-6.096076656;-16.74944972;-8.716676474;-0.475878842;46.14058997;-25.88977804;-33.60473444;-23.5234024;-32.97315783;-13.77708296;1.849556737;4.022554681;-3.718857329;-14.84619195;-1.955691038;2.86722219;-2.920291395
-5.505921397;-1.604390157;-2.36028331;-14.69344976;-10.32987648;-1.066890588;38.18895655;-27.22517368;-34.77943288;-24.76647799;-34.69688997;-15.98055961;-1.356959436;4.569863485;3.714111208;-13.7763225;0.741452122;3.613813722;-3.000205882
-3.519607414;0.30214766;1.714578593;-13.13711271;-11.75479825;-1.352690329;17.12243006;-27.07106784;-34.53125877;-25.4556975;-35.13491221;-15.83714268;-3.771958553;5.290637219;5.751275491;-10.86426336;3.870540621;5.095873594;-2.383960141
-1.786531911;2.594444668;4.967583741;-12.13772823;-12.66570374;-1.24622064;-3.333224342;-26.19632635;-33.88393601;-25.9118781;-35.14632465;-13.90902075;-5.214955986;5.995151589;1.170510432;-6.506539668;6.647815302;7.494948577;-1.356817557
-0.956463663;4.635013771;6.327738971;-12.02336517;-13.14630446;-0.905825039;-11.94674263;-25.63415373;-34.04160052;-26.64247586;-35.5577111;-11.46236933;-6.282057833;6.264197043;-5.802572768;-2.118467231;8.321810852;10.37533068;-0.601732271
-1.297471785;5.69;5.252681864;-13.14402723;-13.64386862;-0.628756037;-7.731419027;-25.97489454;-35.51603439;-27.8921849;-36.61588354;-9.6899714;-7.612549113;5.712765635;-8.473570009;0.571260331;8.528732126;12.89161992;-0.612225321
-2.53172332;5.358270991;2.057169038;-15.23406635;-14.60708494;-0.650149019;0.868769486;-27.00950624;-37.84499656;-29.4426851;-37.95461251;-9.144291962;-9.250243462;4.311830151;-2.89084857;0.470767517;7.4685992;14.24299149;-1.239611094
-3.99197535;3.783557539;-2.181787793;-17.15778408;-16.08467261;-0.9941442;4.052011741;-27.93848106;-40.0691671;-30.80048524;-39.05460446;-9.704684895;-10.63947751;2.497574274;8.653841014;-2.377078083;5.76088278;13.98109686;-1.779668997
-5.030752719;1.444543018;-6.1510786;-17.53416498;-17.57713345;-1.48150239;-1.136788614;-27.93276268;-41.50969197;-31.57741108;-39.76590146;-10.95773106;-11.18564587;0.946027894;18.72293193;-7.013251975;4.079370772;12.02457524;-1.54680318
-5.383330595;-1.260745507;-8.90930595;-15.86688807;-18.23994496;-1.872184156;-9.243172048;-26.60279142;-42.17521211;-31.72728594;-40.4127888;-12.57526465;-10.81284334;0.15801388;19.89489731;-12.18792254;2.830889767;8.550855713;-0.463928709
-5.198297854;-4.202344554;-10.14488173;-13.15598867;-17.29644155;-2.019730487;-12.2681308;-24.06088236;-42.48982755;-31.45199973;-41.36794686;-14.35822795;-9.996776408;0.15975269;10.27374219;-16.86951053;2.083561524;3.997437023;0.827871537
-4.718982124;-7.263361448;-9.940378588;-11.23660596;-14.40736326;-1.922220507;-7.384317747;-20.62199535;-42.64350001;-30.88322468;-42.46710203;-15.97874147;-9.265605314;0.538065868;-4.789908673;-20.37761258;1.725073822;-0.822638266;1.442980376
-3.902299923;-9.891998516;-8.318020144;-11.17069191;-9.815114388;-1.658334022;0.412929392;-16.47506075;-42.19517517;-29.83444426;-42.82368248;-16.76628015;-8.659098403;0.765929772;-16.1495818;-22.29096611;1.649886568;-4.729787838;0.932404274
-2.33091582;-10.97384776;-5.026087379;-12.00056177;-4.246259142;-1.297540897;2.982256854;-11.64259967;-40.33139091;-27.8598694;-41.31195908;-15.86700899;-7.669868931;0.555663704;-17.0247256;-22.42488763;1.798941082;-6.521308354;-0.36887645
0.46294178;-9.319866499;0.193135135;-11.10908088;1.320723903;-0.87869599;-3.191077189;-6.257470067;-36.60453895;-24.61414735;-37.43218827;-12.76855816;-5.7440695;-0.017180708;-7.423466095;-20.95344027;2.066181368;-5.553188908;-1.592170069
4.494952898;-4.523107607;7.054912834;-6.210564392;5.903463843;-0.462253917;-13.07973213;-0.875063684;-31.54284069;-20.27253979;-31.90333732;-7.816477741;-2.904254723;-0.664259504;6.261402313;-18.46123583;2.241143084;-2.172103125;-1.967402256
9.049993029;2.457308261;14.38853879;2.448076508;8.722855413;-0.170448846;-16.68824241;3.525806487;-26.59950136;-15.7103258;-26.46737966;-2.276617712;0.067323931;-1.130700732;15.96190367;-15.70149615;2.113309288;2.364670022;-1.338876184
12.87431563;9.50484179;20.36239591;11.51314476;9.362479868;-0.132599653;-7.305658054;5.958042353;-23.41899713;-12.2794539;-22.95208968;2.199477867;2.078824568;-1.316472302;17.36088057;-13.14750721;1.664842081;6.484602041;-0.195636759
14.73490036;14.29998602;23.21045709;16.31257263;7.8647773;-0.353764564;12.42322744;6.006878478;-22.91862036;-11.25755733;-22.1991639;4.403948542;2.473565814;-1.210411236;12.1824526;-10.72431307;1.136724472;9.024350108;0.744951201
13.98213428;15.42003906;22.00933695;13.89750957;4.714613345;-0.628186214;31.73058442;4.149134009;-24.80487525;-13.23745396;-23.58699281;4.161528149;1.488607546;-0.768554798;6.061106199;-8.035761897;0.840186749;9.619805365;1.029279474
10.77887636;12.89206691;17.02498785;5.118454628;0.670043945;-0.615015322;39.39278046;1.540578699;-27.80592231;-17.77755551;-25.46677146;2.306722992;0.083186771;0.090835351;3.991829683;-4.957594905;0.843791462;8.594521774;0.666597938
5.922210145;7.931501234;9.47321478;-5.882556642;-3.522445684;-0.066489838;31.7625132;-0.62053688;-30.40522931;-23.52430862;-26.20035176;0.106869139;-0.711212658;1.349602772;6.882243295;-2.055431403;0.844187521;6.572046396;-0.038845995
0.45013646;2.170829362;0.932155612;-14.45972025;-7.397591618;0.949446939;14.93995351;-1.733940976;-31.58946757;-28.79179385;-25.10547565;-1.451469979;-0.427007055;2.764214561;11.52344819;-0.347997341;0.414678973;4.17487787;-0.79250849
-4.707413041;-3.059300316;-7.202666048;-18.47685916;-10.87309811;2.022582479;-0.295245401;-2.01720158;-31.22196202;-32.33577912;-22.73446146;-2.065179665;0.644261873;3.930883445;13.54356021;-0.497166275;-0.523067231;1.960953505;-1.465302562
-8.908515862;-7.035439757;-13.98915836;-19.32096813;-14.12076208;2.629793744;-6.451142635;-2.186139596;-29.95857933;-33.91562285;-20.40219254;-2.043472769;1.755050173;4.545254727;10.81251036;-2.094281579;-1.433353237;0.436052205;-2.018733456
-11.85316701;-9.579915316;-18.97281095;-20.25645702;-17.29463846;2.47985232;-3.910951832;-2.859003582;-28.8613716;-34.30579979;-19.35310179;-1.943089089;2.2124008;4.647892338;4.78838722;-3.754559916;-1.443294085;-0.093360464;-2.359917127
-13.59429091;-10.90235846;-22.14233023;-23.52089747;-20.30497133;1.72624277;0.969352662;-4.119093804;-28.9079792;-34.71077107;-20.09630066;-2.222330119;1.734445663;4.611919756;-0.86596905;-4.100391449;-0.053818882;0.187550353;-2.333866203
-14.50170363;-11.50099824;-23.86924064;-28.47744938;-22.79670194;0.883073783;1.982220778;-5.514203783;-30.53172685;-35.9123362;-22.21875833;-3.088690793;0.490097656;4.83479532;-3.020340834;-2.904794329;2.262808876;0.483355504;-1.884018699
-15.10265364;-12.03476339;-24.74866516;-32.20612763;-24.34556835;0.49489918;-1.957731177;-6.424549277;-33.31184953;-37.69364927;-24.64392586;-4.483500686;-1.088517479;5.37414218;-1.060061035;-1.403649603;4.147252006;-0.244318526;-1.203785694
-15.78638954;-13.02057908;-25.27299022;-31.93230946;-24.72708185;0.793216615;-6.844578538;-6.469927993;-35.98296941;-38.95042201;-26.09973173;-6.055233944;-2.529586731;5.857825245;3.105319307;-1.379434649;4.198056708;-2.510772471;-0.679837427
-16.51943301;-14.43462991;-25.463608;-27.27483286;-24.05951563;1.578252958;-7.970613186;-5.645905222;-36.90545611;-38.45305742;-25.57458591;-7.092941446;-3.463931777;5.789117615;6.655583046;-3.638936226;2.014384345;-5.691566534;-0.623114704
-16.79974883;-15.55424551;-24.7512708;-20.55095882;-22.71220392;2.392438631;-4.4686642;-4.141173849;-34.91213024;-35.74964137;-22.65501748;-6.572892516;-3.690182356;5.016935177;7.742898376;-7.099752332;-1.379727729;-8.155598296;-1.008829294
-15.95257437;-15.32966154;-22.30558803;-15.01094633;-21.04123476;2.83952502;-0.040791716;-2.064875819;-30.11480829;-31.5558898;-17.70046001;-3.492126178;-3.208244384;3.95714758;6.432478453;-9.311944255;-4.144304901;-8.236509898;-1.474917011
-13.60404828;-13.1620961;-17.67370865;-12.50233683;-19.14467616;2.813843523;0.551748395;0.627063911;-24.10569928;-27.31501576;-11.79160379;2.552795224;-2.223315728;3.322568218;4.380659194;-8.125295182;-4.892148065;-5.419343542;-1.613168334
-9.98886784;-9.523347585;-11.27524854;-12.38304034;-16.82582267;2.495976255;-3.991813998;3.918553703;-19.25615225;-24.21795518;-6.391497601;10.87126728;-1.085133002;3.531316203;3.750366634;-3.261156755;-3.688826855;-0.825037032;-1.316453366
-5.841867376;-5.834789255;-4.329851232;-12.35944939;-13.8143762;2.158150182;-9.933998572;7.432188656;-17.40936365;-22.40366008;-2.776149463;19.68426965;-0.159927822;4.2730927;6.096625507;3.438331797;-2.0060024;3.471968417;-0.873232247
-1.946757861;-3.5539933;1.792521076;-10.36762567;-10.11226681;1.953596725;-11.20588654;10.36312566;-18.76769172;-20.95887359;-1.475511102;26.79145108;0.300159129;4.63649731;11.69144407;9.304401884;-1.626409172;5.85447527;-0.709833682
1.295401373;-3.10715338;6.326549328;-5.940688015;-6.225140749;1.846808986;-4.169365689;11.81118387;-21.75447227;-18.7473368;-2.047895921;30.60644192;0.211529825;3.767754967;19.41113192;12.69470016;-3.306653962;6.237058683;-0.99654815
3.922131911;-3.544746656;9.375294452;-0.16496516;-3.088207812;1.709132575;9.357518806;11.34517364;-24.01492124;-15.45309368;-3.363880161;30.94886424;-0.37224705;1.582511635;27.1396116;13.98886322;-6.202684093;5.949602726;-1.471448731
6.054900562;-3.296670075;11.47091903;5.386200246;-1.67664138;1.474032981;23.06032348;9.396284107;-23.92101636;-12.02710755;-4.259820634;29.06996126;-1.307321617;-1.035064823;32.57637926;15.0009427;-8.485273643;6.507484292;-1.659314014
7.470019531;-1.504474979;12.82093528;9.60639481;-2.499372434;1.217681985;30.16418385;7.136711756;-21.56327482;-10.15609511;-4.163768157;26.86192003;-2.356763157;-2.743061793;34.19837349;17.33449057;-8.667818073;8.263322366;-1.314254906
7.52313789;1.144934123;12.92764013;11.93723204;-5.27799931;1.108731032;27.48997555;5.837544672;-18.56377054;-11.11437522;-3.308628629;25.73974785;-3.168071916;-2.615180919;31.93470475;21.01105698;-6.643024183;10.0670213;-0.698349566
5.565591023;2.8459648;10.97329663;11.83542619;-9.03167535;1.278720209;16.85970815;6.080117696;-16.88591067;-14.84265664;-2.435880348;25.90326832;-3.338047749;-0.742745794;27.11944806;24.43378759;-3.678484183;10.25829253;-0.425364301
1.55047785;2.125291703;6.688868017;8.520906872;-12.55648512;1.715706156;3.436781013;7.336243776;-17.5184076;-19.9405207;-2.242394764;26.42264624;-2.619286087;1.865115129;21.66338856;25.65518483;-1.434511209;8.207522539;-0.962721931
-3.685027886;-0.80972681;0.941754515;1.546980982;-15.03866886;2.252511914;-7.303421919;8.218711138;-19.95095672;-24.57717604;-2.968682101;26.02888594;-1.159262031;3.981721021;16.94585973;23.89965856;-0.793033802;5.11664313;-2.190136542
-8.755147321;-3.971321384;-4.564144706;-8.241615101;-16.4365711;2.648452702;-11.86691332;7.272569949;-22.73104514;-27.64428345;-4.373372294;24.02844247;0.450693633;4.925058475;13.20684827;20.14564673;-1.372444947;3.332616236;-3.393966722
-12.48445544;-4.952789478;-8.367323144;-18.40936792;-17.38983834;2.709173024;-9.390019531;3.824950531;-24.59802563;-29.31775316;-6.030058594;20.71725887;1.450252234;4.839156796;9.889468359;16.36479686;-2.022660442;4.605293726;-3.737110708
-14.53958016;-2.789182805;-10.30345752;-25.92199272;-18.70484557;2.380944813;-1.170783011;-1.623234851;-25.33279292;-30.66982332;-7.670716528;17.05727894;1.37761995;4.361639858;6.622944618;14.06946797;-1.835850777;8.600058594;-2.860398252
-15.46210454;1.110625099;-11.66249224;-28.92389472;-20.74140731;1.77944087;9.970058594;-7.679181997;-25.76649141;-32.69421763;-9.330166191;13.90666457;0.379776884;4.020805691;3.959898251;13.29870101;-0.862420287;12.84167259;-1.157976686
-16.09191567;3.737071524;-14.23440645;-27.95624822;-23.09984724;1.142262008;20.20348667;-12.80391659;-27.06495889;-35.51458639;-11.25210924;11.3878127;-0.926427127;3.867459652;3.12772723;12.75350755;-0.016740393;14.20990359;0.482014494
-16.84063851;2.452235448;-18.91270498;-25.55442162;-24.81703945;0.719711505;25.52803536;-16.04761805;-29.90381915;-38.34671883;-13.70045674;8.843496438;-1.991230093;3.591001189;4.877129103;10.87587791;-0.311919339;10.95084698;1.272912368
-17.37442574;-3.256024257;-24.90998032;-24.4175108;-24.94308702;0.644779069;23.26901194;-17.35617462;-34.12578218;-40.16918311;-16.84007813;5.388460727;-2.854063946;2.93889229;8.355215632;6.997806172;-2.050385375;3.796170409;1.021678865
-16.92124165;-11.48189935;-30.19353726;-25.52642914;-23.11408023;0.847321567;13.69738712;-17.34155254;-39.02198627;-40.52444694;-20.73264451;0.638329556;-4.188373443;2.022102863;11.05583496;1.741997806;-4.571648362;-4.541897521;0.181969026
-14.91922586;-19.20411488;-32.8123112;-27.66417798;-19.74071403;1.075299;0.528827077;-16.74727934;-43.90808172;-39.82298578;-25.37733478;-4.91354197;-6.762979484;1.228103568;10.12791584;-3.497466887;-6.697615873;-11.06024217;-0.522669973
-11.47389371;-24.14793752;-32.10597277;-28.65260568;-15.69831202;1.036027254;-10.55053082;-15.98611381;-48.52823079;-38.95417592;-30.72086423;-10.13513762;-10.71160765;0.833150111;4.234068583;-7.490205632;-7.508341197;-14.12278618;-0.593059775
-7.277185606;-25.84539757;-28.90495786;-27.20887408;-11.74649984;0.588150225;-14.8172849;-15.01353476;-53.05320489;-38.550452;-36.63947119;-13.93492038;-15.2170653;0.677613845;-5.369703406;-9.812284796;-6.895073013;-14.02239589;-0.015677032
-3.086221598;-25.25315477;-24.64043591;-23.84375072;-8.086043768;-0.141537823;-11.1276285;-13.54183786;-57.78895418;-38.48629023;-42.9517779;-15.90555548;-18.93;0.214776349;-15.36358883;-10.82531438;-5.553231086;-12.26178892;0.838678463
0.806054238;-23.43518226;-20.12639906;-20.09079643;-4.352920065;-0.814499384;-2.423417535;-11.38761835;-62.89081031;-37.97727916;-49.48591716;-16.50081673;-20.8567069;-1.076085792;-22.1823723;-11.15309593;-4.480901018;-10.2591013;1.532956408
4.70492306;-20.47731622;-14.98532077;-16.82908333;-0.037197913;-1.095166299;6.282577019;-8.70818061;-68.29591033;-36.18487904;-56.1468022;-16.65798578;-21.0442814;-3.229044001;-23.8940698;-11.12405348;-4.340394079;-8.448665501;1.837067775
9.182753358;-15.49938308;-8.129034472;-13.26864554;4.979024248;-0.885746928;11.07288768;-6.0063967;-73.87414628;-32.88743087;-62.91289938;-17.16793714;-20.52124783;-5.643515942;-20.93506531;-10.56322451;-5.064691868;-6.294366315;1.792657269
14.55939516;-7.67848557;1.138829329;-7.598677716;10.14242912;-0.409595421;11.27343883;-3.948943978;-79.64587998;-28.76978495;-69.77142148;-18.25141235;-20.53072527;-7.368649386;-15.3901447;-8.99757121;-5.898779332;-3.006276764;1.595434834
20.56574059;2.612478964;12.28157546;1.170668853;14.39856363;-0.069386202;9.214325758;-3.129967132;-85.90390998;-25.16330533;-76.69080392;-19.61625037;-21.65474715;-7.624262932;-9.528836038;-6.063873734;-5.818557726;1.682620635;1.435292063
26.37591732;13.49682598;23.56504671;11.74886526;16.69800702;-0.171844737;8.00827205;-3.88891594;-93.15686767;-23.4056346;-83.70964857;-20.8899263;-23.5042;-6.218328713;-4.684439308;-1.842859982;-4.098397871;7.218723325;1.407475486
30.92027332;22.37821077;32.87639339;20.83879414;16.51616704;-0.717032512;9.139381252;-6.217180621;-101.9;-24.17661292;-91.07924035;-22.0347651;-25.17685843;-3.63034372;-1.091709415;3.049198378;-0.746897724;12.50284387;1.507917146
33.25285871;27.24892273;38.67948717;25.09634627;14.07772062;-1.407685858;11.63860261;-9.743808671;-112.294137;-27.14343722;-99.26942475;-23.38226476;-26.06167695;-0.768785695;1.530024414;7.631842898;3.410131361;16.44281914;1.663409344
32.8060139;27.61909202;40.47489992;23.31935951;10.18142267;-1.869224361;13.29075782;-13.80111827;-123.9044958;-31.08269782;-108.7;-25.25070344;-26.31104722;1.4170845;3.346598064;10.91240091;7.068910123;18.40866131;1.764478604
29.50576068;24.51642796;38.62152384;17.17473759;5.766968188;-1.911325765;12.74105351;-17.59112746;-135.696705;-34.43497986;-119.3031314;-27.48108972;-26.61630136;2.281594845;4.25234284;12.27874825;9.071054002;18.39780767;1.713082206
23.79441905;19.7019249;33.8756154;9.919316566;1.498178988;-1.634921438;10.74084309;-20.44392804;-146.4071779;-36.05330413;-130.2551753;-29.33476116;-27.52367041;1.687834186;4.147839665;11.76114677;8.99557157;16.93922822;1.496164062
16.5741236;14.73466418;27.10272265;4.153784834;-2.406633588;-1.31595291;9.517893321;-22.07743787;-155.1783368;-35.78362319;-140.1963407;-29.92830638;-28.90294643;0.054348919;3.228873023;10.0114023;7.377441682;14.85797869;1.244487678
9.036167834;10.48493503;19.30472365;0.368810358;-6.03663274;-1.175258502;10.76390686;-22.7061079;-162.0808197;-34.53902901;-147.9144377;-28.92697353;-30.02430307;-1.767297613;1.96561584;7.964830031;5.399829166;12.99521278;1.202945022
2.373193212;7.257405021;11.72458375;-2.673517312;-9.46922613;-1.227528064;13.85384435;-22.88867958;-168.0859504;-33.75472004;-153.0621572;-26.94180588;-30.16627791;-2.794313335;0.852443024;6.342122011;4.23015204;11.94310026;1.58707743
-2.52870836;5.230124671;5.708124507;-6.211986668;-12.49805929;-1.325425594;15.81312435;-23.16121958;-174.3550912;-34.47707083;-156.3563548;-25.23593371;-29.23491351;-2.333553723;0.256346422;5.289411829;4.41495759;11.86905357;2.407854427
-5.265447291;4.760712832;2.267821021;-9.973390595;-14.60557482;-1.345172402;13.2891179;-23.67232019;-181.240926;-36.63371022;-159.0448637;-24.86415342;-27.88535189;-0.338519384;0.529964114;4.40596637;5.718824174;12.51764667;3.411103221
-5.880615538;6.299071254;1.63048851;-12.18247982;-15.23014099;-1.340527503;5.253436042;-24.07931871;-187.7438623;-39.00343642;-161.9951028;-25.85934627;-27.06469291;2.53182904;2.173759865;3.15682135;7.480078125;13.41203795;4.215949664
-4.701812994;9.977724287;3.130087891;-11.07268895;-14.18606524;-1.522104631;-5.53838727;-23.81013712;-191.9697273;-39.98638304;-165.0957619;-27.12753017;-27.35647769;5.256964216;5.669075259;1.378135232;9.179673412;14.14152213;4.57689709
-2.217310157;15.18669594;5.556279437;-6.594899286;-11.96277362;-2.070932623;-13.61679339;-22.52974816;-192.4260251;-38.7031438;-167.4512773;-27.22416799;-28.62460098;7.035797034;10.89724092;-0.511363545;10.77027294;14.53627472;4.569831583
0.919926161;20.46317065;7.724343209;-0.844471637;-9.650324901;-2.940400513;-13.99785504;-20.46826923;-189.2729844;-35.64876808;-168.2193433;-25.4938703;-30.17103912;7.72784897;16.57928272;-1.776477757;12.51957527;14.60319384;4.536651626
3.862869523;23.86515984;8.903398634;3.225325749;-8.435411939;-3.818116967;-5.539472605;-18.32987766;-184.5272935;-32.38021331;-167.4011248;-22.70358593;-31.21643781;7.827485123;20.39864498;-1.927912993;14.52797246;14.2985767;4.80959772
5.719371896;23.7496909;8.918797921;3.843137848;-8.896195248;-4.295177726;7.852085316;-16.79562912;-180.9046915;-30.40347633;-165.9107548;-20.60772793;-31.32498208;7.967850879;20.08242374;-1.15444802;16.36130713;13.37570053;5.427074082
5.957708875;19.64024479;8.036301083;1.648570522;-10.51891341;-4.127033438;19.20688438;-15.95779841;-180.0274522;-30.05483942;-164.8414579;-20.67151083;-30.52974955;8.321804897;14.93069501;-0.275243257;17.15857463;11.50575471;6.079401911
4.866251039;12.74170196;6.853625559;-0.807915024;-11.80364554;-3.398388608;22.58934227;-15.12612154;-181.2985266;-30.23185077;-164.530634;-22.86207991;-29.18921671;8.380634944;6.731152854;-0.213804759;16.18918804;8.633337881;6.346877071
3.679656299;5.734694778;6.275968664;-0.871572101;-11.00408431;-2.477158116;16.68927439;-13.21923157;-182.3333783;-29.22385823;-164.2208372;-25.4459448;-27.76014761;7.322496219;-0.78845084;-1.355426234;13.45239463;5.283135443;6.050039063
4.110324624;1.786779365;7.418917643;2.482452757;-7.133512431;-1.796433024;5.480371438;-9.535674968;-180.6904552;-26.05167959;-162.6327096;-26.034406;-26.61940815;4.715362815;-3.878215588;-3.246493502;9.843366031;2.50432255;5.426567006
7.427390061;3.149997713;11.24040339;8.214635116;-0.64399067;-1.617416249;-4.545542175;-4.388693769;-175.6308487;-21.30615479;-159.0017245;-23.19261095;-25.94;1.002698984;-0.946297706;-4.858470229;6.716462306;1.380291982;4.976979649
13.61143085;10.02984255;17.94169046;14.24003906;6.666324983;-1.920586181;-8.671697508;0.868435638;-168.5892336;-16.83120408;-153.7311196;-17.47551283;-25.599284;-2.647461606;6.423542754;-5.250590014;5.118689188;2.37180633;5.086241029
21.15349653;20.36462772;26.49294163;18.95291534;12.50327999;-2.466342949;-6.771449682;4.508451735;-162.0269166;-14.47544475;-148.1261256;-11.13910995;-25.18207626;-5.065566859;14.36113532;-4.200274142;5.205514324;4.9340413;5.712427461
27.68374483;30.70044125;34.71332636;22.03315535;15.19224989;-2.95188446;-2.709064959;5.394483678;-157.5923492;-14.85357666;-143.437507;-6.724438479;-24.18495446;-5.848912319;19.00514907;-2.397122972;6.215425863;7.705726997;6.386957242
31.06948573;37.72772749;40.03509037;24.01536022;14.40084187;-3.151353896;-0.928534156;3.630029297;-155.0263969;-17.04241621;-140.0028168;-5.512864827;-22.393855;-5.58443118;18.75832153;-1.073240654;6.989042032;9.204267871;6.52848556
30.32104958;39.65950282;40.60237519;25.15501001;11.07797841;-2.972973038;-2.946497718;0.480508185;-152.6058434;-19.39581777;-137.1541805;-6.904206932;-20.18112671;-5.340206182;15.0746208;-1.279607813;6.67080641;8.630293697;5.832761001
25.81123229;36.7474231;36.076966;24.68014913;6.734790975;-2.443316547;-6.488667118;-2.368156422;-148.6557097;-20.79125682;-133.8792472;-9.053685367;-18.39635873;-5.807814721;11.31945538;-3.221386773;5.160039063;6.310292327;4.453687506
18.80943006;30.77530571;27.68365178;21.15366277;2.594320987;-1.668534101;-7.857051722;-3.725115007;-142.8263196;-21.31739205;-129.5869931;-10.18807573;-17.77821005;-6.759236772;10.49692684;-6.042603194;3.089484939;3.520346876;2.865065262
10.76628089;23.96417774;17.5185432;13.72263606;-0.849635495;-0.805301191;-5.457250032;-3.419689037;-136.1058335;-21.90922801;-124.3030141;-9.605613872;-18.25147201;-7.245505707;13.33515955;-8.226739779;1.414178006;1.784655826;1.537467048
2.841933319;17.97330409;7.594486537;3.26399285;-3.681169732;-0.034733858;-1.416625808;-2.173389502;-129.6645315;-23.31301926;-118.2083388;-7.726720704;-18.70905914;-6.386525851;17.9276805;-8.454760114;0.88480573;2.019730255;0.683226788
-4.142757516;13.46918543;-0.816106047;-7.552609798;-6.075443338;0.482326256;0.215633406;-1.000888314;-123.6286759;-25.29223279;-111.0871964;-5.35939692;-17.61751285;-4.133951686;21.08296328;-6.476885455;1.676890744;3.967722824;0.234225313
-9.535656837;10.28376531;-7.280126099;-15.48837907;-7.929224166;0.666454763;-2.726862652;-0.589662731;-116.904414;-26.74413942;-102.3458877;-2.913177313;-14.14227201;-1.401000371;20.44505143;-3.462853754;3.321264852;6.222726789;0.014929193
-12.79359954;7.85246229;-11.89322215;-18.49746669;-8.893730596;0.561409189;-8.001640621;-1.036467207;-108.213538;-26.60640838;-91.69704189;-0.2099997;-8.968845776;0.561674155;16.00718131;-1.504075388;4.937234135;6.878558442;-0.068238539
-13.66152321;5.607423011;-14.90925435;-16.85316641;-8.729692138;0.316823195;-10.14332669;-2.005673387;-97.40998461;-24.76729608;-79.88745862;3.063486013;-4.089246056;1.08318031;10.08600599;-2.412882509;5.663128908;4.523426981;0.024256354
-12.40997018;3.20576959;-16.55103934;-12.8687354;-7.643957102;0.108381157;-4.770332488;-3.079164051;-85.87719913;-22.20465389;-68.67165598;6.786107113;-1.553857077;0.59316646;5.829146993;-6.463162862;5.104777414;-0.904300256;0.369060839
-9.836357354;0.646146992;-16.99624674;-9.388852781;-6.30256517;0.039627859;7.34351552;-3.99917197;-75.59816328;-20.24094357;-59.82316623;10.29150386;-2.0236982;0.352275913;5.243448273;-11.89823055;3.585143626;-7.886175624;0.954982902
-6.921833582;-1.680548646;-16.39455376;-8.052325856;-5.48927502;0.087522399;19.91674794;-4.671918906;-67.65140856;-19.54198367;-53.85503828;12.82634446;-4.206442946;1.584113168;7.997716757;-15.67659194;2.02519534;-13.93687055;1.650839379
-4.346577691;-3.07031759;-14.83723455;-8.465241388;-5.653793901;0.125903945;25.21027756;-5.028054638;-61.40317521;-19.68280108;-49.50244085;14.14965455;-5.658777301;4.628861502;11.73400795;-15.16351171;1.455434912;-16.81845393;2.283771126
-2.213139038;-2.796413858;-12.34296367;-8.788752787;-6.659033123;0.008971725;19.59252718;-4.932129833;-55.08452359;-19.60561724;-44.5037048;14.7243975;-4.415803385;8.698681662;13.65893719;-9.781755629;2.393494273;-15.70984459;2.742635305
-0.172647033;-0.534200207;-8.953930687;-7.275538127;-7.869324342;-0.339793645;6.324279449;-4.241596775;-47.26501285;-18.54180147;-37.17746932;15.33991814;-0.269201432;12.36233063;12.38416958;-1.533602749;4.466944555;-11.62683922;3.012749624
2.172494132;3.350242517;-4.90692621;-3.646745207;-8.481240663;-0.885035264;-6.705267979;-2.945794414;-37.98037713;-16.60320744;-27.59856662;16.52777534;5.216792252;14.38;8.839125121;6.037395625;6.56367492;-6.79092701;3.129635797
4.922554486;7.916670213;-0.701624659;0.671707961;-7.874193006;-1.500568757;-12.62470723;-1.230419536;-28.58775106;-14.56535676;-17.44312882;18.30545404;9.89327752;14.32018646;5.677144783;9.851815052;7.466760457;-3.305374676;3.120986069
7.842777759;12.16762688;3.080604955;3.618924094;-5.81250398;-2.033530324;-10.26087089;0.615706378;-20.52417011;-13.07570996;-8.623662399;20.4462646;12.46627156;12.6197798;5.56142002;8.996172701;6.586393115;-1.975614644;3.005883523
10.5997493;15.6127939;6.129885264;4.094478809;-2.474444416;-2.373284026;-4.291831837;2.382131298;-14.07154366;-12.0099809;-1.811359614;22.94892021;13.12600532;10.17953938;9.434406384;5.037428381;4.304844403;-2.038352989;2.843202086
13.00533272;18.42513661;8.634402786;2.889576034;1.620562677;-2.492533752;-0.962040069;4.047662005;-8.188593218;-10.5575582;3.97165745;26.16938065;13.03030879;7.872422748;15.87990353;0.817004932;1.704014014;-1.946145768;2.751170238
15.02284662;21.0208141;11.10307458;2.204520422;5.724843481;-2.445918501;-2.988546282;5.717905363;-1.51566953;-7.978656926;10.39293127;30.39947562;13.23282619;6.296494704;21.97278352;-1.376018525;-0.122098069;-0.61584882;2.835964623
16.53351619;23.37350454;13.81382191;4.014765655;9.012059877;-2.329618184;-7.807691563;7.438510293;6.36046287;-4.391749409;18.30672262;35.25053888;14.00074793;5.815695398;25.04429372;-0.994800601;-0.683207621;1.763199814;3.062517492
17.10264225;24.64152288;16.27903573;8.424411481;10.77571521;-2.220413001;-10.40469079;9.046877673;14.4928078;-0.91078176;26.95529469;39.48479433;14.99721956;6.674794971;24.21145796;0.908009682;-0.23525083;3.909285854;3.185590932
16.01126417;23.4845929;17.21117629;13.2391254;10.63670185;-2.123606192;-8.086833468;10.2015801;21.34913481;1.020837034;34.50931956;41.62405852;15.97615659;8.961665619;20.71093855;2.830411691;0.570859018;4.410636096;2.842757374
12.61091683;18.9088689;15.15938141;15.18611184;8.663763035;-1.961003777;-2.974162073;10.58687052;26.0697152;0.60663965;39.46556383;40.9827009;17.20414864;12.40567092;16.90123914;3.972513559;1.190877718;2.697534349;1.78930779
6.795028313;11.0384948;9.476664271;12.04415749;5.329075205;-1.614701082;-0.021520367;10.14634112;29.10630932;-1.746191996;41.74204063;38.31354298;19.15441528;16.23179063;14.68206558;4.53946217;1.440527724;-0.691408125;0.123040851
-0.726608272;1.241642631;0.964978148;4.251727728;1.318306007;-1.010402753;-2.308835778;9.169554653;31.72115695;-4.679354464;42.61848313;35.46543676;21.77913944;19.31559538;14.42109495;5.14580546;1.376953831;-4.654272671;-1.679749998
-8.543523465;-8.478070669;-8.297481349;-5.140436566;-2.691356366;-0.192540558;-7.784668462;8.158669592;34.84164122;-6.720806255;43.66291253;34.21129706;24.13683831;20.66544641;15.0594332;6.014601737;1.030002441;-8.340634476;-2.980263372
-15.00541728;-16.3761958;-15.90461541;-12.19654449;-6.168625128;0.662212933;-10.49671779;7.555781208;38.31021112;-7.092339694;45.598277;35.10056274;24.87686846;19.96952978;15.20562171;6.74213262;0.309805155;-11.54265282;-3.329204014
-18.80202766;-21.5451978;-20.27554883;-14.38491279;-8.755840178;1.314138734;-5.523382837;7.502431707;41.17263524;-5.97873209;48.0241249;37.21914808;23.29351905;17.82928264;14.34285909;6.797001098;-0.801403903;-14.41264028;-2.730420668
-19.40682069;-23.90105045;-21.30915413;-11.94676561;-10.25851284;1.579417137;6.441807;7.774037433;42.69039529;-4.204830732;50.10367494;39.04023513;20.07130889;15.47027018;13.24094756;6.21;-1.990270123;-16.88669952;-1.638530736
-17.22089168;-23.79991164;-20.18579627;-7.521786592;-10.67482087;1.427319319;18.80633532;7.916665407;43.11614458;-2.671430575;51.49428213;39.6769542;17.01033591;14.06690776;13.28437963;5.730713959;-2.6167461;-18.44753936;-0.684613869
-13.37884105;-21.72988713;-18.52327245;-4.394627481;-10.25567275;0.992010076;23.60459432;7.495628679;43.51;-1.959666045;52.66034191;39.52620268;15.84108013;14.08925874;15.24064171;6.231280703;-2.090411711;-18.51507429;-0.300631231
-9.28763238;-18.30988765;-17.46516281;-4.585143429;-9.5;0.48830483;17.38308829;6.31411408;44.76878955;-2.26031253;54.33918097;39.80052281;17.01910263;15.07871996;18.41467662;7.864855877;-0.360795933;-17.12497376;-0.47534389
-6.064347178;-14.42471748;-17.23377108;-7.963323184;-9.006967145;0.083570246;3.81181202;4.491519674;46.77016783;-3.498202112;56.72666335;41.36900157;19.45038855;15.98260605;20.87211635;9.769670494;1.904613716;-15.21969295;-0.786795427
-4.111605522;-11.14675309;-17.30756444;-12.74585142;-9.226301371;-0.193098405;-9.025310467;2.375167211;48.4410551;-5.446715799;59.18655733;43.90030288;21.36574291;15.8187603;20.65607759;10.67420854;3.670201209;-14.16201992;-0.683655873
-3.059531149;-9.321893552;-16.98267529;-16.79436878;-10.25974238;-0.448044244;-14.48444834;0.349274753;48.72366786;-7.763532726;60.77465304;46.04234536;21.64503252;14.24519522;17.20051939;9.965982478;4.192175023;-14.76522793;0.158403424
-2.146156789;-9.103007735;-15.90872882;-18.75686411;-11.84952103;-0.830711664;-11.78110218;-1.339016861;47.59731944;-10.02801337;61.0992553;46.50078234;20.55555051;11.69905984;11.9571379;8.328149447;3.486753224;-16.62085116;1.61527611
-0.84011991;-9.875708775;-14.2999833;-18.44097913;-13.54461533;-1.411411796;-5.716383124;-2.623195634;46.24838309;-11.85203504;60.72672212;45.12452459;19.38240246;9.06668431;7.735642141;7.344801738;2.232196753;-18.34030305;3.153521182
0.697925213;-10.73499961;-12.77174878;-16.48199107;-14.89030147;-2.10516931;-2.304820548;-3.494007516;46.22721478;-13.00078336;60.76267049;43.10090939;19.34186151;7.141168731;7.094258775;8.305238277;1.182957974;-18.60487278;4.106729214
1.669469968;-11.17022655;-11.95813638;-13.79494407;-15.48805348;-2.688822474;-4.062438059;-3.791957075;48.31715302;-13.38305142;61.99533537;42.10288509;20.70884752;6.224384389;10.75950892;11.11606574;0.577178312;-17.22696014;4.035448533
1.22284146;-11.37422094;-12.14113782;-11.21823362;-14.93270898;-2.905319344;-8.665622449;-3.089901918;52.07539459;-12.87890772;64.37506526;43.08784366;22.82775519;6.091013396;17.07781205;14.18847949;0.026266546;-15.35649783;2.971491198
-0.830464821;-11.88108643;-13.07999285;-9.381706302;-12.80028902;-2.60175007;-11.65976479;-0.822432267;56.38707459;-11.17955355;67.26892331;45.70640349;24.87800766;6.270873747;22.8801894;15.43053204;-1.028448327;-14.61234824;1.40917268
-3.723167946;-12.8403353;-14.12672611;-8.594771934;-8.849650324;-1.828336336;-10.55279148;3.334180202;60.46847281;-7.888554868;70.19064013;48.74066082;26.63912659;6.408082617;25.26421589;13.63349298;-2.686884469;-15.77615049;0.044480312
-6.144323476;-13.61319964;-14.58247374;-8.664106112;-3.383826085;-0.841568382;-6.747963743;9.038391258;64.38196675;-2.937112528;73.25906639;51.13138003;28.56914539;6.444749577;23.2221294;9.261866336;-4.335957662;-18.06281324;-0.593739459
-7.10120322;-13.14919872;-14.11824037;-8.830999323;2.526147651;0.000538261;-3.910151505;15.13654793;68.61522944;2.972767182;76.90906494;52.70485871;31.17401486;6.537462293;18.14075383;4.132058423;-5.010813665;-19.56350111;-0.410473541
-6.594857766;-10.91773959;-13.01370123;-8.093640021;7.270632887;0.407074153;-4.510407957;20.00552048;73.17504777;8.347333047;81.12290868;54.03284398;34.29332548;6.817462422;12.90778864;0.284507276;-4.103641479;-18.56688448;0.24412214
-5.580130092;-7.616826861;-12.03427736;-5.888488698;9.409102;0.301675876;-7.7153809;22.29281001;77.12376437;11.52194997;84.96800913;55.64341731;36.99050363;7.205558474;10.22208115;-1.130068359;-1.862883355;-14.79986034;0.818122242
-5.226336503;-4.975549554;-11.97920102;-2.688351738;8.47603691;-0.136005093;-10.37983105;21.65248993;79.09495587;11.63425825;87.00703686;57.35252746;38.18065866;7.430569239;11.16304201;-0.268263091;0.709782642;-9.698548192;0.897431521
-6.052825901;-4.680087891;-13.17424775;0.033664218;5.326232074;-0.567909202;-10.05479439;19.00006104;78.40822802;9.2773456;86.35250287;58.335143;37.46660092;7.233822866;14.83896599;1.77123918;2.483374388;-5.547365711;0.426257388
-7.618110726;-7.20054436;-15.26263577;0.624487003;1.708206867;-0.685927873;-7.200126794;16.06785202;75.79494351;6.271494149;83.48309211;57.85928641;35.46961705;6.598826221;19.18806129;3.655190723;2.869643177;-4.130254087;-0.319839798
-8.98559354;-11.42895185;-17.46115005;-1.633465362;-0.71269053;-0.380791886;-4.641045355;14.48920013;73.02111051;4.58944144;80.04925244;55.99803473;33.38328335;5.826728481;22.27497603;4.351256913;2.067923731;-5.820465934;-0.963979563
-9.540193963;-15.41634638;-19.10049659;-5.932122207;-1.242611013;0.213932692;-4.864836302;14.96566632;71.63743762;5.124173194;77.72646571;53.65593079;32.14106274;5.391800562;23.20458654;3.304599017;0.768749486;-9.632366593;-1.282051795
-9.437378411;-17.62760453;-20.02903556;-10.37368612;-0.363337955;0.829971727;-7.682577271;17.02723369;71.87371385;7.171808486;77.01911527;51.87033139;31.88929182;5.669325897;22.17381122;0.419525164;-0.388146892;-14.03777523;-1.303102005
-9.292658346;-17.7501698;-20.54968797;-13.16323734;0.846362493;1.248657061;-10.38865876;19.49624661;72.61428712;9.023302815;77.01658913;51.00862096;32.15176367;6.715816156;19.85748942;-3.938082216;-1.174016367;-17.87404775;-1.210411723
-9.40094255;-16.51511958;-20.94490862;-13.6838626;1.595590683;1.432044905;-10.25489015;21.29308523;72.48582012;9.249365707;76.32722501;50.58104086;32.4538511;8.239156171;16.75361472;-8.926959585;-1.737816094;-20.74934533;-1.153888538
-9.225520328;-14.83958965;-21.02095442;-12.66059182;1.893687093;1.51206894;-7.08871954;22.0211652;71.131666;7.740709231;74.408731;49.83253517;32.79670801;9.761284717;13.00364418;-13.40976827;-2.311969834;-22.83246846;-1.140401355
-7.70614675;-13.13296825;-20.13433936;-11.3472666;2.340251288;1.657473742;-3.538651807;21.98094049;69.57443038;5.74661663;72.15;48.56361409;33.55488081;10.85062059;8.708259816;-16.43359683;-2.965374701;-24.37200062;-1.084166199
-4.236100491;-11.36910319;-17.77870037;-10.45407329;3.432439062;1.931979867;-2.847436856;21.71119619;69.34295327;4.911224538;71.17888479;47.40793913;34.92789441;11.27496181;4.326177033;-17.79094486;-3.600829146;-25.38790867;-0.951095592
0.468932571;-9.74987041;-14.29861864;-9.715524753;5.00086088;2.260115651;-6.01305226;21.48780633;71.10255917;6.056787383;72.46252726;47.27904509;36.49853534;11.00820591;0.727681545;-18.21457361;-4.135302493;-25.72095323;-0.848197948
4.394119433;-9.189906118;-11.09405856;-8.420373237;6.246824358;2.524159435;-10.82352353;21.17742564;73.96314295;8.627801514;75.39783871;48.46905249;37.3624919;10.14264078;-1.159299515;-18.92331566;-4.641961357;-25.28911943;-0.962520813
5.269693943;-10.99222834;-10.00051592;-6.375738937;6.336894069;2.701380955;-13.57716382;20.49976733;76.07094127;11.1728307;78.1983822;50.24253579;36.77996021;8.816176625;-0.794288835;-20.72732234;-5.300689666;-24.26746808;-1.395244942
1.962906816;-15.84633391;-12.16245657;-4.387731984;5.054153196;2.911729589;-11.98301173;19.39958972;76.00368849;12.43687116;79.29126012;51.3676417;34.81739359;7.218674125;1.79472896;-23.32360978;-6.209085545;-23.03740787;-2.039355205
-4.754581523;-22.97599571;-17.16527734;-3.755614743;2.981400247;3.319624362;-6.791742894;18.16258559;73.81502089;12.19949272;78.56705698;51.18750077;32.42050602;5.639455837;6.143644923;-25.36868737;-7.244411594;-21.97689045;-2.620542262
-12.58889587;-30.24479229;-23.07445407;-5.151533748;1.097682043;3.962291478;-0.904311728;17.1686854;70.88276571;11.24900323;77.42961106;50.29441042;30.81307972;4.454717456;11.53470791;-25.3715907;-8.115712558;-21.27666497;-2.882826019
-18.95034061;-35.2735331;-27.41024096;-7.842436535;0.145535212;4.652875346;3.086299329;16.52153757;68.73161785;10.59905401;77.59257492;50.13673269;30.66565883;3.993022708;16.98882167;-22.80629248;-8.566330248;-20.90324342;-2.772587845
-22.16512022;-36.77681256;-28.43010697;-9.986807573;0.272158405;5.059830475;4.715425085;15.9153697;67.84860723;10.6434543;79.62288808;51.7817661;31.66685417;4.334182114;21.17219399;-18.61888096;-8.554122425;-20.68688677;-2.470186121
-21.94299168;-35.12717671;-25.90115883;-9.86955028;1.165278237;4.92567923;5.375669416;14.89169116;67.47328748;10.94382059;82.44448514;54.82959883;32.81169499;5.19199027;22.60223595;-14.71363455;-8.266735352;-20.43429242;-2.243464574
-19.01543135;-31.78597922;-20.95114762;-7.14133086;2.466714001;4.268283217;6.479497896;13.2835644;66.47666159;10.78074344;84.20836711;57.43862811;33.16732857;6.010626776;20.36860119;-12.75247238;-7.980417361;-19.99774818;-2.245169045
-14.44975218;-28.15453978;-15.24871456;-3.076599667;4.043841447;3.406898778;7.952341573;11.46030721;64.50623791;9.952833468;83.79242857;57.56077185;32.53201091;6.262569139;15.01377257;-13.11934909;-7.895366784;-19.30695592;-2.419223151
-9.218710337;-24.80688806;-10.16077603;0.380830557;5.892339479;2.780236266;8.503050684;10.13955032;62.37440568;9.110721089;81.68109881;54.48236184;31.52101244;5.77169323;8.770457144;-14.78150752;-8.071032767;-18.39573614;-2.583041832
-4.187088207;-21.63218225;-6.396835405;2.05877216;7.831955486;2.679124778;7.32726245;9.898657197;61.35939667;9.315944535;79.51585812;49.46384471;31.06770689;4.832198073;4.587315615;-16.11329003;-8.46964119;-17.41783788;-2.601525205
-0.216008336;-18.55752291;-4.159792255;2.371276009;9.370441067;3.08063579;5.465677991;10.77802636;62.05692099;11.17548673;78.73316127;44.94779242;31.74899471;4.013212669;4.296613957;-16.04758216;-9.019262085;-16.60803543;-2.495890647
1.978324701;-16.02663871;-3.430559166;2.884982552;9.949339382;3.693981789;5.309864034;12.29638285;63.82085056;14.27375577;79.45927549;42.92875625;33.42521609;3.760500232;7.191144737;-14.71464755;-9.619918593;-16.16832814;-2.398272756
2.215577501;-14.71778491;-4.034161323;4.986669847;9.399676148;4.172597805;8.488333004;13.85260706;65.31777169;17.39901801;80.58327003;43.73471844;35.40798011;4.0706262;10.29848488;-13.15521049;-10.10963452;-16.13073839;-2.407028476
1.106103806;-14.78885852;-5.486504757;8.685017606;8.188690356;4.332762751;13.97832658;15.16787348;65.73840982;19.42096328;80.90584013;46.11839995;36.97937296;4.486246439;10.50546152;-12.40527102;-10.27235956;-16.2925203;-2.486799261
-0.21234684;-15.46609234;-6.928441566;12.45764812;7.17434534;4.230110778;18.26903512;16.40270043;65.60697307;20.13736224;80.34;48.48782841;37.87085381;4.444161663;7.142123969;-12.69506638;-9.93247587;-16.28209498;-2.51142222
-0.799689617;-15.51994909;-7.40827734;14.25304244;7.001401978;4.063291805;17.70572402;17.87906145;66.43207455;20.40792624;80.09900173;50.20290102;38.38791137;3.746090925;2.963299448;-13.36231603;-9.079458636;-15.72242039;-2.409797461
-0.569467181;-14.32137162;-6.418650851;12.91089841;7.608148945;4.000455748;11.23947545;19.68511138;69.40765024;21.4411237;81.67260343;51.86935849;39.13581875;2.80772725;2.426310057;-13.49092256;-7.91114539;-14.39604948;-2.272367619
-0.30666037;-12.53280256;-4.277770003;8.997324424;8.260667551;4.063920446;1.370347039;21.53165506;74.19655653;23.76840498;85.43096012;54.4537875;40.55733182;2.471752641;8.225600494;-12.7235775;-6.740890369;-12.33518036;-2.305421297
-0.970793322;-11.70003906;-1.992407625;4.507854287;8.116932631;4.143274018;-7.497855342;22.98575009;78.82268458;26.70447022;90.03104432;58.06115806;42.5834;3.468593906;18.64148506;-11.58944863;-5.832877479;-9.828194859;-2.658646911
-2.828561609;-12.95227073;-0.641027604;1.681259357;6.887821758;4.101753451;-11.99683325;23.84966544;80.85068492;28.73848867;93.16180139;61.49846317;44.60292486;5.870327115;27.9830693;-11.09740915;-5.292793084;-7.372493607;-3.27390372
-5.151181818;-15.87309792;-0.724165345;1.714799293;5.07337315;3.880928628;-11.76734042;24.31079063;79.01968803;28.594681;93.08206331;63.05907668;45.76118261;8.918081288;30.2279278;-11.93395308;-5.082160232;-5.577075897;-3.895865291
-6.764964128;-18.57568502;-1.973846879;4.151663987;3.588648234;3.531015161;-9.112747063;24.69895063;74.12233684;26.1809469;89.77051077;61.8917206;45.41238136;11.37362824;23.43162551;-13.90999153;-5.102639678;-4.980833417;-4.24857606
-7.014581926;-19.04898733;-3.73765822;7.229747872;3.077754294;3.164526707;-6.899203457;25.0686717;68.47388293;22.71131779;84.82404866;58.78126368;43.46771109;12.19930174;11.60726131;-16.09039766;-5.239828559;-5.7876663;-4.23451559
-6.317381805;-16.73426528;-5.575487387;8.912916061;3.451632657;2.884621687;-6.543582428;25.02365966;64.36116923;19.89698256;80.232243;55.63308291;40.4351207;11.14224634;2.416537726;-17.48576966;-5.32956723;-7.634558216;-3.987346996
-5.80818151;-13.01420112;-7.544476777;8.006784563;3.992118651;2.739569049;-7.565573598;24.0132023;62.59676497;18.79529708;77.011566;54.03763058;37.12016662;8.849655939;2.075745794;-17.72585428;-5.137895233;-9.595827308;-3.733740978
-6.34714828;-10.147498;-9.942863535;4.792828088;3.914248365;2.717342406;-8.664478898;21.89450561;62.19165099;19.1637629;74.73450367;54.0838532;34.163285;6.443471151;11.05840231;-17.13781373;-4.477876031;-10.55252269;-3.587379262
-7.729756925;-9.480946192;-12.77496917;0.89408219;2.941227042;2.762849498;-9.04722773;19.2545536;61.31863386;19.79062529;72.23355628;54.41084756;31.70350991;4.835986713;23.73243192;-16.13516904;-3.452857469;-9.809004924;-3.460424713
-8.794979828;-10.41641583;-15.45283279;-1.551605008;1.476903083;2.799966288;-8.817735715;17.11906369;58.81488004;19.5436525;68.83229355;53.46874492;29.39052447;4.234366808;32.24469134;-14.42299479;-2.62219316;-7.587933411;-3.174774933
-8.375472029;-11.01992298;-17.04206855;-1.018864037;0.300636621;2.758245555;-8.379936111;16.18044186;55.1308256;18.33803256;65.08704985;50.94332177;26.73753341;4.148530776;31.86246329;-10.76426193;-2.837937377;-5.014273703;-2.67378784
-6.304729856;-9.794531406;-16.87660521;2.537367628;0.061793437;2.60952626;-7.794456412;16.14516989;52.07600818;17.27754125;62.46342466;48.13673927;23.56492461;3.871945114;23.95566978;-3.698761002;-4.709936637;-3.496957407;-2.135658268
-3.621397639;-7.136686493;-15.03696873;7.559447691;0.943593942;2.401888959;-6.903875438;15.80987225;51.57508085;17.83390183;62.22754593;46.94042019;20.21102684;3.081388634;14.61962118;7.129879903;-7.998874352;-3.856550483;-1.866575523
-1.771647911;-5.214691666;-12.29858865;11.64617225;2.668875544;2.259344004;-6.014189951;13.95110615;54.30709496;20.64786245;64.41958941;48.20249398;17.35285012;2.12074809;10.17199003;19.97079216;-11.42182678;-5.790133368;-2.046001998
-1.45795519;-6.2904531;-9.606104165;12.82902428;4.738799013;2.325629371;-6.127250486;10.4331052;59.13304626;24.83247631;67.67360248;50.82357814;15.57190303;1.754697349;12.93021967;31.17754653;-13.16632758;-8.07971782;-2.540589831
-2.09764204;-10.79758537;-7.517537055;10.64026588;6.668005244;2.672369317;-8.071500842;6.65252564;63.65728855;28.31610945;69.99040067;52.36647219;14.99250422;2.555026116;20.20493424;36.79932037;-11.91999118;-9.430581982;-2.964856691
-2.360521851;-16.72151012;-6.05279986;6.312856356;8.073964987;3.231628091;-11.11564096;4.834437051;65.53576615;29.03088722;69.89578198;50.7724038;15.25632707;4.358378694;26.84654336;34.74993113;-7.783577063;-9.350219235;-2.966572125
-1.357365628;-20.81007813;-4.998556839;1.977472481;8.661290905;3.809466024;-12.53094747;6.529611088;63.71761397;26.16213979;67.21268716;45.89629604;15.82688939;6.212200694;29.07371691;26.22238034;-2.412797301;-8.426969194;-2.516835013
0.501102082;-20.7155254;-4.320209811;-0.612802655;8.228622008;4.183650838;-9.058228168;11.32587729;58.91517494;20.64296345;63.02513033;39.70569486;16.36335188;6.905616475;26.67151153;15.3486505;1.79631378;-7.806733794;-1.961118551
1.698732828;-16.48587482;-4.271333802;-0.978116691;6.753728342;4.224742671;0.421282144;16.74732641;53.11207532;14.60787041;58.98513403;35.01305514;16.87308515;5.769912345;22.26846424;7.14875477;3.012061413;-8.274019517;-1.770159988
0.732142217;-10.39833971;-5.112348558;0.130350872;4.481508288;3.959230238;13.0847247;19.54820165;48.48325993;10.21173063;56.47765403;33.70345656;17.56216525;3.211373983;18.78722775;4.90580374;0.939529209;-9.648546366;-2.176004044
-2.725260633;-5.429672868;-6.744831605;1.556161249;1.895941558;3.535945753;23.03120162;17.635869;46.37709618;8.583202606;56.10997401;35.72876671;18.56075165;0.575866443;17.35731192;8.509258192;-3.14518013;-10.96461853;-2.984565456
-7.52508599;-3.605316098;-8.663291655;2.612641811;-0.453672045;3.128403494;24.67265022;11.37820065;46.87604245;9.494938977;57.66511332;39.46937803;19.7792443;-0.62900105;17.1829491;14.73345545;-7.265951024;-11.2904684;-3.725443096
-11.82878443;-5.344909094;-10.32860275;3.297916509;-2.17162124;2.846839633;16.42879123;3.425012081;49.04543228;11.78858809;60.35474857;43.00251856;20.99313441;0.313580562;16.98029719;19.22968381;-9.895809658;-10.54332799;-4.029414317
-14.34556421;-9.948417372;-11.64880918;3.759296165;-3.137256645;2.71290381;2.039381618;-2.848573838;51.58033382;14.12;63.13056531;45.21976155;22.02109058;2.823332593;16.34304644;18.98720219;-10.63366768;-9.654717006;-3.931414487
-15.07251763;-16.44903314;-13.10545438;3.611494861;-3.469453654;2.690683768;-11.53764207;-5.267593046;53.40711191;15.51167668;64.93666509;46.02917;22.78054209;5.323973449;15.76440252;13.81528661;-10.06535441;-9.93851155;-3.844103342
-15.02052686;-23.96444063;-15.34100663;1.877510674;-3.396497205;2.725808109;-18.17471507;-3.93751398;53.94349935;15.49574065;64.92884145;45.73366793;23.15583948;6.193399146;15.53149171;6.100058594;-9.066084633;-12.12207315;-4.205874784
-15.2173764;-31.38757551;-18.49593962;-2.221262388;-3.139100096;2.755391594;-15.7632829;-0.875357404;53.02185228;14.00054603;62.70331396;44.33914724;22.84507128;4.767779375;14.85571883;-0.81640666;-8.138912727;-15.75055804;-5.075044464
-15.80752114;-37.03594408;-21.83800909;-8.212621117;-2.854876666;2.698353563;-6.589444036;1.43900787;50.70268783;11.25715432;58.47968286;41.48092442;21.42274212;1.752347613;12.34694285;-4.526574645;-7.240362528;-19.38657661;-6.001873688
-15.92826952;-38.9720363;-24.02764343;-14.02410157;-2.61032813;2.466236365;4.813552698;1.565642292;47.20110173;7.82768989;53.10322781;36.98965865;18.67051767;-1.226725822;7.553138381;-4.613071667;-6.089919427;-21.43884577;-6.305400408
-14.39815283;-36.03129475;-23.86778892;-16.86378623;-2.339249397;2.014392607;14.32422001;-0.283913602;42.95597966;4.600232304;47.78236384;31.48246254;14.94132707;-2.63025098;2.094576641;-2.423024248;-4.585414715;-21.01893045;-5.5664188
-10.64374783;-28.79396298;-21.00554937;-14.8992746;-1.818866091;1.400729276;19.53164068;-2.772282524;38.67763889;2.540014648;43.64;26.33154255;11.20860742;-1.911207103;-0.92001709;0.082248444;-2.935538632;-18.2579464;-3.967794911
-5.17328331;-19.58926232;-16.09867696;-8.58395969;-0.749138773;0.789729018;19.44369956;-4.562540112;35.19257893;2.207967482;41.30089778;22.94094425;8.652744589;0.257072745;0.938425552;1.598741771;-1.434633727;-13.956963;-2.214269364
0.691401397;-11.31865434;-10.38146537;-0.615213021;1.036715384;0.371640832;13.86267965;-5.188202075;33.08485252;3.350156237;40.73279728;21.91123756;8.009041253;2.528804911;7.290632332;2.158294636;-0.143416828;-8.934541606;-1.074330387
5.556892799;-5.854004655;-5.002844167;5.553169082;3.345677976;0.240308231;3.637306955;-5.12177915;32.3533972;4.925742961;41.39973427;22.79516472;9.129664386;3.784211065;14.67893754;2.943858698;1.189301382;-3.60325682;-0.870991933
8.626855249;-3.164244825;-0.613807725;7.680995289;5.585282668;0.322394061;-8.422722171;-5.148316363;32.35863217;5.66389897;42.58596264;24.62717628;11.08281821;3.747935234;18.6203808;5.444755178;2.866435662;1.943172466;-1.288809666
9.900058594;-1.784589595;2.596337971;5.883499199;7.022392186;0.423817072;-17.44817774;-5.637287343;32.14910778;4.820872464;43.66377591;26.71503302;12.71505023;2.944485966;16.61;10.43184359;4.868460077;7.492697473;-1.63018021
9.889548481;-0.20098146;4.602081707;2.240909775;7.216058979;0.369480849;-18.38618051;-6.294787132;30.97554578;2.602894344;44.16536525;28.94923185;13.26312692;2.110520104;9.880972634;17.26692895;6.710428794;12.36810002;-1.323779062
9.157580959;1.958218723;5.329802587;-0.74266914;6.313455969;0.132943999;-9.198319053;-6.531645452;28.65015212;-0.066047347;43.70396588;31.34720068;12.60194097;1.563958899;2.605070769;23.90749989;7.692113133;15.52305975;-0.311547601
7.992709709;3.802302446;4.710573366;-1.705498445;4.950761293;-0.145699958;6.943259123;-6.080578179;25.526521;-2.261336804;41.9196617;33.30677658;11.04333235;1.014207481;-0.89814811;27.68180526;7.374251675;16.06516997;0.953849315
6.373045588;4.094699761;2.875644374;-1.007702157;3.792753761;-0.268745458;22.60728067;-5.323475277;22.16877737;-3.709696497;38.59244973;33.40572492;8.963483201;-0.080395128;1.047511431;26.5462351;5.916467571;13.83557673;1.870500035
4.15340955;2.355541313;0.234630879;-0.117888626;3.051883934;-0.130084229;30.15507236;-5.053756688;19.00370831;-4.875490773;33.89212662;30.1753775;6.619722994;-1.936197952;6.581378192;20.22452828;4.009572252;9.605972501;2.117441773
1.318043851;-0.754573156;-2.683687272;-0.433473275;2.378209429;0.212440852;26.32610079;-5.864543863;16.21879565;-6.433189814;28.5608497;23.394448;4.267844231;-4.131800504;11.76342113;10.5691879;2.446635981;4.719116326;1.836037939
-1.844746075;-3.983614933;-5.488989926;-2.415970274;1.229918408;0.592217894;14.10338162;-7.648852122;13.91745467;-8.571622213;23.80151451;14.84428534;2.359136147;-5.811524402;13.20387502;0.819555696;1.652978048;0.399095025;1.457196313
-4.735140214;-6.389356653;-8.034790439;-5.51223646;-0.568133151;0.861127707;0.484791326;-9.604138807;12.30058414;-10.70887136;20.81779629;7.713456859;1.502815276;-6.239703569;10.04944876;-5.944899004;1.519581571;-2.803521491;1.343992042
-6.632400538;-7.796729131;-10.26995405;-8.686006744;-2.553826872;0.979008332;-8.181027574;-10.74179888;11.6319922;-11.86040107;20.21249419;4.824290501;2.116363102;-5.27425997;4.180802;-8.313705377;1.644230223;-5.065119736;1.541451463
-7.031937906;-8.51172562;-11.99701075;-11.03163542;-3.907713602;0.997758493;-9.883857638;-10.52586866;11.97566451;-11.37319465;21.608753;6.826145262;4.02933225;-3.414622222;-1.216550131;-7.121460495;1.770930043;-6.842027501;1.81101869
-5.966216001;-8.700402414;-12.80921292;-12.07692543;-4.089749044;0.970786899;-7.188335128;-9.187167743;12.95133495;-9.446723954;23.77678661;11.66263191;6.421483879;-1.430182303;-3.595905268;-4.747324911;2.071530233;-8.293913357;1.88420583
-4.08081963;-8.105446355;-12.31575444;-11.76328673;-3.315403708;0.883192087;-4.335091305;-7.518476928;13.79289201;-7.037067305;25.25311569;15.78420245;8.232528973;0.105552137;-2.336586396;-3.614317181;3.040640998;-9.044935996;1.701828679
-2.322340738;-6.376102022;-10.47222149;-10.32880075;-2.448771202;0.671624319;-3.847466637;-6.335402408;13.75713754;-5.227683778;25.11653504;16.34110864;8.780208772;1.018558533;1.168214473;-4.870403242;5.075213868;-8.488704737;1.442791736
-1.344268231;-3.632963744;-7.69354734;-8.244549327;-2.349586873;0.311609964;-5.288549932;-5.996856118;12.61603985;-4.548559956;23.45916978;12.88367406;8.124451702;1.381048289;4.439999121;-8.043002484;8.057652942;-6.405020876;1.343853902
-0.998145752;-0.614601583;-4.593554787;-6.136855067;-3.168888771;-0.119668934;-6.684076886;-6.284123677;10.85380792;-4.727328093;21.26349654;7.451853714;6.907001661;1.222677951;5.279606497;-11.71653383;11.27337454;-3.371691696;1.492224169
-0.319775909;1.863066088;-1.537833394;-4.559446556;-4.163658659;-0.47852445;-6.838869106;-6.647124457;9.392692521;-4.992588205;19.76458825;3.080622826;5.820582443;0.422703041;2.943885085;-14.56890028;13.76021658;-0.564436163;1.781597402
1.862104578;3.704594657;1.595363145;-3.657420476;-4.216510378;-0.66860727;-6.30124549;-6.583020836;9.027465733;-4.64077061;19.69820514;1.823828157;5.151457651;-1.100559887;-1.363528137;-15.96938049;14.87368328;1.002751089;2.058612899
6.020488835;5.806527504;5.189612525;-2.991349519;-2.69895579;-0.732204489;-6.317294536;-5.886611387;9.962680707;-3.445182147;20.89501653;3.635261749;4.745218253;-3.095200793;-4.973445814;-15.85205181;14.68182799;1.26462146;2.302139395
11.34124392;9.388224504;9.337163148;-1.77904463;-0.038413512;-0.825230859;-7.148812514;-4.676820168;11.74805844;-1.688084111;22.44474094;6.73369648;4.360473695;-4.902118992;-5.123341184;-14.25752227;13.90218707;1.27442748;2.642392301
15.9251883;14.79039858;13.41358862;0.501953102;2.441663606;-1.079363621;-7.66771899;-3.284167939;13.59485896;0.088248031;23.28909516;9.01057186;4.046151164;-5.756604983;-0.625751555;-11.17447992;13.40092045;2.509150334;3.178352564
17.74089356;20.71872661;16.18983905;3.571709417;3.309261073;-1.459580289;-6.722937391;-2.127610198;14.8013216;1.364286292;22.85451055;9.40801543;4.190775689;-5.282621056;7.137690315;-6.911587766;13.58332812;5.719029771;3.757849068
15.75421037;24.686147;16.48966011;6.341340512;1.897702042;-1.743721008;-4.824443477;-1.617699498;15.01357583;1.806917063;21.35198316;8.385779886;5.214786258;-3.790817082;14.69275305;-2.581625408;14.09758388;10.1504931;3.95434274
10.50928436;24.50522419;13.95629549;7.549990075;-1.308540476;-1.65996027;-4.161718322;-2.032526959;14.2518375;1.342019222;19.60829898;7.348165492;7.200177994;-2.109909764;18.37676866;-0.02152358;14.07318045;13.78815098;3.327730985
3.795431783;19.80680503;9.368897761;6.62768043;-4.983690845;-1.089529081;-6.49924238;-3.344146402;12.81602087;0.218417306;18.56894157;7.59300023;9.781813434;-1.044076631;16.58642127;-0.902790022;12.7480485;14.5488739;1.803408416
-2.351930921;12.44077654;4.257508255;4.131575762;-7.707972109;-0.181998349;-10.71365438;-5.100734884;11.18103928;-0.96807724;18.75658973;9.510370258;12.35540308;-0.858996915;10.84622223;-5.56423655;10.0558892;11.62868823;-0.139028208
-6.647377959;5.392928007;0.071786048;1.393212537;-8.664212139;0.709554291;-12.50998484;-6.538544308;9.852946609;-1.434948964;19.93465125;12.41392316;14.36542075;-1.189971126;4.833424301;-12.51231666;6.75508252;6.030243509;-1.668287776
-8.944306519;0.951398996;-2.52666252;-0.375766871;-7.91535883;1.232802517;-7.237655523;-6.979995463;9.092502905;-0.622808647;21.09191677;14.91610884;15.40834044;-1.431672685;1.916907951;-19.13788884;3.991629166;-0.131051599;-2.101973767
-9.882253453;-0.572533687;-3.788994243;-0.836037211;-6.210455297;1.237840121;6.039986865;-6.320522907;8.553145962;1.338776356;20.73779777;15.52850575;15.13722494;-1.279078625;2.921311975;-23.24732975;2.590946318;-5.029013786;-1.361106694
-10.16315999;-0.671058789;-4.398252253;-0.557119049;-4.52595333;0.841824085;22.55660592;-5.235952653;7.10824395;3.495489878;17.4171718;13.23611674;13.21040035;-0.966308057;5.761997825;-24.28748547;2.577316304;-8.170830657;-0.037287154
-10.00694962;-1.194964732;-4.785042933;-0.343176862;-3.610934834;0.326539392;33.99318366;-4.85644192;3.179747142;4.519597099;10.29092787;7.941601011;9.500762313;-1.001770488;7.252895339;-23.31263226;3.26619615;-10.28980513;0.99705235
-9.111978837;-2.752247244;-4.749097665;-0.431397428;-3.712168312;-0.045652798;33.64648148;-6.031290104;-4.427367741;3.568123968;-0.437005906;0.691895505;4.467315323;-1.621356737;5.740710962;-21.72669331;3.862185011;-12.21251003;1.166900788
-7.041505674;-4.156110906;-3.636987964;-0.245218225;-4.537368486;-0.170949193;20.98246032;-8.676223949;-15.6525757;0.956634548;-13.48310106;-6.48570938;-0.70398556;-2.427950074;2.548726514;-19.84955401;4.12113152;-13.67637828;0.551381314
-3.690221118;-3.32651194;-0.918188008;1.080339996;-5.444776752;-0.123806334;2.224415609;-11.72542337;-28.95476852;-1.931768875;-26.96;-11.28081576;-4.518706953;-2.549135793;1.085582371;-16.54064481;4.578788036;-13.15560012;-0.224971477
0.489692563;1.030383107;3.260228607;3.831318316;-5.796856027;-0.073905177;-13.45263329;-13.81396985;-42.09066483;-3.563171301;-39.22711723;-12.19068291;-6.034758912;-1.232990196;4.246175977;-10.26791857;6.160457305;-8.960665573;-0.466333037
4.597363801;8.200930514;7.91999874;7.233077924;-5.340422761;-0.174482306;-19.33003906;-14.25645186;-53.52514596;-3.389557735;-49.70533446;-9.480200644;-5.584673271;1.553285059;12.03795693;-0.801613412;9.440247877;-0.816461024;0.110533663
7.607343488;15.59263319;11.60349161;9.785922684;-4.407681986;-0.488438722;-14.40677555;-13.60541213;-63.52400685;-2.339384541;-59.17400723;-5.354325045;-4.743136189;4.971245691;21.20061758;9.864175978;14.07869544;9.348723712;1.217296724
8.725203533;20.13973482;13.02715336;10.20154208;-3.771367536;-0.972221486;-2.704324697;-13.33288561;-74.0720776;-2.220117858;-69.31188805;-3.040019531;-5.429780985;7.722562818;27.1003408;18.20753782;18.84185771;18.141463;2.232175585
7.650370335;20.03825623;11.6749093;8.245253805;-4.179755551;-1.500793166;10.10581728;-14.82231175;-87.54991779;-4.422391451;-81.69954928;-5.161358782;-8.715065096;8.732170207;26.53762076;21.08803587;22.19212449;22.55892432;2.621826602
4.692737336;15.68066257;8.023096448;4.857168632;-5.842156785;-1.913053659;19.81448386;-18.39885055;-105.0319304;-8.900039063;-96.86117964;-12.32801372;-14.1786376;7.644838783;19.54517921;17.52276918;23.05122183;21.68029876;2.240721736
0.709825019;9.24909208;3.293148393;1.475238328;-8.230112849;-2.069217743;24.52686345;-23.12290374;-125.4032872;-14.23253548;-113.9164354;-22.80293513;-20.28107683;4.860122953;9.108018983;9.097470089;21.25;17.00942954;1.343383236
-3.157485045;3.328421565;-1.131884779;-0.924466767;-10.37733516;-1.911239514;23.66078175;-27.49873727;-145.9244481;-18.74291409;-131.0154998;-33.45040145;-25.43688726;1.187924097;-0.749494978;-1.167671421;17.43750942;11.28048285;0.374290426
-5.901150624;-0.514771354;-4.327134141;-2.373048577;-11.49853311;-1.500135254;17.06371095;-30.54326527;-163.8076993;-21.7942676;-146.2196523;-41.34743205;-28.94858498;-2.558250053;-7.072355425;-10.55846652;12.60362257;6.653775104;-0.274982995
-7.045791024;-2.330792036;-6.167620531;-3.686497882;-11.48204292;-0.99588255;5.591622621;-32.38186579;-177.6366471;-24.21980186;-158.2391607;-45.0599951;-31.12043655;-5.765299962;-9.010362961;-17.76539838;7.59056694;3.602129632;-0.403323147
-6.807108334;-3.337201068;-7.225898616;-5.702981934;-10.88146389;-0.571876221;-7.552134207;-33.92155636;-187.6388435;-27.52236892;-166.6257778;-44.9007851;-32.58117792;-8.003893698;-7.508893451;-22.76203315;2.885847313;1.166654898;-0.029079115
-5.888089573;-4.886064732;-8.306688582;-8.577502962;-10.41392549;-0.307363904;-16.75554343;-35.8978629;-194.7649413;-32.47799093;-171.4709444;-42.22644416;-33.49991758;-8.969930988;-4.304413787;-25.89813449;-1.276878059;-1.81664383;0.622626906
-5.022887085;-7.598736312;-9.910933808;-11.63844512;-10.37097162;-0.134066546;-16.42778707;-38.09969006;-199.4657362;-38.28308759;-173.0082359;-38.4265028;-33.41817417;-8.538506653;-1.049605795;-27.14577787;-4.70460882;-5.585112795;1.155111312
-4.564810429;-11.16478534;-11.95854054;-13.86270909;-10.42671369;0.111835116;-4.766829453;-39.43079942;-201.2313856;-42.969837;-171.4894504;-34.29502804;-31.82061926;-6.891420793;1.101032818;-26.08896408;-7.130122325;-9.253632727;1.116481543
-4.390068359;-14.76007813;-13.91888441;-14.5806993;-10.00257806;0.556481382;14.02431569;-38.78103732;-199.2440157;-44.80026995;-167.3579204;-30.02194278;-28.86701281;-4.530733539;1.652903853;-22.46436762;-8.253367966;-11.54792485;0.236682143
-4.149911934;-17.63029247;-15.21268716;-13.89741938;-8.877217766;1.167150174;31.30174989;-36.01173679;-193.5114462;-43.5565367;-161.4126931;-25.53201752;-25.53879104;-2.053870867;0.947447157;-16.58823109;-7.846680994;-11.73540319;-1.31043992
-3.636033641;-19.38296447;-15.56542703;-12.56555588;-7.510842585;1.738777162;38.80077943;-32.25316693;-185.4279809;-40.71940809;-154.6525829;-20.74910222;-22.9782057;0.203151941;0.253190297;-9.229574048;-5.816233362;-9.992586273;-2.837087528
-2.951774543;-19.87563722;-15.05835537;-11.45385494;-6.782494557;2.009288842;33.54670045;-29.25390198;-177.196223;-38.40978264;-147.8173408;-15.61655486;-21.55629475;2.36909329;1.394199655;-1.120812666;-2.211853563;-7.048651025;-3.426136492
-2.36643706;-18.96162789;-13.89267577;-11.01769434;-7.334097918;1.827667153;19.40625793;-28.2697598;-170.5177978;-37.93951901;-140.9967217;-10.04377514;-20.51364036;4.869990321;5.766132656;7.321978906;2.742311926;-3.582253031;-2.483112207
-2.011969912;-16.44630749;-12.13329631;-11.13239836;-9.058367515;1.25577414;4.235313012;-29.32833914;-165.5912333;-39.09245145;-133.7066534;-4.018763568;-18.57145884;7.965938701;13.19540979;15.74510009;8.563292055;0.039507179;-0.203856313
-1.711738132;-12.35510679;-9.709010321;-11.3593469;-11.16025268;0.532053761;-5.217050592;-31.38439717;-161.2125104;-40.62730673;-125.4655324;2.124938199;-15.07076815;11.34592789;21.49992697;23.36530057;14.45651649;3.542398283;2.424513854
-1.098845855;-7.257188048;-6.693231856;-11.40435467;-12.74633084;-0.073956212;-7.015170828;-33.1713001;-155.8710951;-41.49581572;-116.4395288;7.584536002;-10.69095728;14.14326781;27.32596138;28.88460642;19.43542516;6.438447069;4.180671313
0.08751208;-2.259510474;-3.59011018;-11.4111789;-13.45464817;-0.411446702;-4.047120211;-34.04045005;-148.9355865;-41.72474176;-107.5837742;11.38910587;-7.09;15.43018875;27.96635523;31.13443084;22.65020425;8.101804112;4.389287377
1.795445456;1.471006576;-1.286051114;-11.87457833;-13.60744808;-0.503081426;-0.938981799;-34.16493296;-140.9896343;-42.24850156;-100.058931;13.04581391;-5.68353618;14.86077232;23.06504294;30.03106304;23.7638422;8.255369263;3.368273837
3.713329408;3.369408527;-0.588283339;-13.24372409;-13.77945824;-0.482067135;-0.581770285;-34.05865434;-133.1161033;-43.89059686;-94.2988425;13.06146243;-6.513403613;12.97708136;15.05305167;26.96842251;23.10383903;7.384623103;2.18544959
5.499806269;3.791510161;-1.656483876;-15.5138962;-14.17491057;-0.47296669;-2.764012837;-33.92349576;-125.7992627;-46.40575286;-89.45608916;12.84523088;-8.12411342;10.91991083;7.95;24.10481899;21.43132855;6.551545451;1.871043575
6.949480448;3.666000512;-3.797092911;-18.11541303;-14.36798213;-0.505976537;-5.355527496;-33.42114542;-118.3959151;-48.42706088;-83.73710586;13.93277451;-8.574657013;9.730930845;5.240254442;22.91825608;19.44998791;6.605076026;2.660009766
