Channel 1 - P4;Channel 2 - O2;Channel 3 - P8;Channel 4 - T8;Channel 5 - C4;Channel 6 - Cz;Channel 7 - Fz;Channel 8 - F4;Channel 9 - Fp2;Channel 10 - F8;Channel 11 - Fp1;Channel 12 - F7;Channel 13 - F3;Channel 14 - C3;Channel 15 - T7;Channel 16 - P7;Channel 17 - P3;Channel 18 - O1;Channel 19 - Pz
-24.01061282;-11.12655259;-29.25444507;-21.59464348;-21.54529678;-21.25107396;111.1413664;6.159398619;24.36279488;-17.95562831;9.366696365;-14.20805711;24.27701021;-21.30190056;8.207550349;2.74414605;-20.00186427;-32.2210332;-10.79347011
-4.686297336;1.097534567;-8.043263057;-4.403063005;-6.497814729;-7.467748937;106.4941448;13.84124451;51.98830871;-4.121053361;4.517449655;-0.268921287;33.19620329;-7.328081322;25.4102445;25.84740621;-3.369467489;-14.82243986;3.4211709
15.11569825;8.398894175;14.7396399;13.87246509;7.715846527;5.628144536;59.36494442;12.57063135;54.38503022;10.02663861;-4.568952705;11.82384673;25.13735086;4.750113579;33.08898952;30.71510466;11.57724934;3.694331436;13.49626124
24.38439527;6.116735523;25.88764038;23.01990017;12.60600489;10.14570183;1.261339969;3.257634505;26.58475456;16.45173088;-16.98678;15.08186633;4.880542609;7.783690225;27.62402612;16.76849222;16.61573719;11.397177;14.1294811
20.10902906;-3.306135212;21.06295875;20.37706306;7.022366703;4.71286973;-32.60662488;-7.013416493;-12.51366643;13.69572174;-28.20408745;9.438192596;-14.51633267;1.506437721;13.46757832;-4.047663357;10.93647429;5.193735221;6.88736746
8.656662853;-12.37908392;7.244821424;12.06934307;-2.652645274;-5.122528167;-27.44281151;-10.42578911;-34.26258425;7.218681786;-32.79741834;1.309384642;-21.30543591;-7.908972324;0.020790652;-16.57694121;0.951433059;-7.64765172;-1.567174169
0.274257189;-14.23069014;-3.215309797;7.534753302;-7.856494651;-11.55283093;3.436294709;-4.240266675;-22.33096526;4.559968231;-28.3566196;-1.657465586;-13.23503976;-12.90986302;-4.648153557;-13.33749179;-5.030285308;-15.65907627;-4.797295906
1.255584433;-7.484955838;-2.03179712;11.94212639;-4.363764761;-10.40332889;31.78869799;7.476584837;14.35465511;9.363283798;-17.47549576;3.641555361;1.800896715;-10.1222336;1.272086784;1.181668173;-2.919434726;-11.93935894;-1.235993304
9.822193395;3.235647465;9.408342931;22.53966183;5.048158118;-3.72193935;36.90872412;17.2940275;47.83291138;18.92718702;-6.185825276;13.89918059;12.65367153;-2.222346027;13.01502173;15.40747239;4.838780135;1.222737717;5.284843863
18.50613166;11.22727808;22.21353642;31.53905425;13.48628878;2.602090065;19.6281831;20.05872375;51.64547121;26.87704603;0.026067626;22.52399921;13.49048039;4.892940225;23.23133146;20.14342701;12.05012058;14.98587945;9.145787157
20.60183637;12.73460755;27.61497666;32.7978309;15.65120109;3.873093571;-1.816685555;16.27434347;19.93686795;28.44709663;-0.365757165;24.89830706;7.283392382;6.951055921;27.0258807;14.932006;13.93823021;21.18458542;7.516342724
15.30893045;9.220908472;23.69177334;26.70066278;11.67299704;0.088942204;-8.766165968;10.87256971;-29.07469295;24.0308593;-4.519334407;21.50900284;1.999586326;4.211386652;24.47942153;6.843503761;10.45598518;18.21117838;2.244855058
7.696316549;5.477911736;16.06491774;19.44619815;6.280471451;-4.687279161;2.829830443;8.826971934;-67.02779302;18.39176712;-7.854337483;16.77250721;3.285513248;0.448242839;19.41248881;3.631181167;5.46259708;11.23902774;-2.148089754
4.057666943;5.508300394;12.60802208;17.70145572;4.470677819;-6.141798172;21.03241626;11.37974582;-75.37352503;16.56828734;-7.483314785;14.98154074;9.93589979;-0.647272631;15.99569006;7.416162454;3.026530202;7.305325988;-2.381618303
6.823603552;9.609680785;16.93377947;23.25554874;7.51737497;-3.292625799;29.7241575;15.74822357;-56.34685775;20.00020573;-3.858997024;16.91617828;15.60805281;1.581825177;15.99052003;13.89282517;4.223769974;9.697496834;1.094129811
13.12793043;14.73695148;25.93092245;31.96804096;12.48330627;1.0642416;22.50810271;18.06656785;-28.01767299;25.86123787;0.275624461;19.72756093;14.77499094;4.73997155;18.32451761;16.94659964;6.919375035;16.07888428;4.892335475
17.76457488;17.38497294;32.88212738;37.50506086;15.22;3.100811212;7.021359989;16.73749455;-9.105214443;29.73223874;2.376977254;19.77798624;7.529241606;5.878087097;20.61847501;14.12797056;8.206024399;21.26508366;5.79
17.64448176;16.34936043;33.08126298;36.44419338;13.9823356;1.301176957;-2.930405034;13.38733378;-6.19745492;29.11;1.882405788;15.78328804;-0.759759958;4.062110168;21.00677833;8.261679209;6.995346566;21.74735651;3.363697804
13.95942494;13.20708983;27.20359256;30.52650858;10.58473464;-2.459108061;0.372858313;10.96112508;-12.4377451;24.91757971;0.074824018;9.689069271;-4.263021307;0.827952825;18.9324037;4.305171812;4.494257014;18.08350312;0.033984961
10.56795928;10.53381739;20.03457439;24.55742818;8.407863168;-4.810944395;12.64782273;10.96398545;-16.57421402;20.15810413;-1.424444939;4.871491646;-1.54435863;-1.568426434;14.86198841;4.756914916;2.484473249;13.59722148;-1.264002296
10.41345253;9.731472457;16.19983973;22.16319185;9.293142383;-3.903093727;22.42091844;12.34334503;-13.34421595;17.25192804;-1.990118597;3.462918421;3.701957058;-2.265981564;9.727141608;7.818339422;1.338266981;11.11267435;0.388935004
13.21476104;10.35353388;16.75630189;23.13085229;12.10060248;-0.868163275;21.48721662;12.78847072;-6.580619923;16.39372367;-2.095716082;5.035480951;6.336443995;-2.33157564;4.691333398;9.640876243;-0.243677643;10.8211288;3.307056292
16.21350305;11.20003906;19.25884366;24.31985704;14.00043792;1.388391392;11.5866052;11.00028839;-3.803697661;16.03252959;-2.447652342;7.415952687;4.334489651;-3.401483372;1.068899757;8.189783856;-3.594211275;10.90429935;4.870660415
16.93967964;11.81616561;20.64281442;22.89977576;13.09953289;0.829701023;1.930814776;7.758270069;-8.425910546;14.62568111;-3.25894309;8.549489346;0.155345153;-5.889102441;-0.114848914;4.988607302;-8.247817046;9.851821012;3.84133542
15.32657715;12.8372162;19.97252575;18.83280018;9.973105983;-2.020738387;0.529170661;4.908428407;-16.85479903;11.91248543;-4.408535703;7.710427586;-2.057921284;-8.507295934;1.073053111;3.243582055;-11.81796121;8.024485296;1.302144332
13.37245792;14.92311808;18.66419635;14.53065161;6.860019531;-4.721474766;7.35449651;3.401634369;-22.47823961;8.722200682;-6.140235863;5.308675289;-0.636187067;-9.504916443;3.051640902;4.346611027;-11.85495818;7.035936043;-0.456025558
12.92876588;17.48935822;18.39994085;12.3363422;5.469207548;-5.156222899;15.1277274;2.352236379;-22.086358;5.850985452;-9.291972172;1.957802454;2.01132464;-8.366951279;3.46560187;6.242205111;-8.049189497;7.784156408;0.020558039
13.8524256;18.67088982;19.07268174;12.36874427;5.518780762;-3.312026718;16.40348466;0.044828925;-18.51311643;3.328627259;-14.50870493;-2.019362032;1.79240488;-6.321019592;0.918666796;5.309758932;-2.744163711;9.25183119;2.186247133
14.2586104;16.75584656;18.85375571;12.70694497;5.308465863;-1.082721356;10.23471332;-4.07796599;-17.31593708;0.800351851;-21.04123789;-6.221192349;-2.935843667;-5.162356137;-3.586430284;0.034988686;0.796687174;9.353385125;4.118355855
12.5427257;11.8547452;16.2601204;11.5649448;3.666392337;-0.422305449;2.568879035;-8.384087613;-21.0280697;-1.517820605;-26.40975854;-9.612027731;-9.356781251;-5.519210745;-6.914752559;-7.018545575;0.917562198;7.035190703;4.228492529
9.177026013;6.227620606;12.0999826;9.246788259;1.350326381;-1.599354204;0.469717317;-10.07092699;-26.5862779;-2.48902798;-27.64943128;-10.73304411;-12.25579219;-6.217887035;-5.954943427;-10.94310918;-1.27372978;3.557604086;2.512578139
6.534398128;2.823175739;9.269411002;7.964554687;0.536724132;-3.096391446;5.705656734;-7.453565436;-28.28597698;-0.8750271;-23.45072925;-8.790806362;-8.442333059;-5.3826056;-0.182390673;-8.556011295;-3.071317387;1.620730969;0.342073475
6.855598636;3.172761208;10.41945566;9.687479164;2.833296163;-3.138618633;13.44205223;-1.544964109;-23.32132397;3.352156311;-15.51107499;-4.660140517;0.316739341;-2.282619554;7.463301027;-1.245669586;-2.570746543;3.034416709;-0.849789641
10.20339;6.384460474;15.56141097;14.07560618;7.626735635;-1.381005256;16.88893067;4.486991756;-14.60942441;8.510314268;-7.813537955;-0.678679466;8.442738327;1.777873696;12.33386293;5.969986759;-0.183841209;7.045332017;-0.729613897
14.26369692;10.04589106;21.81052158;18.48509115;12.28943012;0.783933137;13.42418625;7.584468003;-8.247679751;12.17829064;-4.134001863;0.869809773;10.84698949;4.382911349;11.31562154;8.434864029;1.980816321;10.88373423;-0.102253291
16.18147331;12.2028201;25.56634066;20.10393745;14.11151538;1.525452068;6.674012846;6.924562275;-8.006760224;12.9454538;-5.561214005;-0.589523762;6.789023825;3.960805482;5.102854951;5.488584474;2.178509217;12.07851951;0.040257973
14.80507856;12.69542264;25.24486765;18.29259497;12.30946966;0.254625016;2.943888552;4.201391435;-11.99003906;11.44893778;-9.914369709;-3.583592058;0.141475171;1.058974879;-2.313083422;0.662901369;0.587418615;10.47194433;-0.536628602
11.39196413;12.77637591;22.20545873;14.99948397;8.430078125;-1.838328167;5.49326128;1.960448635;-14.53165006;9.747120629;-13.50893306;-5.942993516;-3.984038945;-2.167937842;-6.593096061;-1.625923337;-1.030999965;8.13901979;-1.238188892
8.249067317;13.50410835;19.1645019;12.88042574;4.901627107;-2.839385658;11.84724165;1.492654446;-11.54621763;9.513491962;-13.89542398;-6.699651858;-3.279547077;-3.773368108;-6.159269599;0.068217658;-1.16961609;7.331509469;-1.39722525
6.623314884;14.48250966;17.63747012;12.8535561;3.070368727;-1.777822114;16.33639678;2.044577612;-4.390433422;10.58979902;-11.46675938;-6.827587819;0.386995166;-3.522405076;-3.074484867;3.165972555;-0.125472098;8.364287477;-1.029019091
5.761733261;14.14947977;16.75936694;13.33925316;2.407350533;0.578953273;15.29478543;1.851138328;1.298157705;11.15165469;-8.783224255;-8.106984083;3.149149605;-2.797077262;-1.10970121;3.622468275;0.235862781;9.394173055;-0.817376665
3.925463969;11.35602424;14.49597912;11.89099022;1.433616681;2.457257807;10.15470198;-0.08809811;0.707449032;9.345678906;-8.29925194;-11.09349271;2.710243021;-3.08037544;-2.644525281;-0.256323121;-1.680546376;8.280965382;-1.365097803
0.339231575;6.756972653;10.02500078;7.720146454;-0.628811962;2.622245044;5.841148304;-3.104381568;-5.751154952;4.977164207;-10.39027794;-14.06936324;0.149676654;-4.458285275;-6.881650322;-6.134420355;-5.459925443;4.783226579;-2.480597037
-3.773512384;2.659201337;4.982309655;2.759580669;-3.039931065;1.350643261;6.197807721;-5.543146624;-12.72608572;-0.215500385;-13.22225022;-14.08377703;-1.418155874;-5.514185735;-10.67637066;-9.549236133;-8.706103041;1.007110703;-3.241442493
-6.057275218;1.335610704;2.313354108;0.188801646;-4.26222088;0.027789621;10.68684054;-6.303651759;-14.61552176;-3.93913098;-14.44411512;-9.373202999;0.106482576;-4.689569511;-11.14033057;-7.692606647;-8.930384917;-0.387275469;-2.819312202
-5.03964598;3.197627952;3.682460345;1.625263889;-3.482756464;-0.177790664;15.18140083;-5.811086228;-10.45931247;-5.202471635;-13.23460755;-1.167553146;3.860191544;-1.848437514;-7.856264651;-1.784558471;-5.699144574;1.352771026;-1.301134206
-1.501946177;6.392673164;7.761724269;5.434579829;-1.496901056;0.673207318;15.83877287;-5.609406472;-4.725792915;-5.09503644;-11.04931225;6.712397981;6.808110573;1.387238149;-3.039156255;3.939676493;-1.152884542;4.185897514;0.28555045
2.013052022;8.19845456;11.00483974;7.707636335;-0.142165182;1.467038577;12.38424121;-7.038625586;-3.402503713;-5.878091223;-10.54873695;10.27956528;6.399201991;2.842403834;0.257186446;5.654512274;1.59952451;4.847117694;0.809404279
3.134835452;7.069560724;10.34689011;5.182331384;-0.807112338;1.159409056;7.950159465;-10.21712847;-8.918778615;-9.195247224;-13.63679319;7.985967454;2.643632206;1.472366549;0.298697461;2.817984762;0.87135621;1.57556909;-0.000513936
1.38982193;3.669014429;5.584568944;-2.265644698;-3.351073606;-0.232754491;5.930340686;-14.15523921;-18.29068046;-14.8745695;-20.1310992;1.540845697;-2.133985838;-1.925080451;-2.448258454;-1.825273233;-2.427773624;-4.351947198;-1.329431272
-1.68784665;0.117641013;-0.534672417;-11.55514759;-6.349349404;-1.66564857;6.961930208;-17.7290495;-25.8603467;-21.19051011;-27.94741346;-5.546914493;-5.428426846;-5.506569944;-6.114152423;-4.851901899;-5.75435282;-9.610141923;-1.995435035
-4.020265644;-1.794512325;-4.519456376;-18.7007391;-8.358983852;-2.043658519;8.773953919;-20.49783988;-27.95350859;-26.1856769;-34.45534223;-10.39057768;-6.510445373;-7.880142812;-8.950323359;-4.936730377;-7.10398668;-11.47507103;-1.46980368
-4.661246581;-1.882447326;-4.729832158;-21.51586028;-9.017007799;-1.197348828;8.784925693;-22.61675005;-25.33303674;-28.85252503;-37.88277675;-12.1897593;-6.489511431;-8.941461648;-10.28426483;-3.435894421;-6.486538744;-9.855662146;-0.295405916
-4.264374031;-1.329207275;-2.245664365;-20.58759215;-9.018433795;0.029931718;6.775186673;-24.06157968;-21.60787961;-29.2848787;-37.84812236;-11.82280971;-6.645710067;-9.397728111;-10.37867022;-2.537223023;-5.507573399;-7.023647091;0.447208961
-4.106454172;-1.313501669;0.505941528;-18.01606753;-9.110078125;0.622175863;5.054211139;-24.08876493;-19.49147109;-27.94779285;-34.95175226;-10.30635891;-6.799276961;-9.597042325;-9.689426723;-2.912079884;-5.584736293;-5.409375429;0.121173313
-4.72299063;-1.836700103;1.946269944;-15.31853159;-9.146274538;0.338274192;6.062811361;-21.62329349;-18.53732474;-24.98480827;-30.05957387;-7.699360043;-5.353480221;-8.913206066;-8.363348682;-3.099661146;-6.508797708;-5.500348021;-0.924237245
-5.45739981;-1.81260796;2.383521811;-12.42669426;-8.151606399;-0.119084465;9.821620978;-16.32952864;-16.27191601;-20.30516078;-23.92752765;-3.400711144;-0.973172054;-6.352554721;-6.324680928;-1.11939014;-6.669278489;-5.700747568;-1.713844746
-5.26886474;-0.279616829;3.131348707;-8.499729778;-5.346641779;0.15529907;13.7326461;-9.37718439;-11.28844686;-14.30599087;-17.28820727;2.625392392;5.73935133;-1.817174055;-3.615084459;3.29524093;-4.701134215;-4.184030927;-1.549664927
-3.929062729;2.434437057;4.751833024;-3.529292483;-1.152904429;1.340398629;14.94129364;-3.088045915;-5.084244824;-8.373607407;-11.03519366;9.032202747;12.23856055;3.247103067;-0.495129201;7.999983727;-1.00323547;-0.958854774;-0.625028865
-2.399720527;4.707844408;6.205164464;0.965851037;2.820981921;2.657544918;13.00377797;0.395480223;-0.820861225;-4.463356599;-6.134979726;13.58435603;15.81783699;6.583575099;2.744454548;9.996144899;2.303160657;1.807368481;0.189688679
-2.001391783;4.833976679;5.736838502;2.908727214;4.888732645;3.057066586;10.31073892;0.40397177;-0.297651387;-3.933687342;-3.282885633;14.59811946;15.62714894;6.732533254;5.867282885;7.885198225;2.99845341;1.56588168;0.162280942
-3.158378781;2.402511894;2.635080178;1.417953582;4.559995129;2.183898206;9.841156219;-2.018216573;-2.203302117;-6.575676539;-2.640993641;12.06868868;13.1346264;4.144488622;8.396270553;3.053722547;0.572854985;-2.298310228;-0.645407947
-4.924393352;-1.344121447;-1.855723195;-2.309751272;2.873701781;0.725171991;12.33918555;-5.060114615;-3.4388879;-10.70080466;-3.915495398;7.518823828;10.64809634;0.793444047;9.251579507;-1.438286897;-3.348459531;-7.699695201;-1.467209839
-5.771913745;-4.478087225;-5.399900356;-5.859791282;1.50456957;-0.183780694;15.55661973;-7.439704394;-2.245578265;-14.27296694;-6.658575098;2.773037153;9.266172898;-1.41937076;6.993540549;-3.268909528;-6.320171813;-11.38027982;-1.556610806
-4.947207793;-5.839692312;-6.482568418;-7.474163766;1.42400394;0.047740536;16.28653572;-8.991876673;-0.016024725;-16.17944584;-10.43576718;-1.203088742;8.119901296;-2.110869181;0.917981587;-2.483104732;-6.99223138;-11.4697599;-0.863336966
-3.155837168;-5.763260164;-5.640959492;-7.284065539;2.259618074;0.977352934;13.32894346;-10.19255446;0.126182816;-16.63376157;-14.66619514;-4.416211704;5.554531153;-2.476837553;-7.702080318;-1.030971533;-6.016715325;-8.910325182;-0.050422607
-1.949287349;-5.543608225;-4.887913746;-6.841037291;2.847544799;1.579614062;8.672041881;-11.2214745;-3.273954305;-16.48285595;-18.36424789;-6.994289853;1.104297807;-3.957143484;-15.47904399;-0.782618143;-5.264227261;-6.560826532;0.137663737
-2.371535418;-6.213216225;-5.851615351;-7.45055339;2.409676936;1.209209383;5.81261746;-11.52442634;-7.963489706;-16.15081429;-20.23701955;-8.395380238;-3.625373077;-6.724817484;-18.52884851;-1.864141026;-6.129351011;-6.785508448;-0.444341733
-4.098487965;-7.742361288;-8.33898516;-8.899718973;1.266122856;0.191077218;6.74033603;-10.30544839;-9.541688244;-15.23308691;-19.33044784;-7.616758596;-6.063174838;-9.35815215;-15.04046985;-2.74824618;-8.411720802;-9.591043574;-1.234541256
-5.842962145;-9.311447096;-10.64884359;-9.781189931;0.457518819;-0.497202761;10.28587436;-7.477342953;-5.473462865;-13.11502286;-15.85377932;-4.315232987;-4.841956514;-9.985733562;-6.901336503;-1.887948021;-10.64723044;-12.83702551;-1.504479432
-6.626976782;-10.29557694;-11.34659322;-9.103516579;0.659404495;-0.152396525;13.24697778;-4.151998297;2.106734536;-10.00972938;-11.47254941;0.244476653;-1.111894702;-7.880829936;1.128852278;0.676462033;-11.45149955;-14.22712948;-1.029967453
-6.718086778;-10.9691377;-10.83194038;-7.631295205;1.409069476;0.968399767;13.18985014;-2.146953782;7.628999432;-7.37562176;-8.627935647;3.48695707;2.205104788;-4.098586596;4.415785017;3.193644572;-10.6182;-13.29489453;-0.274945637
-7.330407829;-12.23531579;-11.16094849;-7.575019829;1.375774294;1.828958143;10.38848022;-2.843233532;6.591608044;-7.179222398;-9.170844025;3.084968913;2.630605931;-0.624153886;1.528323412;3.618159807;-9.067787454;-11.69493307;0.060225671
-9.33443871;-14.61671454;-14.14578375;-10.7249393;-0.532734777;1.502924681;7.266785016;-6.281270574;-0.549503082;-10.47790456;-13.2033446;-1.37306522;-0.041436525;1.174221054;-4.952589841;1.25874683;-7.859147409;-11.64330231;-0.311991083
-12.164213;-17.45397996;-19.36947616;-16.58882425;-4.177922928;-0.01935815;6.035029224;-11.16551735;-8.660900572;-16.4342974;-18.96256432;-7.969969311;-3.792559967;1.416064042;-10.56838867;-2.773356843;-7.291986406;-13.93770314;-1.021087856
-13.98810556;-19.10964731;-23.95815151;-22.22567191;-8.165784142;-1.810685117;6.788879483;-15.69829318;-12.2831649;-22.58909002;-23.85910133;-13.6879544;-6.152973761;1.207914557;-12.39870266;-6.593595791;-6.920688481;-17.2664683;-1.405248147
-13.10866268;-18.10015919;-24.51344784;-24.10466463;-10.81449402;-2.770912547;7.764083058;-18.55416662;-10.21013469;-26.2521774;-25.94983062;-16.33408466;-6.100906268;1.36046025;-11.03235611;-9.011444601;-6.335300107;-19.31705058;-1.129035825
-9.445020252;-14.253875;-19.73937741;-20.61306707;-11.31583129;-2.491275492;7.339256552;-19.32626846;-6.098266915;-26.0258544;-24.84270754;-15.68361047;-4.492233688;1.614282625;-9.532532299;-10.1082416;-5.801420201;-18.63187636;-0.475559414
-4.815509698;-8.936060027;-11.6172819;-13.24811738;-10.17109642;-1.483027076;5.761215738;-18.31794687;-4.451706621;-22.41850378;-21.50999401;-13.06723281;-2.815426133;1.134930539;-10.32711622;-10.53003906;-6.020115855;-15.59591317;-0.059123322
-1.710938924;-4.135298316;-4.101780174;-5.559133214;-8.624124805;-0.63018259;4.918500702;-16.07315535;-5.682213918;-17.23605491;-17.32011053;-9.934713369;-1.559919584;-0.226881124;-12.7065734;-10.32690459;-7.19319173;-11.79910817;-0.247395409
-1.49898174;-1.11970107;-0.306854605;-0.68440673;-7.630715051;-0.410211938;6.413908385;-13.09460719;-5.096286133;-12.3223479;-13.11536874;-6.697028564;0.247004123;-1.224153036;-13.12339037;-8.54818763;-8.351911899;-8.467753645;-0.836875377
-3.465304769;0.315618966;-0.361703244;0.623441762;-7.207757644;-0.58498868;9.83083234;-9.840473522;2.67702846;-8.572046277;-8.987533241;-2.761055973;3.928524594;0.069495824;-8.129596456;-4.028629945;-7.758110583;-5.411204098;-1.268365155
-5.404189733;1.501061232;-1.553832825;0.088088774;-6.600474516;-0.584584816;12.90358681;-6.752787404;17.3751668;-5.774597799;-4.745631789;2.458499763;9.549108411;4.564541628;2.471274379;3.360695755;-4.214282217;-1.379713065;-1.158328915
-5.232968524;3.806610092;-0.543647429;0.271422562;-5.006912825;-0.157933629;13.48767392;-4.10537638;30.74158988;-3.162867424;-0.512640927;8.598429392;15.35553924;10.95093862;14.93071857;12.17491253;1.787168995;4.561663609;-0.640695363
-2.359234297;7.683618201;4.143874604;2.644298732;-2.214100602;0.352402651;11.50847975;-1.78532078;31.12462148;-0.110613429;3.12656566;14.35621338;18.86865971;16.18911797;23.99961715;20.10171175;8.124141326;11.90284055;-0.213267908
2.154890651;12.48079456;11.22256126;6.820944684;1.305881831;0.360924621;9.06158276;0.66613594;12.21968836;3.493175125;5.526076274;18.3876477;18.73599716;17.50821494;26.61169205;25.32558037;12.38248178;18.78336766;-0.25754216
6.560282286;17.00438649;17.83437553;11.29228603;4.779429867;-0.34640023;8.542933257;3.617902341;-20.80413128;7.277072332;6.519348785;20.22858612;15.76218168;14.3868893;23.89497924;27.41711165;13.4451676;23.19455841;-0.695838567
9.613425026;20.26264088;21.68894013;14.78114937;7.588596346;-1.344411684;10.50665949;6.823514478;-53.08572164;10.62089863;6.590836867;20.43069106;12.24100668;8.902838082;19.98104998;27.10724757;12.0706877;24.25931667;-1.096695189
11.09295204;21.84745152;22.45236029;17.03359275;9.469603432;-1.918733765;13.19573688;9.337043456;-69.10126211;12.89318006;6.529592994;19.89704887;10.17241889;4.129243693;18.67837313;25.33291783;10.0415165;22.59640381;-1.101803878
11.45924847;21.84443234;21.5064033;18.57159863;10.44643931;-1.708430653;14.15287153;10.10806869;-62.57265136;13.66662395;6.87915474;19.14274371;9.868876336;1.860669806;20.72530851;22.52941509;8.656890774;19.63639497;-0.751638282
11.19985579;20.56809172;20.58013468;19.90200147;10.70949832;-1.031349251;12.42975407;8.876216135;-40.0657389;12.95238957;7.650472256;18.18717074;10.05843777;1.502333417;23.7207035;18.77868857;7.853092932;16.61470005;-0.408188733
10.51397091;18.44184594;20.51574078;21.02787675;10.57406525;-0.577609993;9.403875774;6.607279338;-15.8513475;11.36860109;8.495617199;17.06680883;9.270840762;0.974250266;24.54716148;14.50226003;6.633363;14.08377239;-0.37843525
9.494938518;16.04279303;21.05151096;21.63198866;10.4397381;-0.753903443;7.515464057;4.983228164;-2.13143241;10.02341076;9.118262154;16.27912517;7.224977321;-1.208229065;22.10645323;10.82183973;4.326211446;12.156301;-0.627819667
8.42417593;14.07076411;21.48629646;21.56431834;10.60763549;-1.297426697;8.119806047;5.218181952;-1.878186013;9.986867738;9.507970293;16.52390322;5.024226515;-4.483694931;18.10023047;9.043850078;1.488454007;10.97822794;-0.862462468
7.727617097;13.06589187;21.39701569;21.00798629;10.99490926;-1.533891215;10.38789764;7.087337701;-9.013309452;11.55851119;9.7849217;17.86477264;4.069671159;-6.664144707;15.36791311;9.626683305;-0.377966942;10.80666212;-0.871169859
7.581629977;13.01913032;20.7578381;20.12571669;11.01121985;-1.051718297;12.15788666;8.965966134;-14.77576597;13.83111471;9.832197907;19.14929797;4.714503408;-5.859060641;15.35051656;11.58451384;-0.0579417;11.59307348;-0.748007122
7.608360394;13.25;19.55347204;18.61816752;9.839557948;-0.163576724;11.85244632;8.910196875;-14.6958335;14.98520584;9.115120492;18.45490959;5.852781977;-2.257898951;16.86583292;12.98075018;2.269571797;12.58128312;-0.74201301
7.086202838;12.79134466;17.50773763;15.79;7.040264653;0.295571233;9.69176114;5.991358701;-10.90892812;13.28326827;6.941877982;14.45104239;5.778539163;1.759668646;17.14833767;12.22379866;5.013350179;12.50097935;-0.88355421
5.608948736;11.09735951;14.36528482;11.23109906;3.047092118;-0.317108081;7.20547427;0.904227546;-8.864774662;8.191429284;3.032581115;7.65300477;3.565103901;3.323828982;14.18105129;9.156131348;6.278023089;10.38722307;-0.808123266
3.630551361;8.552964375;10.49702045;5.548156486;-0.895220182;-1.854043524;5.675096199;-4.542331753;-11.97225241;0.879210156;-2.03404274;0.459349654;-0.169691157;1.234310654;8.367213193;5.084160879;5.209728999;6.407536426;-0.040597939
2.333538114;6.336134065;7.142992842;0.400254792;-3.407614348;-3.437558859;5.065917913;-8.583754516;-18.80232742;-6.285718668;-6.884742737;-4.228926566;-3.670140983;-3.128444396;2.276791741;1.785341635;2.538573988;1.958553416;1.461947065
2.804555482;5.655454157;5.842007178;-2.375758558;-3.820087891;-4.143071742;4.408684721;-10.41994471;-24.72007813;-10.9676561;-9.962453638;-4.847354024;-5.213387152;-6.820058594;-1.166332908;0.347142331;-0.02748836;-1.152309175;3.034910887
5.123420741;6.880150857;7.338446531;-1.963930807;-2.56211647;-3.7183898;3.114280042;-10.33099458;-25.95232078;-12.06097631;-10.32851456;-2.088985998;-4.115193992;-7.429793231;-0.542733959;0.729155294;-0.997624121;-1.870552691;3.657169603
8.111774382;9.194502811;10.8241763;0.84001709;-0.812310833;-2.723003927;1.80468655;-9.13394198;-22.41031338;-10.14544052;-8.160039063;1.759590606;-0.922981999;-4.633996508;3.472925783;2.218969955;0.041587729;-0.536040305;2.732376712
9.998049231;11.04103321;14.22128416;4.138245321;0.309407051;-1.98730382;1.773108974;-7.582537086;-17.16288898;-6.994854427;-4.642889196;4.487387246;3.128401531;-0.121238402;8.917973626;4.178435918;2.42420213;1.453549691;0.657788124
9.539020429;11.05348636;15.42590425;6.168938949;0.39354496;-1.887316103;3.595136894;-6.164338995;-13.53027651;-4.519528628;-1.34112199;5.314826226;6.827412917;3.865120651;13.8244261;6.351546047;5.055719176;2.651196058;-1.359282362
6.789329692;8.852031387;13.66022159;6.345223103;-0.200253838;-2.074900854;6.304868848;-5.233207747;-12.56966225;-3.795588647;0.573292084;4.980977899;9.377736007;6.114272561;16.98545538;8.576794087;7.093959556;2.460724085;-2.16424174
3.000993203;5.206879805;9.96217028;5.374444159;-0.805973902;-1.87752065;8.041851602;-5.081696392;-12.92106005;-4.677602778;0.801109993;4.711032323;10.42953555;6.984315324;17.96423765;10.39948502;8.205930148;1.318984452;-1.520713345
-0.201890995;1.535764753;6.475614965;4.49963847;-0.976266039;-0.978654075;7.648531274;-5.724440602;-12.64886569;-6.088550311;-0.113845516;5.085820983;10.01239105;7.675723677;16.82760055;11.15441664;8.426740548;0.163513474;-0.256999007
-1.740857166;-0.875091277;5.073718359;4.558282072;-0.658320319;0.247804438;5.734285111;-6.614797358;-11.08458625;-6.721666612;-1.235249573;5.760811647;8.540675377;9.024507023;14.10710182;10.53059749;7.947283781;-0.293625309;0.442070603
-1.50222031;-1.433988759;6.279139213;5.575532077;0.002893347;1.045698459;4.169308558;-6.736967828;-9.058282258;-5.748066956;-1.794231142;6.108583893;6.775288447;10.83386723;10.92852217;9.029787409;7.053253724;0.066351962;0.00872218
-0.1238331;-0.328214062;9.149541576;7.05639355;0.921107401;0.937134124;4.428119792;-5.220511533;-7.654489174;-3.197859756;-1.528780401;6.021235501;5.537029499;12.16748142;8.822330068;7.736056354;6.138667243;0.91985643;-1.085851317
1.536452848;1.791834316;12.0672076;8.550474128;2.09355861;0.135017376;6.291596803;-2.068124278;-6.967305989;0.128520272;-0.648726889;6.051438433;5.218913928;12.20215979;8.964138393;7.468618693;5.595306831;1.909416224;-1.799750047
2.83599814;4.24616939;13.78796807;9.940350309;3.419151233;-0.655739179;8.097146473;1.663691844;-6.091906443;3.145781867;0.475502259;6.786562354;5.467942909;10.87629475;11.28305983;8.065157581;5.565306092;2.936126158;-1.446705134
3.501481166;6.615553731;14.05558363;11.28442064;4.59514644;-0.855615843;8.289317448;4.517849679;-4.207409573;5.106356408;1.634190748;8.127425211;5.404013031;8.878223838;14.26828208;8.5334749;5.799755518;4.167224724;-0.263889311
3.588391854;8.789782203;13.50699682;12.50865704;5.301041735;-0.486914928;6.820162031;5.686694931;-1.52875393;6.010671412;2.868614849;9.245150579;4.325515215;7.121062195;15.88199357;8.042790561;5.858157983;5.853076575;0.856836781
3.397547072;10.83175495;13.09363788;13.34337243;5.539905335;-0.095367783;5.112064535;5.602534115;0.860954153;6.542183382;4.28955685;9.332154897;2.372482501;6.202292887;15.03030296;6.884078067;5.55988568;8.133590715;1.198686774
3.37634891;12.78412382;13.46964844;13.58376445;5.766040516;-0.214120993;4.662791404;5.530269559;2.086447896;7.5367192;5.811543201;8.473546761;0.557478226;6.218574949;12.42554561;6.436481591;5.274885548;10.92060344;0.844339751
3.933280102;14.53392467;14.68126277;13.36963575;6.566201502;-0.872357584;5.641787562;6.455331061;2.338006957;9.316985436;7.063868502;7.788245669;0.057378336;6.921553595;10.04564703;8.008669853;5.690746159;13.84347639;0.537450452
5.170152201;15.80134736;16.22194406;13.12789713;8.087664381;-1.589120928;6.798347796;8.187518595;2.637556665;11.35842871;7.584646252;8.602002282;1.295663398;7.951335102;9.533977856;11.48178039;7.147604053;16.26173482;0.933990623
6.704947557;16.25586915;17.32142492;13.15547111;9.71710775;-1.836390312;6.720281183;9.44850069;3.752562083;12.55357631;7.137355033;11.27353334;3.561670632;8.94935791;10.8231392;14.98899804;9.096473257;17.41569965;1.955363253
7.795939327;15.69525225;17.29467153;13.20857295;10.3756032;-1.530204356;5.187529551;8.881221291;5.338320452;11.91230427;5.845606509;14.63827116;5.486846898;9.575771244;12.15060174;16.06993109;10.24;16.74985004;2.851881144
7.776844963;14.17606844;15.82320856;12.51875559;9.281646408;-1.098437324;3.304227581;6.130821955;6.148518141;9.197119001;3.979070749;16.56494801;5.983909438;9.563279688;11.50220911;13.47273039;9.377286841;14.27233215;2.916385841
6.523719753;12.00092036;13.08839485;10.30639938;6.592266107;-1.074022219;2.314657313;2.09765429;5.110249518;5.03512441;1.558648083;15.25111357;4.882171516;8.834798109;8.313953537;8.148874668;6.332012008;10.6739086;2.172176701
4.580251389;9.559729535;9.709669095;6.421271137;3.380334629;-1.596308186;2.316427663;-1.800794715;2.256102111;0.463010214;-1.810682883;10.34467484;2.792275708;7.557789955;4.021228657;2.588876947;2.186294828;7.022132032;1.371056757
2.80232475;7.133781813;6.498104481;1.606142957;0.936760033;-2.275718635;2.190058594;-4.660820808;-1.300499701;-3.687232064;-6.589143559;3.171325748;0.429671834;6.019086634;0.989512309;-0.993200756;-1.437302112;4.166808995;1.275432897
1.77195218;4.806501783;4.122979563;-2.830673208;-0.052122791;-2.533922955;0.846849331;-6.505751357;-4.219017144;-7.056570745;-12.59360743;-3.964412173;-1.918117303;4.396742495;0.694425966;-2.16091193;-3.513016511;2.277299062;1.88032513
1.433406286;2.538670334;2.848851767;-5.695893813;0.193010012;-2.098818005;-1.458210495;-7.790710794;-5.756516117;-9.52635737;-18.51829066;-8.855461172;-4.292122022;2.667202107;2.617766044;-2.253860602;-4.262523626;0.885911399;2.320789236
1.226236814;0.322283928;2.469940848;-6.476761604;0.946301934;-1.207344199;-3.138659584;-8.578328576;-5.874741365;-10.81793824;-22.25804383;-10.22851503;-6.496611744;0.801842674;4.706962078;-2.973774276;-4.801407939;-0.586064553;1.604622494
0.576621051;-1.742443798;2.456860642;-5.4732473;1.662394547;-0.353375868;-2.731526813;-8.269434193;-4.759647826;-10.42717557;-22.05301737;-8.067648984;-7.722980795;-0.890404345;4.964481632;-4.824785936;-6.099014427;-2.267510961;-0.453631291
-0.676165538;-3.522563011;2.221072119;-3.5260873;2.320014648;0.161931747;-0.436151433;-6.216904189;-2.45995867;-8.065516876;-17.75420204;-3.49507338;-6.868620452;-1.643722459;2.876055305;-6.738885949;-8.134278037;-3.741805134;-2.944501107
-2.248566822;-4.992446631;1.370873784;-1.598193698;3.166957194;0.453718847;1.830668293;-2.647790713;0.907262266;-4.232334157;-11.22929972;1.652080222;-3.39205669;-0.595910203;-0.376499419;-7.139207768;-9.937639459;-4.507176079;-4.526163249
-3.734239638;-6.264402604;-0.125544648;-0.432653764;4.198846064;0.858753465;2.077743199;1.069650028;4.709509176;-0.301388793;-5.42;5.500752888;2.019319566;2.53015019;-2.924369018;-5.437153098;-10.43517861;-4.55869976;-4.501442996
-4.93384761;-7.430823018;-1.907141484;-0.344522011;4.953856725;1.531877798;0.11813071;3.241161545;7.834459978;2.151614557;-2.546743277;6.981096692;7.61605533;6.948130484;-3.521095301;-2.622966501;-9.338623088;-4.508059226;-3.382659463
-5.891855247;-8.344495281;-3.342405254;-1.127754618;4.877626232;2.235499726;-2.142041867;3.157967157;9.452388258;2.374563931;-2.69245571;6.468948808;11.55423934;11.00701003;-2.159127186;-0.458002163;-7.333629061;-5.061321527;-2.440779563
-6.665078081;-8.580019531;-3.816564628;-2.126856465;3.919495654;2.531946619;-2.42338139;1.757196239;9.850837498;0.99897056;-3.84728687;5.699133907;12.94036151;13.05111946;0.275451221;-0.026221787;-5.471908687;-6.294524092;-2.613232917
-7.124024596;-7.701907307;-3.109260177;-2.569135178;2.740470613;2.198498381;-0.292860449;0.942302692;10.36780579;-0.407822022;-3.479001028;6.700078125;12.14966459;12.3768563;2.780574566;-0.936995839;-4.36419878;-7.424414007;-3.707891094
-7.037841185;-5.682774085;-1.65731545;-2.105223116;2.241286284;1.466700209;2.231271823;2.013448806;12.19812941;-0.540799878;-0.53980738;10.22079188;10.22315226;9.58978182;4.72735836;-1.841821303;-3.884839356;-7.382207576;-4.589344977
-6.370426963;-3.118766675;-0.454012251;-1.230024414;2.773564626;0.84688838;2.402812951;4.491868965;15.03861925;0.616090898;3.570157374;14.73419896;7.911833878;6.098982485;5.806465921;-1.733544605;-3.566510577;-5.767653619;-4.183370941
-5.454211033;-0.990358751;-0.509301251;-1.153444473;3.760296334;0.687085805;-0.682843603;6.381234646;16.95201089;1.787032881;5.836726676;16.96099941;5.187033157;3.148578546;5.758590223;-0.823817058;-3.210127669;-3.347470212;-2.429298267
-4.79440928;-0.075943183;-2.135484048;-2.995338077;4.144289747;0.869688315;-5.081520512;5.741176701;15.87138936;1.475382903;3.691937763;13.85858489;1.570812421;1.131297578;4.345882676;-0.229707344;-3.076339901;-1.58575931;-0.362754531
-4.630486997;-0.448926516;-4.570956216;-6.756597877;3.340997774;0.930595439;-7.638340126;2.326478856;11.5829196;-0.733000205;-3.186155284;4.834402712;-3.102941321;-0.334444473;1.643177053;-0.816466001;-3.491723585;-1.521436377;0.730233555
-4.676049231;-1.473548512;-6.334700021;-10.88591314;1.862333762;0.500070801;-6.889918431;-2.061046055;6.331236801;-3.701528736;-12.61776684;-7.443046132;-8.239482539;-1.730270672;-1.706884912;-2.308443287;-4.323659651;-2.920329662;0.350971778
-4.350760609;-2.330735968;-6.202778591;-12.99267764;0.998479893;-0.333667531;-4.531824863;-4.833874432;3.233963498;-5.519497727;-21.33200923;-18.39455371;-12.75721986;-3.013802472;-4.653463125;-3.504919982;-4.935079002;-4.45300586;-0.862494511
-3.363713152;-2.657708716;-4.159399882;-11.42123436;1.748738073;-1.07316706;-3.930810246;-4.507991867;3.696437134;-4.921832802;-26.95321117;-24.2353367;-15.81226603;-3.603689117;-6.285590289;-3.395089142;-4.754618418;-4.791468826;-1.737886481
-2.122916892;-2.767868525;-1.567668689;-6.616279766;3.886542014;-1.237310438;-6.895273721;-1.734953799;6.146114709;-2.225873995;-29.136164;-24.1684463;-17.30373411;-2.96574947;-6.339198206;-2.126830124;-3.942133017;-3.711204897;-1.566345714
-1.527514798;-3.261802926;-0.312513762;-1.171395622;5.992694987;-0.786925099;-11.70794716;1.290988005;7.433778114;0.940568206;-29.17752141;-20.52896476;-17.72941874;-1.248528289;-5.251179506;-0.918757004;-3.446879853;-2.253357267;-0.630810972
-2.230345626;-4.371010243;-1.463002721;1.676668375;6.498084639;-0.170127825;-14.47569884;2.504928596;5.845995768;2.86165567;-28.6258657;-16.85643312;-17.58792899;0.632728542;-3.766403963;-0.98329948;-4.270268586;-1.802861832;0.148650743
-3.979733008;-5.629123979;-4.449782334;0.164106892;4.909185021;0.055698873;-12.82813182;1.36705168;2.987554407;2.907289344;-28.09078934;-15.40007813;-16.93564167;1.585262479;-2.491023331;-2.444406672;-6.511250646;-2.883641862;0.082083991
-5.660289366;-6.195387323;-7.432781112;-4.776192629;2.204585936;-0.305766326;-8.592957007;-1.043130656;2.546415478;1.764469114;-27.12549764;-15.8985332;-15.52173284;1.137982973;-1.752953382;-4.241653931;-9.065675032;-4.721615044;-0.700203266
-6.086318317;-5.573974776;-8.632322809;-10.11554847;0.067411934;-0.935955409;-6.643351051;-3.133854946;6.732300282;0.656712048;-25.07836927;-16.38133735;-13.33212138;-0.198093066;-1.736736424;-5.104452065;-10.34548447;-5.94368913;-1.430215551
-4.928038351;-4.089526552;-7.617144552;-12.76666267;-0.413757577;-1.289875174;-10.42761706;-4.074129329;13.57131974;0.298256817;-22.02654805;-15.13377681;-10.95003906;-1.294320247;-2.550930211;-4.691209289;-9.487620241;-5.764894604;-1.441004186
-2.981227621;-2.657314363;-5.544552096;-11.60368369;0.487303983;-1.065945487;-17.94321923;-4.206672353;17.89538391;0.457286633;-18.93978595;-12.14929453;-9.300932644;-1.192182545;-4.019589697;-3.832369303;-7.03922404;-4.580592034;-0.765213674
-1.518904572;-2.002661946;-4.172461334;-8.037037626;1.490225061;-0.44818378;-22.07829967;-4.426209376;15.73798422;0.389027359;-16.97123531;-8.976162606;-8.948968393;0.300480717;-5.432948086;-3.645773614;-4.506992505;-3.43278659;-0.06375759
-1.257150679;-2.007065107;-4.455829203;-4.812018617;1.426733556;0.076033248;-15.82156079;-5.233616904;8.511483859;-0.366353703;-16.54303275;-7.275223794;-9.582184522;2.616034372;-5.729284768;-4.352904964;-3.129815454;-2.872082814;0.013129272
-1.824628299;-1.80211367;-5.873755601;-4.006493334;0.153071799;0.145884701;1.464326421;-6.334170125;2.901105731;-1.567019793;-17.03248604;-7.428568417;-10.20268997;4.935284994;-4.250102812;-4.936018805;-2.924354922;-2.32784578;-0.577650795
-2.20212548;-0.600530839;-7.01232019;-5.711948475;-1.470454369;-0.174733455;21.96885177;-7.026565016;5.690769526;-2.533910218;-17.30019654;-8.358187057;-9.915522094;6.727119313;-1.547784686;-4.029988193;-2.829829742;-0.659121555;-1.260116785
-1.740658643;1.428330177;-6.863593792;-8.250226191;-2.414009783;-0.475235583;33.89133219;-6.873484407;17.25536761;-2.732231638;-16.56957161;-8.578781768;-8.650531307;7.914646918;0.593425813;-1.294437269;-1.810728715;2.550043945;-1.396657642
-0.830747182;3.051314931;-5.697514569;-9.571576913;-2.324326136;-0.361288097;29.58212396;-5.960721165;29.30471084;-2.059912109;-14.90777258;-7.459202435;-7.180669497;8.654234448;0.270208511;1.996697003;0.087081147;6.164132548;-0.879760549
-0.580317258;2.846112636;-4.74522841;-8.670786042;-1.646968992;0.221434687;11.28850849;-4.556768794;29.65722364;-0.609428383;-12.95897323;-5.593018474;-6.410598083;9.049186871;-2.958273513;3.787935189;1.708271057;8.046319992;-0.212367541
-1.741627867;0.421332197;-4.979929419;-6.021872678;-1.004230861;0.963756626;-10.06520349;-2.633602517;11.23986406;1.737542496;-11.2469104;-4.064163084;-6.559220519;9.104608486;-7.320242245;2.896465405;1.853500159;6.706049839;-0.021037219
-3.835330733;-3.030629106;-6.089250066;-2.919488684;-0.491643029;1.452194879;-22.40211613;0.154073721;-21.37353682;5.325979197;-9.7;-3.387480913;-6.960393634;8.916586302;-9.761725101;0.110715699;0.494832936;2.714847442;-0.470377318
-5.304551439;-5.400237365;-6.590453577;-0.436472169;0.414000182;1.461466994;-20.79585796;3.940703953;-53.33586123;10.21390904;-7.794860947;-3.119997071;-6.66074956;8.807574736;-8.082513282;-2.253598315;-0.994374664;-1.391004038;-1.123522069
-4.660106837;-5.135736709;-5.054218971;1.167904862;2.265931906;1.04305269;-10.39495019;8.117706536;-68.51419813;15.61786904;-5.135586167;-2.440933137;-5.287942192;9.157235427;-2.683588951;-2.071100083;-0.899350592;-2.819557885;-1.365085703
-1.69659245;-2.427514757;-1.42202292;2.298743052;4.979459544;0.389122124;-1.918922832;11.44750149;-59.91342597;19.99729017;-1.919274525;-1.078271425;-3.426065759;10.00497273;3.537078311;0.939088556;1.332309796;-0.586636624;-0.979062365
2.25010864;0.825901049;2.717605791;3.486731399;7.764850738;-0.348039683;-3.284904318;12.89540928;-34.04203083;21.94838828;1.117263259;0.331658633;-2.172395692;10.79900121;7.190248316;4.938443726;4.44434714;3.694863087;-0.340843841
5.249689402;2.279446541;5.170865071;4.997564978;9.755252195;-1.09950491;-13.6886327;12.5119309;-6.13823672;21.28405508;3.191969057;0.794525071;-2.261943011;10.62694261;6.780039063;7.294788335;6.214089777;6.960296551;-0.053616659
6.162590032;0.701871336;4.672597046;6.804196227;10.73466811;-1.781005838;-24.38764436;11.52311367;10.0787592;19.34692799;3.975325238;-0.104021388;-3.499202058;8.876981229;3.578533289;6.472310379;5.164352687;6.902802612;-0.379758316
5.334906004;-3.301695285;1.686165175;8.721479273;11.24652756;-2.210113742;-25.31643367;11.41136846;10.63385249;18.12827645;3.718976475;-1.742673962;-4.93475404;5.864762311;0.331488892;3.050165208;1.762666271;3.544255962;-1.001697214
4.079434131;-7.864885902;-2.118175429;10.42718525;11.94438296;-2.180103995;-12.49721418;12.67981291;1.953939437;18.76864366;3.02055174;-2.891316764;-5.5669803;2.892484289;-1.041483948;-0.823789513;-1.885087261;-0.989001245;-1.329692888
3.46291182;-11.19501831;-5.182400677;11.37753649;12.79820881;-1.654001744;9.018597237;14.36280709;-5.597719014;20.63339957;2.528880181;-2.603523181;-4.938422628;1.582475723;-0.75908822;-3.009176123;-3.612258263;-4.190650461;-1.05970775
3.486854387;-12.61539091;-7.036548099;10.89283048;12.96867676;-0.888317001;28.42;14.78419864;-5.695815744;21.78943007;2.837207472;-0.768972332;-3.179810267;2.875136071;-0.430985998;-2.733290204;-2.771291396;-4.95921247;-0.455105963
3.347460111;-12.61066061;-8.184436892;8.584651039;11.57574382;-0.328881766;35.97922787;13.00673776;0.498445687;20.59058094;4.501301476;2.095335659;-0.617816519;6.371534118;-1.066334154;-0.805148528;-0.56925748;-4.082156298;-0.091416045
2.457302161;-12.03936131;-9.172865733;4.880841815;8.721851145;-0.32194918;28.74296207;9.770863898;7.198843448;17.12466959;7.917594096;5.477544175;2.54973126;10.49648414;-1.811459145;1.263694626;1.044238784;-3.223090701;-0.309922638
1.21289518;-11.31697581;-9.833223257;1.119054013;5.790039063;-0.865372866;11.6532639;7.081635469;9.819098816;13.31665606;12.95202899;9.206121476;6.156729003;13.40157941;-0.725349036;2.382795757;0.967052867;-3.432918822;-0.89716527
0.732151086;-10.27181549;-9.455599492;-1.096043344;4.592895197;-1.610336106;-6.032746905;6.705846648;8.578474477;11.53886774;18.58858608;13.13314487;9.709468251;14.02649528;3.043649491;2.393904474;-0.285854487;-4.461109375;-1.291186617
1.755399401;-8.680170569;-7.710340367;-0.94609075;5.961411383;-2.117485675;-16.33055471;8.769029055;7.29141128;12.80144138;23.06042156;16.56149556;12.27122325;12.6454332;7.778414811;1.774157441;-1.181576958;-5.302968664;-1.117236643
3.727487786;-6.845117438;-5.357881626;0.94551506;8.944874924;-2.156967883;-16.69848997;11.60043059;9.146418218;15.96661833;24.65425166;18.1842755;12.90292374;10.58779668;10.0652107;1.01777373;-0.533474839;-5.295354511;-0.544655897
4.99190397;-5.565793569;-3.923921466;2.887831641;11.38038818;-1.813768337;-10.67503236;12.97903128;13.62610743;18.62364148;22.79454747;16.87730938;11.39809285;9.363157103;7.583396895;0.315338222;1.550166723;-4.669109723;-0.125465405
4.069337333;-5.449020965;-4.471790982;3.367083625;11.4809145;-1.340401569;-5.033397897;11.80461135;17.23251945;18.9299348;18.62223587;12.81;8.653800699;9.769271071;1.466614749;-0.281673557;3.873169044;-4.08704653;-0.265776137
0.991143501;-6.183316022;-6.51695457;2.23150852;9.207638715;-0.919355868;-5.28070145;8.885539467;17.01312156;16.96024084;14.4994531;7.848905387;6.227877357;11.5150167;-4.03800646;-0.540466925;5.233739946;-3.714495229;-0.8320275
-2.487199695;-6.510694424;-8.136607478;0.833262877;6.309989859;-0.556588128;-12.04858965;6.259755611;13.4308337;14.52634281;12.62182207;4.66263514;5.316048889;13.52377055;-4.699473075;-0.014716154;5.39662523;-2.826038525;-1.272093202
-4.083137611;-5.066890604;-7.355244948;0.936369502;4.972489143;-0.179257468;-20.44883033;5.633115049;9.95362532;13.67152366;13.64029351;5.009809468;5.938969759;14.66090553;0.195429951;1.60152616;5.148330034;-0.432240276;-1.145649858
-2.698016648;-1.491826731;-3.750763949;3.221951257;6.137317715;0.194758576;-22.96916742;7.173843495;9.879737249;15.07840822;16.2804279;8.480200038;7.023915577;14.4089778;6.970973258;4.066002878;5.47122357;3.593133048;-0.562742988
0.730184744;3.091243585;1.064931328;6.60861526;8.833330902;0.411829091;-14.47016448;9.54534455;13.40408596;17.63022961;18.26803136;12.72919199;7.339220694;13.09599877;10.30402338;6.548775973;6.613969316;7.953481701;-0.101097721
3.941547622;6.6828344;4.572569321;8.986969137;11.01694182;0.32178687;3.705256978;11.03801693;17.57119512;19.38193738;17.91571191;15.10766992;6.505058409;11.58263887;7.517784762;8.059651896;7.857484295;10.57353401;-0.25606204
5.080282273;7.707196003;5.23506743;8.819991171;11.20710333;-0.038149194;23.43395382;10.83311493;19.02757162;19.07502465;15.23224635;14.46921853;5.219029352;10.64359256;0.897715656;8.022816583;8.121611027;10.03563974;-0.927834813
4.059501825;6.053223693;3.639648083;6.334117515;9.587172649;-0.416227063;34.13410241;9.436547555;16.96681836;16.97920252;11.77855071;11.78250157;4.505465222;10.45162355;-4.01984418;6.556103076;6.843160395;6.661631718;-1.442751521
2.499796634;3.092276217;1.963563167;3.340039063;7.732902088;-0.533579315;29.364033;8.074173326;13.62081714;14.48989383;9.436110983;9.140594495;4.658884304;10.49798478;-2.922543467;4.281096462;4.390708755;2.335032576;-1.129260833
2.342791668;0.689667043;2.197878766;1.830947978;7.270733919;-0.328270801;11.34362222;7.666549699;12.01042596;12.95067374;9.048790786;8.044980024;4.848439787;10.00248503;3.688688647;1.884760292;1.74587654;-0.816924645;0.048740473
4.292378917;-0.027894317;4.573934182;2.491355862;8.609198616;-0.021605228;-10.0281763;8.236272103;13.17642321;12.72718037;9.944020352;8.378058329;3.798786049;8.542199636;10.82239249;-0.186130495;-0.192366336;-1.832604144;1.379699351
7.319007894;0.742512857;7.450501453;4.296510247;10.74822875;0.078714591;-23.42749369;9.130896466;15.47079403;13.22509289;10.62522744;8.831293032;1.017698344;6.463101013;13.05231643;-1.707913102;-1.087186815;-1.325756051;1.945640483
9.546940982;1.878499029;8.700019531;5.463736707;12.22507057;-0.122093233;-23.48688069;9.73671215;16.45338262;13.68056473;10.02800949;8.29780283;-2.486342766;4.758578005;8.987343294;-2.482153277;-1.132319375;-0.668774439;1.366051825
9.722060476;2.287483909;7.407489118;4.915028846;12.32748454;-0.37826553;-14.04286259;10.0136339;15.46826537;13.92517097;8.339349316;6.9461209;-4.691339801;4.450776571;2.427028867;-2.250227596;-0.702488872;-0.734934413;0.099045919
8.052627685;1.629807135;4.482332233;3.039989599;11.557046;-0.285634298;-4.817948155;10.42653776;14.37221454;14.4401175;6.765052085;6.024558304;-3.977204202;5.870737702;-0.803965706;-0.860002441;-0.088360898;-1.284632367;-0.966605954
5.814515783;0.309309232;1.735459282;1.190460432;11.02554416;0.362853702;-3.94977547;11.40215672;15.67820011;15.70388336;6.464528101;6.58957204;-0.411260629;8.341565936;2.256564412;1.463852304;0.496262091;-1.445161067;-1.271845295
4.162388046;-1.118963704;0.265057223;0.417453902;11.37677254;1.352055614;-11.93980574;12.81393285;19.85863695;17.47052153;7.504998413;8.308698702;4.100907722;10.52104259;9.162076888;4.032418423;0.806210883;-0.750445419;-1.030548793
3.199670585;-2.516461144;-0.456672083;0.559470825;12.17737728;2.156805384;-21.52187442;13.92115881;24.40485392;18.65999235;8.6576688;9.441298048;6.958014969;11.20848537;13.99214473;5.936715157;0.634206992;0.261089137;-0.966764151
2.062272051;-4.186596492;-2.033037968;0.433541257;12.26581442;2.314288105;-23.40695076;13.79565494;25.66682589;18.00248995;8.219846073;8.101573762;6.498533938;10.08519028;12.19639174;6.495699221;0.084767582;0.460979031;-1.586232356
-0.127066835;-6.361545463;-5.611759511;-1.084745223;10.72571974;1.756327221;-13.40584131;11.91396562;21.94723152;14.94645013;5.290242028;3.815007955;2.998803705;7.892466501;4.37444294;5.615827911;-0.246904617;-0.796847066;-2.641437491
-3.294812974;-8.646159678;-10.6674667;-4.037761585;7.664246905;0.835367034;4.433913964;8.526240655;15.1345629;10.13837608;0.592845228;-1.891404236;-1.586471654;5.941336481;-4.083949352;3.844402308;0.486733999;-2.900838419;-3.283299228
-6.26688797;-9.969461468;-15.11646071;-7.265122409;4.192425436;0.038486878;20.7435662;4.608920671;9.41331784;5.134484089;-3.75097739;-6.364155913;-4.860190297;5.308170453;-7.163351867;2.116384754;2.769646505;-4.224374838;-2.785075823
-7.551192319;-9.18065629;-16.688971;-9.238000804;1.678794201;-0.359392755;27.19604303;1.461362232;8.139325592;1.576612689;-5.397204869;-7.516755143;-5.317010998;6.260439361;-2.793388298;1.35745551;6.189606737;-3.255982679;-1.211116667
-6.418515676;-5.892759663;-14.49501747;-9.12362295;0.889253737;-0.421263942;21.43470466;0.14980238;11.51491845;0.395661901;-3.17383397;-5.095617857;-2.982362849;8.247145987;5.779529111;2.114222501;9.498616771;0.247786348;0.561579755
-3.453059368;-0.949748951;-9.618831101;-7.240445902;1.623972036;-0.383154055;7.402935187;1.0223781;16.89411874;1.491229017;2.172437019;-0.661349449;0.853382934;10.36065339;12.70645799;4.304639508;11.33932984;4.967948413;1.506817182
-0.203762208;3.859714346;-4.380265586;-4.647930535;2.999924227;-0.385658475;-8.171912194;3.487701778;21.19498074;3.949057802;8.336740127;3.566734411;4.441742148;11.87014827;13.93207617;7.143135695;11.13625418;8.787973558;1.246575134
1.748471919;6.698587773;-0.903967328;-2.336999175;4.046820286;-0.360124296;-19.71998106;6.191719076;23.16033818;6.539275579;12.69908061;6.062316417;6.377987667;12.46165277;9.728377962;9.3169461;9.455186722;10.02947916;0.318569938
1.63430872;6.639009524;-0.042468962;-0.722401806;4.164117789;-0.160128337;-24.39872641;7.59637224;23.60511361;8.189685817;13.69526142;6.601880227;6.05325436;12.12499414;3.635910335;9.465683938;7.529788956;8.297788703;-0.295003902
-0.241881366;4.114264102;-1.272508451;0.256951766;3.237002049;0.212205016;-21.35364982;6.745830614;23.81990845;8.283992723;11.50674755;5.891217505;3.712443961;10.92184753;-0.847844525;6.854143199;6.33108141;4.471022634;0.034704157
-2.832579889;0.641797393;-3.377987795;0.723242331;1.526605176;0.524034154;-10.86281677;3.818267209;23.98569218;6.789581306;7.707897226;4.728918857;0.229666013;8.908007139;-2.814084116;1.906050567;5.935341551;0.031925951;1.124522206
-4.923007299;-1.966802117;-5.237839324;0.658210226;-0.457680134;0.471014384;5.04142329;0.091177238;23.22616566;4.248532881;4.172959798;3.457639091;-3.283074945;6.26769745;-3.718494454;-3.794866081;5.688903786;-3.675013551;2.209013688
-5.596593856;-2.444487258;-6.182189299;0.125293695;-2.04505274;-0.058819637;21.36617555;-2.733275238;21.09875282;1.617943422;1.998256161;2.058629556;-5.922907435;3.472121664;-5.019413025;-8.17718084;4.984739654;-5.814329662;2.615406159
-4.464822762;-0.5463065;-5.911033794;-0.394094813;-2.553785697;-0.858512832;30.8253038;-3.465476268;18.76192022;-0.052987652;1.135142763;0.636971956;-7.329319365;1.2314916;-6.167821212;-9.713882678;3.942853567;-6.039984079;2.288906287
-1.72860368;2.984831699;-4.347429886;-0.048590599;-1.578023608;-1.534555023;27.52507948;-2.03586744;18.34202512;-0.027971842;0.891316282;-0.256395446;-7.710566917;0.200526969;-4.93531781;-8.189247897;3.378756938;-4.36500739;1.747980354
1.862759747;6.845935911;-1.708818099;1.801973759;0.714142101;-1.787789522;11.58504305;0.610771431;20.90867112;1.808199127;0.815360172;0.182758504;-7.515685769;0.633884849;0.225489235;-4.701088344;4.073421566;-1.143436126;1.567056813
5.195485427;9.740642358;1.309160387;4.892720804;3.530087891;-1.604433498;-9.363552139;3.210401831;25.07353872;4.901621438;1.203540356;2.42794614;-6.980559593;2.247420928;8.044995831;-0.919503842;5.979301364;2.882571596;1.877891007
7.174686491;10.84635696;3.59201;7.904377433;5.792790003;-1.209030899;-24.18450534;4.925042258;27.85574701;8.261965846;2.783628253;6.105767184;-5.94249628;4.374590363;14.6422117;1.852572639;8.072470749;6.682331793;2.319240369
7.216211528;10.0438343;4.099066844;9.149221274;6.712153755;-0.849268381;-25.68835963;5.613531291;27.30426542;10.83833651;5.819716323;9.963169775;-4.150503135;6.277637816;16.11791183;3.172268787;9.025306833;9.282851462;2.433580955
5.58106743;7.879640214;2.54500097;7.689867975;6.205453194;-0.622447106;-15.99393631;5.532015513;24.46249396;11.85331811;9.412798593;12.39015493;-1.857469274;7.392320687;11.44837141;3.270316222;8.185862931;10.19949248;2.113283965
3.291601048;5.313193003;-0.256303252;4.063760763;4.862837137;-0.489128861;-5.148204892;4.843255246;22.58069218;10.99074046;11.69594989;12.20477642;-0.129853704;7.40881888;3.282824537;2.522381509;6.090479136;9.652854553;1.685026496
1.611963269;3.353800913;-2.743110593;0.023299483;3.49237425;-0.42216399;-3.427074953;3.427264319;23.98099798;8.4422533;10.94850725;9.258309744;-0.421426286;6.272331558;-3.995718389;1.145145091;4.112527152;8.408371049;1.577869975
1.386194395;2.720686663;-3.496686561;-2.562120617;2.598050879;-0.505411186;-13.04056588;1.15281422;27.42677109;4.853185118;6.882202482;4.536618246;-3.537581362;4.227434673;-7.326728427;-0.623854979;3.532906104;7.35831533;1.905472455
2.647384916;3.647866181;-2.079679646;-2.851854007;2.173981766;-0.857235484;-25.92800688;-1.69548635;28.79160776;1.170021973;1.109816587;-0.29089223;-8.725670521;1.88966245;-6.710877205;-2.154342519;4.739620348;7.13786479;2.357255788
4.727551022;5.895463448;0.759700659;-1.409140114;1.918785865;-1.448084197;-29.77494231;-4.306127888;24.96264422;-1.627314464;-3.661961942;-3.646955061;-13.71022927;0.171811344;-4.452153087;-2.41103722;7.104891891;7.984934224;2.49374996
6.748230628;8.936046941;3.642452295;0.407077225;1.630862696;-2.013536061;-17.79277004;-5.731425651;17.64120383;-2.859007922;-5.237743;-4.760369696;-15.87536951;-0.070757748;-2.864788403;-0.540347721;9.525757014;9.820104829;2.164830158
8.129185831;12.20473233;5.455824255;1.502506583;1.427431293;-2.193936947;5.420726578;-5.492939007;13.13699523;-2.394852098;-3.238285549;-3.954281022;-13.90015053;1.442084255;-2.547883212;3.333479822;11.1358594;12.37058883;1.660934993
8.793073971;15.28280797;5.966528827;1.736991774;1.618955695;-1.814594082;26.68066543;-3.894915823;17.35774661;-0.660786363;0.796697642;-2.353962259;-8.696299674;4.102335528;-2.567028646;7.845548054;11.66850774;15.21900325;1.456648419
9.007802415;17.94007813;5.781206875;1.782419345;2.381705394;-1.062318225;33.58465469;-1.780371591;29.62309588;1.616905549;4.530656169;-1.177618352;-2.908651147;6.642735666;-2.028430498;11.08594982;11.32715901;17.82873691;1.777722764
9.068282717;20.0565415;5.777268016;2.37569944;3.532303791;-0.377632302;23.19010467;0.053561725;40.78400581;3.759268347;6.320592913;-1.033385213;0.739172102;7.874663851;-1.314827674;11.88597856;10.42662238;19.67419385;2.379466679
9.081918129;21.51676986;6.469585803;3.640694664;4.599416514;-0.126210068;3.427159426;1.286172767;38.34007813;5.34244694;6.020540125;-1.662136496;1.112202154;7.46056909;-1.732418153;10.72549831;9.164913487;20.48704079;2.732915999
8.977893906;22.17394638;7.74453874;5.026876406;5.129177003;-0.320433555;-13.42157995;2.033447006;15.64215639;6.178079975;4.652162159;-2.281964353;-0.813597852;6.125430127;-3.962602324;9.456380854;7.651896921;20.43918791;2.456160619
8.661933674;21.91183052;9.06383514;5.860299221;4.982783057;-0.634928023;-19.65318645;2.479453586;-21.64457331;6.201909071;3.388129641;-2.27044311;-2.880436977;5.081466432;-6.940225357;9.92021647;6.032752056;20.04236287;1.622654079
8.148718763;20.74480332;9.899223197;5.996940522;4.417669058;-0.708663055;-16.51336116;2.613931678;-57.33824204;5.479892835;2.738084181;-1.670920402;-3.373804352;5.056008034;-8.431282802;12.45695857;4.485417027;19.74555004;0.697434946
7.564294581;18.85341814;10.0482967;6.007122812;3.923911586;-0.469601716;-11.24249076;2.356600656;-74.37911665;4.366438055;2.50362974;-1.143570103;-2.133481738;5.677275891;-6.97461818;15.47967715;3.066784884;19.50148093;0.174879495
7.034956874;16.49516882;9.635168994;6.719750484;3.946067071;-0.190290932;-10.12771883;1.899859858;-65.79409544;3.587597542;2.321588414;-1.421468478;-0.413191175;5.747000653;-3.474701342;16.52405791;1.600126318;18.67619831;0.228376158
6.558100489;13.83359759;8.860588956;8.47457596;4.6496083;-0.218615181;-13.70751634;1.814033838;-39.11433185;3.968585144;2.128591683;-2.731269265;0.261843454;4.242884758;-0.885521078;14.0423441;-0.206807478;16.45363114;0.639644518
5.946312056;10.81748734;7.736243087;10.6647423;5.821088495;-0.622507208;-17.73128313;2.651977028;-11.03135485;5.813739374;2.067741699;-4.658942347;-0.722045351;1.280606639;-2.032039479;8.606092175;-2.455623852;12.49073167;1.01731834
4.885279245;7.237285941;6.021178474;11.94274512;6.920758083;-1.075603523;-18.15437231;4.315610563;3.752881962;8.366834602;2.000194372;-6.552411207;-2.723673232;-1.761641516;-7.279307918;2.609390308;-4.833467037;7.337009836;1.084385454
3.094510798;2.969757245;3.416080436;10.98867508;7.280019531;-1.106073982;-15.14089413;5.799947385;1.394900242;9.914637601;1.243100887;-8.082949061;-4.489106905;-3.132249257;-14.00241636;-1.302307605;-6.721914753;2.268678151;0.804332246
0.535059495;-1.736049879;-0.116832455;7.347625996;6.409127637;-0.508217475;-12.48392204;5.714430334;-10.53285282;8.709698214;-1.030583593;-9.452491657;-5.169060473;-1.985756742;-18.38223596;-1.905514709;-7.611292085;-1.385271615;0.302028615
-2.437984538;-6.157361491;-4.139984357;1.791036745;4.303848944;0.438857628;-13.41858071;3.314599556;-20.34137718;4.204430824;-4.971231179;-11.06630894;-4.904539477;0.912019737;-18.15179494;0.024006301;-7.502397;-2.966064445;-0.27888844
-5.103276115;-9.322600945;-7.818465303;-4.043763656;1.558824497;1.147006084;-17.17057937;-0.764747138;-21.19661574;-2.322396522;-9.574426844;-12.9985822;-4.611194328;3.614417951;-14.15033698;2.544675087;-6.949152326;-2.766530302;-0.825984477
-6.648584226;-10.48745609;-10.30215769;-8.535822098;-0.870265767;1.157080252;-19.70171749;-4.765798972;-14.9808263;-8.362935623;-13.13553182;-14.79276501;-5.238004195;4.273936717;-9.533946999;4.042251506;-6.676034278;-1.716720337;-1.204283858
-6.605686505;-9.58054971;-11.21252522;-10.96402499;-2.203915542;0.482926608;-17.93461038;-6.982038419;-8.90504124;-11.72701841;-14.43765236;-15.83861982;-7.105117912;2.3520575;-7.379265693;4.218522777;-7.05929465;-0.747637268;-1.224823301
-5.190809572;-7.305305555;-10.91727608;-11.85697422;-2.356720837;-0.415385871;-13.25328596;-6.981966148;-8.572429174;-11.96036529;-13.74699802;-16.00594393;-9.748546658;-1.09452839;-8.618810549;3.921763403;-7.881979657;-0.294045736;-0.742244711
-3.274300113;-4.782480228;-10.35915492;-12.57570444;-2.031339508;-0.993782748;-10.60885374;-5.885207698;-13.50763928;-10.53941432;-12.71401131;-15.91230394;-12.25518048;-4.20491349;-11.82025755;4.124837752;-8.551330708;-0.228042656;0.168545649
-1.908021255;-2.929471332;-10.47904684;-14.35236744;-2.226255304;-1.013515626;-13.69427516;-5.408006859;-18.42699463;-9.628097311;-13.11882988;-16.47617357;-13.75761773;-5.55668619;-14.72298253;4.975302118;-8.591907608;-0.164586661;1.13528906
-1.666931858;-1.976533267;-11.57732667;-17.36438672;-3.441649753;-0.646838578;-20.58419821;-6.400379057;-18.42222538;-10.31346807;-15.38764965;-18.05502896;-13.77389703;-4.965869018;-16.06808668;5.668793723;-8.016102964;0.159410493;1.643968378
-2.259463963;-1.450130618;-13.06061302;-20.45167094;-5.169480008;-0.247066448;-24.23058447;-8.05422463;-13.18039764;-11.70037413;-18.08738372;-19.91406475;-12.30185188;-3.354683448;-16.21284326;5.153633653;-7.294510228;0.702097914;1.362497811
-2.72707646;-0.636030855;-13.79870637;-21.72259124;-6.116287265;-0.016260785;-18.04424816;-8.456203885;-6.716895856;-11.61056832;-18.88297188;-20.57346177;-9.752176967;-1.915389794;-16.2227656;3.014048989;-6.983580431;1.186420866;0.395400831
-2.13526981;0.811855407;-12.88402947;-19.72469115;-5.072968389;0.131906562;-2.079451615;-6.077647487;-3.322926528;-8.360859794;-16.26884218;-18.85592522;-6.801228602;-1.262468019;-16.46480217;-0.182848673;-7.327807287;1.2942293;-0.746362866
-0.2632379;2.567576023;-10.25697303;-14.43754836;-1.813260655;0.415756525;15.6571274;-1.021187791;-3.670849529;-2.206552013;-10.729954;-14.81394371;-4.161439379;-1.161891894;-16.05084674;-3.280479752;-8.134563095;0.834615243;-1.462416349
2.237722541;3.870284477;-6.718453584;-7.395381717;2.67714477;0.909030062;24.424505;4.974298167;-4.551463526;4.723923511;-4.414462762;-9.745707606;-2.274198187;-0.910645712;-13.61352922;-5.271901599;-8.96852094;-0.166224254;-1.439601287
4.354922081;4.137858535;-3.299693721;-0.795450521;6.853121896;1.416215722;18.63911657;9.773975307;-2.212449964;9.974207228;0.419282059;-5.23682272;-1.055899559;0.03906869;-8.675651566;-5.795779813;-9.462974584;-1.4307272;-0.81327496
5.499411181;3.499845405;-0.474557257;3.842972889;9.663748133;1.618156391;2.135128989;12.34357261;3.983217101;12.5570905;2.947708074;-1.995031511;0.08403924;1.704699327;-2.372370196;-5.104147123;-9.499230475;-2.449804429;-0.012895107
5.933129959;2.832870151;2.140165148;6.54388879;11.18943658;1.350754838;-14.7062913;13.33116116;10.97460753;13.56411741;4.119793759;0.547594176;1.852009488;3.645394208;3.122873641;-3.686120008;-9.164893974;-2.610009766;0.562031218
6.481625614;3.235827105;5.316802756;8.634742162;12.36273671;0.758191118;-22.67980226;14.32295416;14.91994234;15.10606443;5.589831914;3.519968141;4.497805532;5.305848744;6.011141884;-1.946363047;-8.595539449;-1.454202649;0.777648579
7.761868859;5.294621294;9.335641906;11.56043014;14.01011963;0.180416272;-20.1484551;16.42296039;14.79010158;18.45011356;8.179318211;7.393252362;7.476066593;6.314279123;6.003048018;-0.161828001;-7.861838692;1.026850565;0.759388064
9.571212167;8.652286691;13.43575036;15.62734246;16.01119073;-0.122491223;-13.16028614;19.30546066;13.25173169;22.85831252;11.1374157;11.3244939;9.665445255;6.56311242;4.35037465;1.394653191;-6.968114361;4.281866945;0.703492867
10.97056658;12.19387099;16.1351077;19.64066889;17.284324;-0.163232834;-9.618869338;21.45524691;14.02275566;26.05187697;12.76182318;13.67398918;10.07247617;6.138377337;2.859183471;2.426886902;-5.904144378;7.415949546;0.699297208
11.02612182;14.72379652;16.27013892;21.745913;16.63286891;-0.174012257;-12.66096142;21.34285208;18.18203826;25.91766092;11.81117892;13.30476079;8.54317237;5.257833886;2.704067819;2.787789824;-4.66649431;9.653329743;0.705415046
9.612758463;15.66817372;13.97321145;20.8595221;13.77324191;-0.36931358;-18.7445075;18.58147031;22.91116281;22.10629952;8.528745385;10.57551144;5.94427518;4.275220869;3.872880718;2.675616365;-3.241539218;10.73487364;0.658589242
7.601985056;15.3229259;10.7649697;17.58506441;9.702749373;-0.746992072;-21.67920493;14.20573828;23.9303575;16.30497932;4.476260426;7.159666603;3.645836388;3.658571247;5.468032433;2.581322066;-1.612310929;10.93809255;0.576466928
6.240431511;14.49564937;8.572602988;13.86619977;6.087122325;-1.102818347;-18.70369689;9.950640344;19.48151141;11.04380138;1.37897741;4.795906571;2.66219329;3.835128377;6.452289624;2.920048828;0.175050009;10.68201165;0.545999203
6.184768696;13.81940024;8.330804743;11.58573126;4.128073338;-1.231149956;-13.11324342;7.149898229;12.21741012;8.010236751;-0.048392726;3.982525907;3.067725645;4.939018358;6.244489949;3.604017004;1.94332642;10.02942962;0.621076573
6.955208638;13.24658477;9.21228224;11.15479173;3.776852071;-1.117076268;-11.13192517;6.051509969;7.164661124;7.126392055;-0.396183538;3.694627041;4.084447551;6.648990295;4.862990261;3.942815368;3.416956932;8.524480287;0.748450662
7.256675543;12.10276047;9.130965328;11.19007813;3.875658523;-0.943546021;-15.84919648;5.917454247;7.446494441;6.946121147;-0.857653037;2.3627341;4.720740844;8.290907998;2.718370694;3.041374119;4.378361086;5.564469615;0.808021229
5.945087868;9.684582774;6.238824065;9.582219828;3.084926277;-0.915338047;-23.66038284;5.671187386;11.52870534;5.898068117;-2.203331646;-0.69376148;4.445677665;9.187815566;0.324975091;0.463932771;4.831018034;1.065850674;0.731631291
2.922231329;5.994014395;0.385066207;5.204778182;0.879625514;-1.069583014;-26.54891852;4.568461919;14.49588888;3.373320582;-4.260773767;-4.559406177;3.417448923;9.03264512;-1.901376759;-3.317138651;5.001566359;-4.102315988;0.57958452
-0.692975963;2.077182937;-6.504981706;-0.996779143;-2.094311371;-1.246307187;-18.56160086;2.52594128;12.34678279;-0.036856534;-6.198695294;-7.319375439;2.187415944;8.025590309;-3.747164465;-7.046334775;5.133284498;-8.325283237;0.49222039
-3.220644251;-0.33233143;-11.43210881;-6.372396747;-4.480319654;-1.236399949;-1.201169881;0.086602233;5.614743621;-3.089527691;-7.224917735;-7.469640712;1.215342288;6.697168606;-5.221715117;-9.332525476;5.226650972;-10.0405244;0.557481163
-3.420039063;0.277526425;-12.0593028;-8.180480324;-5.071570075;-0.960467805;16.77702055;-1.810048828;-0.84653454;-4.63511028;-7.056490724;-5.006832858;0.618362265;5.575435049;-6.453826105;-9.391121929;4.974516136;-8.626448946;0.721844295
-1.162684466;4.255395407;-8.06047004;-5.346615859;-3.454620276;-0.513210078;25.20407917;-2.142523032;-1.77011337;-4.042313717;-5.856428306;-1.359091529;0.301277553;4.947863256;-7.451533381;-7.398593414;4.002162862;-4.786953686;0.83451016
2.591044443;10.39741047;-1.265463235;0.82177563;-0.096664364;-0.04541598;19.54133573;-0.207900771;4.247550584;-1.243919162;-3.872271678;1.724414492;0.253637363;4.8473637;-7.868863245;-4.271258636;2.248328432;-0.172943632;0.787528606
6.37925383;16.39798221;5.398510304;7.408706605;4.013614012;0.387102032;3.825440523;3.939743559;13.70619104;3.326366137;-1.238298435;3.397595756;0.674033559;5.183620897;-7.037766377;-1.081328019;0.155063162;3.505457096;0.620076904
8.947802047;19.93386217;9.438016405;11.58416097;7.822277263;0.852599232;-12.50057176;9.247080971;21.16637124;8.724716081;1.857656324;4.110311066;1.782973492;5.841469142;-4.389158487;1.470860498;-1.5493053;5.308839951;0.485807351
9.693622564;19.78539278;9.887659817;12.10007813;10.51287004;1.423209961;-21.21266376;13.91886115;23.5493215;13.55572473;4.888207453;4.961781555;3.506147556;6.657852502;-0.032735267;3.22277019;-2.354615916;5.364069593;0.510815853
8.733360244;16.36176181;7.460792438;9.710452388;11.65031738;2.03301096;-20.37507621;16.23301543;22.07774497;16.36386227;6.998110524;6.646038277;5.350797391;7.360703098;4.99814404;4.352417952;-2.365716907;4.539557311;0.674590483
6.719660346;11.34974335;3.873617852;6.423260212;11.27411575;2.471312165;-14.43937526;15.52466029;20.39862763;16.34686031;7.453127762;8.877398091;6.637198076;7.620743108;9.183262387;5.061095652;-2.237748983;3.802354541;0.826809264
4.563911386;6.736126048;0.874331513;4.221068107;9.948040888;2.540112678;-9.950696415;12.68151862;20.86907923;13.95166807;6.208469791;10.70170852;6.935859904;7.251428574;11.44603747;5.397899532;-2.651740465;3.689741318;0.82612436
3.138886326;3.824517573;-0.480004883;4.084480306;8.631419008;2.239381254;-10.56263508;9.712314019;22.52999575;10.80114947;4.088896313;11.33797272;6.373654071;6.403804289;11.89321019;5.311675721;-3.720997188;4.167367276;0.672038011
2.990617552;2.831580084;-0.038086595;5.785259816;8.27671968;1.800950271;-15.05611805;8.572973252;22.57685343;8.815237092;2.348166536;10.79961724;5.562690137;5.540757326;11.70623249;4.815777568;-4.807330761;4.860456749;0.506368886
4.143288846;3.227216544;1.678828938;8.342946777;9.298704247;1.518911319;-19.30406661;10.00070117;19.76411901;9.039594544;1.883759403;9.799270031;5.187886488;5.131011321;12.15471971;4.083221294;-4.920501491;5.438021573;0.482199799
6.129949957;4.466820235;3.918913441;10.6861402;11.27362549;1.509465778;-20.05422877;13.14276547;16.27758202;11.01;2.676309172;9.072627838;5.531145277;5.259523562;13.4571881;3.380231156;-3.413239217;5.896512466;0.621997756
8.294823397;6.515697221;6.100276733;12.10197267;13.15750448;1.606417489;-17.37625385;16.20944693;15.99458683;13.13647297;3.849428797;8.717288626;6.239382793;5.474094054;14.43527329;2.895298196;-0.446829959;6.590322725;0.796837466
10.20671477;9.764024166;8.003098111;12.34774775;13.94818269;1.489107322;-14.12106972;17.64982423;20.53418399;13.82751297;4.265688865;8.083041041;6.471952619;5.040924759;13.33340393;2.603449817;3.11316803;8.001569172;0.845850234
11.88116829;14.42726839;9.700684461;11.55305693;13.33997584;0.942119409;-13.2663489;17.01394498;26.87622724;12.51547042;3.201532828;6.278258804;5.338953852;3.462226914;9.22684219;2.269406809;6.258916887;10.36805401;0.724734328
13.60904057;19.94740963;11.29923386;10.08701859;11.87474995;0.034906209;-15.50898613;14.97041246;29.25459811;9.855286702;0.665474842;2.887919378;2.406030674;0.879593794;2.906398639;1.584004748;8.403945556;13.36952492;0.545802046
15.50258;24.9313015;12.66297553;8.45;10.4621757;-0.919248797;-18.94419244;12.61825294;24.22046242;7.051985292;-2.736316809;-1.617549475;-1.970167845;-1.94881491;-3.504897068;0.336188131;9.535784303;16.07981713;0.473419201
17.1452062;27.7620987;13.33276596;7.143062545;9.644936616;-1.578939541;-20.8298688;10.71559478;14.53590319;4.944696515;-6.158068365;-6.040749102;-6.641399095;-4.090167272;-7.942417924;-1.489230522;9.920988925;17.28947059;0.572633637
17.70240962;27.50129211;12.74567839;6.486699677;9.201475746;-1.783211813;-19.84470347;9.389025197;7.962171758;3.585106338;-8.818264389;-9.051956532;-10.05335659;-4.973949336;-9.716545929;-3.732823529;9.700743227;16.09738648;0.750842097
16.49448809;24.46087221;10.65742397;6.467824438;8.412020541;-1.599132853;-17.05373462;8.404389465;11.08686117;2.547543092;-10.16098695;-9.851771001;-10.91271503;-4.643863418;-9.731790374;-6.158027012;8.768821418;12.46261238;0.844766289
13.62169079;20.05041746;7.490799485;6.753032571;6.77115782;-1.207615379;-14.94760396;7.623380413;22.83640315;1.570892249;-9.95864484;-8.548462773;-8.85593008;-3.587813927;-9.483991112;-8.535065223;7.025790664;7.357627983;0.770608988
10.12454393;16.01626111;4.331967406;6.927318583;4.558882126;-0.75837606;-15.41332735;7.210583168;33.31950614;0.913941733;-8.408856545;-6.078980398;-4.744054956;-2.339888328;-9.702361135;-10.645953;4.731985287;2.362659255;0.598791805
7.480569991;13.59509469;2.506317298;6.840459709;2.790244038;-0.320403352;-18.22477385;7.474161072;29.91189713;1.149029297;-6.12041608;-3.720136403;-0.320857401;-1.189322822;-9.759761152;-12.2220983;2.573276888;-1.104025559;0.486633261
6.74712635;13.10453821;2.951311858;6.815590282;2.560697064;0.06528849;-21.18186766;8.575525663;6.727911545;2.658338764;-3.841862428;-2.41487703;2.683451948;-0.181117308;-8.297111956;-12.89819608;1.306070095;-2.456693339;0.533743101
7.947288327;14.11921322;5.753385066;7.521359337;4.280330338;0.330393278;-21.79678766;10.40605479;-29.56203872;5.325471762;-1.986543864;-2.245492553;3.523290071;0.693064695;-4.487195971;-12.27371351;1.23758257;-2.090092773;0.693685976
10.1220672;15.95364981;10.1135177;9.526563098;7.364880761;0.408740259;-19.29966601;12.69460583;-62.43283716;8.657908241;-0.286021575;-2.36795592;2.856181222;1.370261274;1.136600541;-10.09733927;1.977623366;-0.931921468;0.820290418
11.97716377;18.03014552;14.73053043;12.8016795;10.58571577;0.325413997;-15.46206001;15.15814261;-75.45781494;12.13119153;2.057900998;-1.519708059;2.269137726;1.804026613;6.945249214;-6.475944221;2.702737807;0.258685266;0.80213407
12.63652264;19.92704237;18.35100133;16.52252553;12.79055908;0.231814482;-13.50076352;17.50506062;-62.77645312;15.3679844;5.692865352;1.13367105;3.165618288;2.152594993;11.29595629;-1.946828281;2.761031041;1.343847846;0.660635188
11.99913967;21.2491535;20.19331536;19.37720947;13.48007813;0.30910817;-15.66158548;19.32958731;-32.7604953;18.01432159;10.36371032;5.33720283;5.751780905;2.808647891;13.51568804;2.691298832;2.16143466;2.727512338;0.525244124
10.55621281;21.61381136;20.10041752;20.25514217;12.90308755;0.597837312;-21.12883738;20.12366588;-2.380915371;19.56587812;14.73228741;9.769269795;8.846982372;4.1358194;14.04685226;6.733392688;1.57203816;4.883368684;0.51387318
8.934529792;20.87619358;18.45828715;18.91191522;11.72039128;0.911815834;-25.89938171;19.54421555;13.62588518;19.49387878;17.05491057;12.82650024;10.68515827;6.074411427;13.79204205;9.899314628;1.830742021;7.912479902;0.630163644
7.555981582;19.40328215;15.99202435;16.16222678;10.55665466;0.947053393;-25.05847158;17.76934566;11.23617275;17.68977568;16.32315328;13.68014418;10.15527346;7.973137216;13.35198098;12.40974953;3.339173769;11.47279312;0.767478338
6.589784879;18.06258188;13.51133276;13.41756994;9.733127617;0.526519019;-16.1884922;15.57435919;-2.190588479;14.8152977;13.02943207;12.83847777;7.592229415;8.886371064;12.82292513;14.72917172;5.779218282;15.06618289;0.808559468
6.069490381;17.78270867;11.63039692;11.8125628;9.250128186;-0.219603075;-1.611647921;13.9165404;-14.65366742;12.0873928;8.928540235;11.75071705;4.547656414;8.206988353;12.19016466;17.13268333;8.325063694;18.35669286;0.726090992
5.944840765;18.92211621;10.52109875;11.4744074;8.900164093;-0.910170003;12.31186606;13.25248247;-18.17727935;10.48772979;5.91579767;11.69952802;2.715199461;6.182133511;11.75046966;19.39475623;10.15225605;21.20042271;0.597080073
6.003652932;20.91418243;9.832605641;11.4472484;8.383202542;-1.186802874;18.70313047;13.13251935;-13.21187756;9.979866897;4.838956394;12.80965212;2.794249518;3.875498507;11.99625939;20.82751156;10.86114542;23.37851849;0.528201612
5.822897407;22.51185605;8.895669677;10.37092047;7.403080804;-0.992549848;14.33922684;12.47988251;-6.381116223;9.457695316;5.120384874;13.95372387;4.092172556;2.523812789;12.9916068;20.65459887;10.55296795;24.34846754;0.566681196
4.931722905;22.52050106;7.161834822;7.483399131;5.785881264;-0.622402666;1.678447142;10.4188883;-4.256327428;7.610412436;5.421840217;13.6513638;5.095005441;2.706550934;13.88307586;18.47197487;9.590710215;23.35651931;0.672951523
3.149087915;20.52714013;4.612147866;3.242970239;3.602346669;-0.4945702;-12.70590192;7.015169497;-8.324139228;4.078148005;4.763787228;11.26335095;4.535339777;3.930438525;13.1991;14.4960017;8.294844366;19.93959564;0.76557719
0.818217164;17.12181348;1.815969846;-0.916001988;1.186904181;-0.82506929;-22.2406486;3.297556256;-14.67800112;-0.085106829;3.194949106;7.534427733;2.183445864;4.957818673;9.925939472;9.464366044;6.811159902;14.45633085;0.785845639
-1.330073242;13.47973611;-0.460222183;-3.576670934;-1.029786783;-1.470700854;-24.1863122;0.495078903;-17.92739539;-3.133921387;1.544711222;4.060309994;-1.128555137;4.668580702;4.569409634;4.297852209;5.193628311;8.176467769;0.72697043
-2.654335162;10.63529014;-1.832299868;-4.390398476;-2.796567311;-2.062262686;-20.63435389;-0.908405284;-15.70435305;-4.037275952;0.585315128;2.12580422;-4.143799275;2.844466437;-0.762388142;-0.239652052;3.555156434;2.751552558;0.621507402
-3.05819516;8.96790949;-2.601441843;-4.386934907;-4.198770189;-2.303973004;-16.25491701;-1.509090869;-10.19156603;-3.409419138;0.391155975;1.854865628;-5.945376198;0.310910555;-3.554458985;-3.711043249;2.106964439;-0.633523532;0.520315721
-3.025675879;8.205304096;-3.487441202;-5.240920554;-5.514082267;-2.180567027;-14.73108684;-2.401974757;-5.868352602;-3.108366704;0.429533635;2.317410147;-6.342651215;-1.663543053;-2.635858378;-6.005212677;1.036234177;-1.857518372;0.485003648
-3.170100631;7.830716559;-4.955443516;-7.964516504;-6.835958055;-1.905942908;-16.56518531;-4.154493869;-5.708014799;-4.723132299;0.210610063;2.415958164;-5.750876026;-2.271572177;0.790007324;-7.274409146;0.333397391;-1.800619879;0.574895855
-3.663222649;7.506417329;-6.677013291;-11.9769611;-7.784404696;-1.681044688;-19.59792448;-6.209022877;-8.993865232;-8.145717575;-0.181037053;1.744144964;-4.805342261;-1.721361697;3.707549179;-7.879815604;-0.263248834;-1.687452533;0.798732486
-4.049696496;7.196568192;-7.621207791;-15.29379254;-7.62100466;-1.494240857;-21.34533507;-7.251424818;-12.28469659;-11.44315623;-0.200228008;0.709578069;-4.033372595;-1.047216528;3.206885444;-8.301564571;-1.124860816;-2.309257596;1.047227048
-3.641345448;6.9869581;-6.78965836;-15.78632918;-5.775111452;-1.148923929;-20.99399355;-6.270688273;-12.42443615;-12.23235076;0.523777528;-0.068773492;-3.718943766;-1.319520351;-1.481964712;-8.933605208;-2.463745577;-3.63673436;1.080097656
-2.174037857;6.861801079;-4.06;-12.65310979;-2.406712588;-0.48821964;-19.54364482;-3.432823799;-9.013463567;-9.522341307;1.686850132;-0.41065847;-3.880153928;-2.819161863;-8.231446451;-9.796599826;-4.114020301;-5.001575291;0.633869476
-0.148787714;6.687700356;-0.450118407;-7.03903153;1.478889597;0.397732333;-18.40859834;-0.023712139;-4.454433944;-4.558546645;2.499645104;-0.593381665;-4.249685165;-4.756381029;-13.11093308;-10.36436075;-5.518723768;-5.61102751;-0.378115736
1.478262266;6.410504426;2.472777395;-1.324726045;4.545943647;1.183207063;-18.08422514;2.515458833;-1.77525363;0.032222839;2.463619938;-0.727349162;-4.284551399;-5.729120155;-12.69219667;-9.725095476;-5.961602217;-4.988493734;-1.711885825
2.032551325;6.237496201;3.640466418;2.424974257;5.950332772;1.540110859;-18.13860777;3.673697771;-2.150282703;2.144157136;2.01729869;-0.180557491;-3.333275415;-4.613963815;-6.137134383;-7.099832977;-4.935815727;-3.094514762;-2.836564508
1.667304541;6.575759093;3.200466891;3.741546318;5.85844743;1.392920638;-18.26081663;4.179902605;-4.100058594;1.65411095;2.362889214;2.205157724;-0.998834472;-1.306200583;4.21696399;-2.44034296;-2.450920022;-0.186969736;-3.199938528
1.23537854;7.726007751;2.341197919;3.851354354;5.247042783;0.971018742;-18.94853441;5.280201819;-4.869732791;0.319597388;4.476090516;7.072682296;2.485905995;3.158897526;14.11523721;3.31732493;0.906998113;3.349690163;-2.559322126
1.569231978;9.575679572;2.35346175;4.564045998;5.118116485;0.610686956;-20.81820307;7.582400905;-2.748869464;0.25058814;8.072805739;13.50689952;6.1791972;7.166060716;19.70872227;8.593671606;4.228482232;7.055735175;-1.140971256
2.769598236;11.56861764;3.656091761;6.818727882;5.730420703;0.478004301;-23.10738024;10.42517636;1.548688722;2.212256762;11.457279;19.01397274;8.815935907;9.405178181;19.56037556;11.94763991;6.739939037;10.38222839;0.501071461
4.116573034;13.01501211;5.538337678;9.984415335;6.445464531;0.450184099;-23.11558623;12.29805068;5.478609922;5.095191543;12.5224221;20.81935536;9.488242937;9.550856491;15.18930694;12.81413565;8.22270936;12.77059962;1.831333406
4.69682257;13.52682396;6.796929999;12.40663278;6.301364536;0.249857472;-17.77571224;11.98270467;6.685439154;6.901480798;10.22990292;17.68164622;8.188016228;8.357440311;9.911676873;11.72157963;9.133897365;13.88317741;2.629634367
4.224470376;13.25658659;6.735356955;12.73140736;4.850276352;-0.295145065;-6.554646751;9.511692834;4.82840066;6.378586728;5.45357611;10.87879791;5.826900861;7.150567514;6.751793146;9.873828984;10.32176253;13.84318875;3.027400688
3.351724464;12.76626055;5.718507162;10.96410126;2.591257985;-1.097124336;6.767945645;6.200518759;1.808241224;3.973713098;0.514089366;3.55079575;3.698659511;7.039907109;6.725171252;8.417025579;12.47468615;13.25569174;3.288603463
3.182986721;12.62807184;4.85;8.461179069;0.660389175;-1.886612478;15.49437244;3.745989109;0.261446972;1.402240504;-2.281658182;-1.198842007;2.737045099;8.313064737;8.523482597;7.889587305;15.63200446;12.91235352;3.545458891
4.374352829;13.03949579;5.04829932;6.896162198;0.028861441;-2.440105775;14.19788384;3.088938689;1.520346622;0.259959035;-2.046291799;-2.103799402;3.051674447;10.33871789;9.717469652;8.153207506;19.07474847;13.33272822;3.717319786
6.553957427;13.69572392;6.267170406;7.018565574;0.831720988;-2.74683044;2.790370097;3.869541064;4.627199902;0.822090767;0.300762488;-0.200141648;4.007047964;11.99898262;8.601870499;8.713808278;21.68495887;14.44606411;3.660300674
8.539941358;13.96630865;7.473501961;8.146175132;2.321453406;-2.970238745;-12.81832348;4.807539841;7.15906707;1.934922135;2.828424847;2.238141271;4.728431723;12.36815803;5.387622692;9.091719987;22.55536468;15.63429212;3.380348962
9.183566397;13.23719387;7.391241884;8.737104366;3.440745467;-3.253073701;-24.37175035;4.653865593;7.204568476;1.991362056;3.890208711;3.360300545;4.662299725;11.22864247;1.916407384;8.972297937;21.46263566;16.10383216;3.089163123
8.170681432;11.2267431;5.439937568;7.569270469;3.55176856;-3.555992724;-26.75664959;3.013470775;4.915877229;0.170192574;2.997897853;2.746245932;3.849217276;9.133705499;0.147810404;8.151516721;18.91641349;15.33645084;3.038151199
6.176844573;8.152818789;2.184729363;4.642244004;2.793033095;-3.682598625;-21.2584124;0.532418809;2.368596869;-2.97825463;0.814657261;1.187572812;2.810753717;7.016849205;0.597919503;6.499028619;15.79636435;13.35113111;3.284614159
4.314051703;4.719702967;-0.981280163;1.187057533;1.869006094;-3.467109118;-14.11994905;-1.557466827;1.807107305;-5.923135928;-1.484532857;-0.296659533;2.199263572;5.629421673;1.976382091;4.099620471;12.8682519;10.67684345;3.619598669
3.359706215;1.939335846;-2.636329372;-1.138847393;1.509329882;-2.94917161;-11.5737186;-2.14797105;3.712537655;-7.113439008;-2.880567579;-1.238580563;2.450014648;5.181864127;2.360083008;1.477617923;10.5187762;8.129833771;3.742643938
3.37;0.818500366;-2.038724889;-1.236595385;2.023780153;-2.371345515;-15.25439978;-0.78067982;6.389353008;-5.799984855;-2.799302295;-1.70011758;3.604854597;5.405053654;1.000911151;-0.374936553;8.839004295;6.555663196;3.534903492
3.896390608;1.987037264;0.662883778;0.933674377;3.223819896;-1.995704239;-21.50392576;2.222218493;7.597862975;-2.269516185;-1.070306453;-1.691796229;5.349361278;5.94067606;-0.732086405;-0.351785254;7.893837732;6.622186915;3.178338284
4.508689352;5.412664288;4.70696142;4.553670352;4.663983461;-1.898675196;-24.87718261;5.978901308;6.982984969;2.469902803;2.14857142;-0.776344043;7.211705057;6.727709539;-0.183439732;2.16188023;7.878661481;8.651364867;2.99983738
5.125583588;10.36897677;9.160058594;8.545801276;5.951127014;-1.921350072;-22.78811671;9.45706919;7.103981492;7.214150599;6.329189944;1.654324362;8.823216915;8.056196785;4.478150077;6.823194099;8.990078125;12.47132666;3.172209349
5.902283243;15.7212831;13.20255303;12.07405478;6.905510786;-1.813422202;-17.46044716;11.9064226;11.70495561;10.99903293;10.56580739;5.665997334;10.11378777;10.22007813;12.48589073;12.36003906;11.1136287;17.35225048;3.545637075
6.864371128;20.40175831;16.18572159;14.66928594;7.540510287;-1.44104416;-13.73805422;13.16469819;22.06916016;13.34587015;13.83967855;10.35589075;11.31995292;13.03530154;20.54527352;17.12259905;13.62196156;22.14539668;3.774334131
7.700491415;23.80387492;17.61591645;16.07755652;7.966590985;-0.881777367;-14.80287071;13.69097524;34.22733472;14.33003906;15.53493639;14.21945225;12.7654413;15.64205154;24.89996799;19.82770411;15.52206478;25.67067889;3.633907127
7.95044281;25.87208884;17.23916993;16.12801189;8.319241183;-0.339239313;-19.50792221;14.24920739;39.74746183;14.46368625;15.84484657;16.10003906;14.53295884;16.84275504;23.95510848;20.06072518;15.92760754;27.21889439;3.24029927
7.434077466;26.88572533;15.23068626;14.80422712;8.71926805;0.029348058;-23.52941146;15.35595599;30.48769885;14.37235469;15.66781961;15.96057656;16.27781241;15.8346745;19.47658577;18.30737923;14.57385164;26.89578205;2.95853913
6.526110173;27.16075298;12.31949912;12.43287079;9.223903735;0.213463917;-23.23015699;16.82393531;4.566974164;14.36911609;15.96364742;14.8386094;17.3918266;12.85879455;15.38853016;15.61453263;12.03474303;25.57544541;3.069669944
6.003790908;26.92247689;9.664303777;9.744933747;9.769368034;0.299641709;-18.84807151;17.76886295;-30.69870876;14.20148367;17.0204851;14.03204115;17.47335317;9.269244659;15.006573;13.15196597;9.485220014;24.45121347;3.495696969
6.557045342;26.4021175;8.45064007;7.656320503;10.17001953;0.339685405;-14.27640686;17.18060113;-61.58440777;13.2378651;18.22233998;14.19164761;16.76198187;6.878391509;18.74911203;11.87218586;8.134310205;24.42256338;3.846445724
8.328026551;25.96104112;9.373593172;6.858701124;10.22557146;0.277061313;-13.6658894;14.7278485;-75.33152311;11.06388347;18.53434247;15.02098533;16.12602402;6.927479461;23.99566901;12.28329769;8.639420191;25.656055;3.76754698
10.80848575;25.99260555;12.26286622;7.483756737;9.886012258;0.007775745;-17.79493348;11.20660376;-67.55586477;8.068654163;17.33188842;15.71285113;16.48235707;9.323412522;27.10145639;14.27682225;10.79670446;27.54057765;3.285439874
13.12812048;26.57191673;16.05124333;9.060078125;9.33655872;-0.482912292;-23.32926745;8.219650539;-44.75179504;5.484213778;14.90284276;15.62984047;18.00842476;12.64756629;25.95722598;17.05145103;13.63258666;29.01837883;2.82520958
14.48676494;27.1337869;19.13463509;10.77340299;8.899395175;-1.043593194;-25.62;7.216083288;-20.11746271;4.692043507;12.22154702;14.62266101;19.78064579;14.95647239;21.18266845;19.29184151;15.82491303;29.08269493;2.854103363
14.44347006;26.55558108;20.00399831;11.8481927;8.800201373;-1.423345207;-22.68836604;8.528631573;-5.477571273;6.211569599;10.20482309;12.83174897;20.2478334;14.88337935;15.24449397;19.69484274;16.25880827;27.19646133;3.442182676
12.96288301;23.75914552;17.90386552;11.8350175;8.981762536;-1.435267101;-17.03264374;11.10377795;-4.71962195;9.138412443;9.083042758;10.35797304;18.32105372;12.36346988;10.4550596;17.6638223;14.49306959;23.48183868;4.128972208
10.32436569;18.49968021;13.22476819;10.70185605;9.129299706;-1.082738431;-13.69035015;13.1438269;-12.93283976;11.55057929;8.388955341;7.274872206;14.30700625;8.566558216;7.560039063;13.74125049;10.95205632;18.65604647;4.241467801
7.034657943;11.75721818;7.404244396;8.765071942;8.900666778;-0.547653456;-16.06746816;13.22070182;-21.27244858;11.6849624;7.510590576;4.008715501;9.918108859;5.14;5.913423535;9.400483636;6.748779267;13.76851453;3.424552975
3.76052206;5.349733848;2.312453812;6.545114016;8.176760207;-0.059337772;-22.88630182;11.08913699;-23.59345114;9.064637844;6.274277899;1.598634117;7.23218437;3.281479148;4.769068033;6.221356181;3.187077007;9.828035954;1.951060009
1.18859234;0.940325456;-0.623242445;4.595255862;7.1277696;0.242482664;-28.73439071;7.677215657;-20.03164184;4.756410036;5.041687573;1.328157754;7.290468048;3.205683914;4.299920944;4.953237686;1.155567955;7.436229902;0.548786792
-0.230062256;-0.906517692;-1.099530818;3.314573557;6.053181364;0.348997811;-27.87867116;4.354302581;-15.43050478;0.589040729;4.284058898;3.789085826;9.361126397;4.248253558;5.353064623;5.120822171;0.725588989;6.571329696;-0.123540988
-0.52657329;-0.955293082;-0.015818425;2.781943157;5.151411932;0.323579179;-18.50434904;2.072676213;-14.54544657;-2.050685281;4.08369689;8.096869071;11.44395819;5.418485045;8.234939517;5.475027201;1.198598198;6.645872101;0.066117299
-0.235349777;-0.656231277;1.127008687;2.702382041;4.425291378;0.224278707;-4.263235469;0.979050167;-18.14216283;-2.943875398;4.058218602;12.06239396;11.66737767;5.97743409;11.79285847;4.969757305;1.602331265;6.849348193;0.686016481
-0.092632551;-1.107350523;1.150389004;2.54773893;3.78619762;0.08487514;7.930872739;0.646982883;-22.91108815;-2.827552971;3.7753001;13.44648255;9.550913777;5.704729435;13.82587833;3.539802271;1.341459333;6.617477396;1.125930474
-0.576505084;-2.375215857;-0.145336537;1.858577273;3.221344622;-0.047558501;12.20968025;0.59345903;-24.76408081;-2.561226737;3.235790868;11.49255698;6.219191976;4.807258247;12.63553444;2.103551375;0.578225002;5.959917218;1.069030781
-1.620448138;-3.624226101;-2.0110808;0.528908695;2.829819086;-0.088016403;7.16527846;0.606392898;-22.40843261;-2.44302247;2.91980107;7.560525016;3.470836646;3.667410229;8.430937494;1.813277544;0.078130425;5.434883349;0.671848024
-2.728835206;-3.873570839;-3.404200797;-1.139804047;2.674991364;0.044113784;-3.762590733;0.682272216;-18.1947555;-2.218896847;3.30155131;4.26862966;2.472845962;2.658160598;3.339594923;3.151421575;0.621814812;5.773541229;0.344990532
-3.407295014;-2.750730234;-3.763178501;-2.684104358;2.607013547;0.343345021;-14.83556743;0.761462465;-15.79213418;-1.657238873;4.26485571;3.684531597;3.079583023;2.096222638;-0.065234108;5.565494159;2.398287356;7.387993484;0.364339482
-3.558703404;-0.684766922;-3.333332552;-3.855284568;2.270153667;0.685031586;-21.52437289;0.59754474;-16.94647523;-1.057118663;4.993428843;5.88338673;4.209949004;2.239032595;-0.5465482;7.883758558;4.814092892;10.07358152;0.656741109
-3.523699667;1.514915891;-2.847216328;-4.824195065;1.348462653;0.89841065;-22.68507373;-0.092851457;-20.1613189;-1.158348797;4.515026871;8.951498039;4.851228749;3.211472247;1.131284493;9.138502954;6.850656842;13.07915816;0.917199396
-3.74981212;3.258392707;-2.873901339;-6.015200147;-0.139234072;0.902459904;-20.33778508;-1.362295999;-22.27230821;-2.509071148;2.488414057;10.4204742;4.81108938;4.873606553;3.106099309;9.14288806;7.7024716;15.47251693;0.912647255
-4.391574061;4.440767205;-3.386918148;-7.660941137;-1.77131405;0.786708551;-17.67061682;-2.929622342;-21.32845792;-4.873066152;-0.428548498;9.03399524;4.646418623;6.768191086;4.011736789;8.42429659;7.237205451;16.55664704;0.682110834
-5.192711496;5.223827952;-3.87569398;-9.42337317;-2.984371299;0.750782123;-16.86065351;-4.353724846;-18.18091121;-7.245562698;-2.963367646;5.536674584;4.948907185;8.271766919;3.869361205;7.664434524;5.976873126;16.10885794;0.467241033
-5.736887421;5.636559143;-3.843039058;-10.42398948;-3.469402929;0.936850501;-18.07431409;-5.320235244;-15.48508709;-8.511588295;-4.071757361;1.979297952;5.697875167;8.909785375;3.609903099;7.165730859;4.670618728;14.37501744;0.466397382
-5.816296899;5.43237183;-3.212214339;-9.739405818;-3.363853189;1.292453364;-19.97759304;-5.775339966;-15.17106253;-8.212900066;-3.567953803;0.183911834;6.264610169;8.62836471;3.837324014;6.769123874;3.814846132;11.90684578;0.655717666
-5.567266755;4.355229793;-2.285062374;-7.052859096;-3.059333664;1.588458054;-21.0725046;-5.80902986;-16.72144668;-6.797196076;-2.074156807;0.584690543;6.024349307;7.807983589;4.1;6.213509672;3.46076478;9.366652502;0.83539662
-5.253099594;2.540437363;-1.332622418;-2.994640227;-2.787120367;1.590338866;-20.80670579;-5.451726214;-17.74995435;-5.179027819;-0.413392865;2.245329874;4.984009228;6.988553304;3.393137272;5.549948685;3.374749779;7.354278364;0.836218242
-4.923249663;0.611513805;-0.25672154;1.10535267;-2.363750457;1.247711997;-19.77156095;-4.633665983;-16.25375644;-4.026981518;0.979852697;3.857711717;3.845643005;6.507351683;1.393784861;5.217677232;3.332565252;6.243827349;0.677295489
-4.314119015;-0.707369095;1.299108861;3.920029297;-1.360187665;0.745583297;-19.03628705;-3.372597762;-12.45378512;-3.385239222;2.14185192;4.793817834;3.457437849;6.330390579;-0.821182557;5.72273197;3.269456536;6.036036393;0.529451761
-3.138325112;-1.189743036;3.446116127;4.824823495;0.419142928;0.373477513;-19.24157928;-1.983741338;-8.598436105;-2.887437498;3.184411137;5.37565887;4.154812119;6.202901691;-1.390454056;7.214166647;3.196571804;6.306129246;0.535423836
-1.523756453;-1.402916424;5.627684324;4.142411313;2.570058594;0.319392171;-20.15313906;-1.029815553;-6.986936046;-2.269462503;3.909930777;6.286186649;5.568222755;5.975806903;0.80686526;9.321432607;3.03535058;6.347622379;0.672364908
-0.16897384;-2.39319969;6.750956435;2.810009766;4.207986281;0.554152628;-20.96025532;-0.952686089;-8.030521058;-1.646797268;3.891371083;7.773788698;7.026319612;5.810396093;5.051400765;11.37078518;2.589711372;5.512006902;0.788661165
0.018281198;-4.94200953;5.890883777;1.747525948;4.550720835;0.889579549;-21.01782467;-1.660083008;-10.03818333;-1.299251853;2.981396177;9.396427058;8.142475503;6.06441954;9.162694193;12.78410898;1.71878614;3.582288321;0.767429665
-1.414847014;-8.939593931;3.05250205;1.377461511;3.526782116;1.145978053;-20.39872115;-2.459591693;-10.79201565;-1.221607186;1.73622344;10.49020568;9.037349531;6.94429956;11.1476208;13.35533888;0.551129852;0.941690967;0.644840515
-4.022892658;-13.35310118;-0.654896731;1.578716518;1.901117935;1.280700568;-19.79570733;-2.489457063;-9.395888692;-0.953125151;1.243537287;10.87116967;10.02873453;8.231617142;10.77039118;13.25582851;-0.487569386;-1.596270193;0.563692984
-6.642767343;-16.81600557;-3.655372796;2.000329177;0.770053711;1.378215969;-19.86412716;-1.37361314;-6.76162519;0.059123202;2.360951346;11.0859609;11.1416324;9.355145845;9.708536749;12.85718785;-0.906574148;-3.20228677;0.614854938
-8.123743672;-18.40475369;-4.926225514;2.409689344;0.784946371;1.531863175;-20.58996849;0.407820795;-4.46479598;1.844384603;4.947940804;11.95680905;11.95915952;9.796007633;10.13758705;12.55307074;-0.478014559;-3.424027475;0.735713012
-8.080886676;-18.06159779;-4.631262773;2.789530997;1.698434412;1.738407103;-21.27295363;1.763262965;-3.218931532;3.628715771;7.773158554;13.81198087;11.99120026;9.513940798;12.91479576;12.66078304;0.602530889;-2.31990785;0.776666672
-7.102945431;-16.43144507;-3.875809437;3.169039855;2.585770558;1.901050021;-21.18273262;1.712474115;-2.46247093;4.247841928;9.271063702;16.08194772;11.21210138;9.028237945;16.85658502;13.34204611;1.85196541;-0.305156865;0.670856421
-6.259878409;-14.32940325;-3.778403886;3.426914675;2.566890873;1.92702924;-20.30878984;0.071269534;-1.351071772;3.012835756;8.618875986;17.63542686;10.21901845;9.044767369;19.6557878;14.47643132;2.812877458;2.107679711;0.526918046
-6.296763349;-12.28083146;-4.593902946;3.316044038;1.469163439;1.818992691;-19.46712685;-2.39623521;-0.003719211;0.35086583;6.310786579;17.60727073;9.796588606;9.894213039;19.60703434;15.5577938;3.285473294;4.456746423;0.532197155
-7.132852118;-10.42992674;-5.572024941;2.725478831;-0.066704559;1.67367789;-19.5648261;-4.450205359;0.413475854;-2.335608271;3.787716136;16.06453528;10.24441206;11.22821251;16.69997946;15.79052705;3.312204812;6.310019531;0.74562214
-8.024888792;-8.764846015;-5.635166579;1.931921337;-1.086940606;1.596184129;-20.63867637;-5.111972542;-1.008451192;-3.544266814;2.427506769;13.9941461;11.09393369;12.24409108;12.29095157;14.47163504;2.983126742;7.213591498;0.986382305
-8.221701075;-7.36826005;-4.3022233;1.550617875;-1.016720947;1.617723354;-21.62198116;-4.153796982;-3.498679157;-2.646464494;2.688780802;12.63823474;11.53026474;12.29859292;7.842026234;11.48923876;2.286895405;6.786119331;0.951505143
-7.565135058;-6.450418746;-2.105390311;2.136333129;-0.014320466;1.693326833;-21.23826248;-2.066884263;-4.642820443;-0.236914484;4.031453141;12.69474842;11.19373053;11.44888723;3.961514688;7.57892428;1.167732129;4.975632084;0.479722553
-6.569004745;-6.169591771;-0.179876045;3.71492;1.243262849;1.769837779;-19.35580507;0.370104313;-2.176612269;2.376091472;5.570717086;13.95893184;10.64096361;10.48939903;0.554935431;4.072610597;-0.273271975;2.280225343;-0.2751829
-5.949967752;-6.447306043;0.614808614;5.649046054;2.125769803;1.843258922;-17.51427184;2.563950476;3.896019045;4.120434769;6.834950531;15.59800163;10.98128173;10.42466379;-2.252288316;2.227084464;-1.660147226;-0.319831258;-0.933841745
-6.022074899;-6.972555846;0.315401523;7.016087269;2.509047985;1.940909325;-17.85234412;4.329272162;10.82506367;4.830359439;7.978340943;16.76587751;12.90449153;11.74799774;-3.531530822;2.555496753;-2.481019963;-1.788758343;-1.180429899
-6.454158348;-7.402265482;-0.279151072;7.256342329;2.798944936;2.05072584;-21.05229421;5.813087962;14.9516357;5.183240554;9.331884272;17.06175847;15.88684673;14.05038251;-2.083829638;4.609361588;-2.423941458;-1.60544823;-0.999899073
-6.577489529;-7.593469344;-0.369687083;6.581549971;3.544830108;2.086524582;-25.02189696;7.26418945;14.48718494;6.029302995;10.77683018;16.53944202;18.29111418;16.24440493;2.26662799;7.328200202;-1.647459114;-0.111673119;-0.654573333
-5.987297487;-7.693104946;0.083868633;5.77266127;4.957152725;1.950227144;-25.76070685;8.806630769;10.90101778;7.663351626;11.57030116;15.37773401;18.38841006;17.24047797;7.838758532;9.655733399;-0.744839256;1.607324041;-0.434051205
-4.95698317;-8.04400241;0.226443881;5.473924916;6.671316985;1.650106562;-20.19845335;10.2918675;7.66264385;9.557122558;10.83349395;13.58557039;15.57792369;16.59744348;11.69475024;10.96576601;-0.398701141;2.251567013;-0.426747489
-4.335999202;-8.998401898;-1.080026855;5.537897366;7.896238436;1.35813276;-9.005453012;11.25666028;7.341280134;10.67779392;8.309205908;11.04069633;10.88709179;14.7145228;11.45171852;11.06921289;-0.974891415;0.931286775;-0.535607096
-4.993296237;-10.75176298;-4.348557934;5.004984712;7.834647266;1.323890323;2.97499142;11.03755199;9.521912062;10.11013635;4.734355257;7.831726905;6.364361152;12.48206784;6.974449011;9.966529271;-2.35137539;-2.448676127;-0.70863231
-7.196295769;-13.24063901;-8.93401301;2.834828698;6.128691565;1.688980471;9.419967959;9.086295399;11.32568705;7.566416782;1.473291463;4.569153529;3.803625976;10.6864194;0.594665369;7.704287487;-4.080101851;-7.188418451;-1.118101301
-10.35316567;-16.09658518;-13.26632521;-1.11997472;3.104609287;2.351406991;6.660463247;5.400902326;10.06394218;3.530087891;-0.343018326;2.30269621;3.708718151;9.593806527;-4.376689307;4.518036915;-5.712444191;-12.08800771;-2.046230705
-13.29251972;-18.67452644;-15.70056519;-5.685867152;-0.300442422;3.008480852;-3.740154881;0.802358382;5.687967136;-0.961093926;-0.529936952;1.967616256;5.173928833;8.9537697;-5.74502646;1.075964526;-7.014065135;-15.85128722;-3.524732925
-14.90376105;-20.22012533;-15.4307998;-8.930220787;-2.915477364;3.363813337;-15.96273828;-3.246299705;0.886388053;-4.728284792;0.108564369;3.679275915;6.649803078;8.336285456;-3.604192557;-1.55171703;-7.934044057;-17.46718838;-5.067414179
-14.74464595;-20.19740916;-12.90418301;-9.405391779;-3.873939285;3.339148435;-23.82670735;-5.328301687;-1.223911835;-6.879776206;0.414238211;6.403355738;6.959558118;7.502968277;0.14940703;-2.372689872;-8.436371108;-16.52481926;-5.829048845
-13.25765526;-18.64666138;-9.514012592;-7.181204352;-3.063222319;3.117014157;-24.74623177;-4.905016661;0.268467783;-7.11397852;-0.299652937;8.359983904;5.868280591;6.547531303;3.38196095;-1.143464542;-8.420158846;-13.4201844;-5.176232723
-11.47836537;-16.31248386;-6.788088957;-3.846386768;-1.215607114;2.977410952;-20.8868772;-2.697690463;3.45577922;-5.787750233;-1.814691319;8.040689152;3.951198779;5.75713833;5.0610193;1.296413167;-7.840398393;-9.343556301;-3.251582063
-10.41483579;-14.34306817;-5.553994437;-1.39526604;0.48462633;3.066316494;-16.88617685;-0.249876196;5.514777427;-3.692480537;-3.223417724;5.234210846;2.039734931;5.355606572;5.454274821;3.381020989;-6.906755746;-5.928711274;-1.030058594
-10.46305874;-13.64203137;-5.538261947;-0.778523694;1.112065206;3.292175434;-16.14756448;1.109393617;5.338948318;-1.608903072;-3.587440393;1.332105457;0.728917066;5.341904198;5.335276979;3.708742441;-6.1138037;-4.595931726;0.270422184
-11.20215988;-14.26350344;-5.597509389;-1.207528636;0.598116477;3.434108263;-18.64618989;1.172409309;4.466453683;0.122511758;-2.566900284;-1.421791808;0.227744464;5.526206196;5.103807478;1.878197276;-5.976396298;-5.862121828;0.026227317
-11.69292643;-15.30370556;-4.439062002;-0.777304584;-0.221810762;3.359170948;-21.71927421;0.925033714;5.463628824;1.724247996;-0.630732457;-1.361481155;0.486723734;5.703752173;4.588334186;-1.303190823;-6.617741891;-9.019445218;-1.354027317
-11.09963507;-15.44341409;-1.429192412;2.020354092;-0.213170887;3.150684782;-22.78112868;1.690420274;9.300108287;3.678384459;1.237286038;1.421101723;1.362955105;5.818342495;3.514017736;-4.350058594;-7.542259968;-12.43749326;-2.755943875
-9.244541619;-13.82126782;2.970121262;7.025254412;1.185064122;3.031408874;-21.46722104;3.994129616;14.21701273;6.200512137;2.121950074;5.022863412;2.675125638;5.996765628;1.993764478;-5.95342065;-7.838624664;-14.37405524;-3.208528787
-6.731697954;-10.63651271;7.406104155;12.35843476;3.464191715;3.152091245;-19.50138642;7.061639599;17.22158977;8.910407798;1.703367559;6.962298844;4.190667668;6.437308884;0.494466098;-5.569370534;-6.744991219;-13.84091442;-2.584807335
-4.55160059;-7.043024591;10.38708811;15.65635962;5.346956331;3.440129538;-18.75350526;9.380499093;16.8707625;11.00541909;0.440761366;5.921706488;5.657303355;7.231742615;-0.63311003;-3.442589965;-4.211009815;-11.02531791;-1.602987099
-3.43634715;-4.408178296;11.13670724;15.67014807;5.713200632;3.651504764;-19.50754856;9.896903831;14.72473544;11.8409832;-0.688177629;2.758154506;6.895817034;8.23928846;-1.486065599;-0.22984956;-1.052317025;-7.061409424;-1.158107862
-3.424241244;-3.478809567;10.00246468;13.02946645;4.459848889;3.585984969;-20.54203216;8.875673269;14.00776546;11.45300099;-0.767173213;-0.028819576;7.855426628;9.104275814;-2.389894142;3.375076178;1.444515783;-3.361801247;-1.566690639
-3.952244249;-4.047212636;8.130164467;9.619686131;2.60487935;3.274572405;-20.73410667;7.702327479;16.60845003;10.55882133;0.471043872;-0.088263109;8.551867195;9.433114065;-3.341289849;6.769090565;2.235957279;-0.951520333;-2.359571779
-4.399762634;-5.300375408;6.610390082;7.094914521;1.512418418;2.966472048;-20.38027153;7.764691672;21.19344232;9.98976712;2.411674725;2.998991593;8.947384528;9.049327825;-3.750264786;9.411091194;1.111217615;-0.149818242;-2.767824251
-4.646295666;-6.500838826;5.699663378;5.703826761;1.825495751;2.917318749;-20.74455856;9.315911017;24.29521085;10.00597714;3.88117203;7.29833004;8.924581542;8.171649099;-2.868019926;10.88866127;-1.196290657;-0.643575155;-2.441806024
-5.172850936;-7.425364012;4.701523428;4.326810479;2.96223075;3.157713872;-22.20384931;11.24866071;23.49841741;10.08274697;3.890448389;9.856516794;8.422124884;7.365492946;-0.577172842;11.16090139;-3.419704224;-1.756122332;-1.752419491
-6.589259808;-8.249683346;2.625401304;1.641862366;3.607022466;3.443792163;-22.95857431;11.96838696;19.78678035;9.382332129;2.337327912;8.859035552;7.605009528;7.234498803;2.236832863;10.75174301;-4.42702964;-2.706452706;-1.411253573
-8.949507539;-9.074396332;-0.85706428;-2.558643553;2.826233845;3.438111963;-19.98467521;10.65589497;16.73091298;7.5352985;0.15606248;4.9948635;6.847931348;8.003845068;4.211104745;10.5771779;-3.765324049;-2.811489296;-1.766109738
-11.43597846;-9.594636153;-4.905881905;-6.976182313;0.90933132;2.973331881;-11.83298054;7.903718314;17.0939034;5.065123777;-1.263517972;0.963492335;6.456401662;9.277644506;4.566989464;11.36479887;-1.81104862;-1.698326498;-2.427222883
-12.74452262;-9.260402406;-7.899265548;-9.652352197;-0.76632305;2.18297516;-0.889190339;5.244007368;20.00755191;3.074873338;-1.028729275;-0.532956386;6.331879926;10.2001967;3.763745286;13.04248282;0.507118911;0.469768112;-2.587197628
-11.95217346;-7.800382258;-8.479035213;-9.370660625;-0.765198361;1.399530662;7.258030202;3.998675821;21.62469709;2.447870765;0.624578165;1.216050302;5.925852659;9.998075819;3.081545247;14.62705725;2.232898628;2.909151549;-1.77011082
-9.22977323;-5.616871862;-6.490653267;-6.505404887;1.298241344;0.915460529;7.417077183;4.405641401;19.04018956;3.243246057;2.536003016;4.48837375;4.63787225;8.577697922;3.431259537;14.82523027;2.875899861;4.469672414;-0.341238249
-5.828066871;-3.637602683;-3.101579721;-2.678660642;4.462948454;0.807097557;-1.225752988;5.68630074;13.96958402;4.800409796;3.553203835;6.573772645;2.412847958;6.737719479;4.458967292;12.98510705;2.629556278;4.224131358;0.704284892
-3.295927809;-2.676644528;0.005351056;0.452901749;7.169344661;0.950308573;-14.0079784;6.895317685;12.32086722;6.435654377;3.485741915;5.950573048;0.038051966;5.765247932;4.832040394;9.690790432;2.20622408;2.078562968;0.531359464
-2.480266812;-2.807945584;1.759090472;2.295367509;8.43627428;1.182412135;-23.74777654;7.75456922;19.11754838;8.076903746;3.299349071;3.463943873;-1.194470346;6.61566237;3.546998852;6.504861152;2.371719184;-1.048701986;-0.82637682
-3.03872519;-3.288470969;2.302424494;3.466381929;8.513197571;1.446118803;-25.682859;8.752863471;32.62341244;10.23218433;4.340419892;1.581905151;-0.293852624;9.220753032;1.105441293;5.00093809;3.430450769;-3.70509457;-2.451147731
-3.813515306;-3.134199659;2.645061994;4.973275171;8.504164213;1.789013251;-20.62578073;10.48723032;43.07139444;13.29964538;7.173860107;2.353091864;2.74534245;12.44059189;-0.593368641;5.782946263;4.968724279;-4.791935168;-3.251184742
-3.761897726;-1.907376785;3.693002079;7.179387312;9.31710542;2.241402727;-13.91955906;12.89945927;38.2987384;16.86145854;10.98206891;5.728670963;6.926747731;14.74526692;0.286863002;8.19972116;6.043453471;-4.260493091;-2.81405425
-2.727125269;-0.079200091;5.455805573;9.436579688;10.83865708;2.712364165;-11.11308568;15.13198758;12.95572227;19.67567534;14.06780746;9.598751714;10.93289791;15.177405;3.881295417;10.91748859;5.739715514;-3.094608785;-1.700123111
-1.480630504;1.337987057;7.060754099;10.65648789;12.02257378;3.020665608;-13.84819653;16.15203573;-25.64016956;20.49127062;15.11753659;11.49174352;13.96225382;13.91527689;8.261224699;12.85607148;3.764910691;-2.559804094;-0.946764914
-1.042956276;1.606760306;7.533403878;10.29663032;11.80114034;3.040078125;-19.14116121;15.60057046;-60.19608621;19.06140131;14.23119831;10.5423184;16.05534974;12.03202446;10.7866542;13.76052163;0.687394602;-3.251792419;-1.211046432
-1.835094145;0.883634789;6.68752148;8.913669856;10.04420861;2.820265527;-22.36111231;14.1255719;-73.71157272;16.48769055;12.86880614;8.140619666;17.68900419;10.64237904;10.13915338;14.03852587;-2.359437369;-4.643904906;-2.259579665
-3.306637154;0.153762016;5.396221015;7.825872957;7.764833387;2.558622894;-21.21095366;12.91340377;-60.41747082;14.53762469;12.71975449;6.77;19.06029901;10.09153095;7.352230846;14.11968342;-4.32418024;-5.466469526;-3.195270522
-4.289122643;0.537744881;5.027317322;8.171350316;6.40459944;2.435071764;-17.38783181;12.81817598;-29.54061399;14.42312107;14.38061806;8.007738264;19.75389661;9.803492123;4.947021145;13.95453235;-4.800126337;-4.628059473;-3.186393659
-3.773874737;2.509676046;6.487398137;10.11840316;6.780039063;2.453230776;-14.75299227;13.80298433;0.917029847;15.98758375;16.89968599;11.30434894;19.13141993;8.886008774;4.870397211;13.08713699;-4.128182366;-1.992420821;-2.074767378
-1.542191961;5.604827788;9.599806369;12.81488223;8.517958241;2.435259442;-15.83101125;15.09905651;15.92954047;17.92123785;18.55246455;14.47922664;17.10095566;6.989586185;6.957037258;11.19698812;-3.006518454;1.542363236;-0.39835269
1.747875914;8.784083262;13.24538458;15.04039341;10.37928019;2.184634655;-19.72566109;15.86548153;12.34732565;18.78826551;18.21417772;15.46786765;14.52773058;4.71521026;9.195557591;8.591825331;-1.93933451;4.673883672;1.105974286
4.984292917;11.11618404;16.09720195;15.99232756;11.15957574;1.679543015;-23.11562563;15.75517485;-1.03783659;18.01867753;16.2160506;13.88830121;12.81319105;3.224645748;9.536662434;6.186536232;-0.957782462;6.529269688;2.035013411
7.176922592;12.24633432;17.37274086;15.61739667;10.45022891;1.125762692;-23.25573144;14.96577171;-11.49776173;16.11689812;14.00665887;11.21543109;12.89476446;3.345998338;7.667290383;4.95232955;0.200145304;7.098068402;2.447077257
7.830106465;12.36357574;17.10226107;14.35317818;8.741318512;0.814589381;-20.28063775;13.86747643;-11.87845148;14.04692201;12.92114462;9.516879886;14.47237648;4.877292185;5.225842158;5.265302492;1.65460995;7.018509305;2.569534003
6.998497952;11.81672081;15.84818893;12.63707048;6.91675001;0.897741235;-16.90875807;12.65361368;-4.578156688;12.42764831;13.07150736;9.823144222;16.14235125;6.645676415;4.299216965;6.656272809;3.107281267;6.971746957;2.4581908
5.143078849;10.78007813;14.21423915;10.65242804;5.630141452;1.263018408;-16.01118312;11.34221862;2.166032757;11.23135882;13.23190565;11.39567755;16.38881536;7.296009477;5.529638672;8.132250519;3.98870541;7.183499721;1.976095565
2.942677331;9.248019454;12.5438928;8.466092387;5.024752279;1.611304067;-18.27895526;10.02739063;1.765843214;10.12171367;11.74700848;12.35079025;14.66034834;6.222639183;7.479900611;8.804172828;3.915621645;7.368105554;1.09224901
1.104889302;7.287916002;10.943325;6.303384244;4.875541428;1.671267615;-21.90597556;8.994031867;-5.813648493;8.952459732;7.667401933;11.02906342;11.67333263;3.957839981;7.800372775;8.366879196;3.05808032;7.061366732;0.143708104
0.140215639;5.236188955;9.459147869;4.594340252;4.880019531;1.382931014;-24.26539629;8.468443891;-15.276248;7.858797458;1.197297749;7.03519512;8.723083149;1.754231066;5.191114359;7.146609918;2.073345495;6.01129455;-0.286268571
0.12560873;3.592462862;8.166340596;3.693490617;4.806374734;0.918092067;-23.86293312;8.222453853;-21.52098463;6.871900441;-6.812680015;1.292198598;6.60945639;0.701535033;0.502468635;5.773355529;1.622220234;4.326597824;0.155014722
0.609429465;2.673725562;7.095907877;3.543924175;4.467529049;0.54296138;-20.89800529;7.511981166;-24.29390706;5.557604767;-15.77246604;-4.708570465;5.086723871;1.033270092;-3.902591021;4.765608196;1.842664059;2.339077257;1.173319859
0.817252209;2.340053711;6.14095714;3.65473415;3.71299405;0.444623895;-16.33284043;5.593545418;-28.02706771;3.225321646;-25.81985555;-9.755838752;3.268129106;2.088064456;-5.914446638;4.29494867;2.209928163;0.366729115;1.901252221
0.127333766;2.066532033;5.105511051;3.482149359;2.574712282;0.646794503;-10.82818899;2.492318615;-37.37526287;-0.318986572;-37.47733052;-13.30106584;0.57381129;2.876997685;-5.072647937;4.212123917;1.911845675;-1.413637793;1.490472182
-1.469246212;1.343273802;3.890991952;2.906982989;1.44399943;1.045818466;-4.822366058;-0.672637285;-52.65501216;-4.157048968;-50.89681996;-15.35096558;-2.656658035;2.785580494;-2.529104873;4.246569477;0.459766895;-2.932116444;-0.219939466
-3.280788935;0.096967455;2.642306408;2.368259416;1.002070462;1.500249761;0.442954332;-2.255699677;-69.2503649;-6.521295344;-65.4597544;-16.22670411;-5.450344777;1.909600966;0.184756535;4.239831316;-1.925860047;-4.132597989;-2.511752588
-4.326580053;-1.203272275;1.690120253;2.493914459;1.794050791;1.889735795;2.447596822;-1.264972624;-81.4146067;-5.979294324;-80.14535895;-16.46639385;-7.130308391;0.858924276;2.375892904;4.306869964;-4.430656636;-4.934856452;-4.25603537
-3.990381424;-1.839590157;1.323103463;3.528731862;3.708779322;2.119633812;-1.341490374;1.731823016;-87.05250626;-2.688636067;-94.33680159;-16.8;-8.036811004;0.262326922;4.358886257;4.858623107;-6.14881161;-5.256499084;-4.683592797
-2.434861771;-1.304084783;1.604941631;5.079272367;5.838093359;2.112926821;-11.04557504;4.777816433;-89.31868827;1.386313459;-108.2871969;-17.94759665;-9.349099957;0.365585138;6.620703405;6.447622296;-6.587198068;-5.012710264;-3.852305635
-0.44742977;0.427445155;2.421873225;6.451944353;6.973325112;1.833582436;-22.93058343;5.785639816;-93.72911993;3.684987225;-122.7352546;-20.19279185;-12.10263873;0.96243031;8.9570346;9.462095856;-5.833160768;-4.050877216;-2.467842063
1.177927176;2.982956732;3.71781697;7.338458967;6.472436311;1.330653703;-30.7691767;4.009198067;-103.3652243;2.899790894;-137.9219168;-23.04121815;-16.22336593;1.612247919;10.49137694;13.80578605;-4.343958168;-2.097016852;-1.254952392
2.244415566;5.917723379;5.663372035;8.250953688;4.840378951;0.746887539;-29.63657214;0.610452436;-116.2954559;0.030060654;-152.8440759;-25.36156012;-20.42508767;1.923286562;10.54493708;18.7768903;-2.595205167;1.153988233;-0.428514185
3.263090305;8.979431077;8.532796114;10.25423308;3.49216629;0.255389956;-19.50167914;-2.153004009;-127.3127292;-2.286150736;-165.4585218;-26.0628507;-23.10284467;1.716902082;9.445135884;23.28633961;-0.869365338;5.772946472;0.316469435
4.978319238;12.11357256;12.33281823;14.09934368;3.774459492;-0.04159863;-5.721140488;-2.546582254;-132.3464675;-1.760078125;-173.7948684;-24.86256987;-23.51164095;1.042889461;8.398461358;26.33081379;0.721344428;11.31161388;1.35425241
7.682165478;15.26159577;16.50172848;19.38871612;5.937008827;-0.168772981;4.248353729;-0.588370345;-131.7046825;1.735973012;-177.1741051;-22.53202317;-22.27178508;0.122102296;8.470208237;27.42346965;2.101878898;16.75130022;2.668911533
10.86049265;18.18470247;20.00725528;24.45943721;8.847927216;-0.234723412;5.64417994;2.007534995;-129.4530153;5.96506466;-176.6;-20.37879763;-20.8037264;-0.72389122;9.619447085;26.69045123;3.170728032;20.82341958;3.808227926
13.45096342;20.49966136;21.87040146;27.18509571;10.71400172;-0.323336718;-0.819285162;3.095839032;-129.6356702;7.941473654;-174.0107008;-19.34974907;-20.18508677;-1.167640447;10.74225075;24.60167397;3.859052285;22.57663756;4.27020668
14.51649178;21.89681572;21.76910563;26.22556192;10.30280909;-0.4172821;-10.1279824;1.613432751;-132.7061809;6.156194149;-170.9440561;-19.46141197;-20.38140505;-1.018625031;10.74319631;21.61143933;4.211912021;21.85625281;3.945401744
13.83007813;22.33229364;20.25868826;21.90310579;7.776031358;-0.42599539;-16.94709565;-1.738222904;-135.2209162;1.719054359;-167.5990996;-19.98399532;-20.44884783;-0.362003575;9.65306286;18.04766276;4.370819405;19.38494625;3.205642742
11.96013637;22.01185608;18.41176441;16.11242145;4.543512878;-0.293266662;-19.17;-5.041795552;-132.9366324;-2.43303445;-162.9354309;-20.15753989;-19.46212055;0.431308705;8.705230944;14.31838805;4.46070768;16.38617574;2.57370471
9.840166833;21.18650685;17.12796011;11.3083534;2.290211348;-0.079659458;-18.43831555;-6.443807731;-124.5302198;-3.624076404;-155.6575925;-19.78022585;-17.31994673;0.906050527;9.219295732;11.13847321;4.508979335;13.98627439;2.297609862
8.176426813;19.9673108;16.62576501;9.202886906;1.920163049;0.068399146;-17.72035783;-5.233730773;-112.7258103;-1.234046377;-145.3050063;-19.17003906;-14.73414357;0.857714553;11.27651307;9.392526495;4.505088025;12.75296546;2.225381751
7.112665354;18.3565789;16.48265917;9.952208039;3.15371806;0.046977126;-18.41308661;-2.07707822;-101.9545714;3.083196712;-132.6720112;-18.60612818;-12.46365826;0.572678853;13.44072557;9.588553032;4.553380168;12.60270893;2.072678638
6.324774097;16.48225561;16.151259;12.26635627;4.958325834;-0.092813549;-19.509085;1.568072523;-94.68357395;6.784031449;-119.3462195;-17.84276873;-10.53783118;0.755681035;13.88269763;11.34322364;4.939194549;13.05148344;1.790979625
5.390507259;14.79932103;15.50825393;14.29910225;6.369610529;-0.158102985;-19.24566405;4.322020625;-89.6233632;8.26569622;-106.7961882;-16.20819523;-8.220346147;2.12831772;11.98381947;13.47971964;5.973457913;13.58823355;1.646555014
4.129515306;14.00119067;14.98994488;14.74811459;7.056829559;0.044414397;-17.34400519;5.500389024;-83.29589222;7.783985338;-95.68442337;-13.23166891;-4.789632616;4.934143963;8.996155846;14.8695175;7.690873792;13.93477785;1.907396403
2.709212579;14.61261796;15.22465639;13.53924172;7.304260475;0.554417655;-15.53866356;5.271654901;-73.485479;6.931345974;-85.81734963;-9.222591813;-0.4468735;8.6866734;7.112057978;15.42248226;9.662655622;14.0875164;2.438385767
1.525105384;16.53633403;16.48491773;11.75645293;7.586619486;1.224213101;-15.87383528;4.461613987;-61.49279413;7.26618528;-76.64865912;-5.244634836;3.511124525;12.35218718;7.689454594;16.29678898;11.15104911;14.18941556;2.63703367
0.997269524;18.93574436;18.41390961;10.90821228;8.174297132;1.83477039;-18.47784991;4.173838385;-51.2209072;9.200199171;-67.91613702;-2.471721032;5.524172147;14.86776595;10.14870398;18.89866526;11.56978678;14.35464833;1.858111673
1.404145399;20.63042297;20.23950609;11.96346107;9.049422308;2.256835351;-21.10268851;5.303654244;-45.93055679;11.86365778;-60.00454204;-1.472779959;5.002260061;15.67074591;12.49615985;23.29386828;10.93084786;14.55229379;0.016533358
2.78226961;20.79361365;21.29172191;14.6981909;10.06208382;2.511127756;-21.07153067;8.016268702;-45.54847975;13.82710006;-53.88714252;-2.024257408;2.943270665;14.91899546;13.01517553;27.38417704;9.909761973;14.60041709;-2.158259638
4.87772296;19.4733928;21.41446809;17.73074046;11.06254489;2.675529481;-17.93149156;11.41010051;-46.92980381;13.99194107;-50.76649747;-3.548806745;1.338188371;13.2968477;11.6474432;27.85282854;9.422742899;14.26950162;-3.499020225
7.169874098;17.5434772;20.97588757;19.26017295;11.86422356;2.734123225;-14.26828705;13.69352861;-46.89475434;12.04638239;-51.64846709;-5.704790417;1.710272495;11.56352208;9.874745211;22.53763842;9.987945529;13.44738339;-3.174920602
9.018197467;16.09106842;20.51411806;18.12034347;12.15363903;2.526988213;-13.67096088;13.0117073;-45.41471415;8.387535262;-57.04293091;-8.552423176;3.853697213;10.13187109;9.250923489;12.55521075;11.33305859;12.27256414;-1.279787899
9.925005177;15.6747142;20.32500976;14.53773896;11.56658131;1.874764997;-17.43236776;8.583860659;-46.12065989;3.80876053;-66.88021778;-12.1881645;5.752994773;8.905116806;9.932217581;2.350907143;12.54722458;11.12811392;1.225300052
9.78730799;16.00190319;20.30302208;10.0998021;9.972481434;0.786978549;-22.89412712;1.415179802;-53.53575292;-0.76290265;-80.63;-16.30592055;4.826005137;7.424044346;10.54214358;-2.781029259;12.67781792;10.45013579;3.171476097
8.955312336;16.2736423;20.11624211;6.889418251;7.732329928;-0.434384306;-25.11703183;-6.045196504;-69.21579381;-4.46691791;-97.52404171;-20.2369642;-0.32977537;5.213134671;9.498013609;-0.198664512;11.35200439;10.43954033;3.934469312
8.017984839;15.93416135;19.53933556;6.277591153;5.623694636;-1.318588189;-20.74966398;-11.25741685;-89.97244485;-6.782298349;-116.7262353;-23.52061505;-8.880331458;2.138452581;6.602992662;8.082914828;9.003129463;10.88296968;3.724372077
7.443812028;15.23423009;18.68036463;8.133065502;4.378049847;-1.515639886;-10.98899198;-13.12791763;-109.7147907;-7.848603305;-137.3240156;-26.44408235;-18.10586834;-1.397211484;3.452627832;16.52115394;6.585266765;11.2658284;3.252782207
7.339483279;15.13298141;17.9517411;10.97935959;4.146431941;-1.041020932;-1.127775457;-12.64832481;-123.5265946;-8.550325675;-158.1475387;-29.89971694;-24.92121413;-4.528326806;2.244069611;19.70230358;5.014578684;11.16358864;3.110200054
7.509176783;16.55900284;17.82811687;13.01257658;4.34693957;-0.281768599;3.085918873;-12.12030547;-130.7980512;-10.08716647;-177.6123591;-34.50742189;-27.57511733;-6.271196172;3.983834539;15.9815618;4.7166115;10.65124167;3.369717607
7.745687521;19.56221591;18.55455444;13.29721709;4.083306684;0.253742802;-0.528233089;-13.47120796;-135.0066317;-13.13767981;-193.8461317;-39.72126887;-26.48017077;-6.009564715;7.621298803;8.478038215;5.515182279;10.38571754;3.682606152
8.074835642;23.0187079;19.9621249;12.31797413;2.852057045;0.264653718;-9.261162029;-16.86272444;-140.427701;-17.17573953;-205.1925154;-43.82359915;-23.74027259;-3.87921809;10.83423029;2.705612471;6.829990215;11.21037407;3.694292151
8.705998153;25.17870559;21.46698201;11.51058725;0.981935604;-0.169515827;-17.76424241;-20.59857365;-148.4558409;-20.55224836;-210.8581125;-45.02930575;-21.76763587;-0.801347245;11.78257296;2.602922301;7.981270709;13.49634426;3.369061686
9.708859788;24.72992258;22.24922407;12.11970009;-0.567792774;-0.682360658;-21.92556992;-22.37119931;-156.4240802;-21.44956988;-211.2473926;-42.90794863;-21.87805765;1.927759192;10.36624562;7.875354823;8.425890398;16.69032699;2.951947439
10.71279617;21.64115769;21.55522775;14.20912545;-0.91441777;-0.889997586;-21.32968504;-20.89595054;-159.7317427;-19.11089335;-207.6605361;-38.90298192;-23.66515788;3.309955533;8.021496895;14.50161769;7.881225162;19.4480268;2.656924679
10.95295815;17.17179927;19.0223204;16.52724034;0.085251692;-0.629324774;-18.66;-16.73536307;-155.4701161;-14.44297755;-201.4832596;-35.36620296;-25.41862367;3.186022025;6.376156193;17.83839571;6.375857174;20.32523727;2.413622792
9.713754288;13.01414315;14.88469884;17.30353096;1.731932368;-0.008528521;-16.97495236;-11.78809486;-144.6654756;-9.501455761;-193.4348982;-33.77337048;-25.24122936;2.277376049;6.000619887;15.87360248;4.239683986;18.57498691;1.923222401
6.864791119;10.16152869;9.929069525;15.39395068;3.001696483;0.726207262;-17.32797993;-7.945879682;-131.5018859;-6.20578666;-183.4615389;-33.57641583;-22.18007813;1.667065583;6.268668256;10.25329983;1.990684604;14.50223481;0.965976916
3.058528683;8.304060246;5.173384499;10.98451012;3.252606637;1.371791052;-18.54784655;-5.984567867;-120.3238374;-5.221080354;-171.3717541;-32.72312457;-16.75533614;2.051839422;6.260848841;4.575631162;0.104477682;9.153476663;-0.336725254
-0.606239167;6.181445933;1.412300728;5.427607389;2.568014327;1.856697873;-18.93013716;-5.443971972;-112.8512043;-5.794810493;-157.6706472;-29.50591631;-10.64946713;3.28491656;5.729485068;1.546711353;-1.228971729;3.617884901;-1.557782258
-3.233770891;2.633061618;-1.10976006;0.41281058;1.520956226;2.202197635;-18.01796253;-5.386861741;-107.6389168;-6.569854984;-143.8069194;-24.22205653;-5.785276902;4.540431098;5.20723313;1.276437656;-2.175217696;-1.512534094;-2.273263906
-4.618664378;-2.41921289;-2.690108451;-2.915705412;0.631461503;2.432408177;-16.86033609;-5.257706554;-101.8651348;-6.649913675;-131.4807477;-19.18908217;-3.331284462;4.977671471;5.248992017;1.837907411;-3.048425601;-6.15329809;-2.374265358
-5.223625576;-7.769683927;-3.835840044;-4.35543352;0.006829016;2.531685904;-16.7436117;-5.11624657;-93.72641088;-6.077153551;-121.4713301;-16.99059896;-3.18575009;4.401630988;5.646358122;1.29974765;-3.95017001;-10.30830732;-2.116131152
-5.70615651;-11.65603382;-4.854081462;-4.443483062;-0.562683069;2.479024384;-17.81063757;-5.181243702;-83.49694781;-5.454232626;-112.9568274;-18.34752892;-4.202140751;3.41033958;5.442943211;-0.629330808;-4.556733665;-13.68159063;-1.880249433
-6.39749836;-12.89465893;-5.666602428;-3.952109714;-1.213637898;2.306461351;-18.94288534;-5.260530357;-72.69432026;-5.179304299;-104.0192417;-21.41180943;-4.984086633;2.911007121;3.755286899;-2.642727745;-4.297365422;-15.72201599;-1.872991993
