Channel 1 - P4;Channel 2 - O2;Channel 3 - P8;Channel 4 - T8;Channel 5 - C4;Channel 6 - Cz;Channel 7 - Fz;Channel 8 - F4;Channel 9 - Fp2;Channel 10 - F8;Channel 11 - Fp1;Channel 12 - F7;Channel 13 - F3;Channel 14 - C3;Channel 15 - T7;Channel 16 - P7;Channel 17 - P3;Channel 18 - O1;Channel 19 - Pz
-69.17042785;-46.88221617;-25.06978779;7.777686683;-55.1434396;-4.790981081;-41.53315428;-53.61339405;-49.69889448;-8.678127897;-56.95344555;-70.6210228;-72.34028953;-17.85393338;-12.85377361;-58.51329652;-51.22387054;-39.13022893;-60.89379365
-59.27105004;-35.83;-22.58833195;3.706723928;-36.2874208;-3.745949926;-11.16144523;-29.20135955;-26.10872372;-1.715091088;-35.5042514;-65.53084464;-40.03572847;-8.828427639;-17.09350428;-49.84233811;-28.48297735;-34.67756983;-34.44243251
-37.19960964;-18.22164147;-14.77150053;-0.440250282;-13.7961881;-2.279763028;14.34114001;-5.790745096;0.772053702;5.149240409;-19.18073462;-60.09709403;-3.446772141;0.798627147;-26.51049609;-29.70138666;-0.718523208;-23.94273781;-3.597060386
-17.87833172;-5.914760392;-8.700766964;-3.960461722;-0.720825892;-1.460804004;21.56129101;2.962267669;16.07544148;7.688925362;-19.8103734;-60.64318759;17.49021751;4.623555114;-39.32102428;-11.15428249;16.51593873;-14.52784823;15.29532121
-10.83584957;-3.870087891;-8.073294436;-5.005109595;-1.415402255;-1.477126083;11.92155445;-4.125070628;15.09683862;5.763657675;-35.68873509;-66.40085498;16.66265399;1.088488724;-46.74371604;-1.568659488;16.81576363;-10.26338879;16.32359118
-14.96798378;-8.116592932;-11.21419339;-2.227983283;-9.884941494;-1.558700143;-1.492788274;-16.60892225;5.213904675;2.836098521;-53.12091416;-71.03460854;3.208138016;-5.961636666;-39.77321957;1.109239246;6.050104373;-9.407624466;6.42105939
-21.65215494;-10.68072958;-13.52399821;3.536614461;-15.96705301;-0.750195386;-5.495990102;-21.89778254;-1.191803441;2.680272088;-57.37914072;-68.8132513;-7.925829385;-10.75891701;-18.07735578;3.63106603;-3.642518885;-7.531854326;-1.694497223
-22.87487726;-6.881355726;-11.95948557;9.010547146;-13.89044886;1.129399659;3.008689195;-15.3689979;3.256440178;6.025441403;-44.23976751;-59.9819444;-7.92199067;-10.0946536;7.126530193;9.272121836;-3.68143074;-2.192512895;0.092303345
-17.57435965;0.984533397;-7.745558381;10.09587642;-6.341952551;3.17077582;16.08030257;-3.198755901;15.7933898;9.819736769;-22.8380091;-50.76198868;0.659455862;-5.303614621;19.86812347;13.92007813;5.056977906;4.680617301;9.748681577
-11.48107268;6.146953695;-5.21663355;4.459921237;-1.258609773;4.007706597;22.77839583;3.676480189;26.65931059;9.658714195;-7.829885064;-48.11686691;8.235390531;-0.536019591;11.35359969;10.08981614;14.32181988;8.534533015;18.12814087
-11.32040273;3.487513373;-7.963250621;-6.662959253;-4.563469378;2.915810575;18.64869818;-1.100788279;27.3038891;3.429432426;-7.673074436;-53.89670822;7.305035351;0.888405223;-12.43656029;-4.751071304;16.07307732;6.343567237;17.32722864
-18.65519499;-5.997424137;-15.60425308;-18.80418239;-15.06480038;0.48628973;8.652601292;-14.39400713;16.87701284;-6.697081898;-18.77899071;-63.40484615;-1.551419297;-1.04582536;-34.13169079;-23.33345074;9.048736063;-0.518270087;7.229591962
-28.4742185;-15.95929096;-23.84894276;-26.6916508;-25.5273474;-1.700239603;1.806656476;-26.60078319;2.264971533;-15.48448769;-29.94884938;-69.52571377;-11.09189929;-3.558543093;-37.41518696;-32.33788166;-0.77529405;-7.138246266;-4.818059384
-33.36562572;-19.79067736;-27.72706371;-27.29653228;-28.6369732;-2.186877603;3.016775363;-29.48142287;-7.609780287;-18.16250226;-32.61450373;-68.73848037;-14.0775607;-3.791882631;-19.20848275;-22.48769824;-5.599653578;-8.897910815;-10.33162322
-29.49986508;-15.71899698;-25.30576376;-21.52841993;-22.70807569;-0.70003418;9.504822686;-22.13205505;-8.24182138;-13.66356018;-27.69435718;-63.77931901;-9.127890573;-1.277105761;7.819236682;3.110946944;-2.205240657;-5.065196849;-6.425673253
-19.44224155;-7.845709305;-18.93824969;-13.45969405;-12.56646711;1.651710767;14.52475179;-10.64043924;-1.873894535;-5.241949014;-23.3301973;-60.71815028;-1.188134282;1.837312281;24.42411264;29.64948629;5.869646035;0.765999988;2.46546823
-9.741862535;-2.580663685;-13.19994018;-7.592586985;-5.277576866;3.185136502;14.29316104;-2.506770891;5.338628354;1.876758968;-26.15775519;-63.1345792;3.042576788;2.757664202;18.67014071;40.52262951;11.72561475;3.628474937;8.795570994
-5.611261871;-3.606852778;-11.32966373;-5.988742035;-4.554730611;2.840776183;11.36777125;-0.923286897;8.337231479;4.046125561;-34.52666902;-68.6207874;0.44497727;0.40290693;-5.872717445;29.10756745;10.83877515;1.03573638;8.119406158
-7.158823219;-9.408915875;-13.03264935;-7.159330588;-8.390290958;0.887744762;11.35425328;-3.381894616;6.295353759;1.448266771;-40.08110075;-70.79490768;-6.63032213;-3.780408468;-33.33954153;3.31453119;4.35966196;-5.314916251;2.167891893
-9.997869763;-15.01466543;-15.19579991;-7.405685808;-11.42134903;-1.341665077;16.28040126;-4.915979106;2.078824746;-2.380389994;-36.21045219;-65.15417761;-12.75138817;-7.025351837;-47.13413535;-20.57515755;-2.367951911;-11.12094442;-3.304950032
-9.285013437;-16.12662655;-14.64067685;-3.637625795;-9.58516182;-2.427085316;21.24448235;-2.507356694;-0.611597965;-3.197652461;-25.30558162;-53.65185535;-13.51293834;-7.299749823;-40.90872347;-29.8220825;-4.36070269;-12.79727618;-3.566040038
-3.597813075;-12.14931621;-10.54029315;4.278935119;-3.068122981;-1.796936529;18.00087345;3.09772117;0.292847299;1.073953857;-17.59878928;-43.85381953;-8.105429935;-4.541077378;-21.32776848;-23.55423276;-0.683198455;-9.808712921;1.550134501
4.400136754;-5.92178341;-4.680169408;13.22765388;4.559622842;0.01427027;2.657834481;9.010564755;4.706563226;9.135637268;-22.03183941;-43.12064656;0.942587869;-0.308192445;-1.812215384;-11.37262114;5.486389602;-4.387937498;8.224237461
10.59407002;-0.885591579;0.29840385;18.75873084;9.731451625;1.867991979;-19.44433951;13.02229268;11.28365074;17.32611437;-37.21746439;-52.55234622;9.743894417;3.552512914;6.987608394;-4.12889838;9.929985213;0.696697194;12.29232668
12.74271544;1.60200825;2.927000001;17.89541113;11.59602785;2.817946808;-36.49655618;14.87397061;18.26835997;21.92968377;-51.09244963;-65.7569798;14.92115392;5.999640352;2.906169871;-4.926210739;10.70189983;4.192102301;12.50885885
11.66629236;2.600706908;3.508647498;10.97856043;11.89099943;2.611622644;-38.85231193;15.31393738;23.65303227;21.19465958;-50.48196076;-73.57139167;14.56134523;6.91864653;-8.798250883;-7.698508773;9.039000707;6.581013342;10.79614342
9.653965338;3.664039173;3.068342518;1.426312989;12.57975592;1.634827486;-26.47241996;14.5953941;25.30860554;15.95125752;-32.83933431;-70.98293171;8.658374693;6.543256808;-20.74042467;-3.993018813;7.58708098;8.640316339;9.764804906
7.922601208;4.737746775;1.933103953;-6.29839504;13.75741205;0.492023344;-8.888122725;12.31013457;21.95400436;8.783835251;-9.896523076;-60.74564926;-0.536483261;4.984656247;-28.05045992;8.366376063;7.881611638;9.966506688;10.09882678
5.569309316;3.931859799;-0.594437748;-9.118143548;13.78252499;-0.375237657;2.364744874;8.627605614;14.64782681;2.548392227;0.595410814;-50.94686614;-8.735615618;2.347450034;-29.48014059;22.39619855;9.282816435;8.966343387;10.1732801
0.85238511;-0.634525586;-5.193371684;-6.692503432;11.30293084;-0.782465512;2.538638139;5.225507095;7.266489387;-0.844204166;-11.22811027;-48.67311433;-11.24738895;-0.83809486;-25.84720251;27.30530611;9.948963672;4.331209416;7.983527888
-6.582124501;-8.654973923;-11.22642509;-1.089445872;7.036486835;-0.676612799;-3.554437152;4.424531903;4.732637406;-0.909298387;-39.09940054;-54.88310228;-5.800997747;-3.517578468;-18.57957099;17.3964909;8.601607071;-3.409179037;3.34288491
-14.72055934;-17.17601841;-16.58718915;4.703198859;3.475737141;-0.034968878;-6.786640839;7.063928749;9.655022087;1.592868092;-64.8786873;-64.31578261;5.281037221;-4.649434347;-9.855079609;-3.118896409;5.400794082;-11.75752217;-1.770761654
-20.41370958;-22.3898035;-19.02670731;8.327736405;2.723634813;1.06584759;-2.103951219;11.30589867;19.87472863;5.181252563;-71.92022984;-70.03026371;15.74497647;-3.983961207;-3.281135607;-23.39554445;1.367923172;-17.78878821;-4.974070886
-21.7404189;-22.25464374;-17.87348598;8.825293256;4.481601967;2.306544705;7.321149614;13.94481665;29.27422919;8.271892554;-56.81310083;-68.6130602;19.23475661;-2.35999051;-3.097452355;-34.37327143;-2.772665159;-20.14079881;-5.626357243
-19.4296607;-17.82757118;-14.60992591;6.518000503;6.120901102;3.132764911;13.60850043;13.32856106;31.82537945;9.776114634;-30.48409992;-62.01472573;13.85059328;-1.169291095;-11.50490666;-35.15293601;-7.072785528;-19.84759913;-5.368148631
-16.15834305;-12.3089854;-11.72486981;2.478243022;4.881782533;3.022952496;11.92558095;11.11351185;26.06903983;9.556842472;-8.711979582;-55.12581986;3.838168635;-1.374127807;-26.16638846;-32.15631356;-11.77977551;-19.38389453;-6.609607636
-14.42969703;-8.696260758;-10.7835973;-1.915000124;0.304724173;1.869187167;5.310876129;10.8617826;16.48501211;8.516149898;-0.578304215;-51.67666249;-3.308360825;-2.871154735;-40.53295639;-32.27288525;-16.47369234;-20.74623055;-10.40455306
-14.90163772;-7.985225792;-11.37511075;-5.227527225;-5.238267175;0.167438828;2.060814034;14.48246167;10.40082396;8.116840664;-4.14502178;-51.95996315;-2.363493396;-4.698023488;-47.5421293;-36.33301196;-19.97281162;-24.09973802;-15.62404911
-16.49169429;-9.22650649;-11.84642477;-6.266670517;-8.384317871;-1.186091613;7.86928197;19.909585;12.58418203;9.440940814;-11.54750353;-53.78208501;5.836977037;-5.855892298;-44.22979951;-38.73375593;-21.22892418;-27.94765517;-20.07211001
-17.91908567;-11.08270047;-11.15502431;-4.592335561;-7.410104454;-1.407222876;19.73198768;22.65565177;21.61611432;12.30171984;-17.42045047;-55.0951296;15.47651369;-6.029234658;-33.70339661;-33.43832319;-20.37534629;-30.50715669;-22.41461868
-19.10314903;-13.31522942;-10.15290308;-1.010902691;-3.433875213;-0.314337934;27.31292377;20.30251063;30.86819994;15.08752444;-22.49837421;-55.60159705;20.84171827;-5.645065296;-22.87965047;-20.83206382;-18.86474674;-31.09074979;-23.14886261
-21.10257218;-16.85501089;-11.07309438;2.472464302;0.73640318;1.536571237;21.09623304;15.79106957;33.36528586;15.66803664;-29.78298155;-56.0546268;21.05631973;-5.337868367;-17.75671819;-9.05793163;-18.46048386;-30.4531281;-23.8357583
-24.72680142;-22.48366418;-15.55076809;3.567240213;3.00683243;3.166076741;0.695908678;15.80189875;26.84319737;12.96685256;-38.25679276;-56.4023882;20.28718986;-5.379909151;-19.84043355;-8.206721735;-19.9178404;-29.99946059;-25.44417654
-29.20987176;-29.4165138;-22.83232075;1.154883456;3.570801796;3.730198895;-23.69409911;24.71103654;15.27172894;8.194306815;-41.4612683;-54.98646571;23.1352149;-5.568775912;-26.13578719;-21.97896135;-22.48113275;-30.6101132;-27.39578062
-32.27230126;-35.15091062;-29.75593268;-3.629327982;4.419939239;2.97802948;-38.17776017;39.06326291;5.949081784;4.75457403;-33.17166476;-49.79122297;29.27663847;-5.556347577;-32.05350551;-43.78890773;-24.56718958;-31.96852485;-28.13105
-31.61668733;-36.82470898;-32.66373818;-7.604378041;7.396495839;1.356250644;-35.01713823;48.01156301;4.617566268;6.601535223;-14.83885495;-40.54834907;32.38322202;-5.181296419;-34.43863312;-60.73985755;-24.94154782;-32.73691997;-26.54603033
-26.6065674;-33.03810211;-29.82328676;-7.210233329;12.56329059;-0.258231697;-17.75131198;40.67362747;12.25078059;15.87322439;3.130160017;-29.51086189;24.86482976;-4.436636673;-32.46052842;-62.48884474;-23.32988801;-31.28977034;-22.88599853
-18.7308703;-24.73067691;-22.51835421;-0.766419898;18.21712615;-1.015851122;2.194334436;15.2911958;25.46243472;31.25334715;8.925703122;-19.90369413;4.861375344;-3.162419584;-26.50826675;-48.1313447;-20.05635864;-26.49496068;-18.30570429
-10.54253479;-14.51989802;-14.04512457;10.12228595;22.32436985;-0.501220689;14.30848912;-17.3031251;39.51858802;48.19466292;-0.135617807;-13.30213179;-20.44070906;-0.906197675;-17.04561044;-26.01981599;-15.29432139;-18.23755273;-13.65702056
-4.055332421;-5.136005403;-7.495238527;21.08502354;23.96209367;1.081826594;16.04927207;-39.59338544;51.20051281;61.02466244;-13.74385949;-8.330441797;-38.47341386;2.747731077;-4.89713667;-7.203102517;-8.864911951;-7.63940981;-8.812416781
0.073541153;1.817349682;-4.057264675;27.33254662;23.53035514;3.001487325;12.93417411;-39.0240356;59.49667226;65.75111867;-15.99784413;-1.973642108;-39.63458298;7.599208784;7.64987802;1.980325424;-0.878670442;3.047684988;-3.254081913
2.099563973;6.012056292;-2.978272102;26.51111314;21.77622078;4.320556148;12.44683953;-16.83434506;64.34844905;61.90858823;1.203491706;7.580886521;-24.03910222;12.59667545;16.90132883;2.588494119;7.476000692;11.00607848;2.67693206
2.204958254;7.703770238;-2.883017417;20.28728527;18.78458652;4.331806473;17.43024106;12.71825708;65.31179421;52.37895224;30.05235034;19.11885868;-1.418489317;16.34253485;19.97;-0.103202165;14.02288074;13.91815403;7.255406824
0.105072835;7.085982683;-3.111228417;13.56251116;14.01945251;2.930806918;24.45291461;32.29279104;61.66642801;41.39510401;51.60927321;29.29666906;15.79400578;18.07957825;17.66388425;-1.962565866;16.85529732;11.18242223;8.370402878
-4.332004455;4.32788832;-3.936001133;11.64051017;7.371852393;0.734528021;27.90343443;33.08773087;53.73499739;32.04592381;50.38;35.52762479;20.87152437;18.3645795;15.12861789;-2.698435318;15.87917351;4.53947862;5.387890634
-10.14938465;0.120724076;-5.685916777;16.96717222;0.100305989;-1.169855475;25.59948213;19.55599744;43.76778879;24.8175814;26.97023254;38.28177792;16.36785107;18.7599141;18.73254149;-4.169630491;13.26717719;-2.526717615;0.236985398
-15.17129844;-4.017196707;-7.818739137;27.4103125;-5.433618838;-1.779931314;20.73500259;4.230461165;35.06469805;17.92999802;-1.813749699;40.67447058;10.53568059;20.63140765;31.03485132;-6.825099549;12.18993294;-6.515389117;-3.448527671
-17.10091154;-6.226279425;-8.977790899;37.19785263;-7.234965289;-0.76491379;18.60245858;-2.607283779;29.73499589;9.029635179;-15.82247205;45.60728854;9.930954325;23.92080996;47.96;-8.26518817;14.60742719;-5.785482007;-2.702983774
-15.07788968;-5.358899599;-8.068526122;40.07298282;-5.189733647;1.270354412;21.3195063;-0.101755985;26.98574346;-3.000149977;-6.994466113;52.94389896;14.27821628;26.8830735;61.09220679;-5.466753641;19.78083443;-1.326241527;2.665719851
-10.36759324;-1.76074708;-5.364769689;32.88187636;-1.314210146;3.057671428;25.50943323;4.266824193;23.62766354;-17.2636088;15.14777758;59.26529823;17.43369095;27.09028697;63.90057261;1.634142293;24.69827554;4.150656519;9.915644632
-5.489373556;2.934176731;-2.54457639;17.49947686;1.555407641;3.371067231;25.13504165;2.151292441;16.67226552;-31.44527606;32.05695651;60.56341628;13.14417126;23.0371867;57.09820106;9.027943785;26.13693475;8.160147093;15.31369059
-2.400803939;6.927181557;-1.476215253;-0.066774037;1.640818733;1.767425576;17.01834262;-8.56724557;6.023690769;-43.18527747;31.1899881;55.69055969;0.562366548;15.21418592;48.53818608;11.53444353;22.81748668;10.00573845;16.6739628
-1.186376681;9.459233833;-2.707526103;-12.91;-0.76785307;-1.097360588;4.143472445;-22.74841781;-4.993904029;-51.25874166;14.9058308;47.68968125;-14.9445551;5.912880882;47.26806088;7.334874558;16.08406835;10.82983289;14.56416185
-0.304003877;11.16256643;-4.944737901;-16.92903359;-3.853379435;-3.796098789;-6.261084183;-33.09952623;-11.88152236;-55.89638607;-3.571936672;41.87401206;-26.03260069;-2.041025658;56.24889812;-0.099581134;8.747890405;12.22500195;11.39686529
1.853528402;13.29161775;-6.027910692;-12.86750951;-5.797427767;-4.923671722;-8.342241794;-36.38846523;-12.35422854;-58.2738656;-12.60463209;42.18718818;-28.9189593;-6.714672604;69.6284117;-4.794243434;3.134509921;14.61200202;9.3256626
5.408905673;16.44376247;-4.67501798;-5.561413565;-6.042561234;-3.884762503;-2.227571683;-35.3805717;-8.259775142;-59.71924553;-11.58077429;48.69353826;-25.7235431;-7.75939809;76.96318217;-3.593088867;-0.161954236;16.73096511;8.7022155
8.742375956;19.76673615;-1.619841821;-0.951696216;-5.430556421;-1.210938658;6.235961507;-35.39042548;-4.490586578;-61.20848515;-9.321854425;57.98225013;-22.04289447;-6.119856075;71.1698385;0.713639057;-2.071730563;16.63017164;8.201549242
9.699396783;21.26518654;0.756893329;-2.722583542;-5.362670845;1.761677967;10.32900342;-39.143207;-5.630793839;-63.32792832;-13.77137671;65.84326592;-22.12393657;-3.209642925;53.90984516;1.52011166;-3.872887611;13.2853395;6.255117236
7.24313282;19.00472487;0.023573881;-10.5395175;-6.82824511;3.638148514;7.778149562;-44.7375306;-12.76620544;-66.46076137;-23.17369382;69.89785438;-25.69475289;-0.209946624;34.19270497;-5.739020318;-6.16834878;7.491264689;2.439872102
2.247318059;12.40582066;-4.667099511;-20.74564493;-10.01320277;3.690097656;2.139416173;-48.22451082;-22.71540552;-70.83872677;-27.31566127;70.2680074;-28.79181074;2.182562423;21.51188302;-19.03781548;-8.746839359;1.328838457;-2.27302717
-3.080736635;2.827604473;-12.03061663;-28.80357126;-14.51175515;2.169366261;-0.734322642;-47.92881101;-30.13343193;-76.33110026;-17.84024621;68.29518141;-27.4976892;3.69720214;19.18741963;-30.71427106;-11.13047748;-3.27066399;-6.376868128
-6.542581153;-6.841364976;-19.42544922;-31.79332088;-19.65812601;0.086162057;2.048892927;-46.19272104;-30.92509168;-82.17317582;2.089620633;64.95131036;-21.28733322;4.421451245;23.16621236;-33.48768261;-13.05149449;-5.623245044;-8.846928658
-6.979671457;-13.28927372;-24.25093931;-29.49886799;-24.61356012;-1.373569936;8.00841462;-46.88967771;-24.64244002;-86.96683245;18.35444825;60.52045496;-13.33095326;4.814431408;26.78429259;-26.57862966;-14.36665407;-6.19315529;-9.44332379
-4.398678688;-14.02614192;-25.01658294;-23.76817847;-28.34175582;-1.456596804;11.76782944;-51.18638822;-14.43700931;-89.11080127;17.16552226;55.59720869;-7.803671275;5.618133802;27.02584462;-16.5873022;-14.64679177;-5.551827742;-8.286737318
0.523425597;-8.303976042;-21.62267738;-17.00749937;-29.86013089;-0.176700123;10.21568053;-55.73860523;-4.877334987;-87.49022613;-2.392430747;52.00060157;-6.633540908;7.48860584;26.82058833;-12.06165076;-13.09158648;-3.490286893;-5.428064909
6.842325178;2.528536068;-15.06652476;-11.02343754;-28.84157239;1.753490667;5.784874967;-55.23739916;0.758479573;-82.03752527;-25.85398389;52.23190902;-8.32064972;10.47545162;31.61790337;-16.09923166;-9.09331152;0.799514094;-1.02357631
13.30775476;15.32784213;-7.036411949;-6.812561556;-26.09010016;3.321642661;4.802436546;-47.13323162;2.028304328;-73.82954319;-33.94561414;57.57052912;-9.558357893;13.76195976;43.54947937;-23.24057289;-3.039536698;7.593926687;4.066768878
18.22511494;26.1146617;0.422712496;-4.947589998;-23.27377534;3.735171973;12.00347459;-34.25537569;1.001628556;-64.65858373;-17.97619365;66.40635361;-8.109862257;16.00123158;58.53064159;-23.55759521;3.445962856;15.63362016;8.069072842
19.80933563;31.51185207;5.356483465;-5.768640939;-21.85064965;2.81284094;25.64701688;-22.85792281;0.580733381;-56.31019728;12.71980592;74.50397418;-4.556987491;16.14163921;68.96412961;-10.90025479;8.237094405;22.32407736;9.052041124
17.12742847;30.17931126;6.622651742;-8.998251105;-21.92878268;1.066045458;37.44541986;-17.70176493;2.664723553;-49.91515164;37.68386304;77.41156998;-1.628327158;14.19088197;69.73327854;11.32813798;9.971947722;25.22127558;6.288903333
10.962068;23.54463391;4.617388155;-13.21370447;-22.06543954;-0.569290817;37.84588622;-18.42220239;7.217408078;-45.66504803;41.07541918;73.41708566;-1.787929944;11.32998052;62.27753349;31.69756908;8.867980154;23.72992493;1.10345583
3.705530826;15.28614072;1.379824122;-16.00446022;-20.35567641;-1.220588849;22.97078598;-20.27163651;12.60378909;-42.97152031;23.45081257;64.87271214;-5.050160007;9.23192415;53.22383878;38.63568764;6.400858805;19.63879978;-3.706924215
-1.944083675;9.629975885;-0.340337254;-15.16486207;-16.0605203;-0.538297696;-1.937907602;-18.4536106;16.79698283;-40.93699661;0.242590664;56.86051809;-8.712039224;9.024212212;48.78759402;28.67501087;4.078298457;15.96690162;-5.66367898
-4.671109824;9.258956744;1.286301174;-10.28488078;-10.44817994;1.118263495;-25.26456295;-12.17420251;18.63369955;-38.88389122;-11.24472946;54.11155288;-9.212648062;10.59444119;49.808944;8.816746546;2.289068421;14.92216372;-4.322342777
-5.325356495;13.97675877;5.871455949;-3.498264109;-6.060921602;2.875250782;-36.14841878;-4.947549689;18.37261308;-36.68895297;-5.220481979;58.27602232;-4.780344955;12.67928809;51.69778388;-8.577257652;0.140617552;16.4933218;-1.544071292
-6.116876945;20.90854172;10.84335826;1.432148401;-4.900774988;3.815376987;-31.04249703;-1.130657925;17.29435079;-34.77505619;9.620773708;67.23409998;3.034878401;13.62713162;49.26722489;-14.23796395;-3.622637219;18.71235995;-0.037943865
-8.799985146;26.1252739;12.94517046;1.293530581;-6.971489988;3.464073991;-15.26416229;-1.974247588;16.69254827;-33.78218407;19.08741872;76.60790685;10.10774748;12.3149837;42.1647797;-7.440557606;-9.399755173;19.32975148;-1.265977342
-13.28346614;26.73582558;10.25471231;-4.583176447;-10.37192787;2.022955596;1.21973093;-4.726038429;16.98310097;-34.10606707;15.98444388;82.24118033;12.39537784;8.697685562;36.03320018;5.088083225;-16.19232872;17.57759795;-4.331619372
-17.79244169;22.26226291;3.357921224;-13.93924675;-12.86275113;0.234822033;10.48554942;-5.412631712;17.54929043;-35.57331829;5.378559915;82.09871667;8.786554449;3.784468069;38.13539788;15.08625886;-22.12987978;14.68797605;-6.7011109
-20.43999564;14.62557039;-5.094412571;-23.08250886;-13.59380909;-1.022674723;11.07146927;-2.587090343;17.38701616;-37.45545826;-1.173160986;76.76233928;2.133578274;-0.827310464;50.90184535;18.40717357;-25.60675678;12.8474053;-6.164745319
-20.8944046;6.931316707;-12.05208356;-29.14019066;-13.55382166;-1.177520328;7.392347557;1.426041588;15.99575191;-38.82850558;3.444547838;68.68472121;-2.471140378;-3.59860053;68.74062879;16.3033168;-26.17870025;13.46599854;-2.505912786
-20.74658329;1.869278453;-15.73830649;-31.44990319;-14.41173237;-0.210580074;5.239701272;2.849611266;13.76183939;-39.07030961;15.67488275;60.8844492;-1.227644934;-3.655583889;80.94927874;12.33761338;-24.66692373;16.09199532;2.357577924
-22.26967523;0.582368429;-16.25269959;-31.2505087;-16.80956274;1.385057265;7.163036029;0.117129016;11.50530858;-38.19655254;24.84990881;55.71111863;5.45999047;-1.191444796;78.77252406;8.432585543;-22.56348685;18.72338002;5.760174453
-26.60070297;2.423820944;-14.93918072;-30.22127953;-19.63148137;2.870448056;11.20746055;-4.502134271;9.604388652;-36.8371855;22.78931674;54.04411709;13.02272315;2.510852022;61.44422374;3.682321252;-21.2528006;19.18784936;6.063476072
-32.83426153;5.499872048;-13.24976705;-29.23482729;-20.90550021;3.601466409;13.57082846;-6.770039063;7.544907426;-35.88154234;10.71201845;55.12786708;16.11206422;5.571125445;36.89193163;-3.449060029;-21.49212351;16.53918574;3.517792587
-38.72824147;7.613757144;-12.013484;-28.28197203;-19.55;3.29598713;12.59791685;-4.117995191;4.430524062;-36.0141771;-2.293327336;57.13837855;13.10672081;6.436134833;16.81254285;-12.13061407;-23.24238142;11.54195225;-0.248090562
-42.37565801;7.221929635;-11.44857376;-27.32640384;-16.42142783;2.138666857;10.58012214;2.188705141;0.121191664;-37.3966633;-7.227245189;58.30481001;8.18474473;4.808530446;9.779017683;-18.55028284;-25.71486902;6.075823646;-3.495608043
-43.4440631;4.108118746;-11.54357384;-26.97823768;-13.71563907;0.699041364;11.74632173;8.185805981;-4.028706422;-39.6245363;-2.166635583;58.00878334;8.735697255;1.974145229;16.98854454;-18.50637642;-27.56642514;2.030170709;-5.357585149
-43.03618524;-0.461753428;-12.23403157;-28.13810642;-13.20700137;-0.308988698;18.0556349;10.5066826;-5.704229728;-41.92161261;7.542501623;57.12868257;19.33003906;0.171322896;32.86962194;-10.99525491;-27.32986592;0.449837548;-5.933583401
-42.44643084;-4.264901956;-13.22305568;-30.89570341;-14.82576449;-0.347922961;26.37046039;8.907570798;-3.300463724;-43.44916474;15.10487376;57.31209078;36.5797947;1.265489071;49.23422649;0.39058826;-24.10384435;1.319043765;-5.722151061
-41.99979999;-5.249182021;-13.83246865;-33.86932764;-16.79245736;0.669622766;29.69917394;5.98022147;2.481824742;-43.62572101;18.04903077;59.66328079;49.35795112;5.548890149;59.70973503;9.577074062;-18.22088035;3.847707444;-5.070726393
-40.99227876;-2.791176087;-13.32913728;-34.91852337;-17.19014463;2.296537504;22.06;4.612046667;8.514713379;-42.39356828;18.68668953;63.8590385;45.33659071;11.49709958;61.8813155;11.99097311;-11.38663007;6.885444915;-4.104573473
-38.699033;1.666104866;-11.65222692;-32.88900068;-15.62113821;3.73707166;3.516887799;5.624891208;10.99422918;-40.35297262;19.69455081;68.40264832;19.90986422;16.68487707;56.79960895;7.292985659;-5.981665335;9.227931003;-3.017623285
-35.43817513;5.173771977;-9.888656244;-28.90490115;-13.5255882;4.246557358;-18.55918365;7.56484375;7.976556936;-38.64142553;20.13513938;71.76052387;-18.94103685;19.23313955;47.24530977;-1.066561625;-3.804676013;9.848422434;-2.256795663
-32.6380617;4.927431286;-9.846131347;-25.85274194;-12.88722117;3.545924757;-33.40761424;8.465234349;0.843439901;-38.47613621;16.53466305;73.34555599;-54.05566488;18.77904415;36.26191631;-8.728592479;-5.050158897;8.179923144;-2.30432529
-31.77051548;0.090496528;-12.78003906;-26.15951446;-14.42710215;2.007307435;-33.5910715;7.688260428;-6.496774253;-40.47022081;8.109783317;73.48409557;-69.21536411;16.35259369;26.4401406;-13.20702701;-8.257228838;4.422032926;-3.232271331
-33.05483753;-7.435019791;-18.16958455;-29.56148886;-16.821769;0.476170643;-19.88816486;6.195403332;-10.19775694;-44.0787045;0.404396417;72.52910608;-59.28147856;13.39652654;19.55435645;-14.52955898;-11.29471595;-0.349888698;-4.482918899
-35.08307061;-13.96498905;-23.61829867;-32.8331942;-17.62608237;-0.19149766;-0.834116427;5.343898003;-8.991747933;-47.60399954;2.459303356;70.18459479;-33.22052705;10.78251182;16.1874942;-13.80972585;-12.67274984;-4.491494109;-5.14957366
-35.75328434;-16.25038867;-26.19437214;-31.98896189;-15.1733741;0.384440952;12.90693464;5.698821502;-4.792729199;-48.93352202;18.77590674;65.92841648;-7.798261936;8.559300034;15.57957153;-11.55811313;-12.24249486;-6.479335139;-4.578631072
-33.79464988;-13.54261777;-24.37244432;-25.39180937;-9.94098728;1.886022727;15.46912837;7.042399809;-0.999624616;-46.69267747;43.07766185;60.21896801;3.552717837;6.454945763;16.17860716;-7.42676388;-10.87034172;-5.648875132;-2.819633227
-29.67612389;-8.083161257;-19.14994462;-15.27374492;-4.323578364;3.472316237;9.193458006;9.236044846;0.130045776;-41.11822499;60.47817879;55.10412764;-1.239605888;4.496034737;16.83683424;-1.425337174;-9.506254317;-2.549515016;-0.57925511
-25.21252426;-3.615744771;-13.439592;-6.298189619;-1.025070541;4.248619606;2.214627351;12.58853129;-1.001733914;-34.02958382;57.81579423;53.13248701;-13.36997503;3.085656474;17.80654156;4.883775269;-8.491946518;1.311730237;1.250012207
-22.24503282;-2.891672464;-10.12435084;-2.166969014;-1.307700528;3.758939026;2.087640745;17.05072027;-2.016938814;-27.83123656;34.38372902;55.09643686;-21.05579768;2.489749971;20.56515151;8.688703546;-7.624305942;4.206403771;2.098952885
-21.46831551;-5.870710058;-10.18794639;-2.947159737;-4.3397985;2.231000349;10.10119534;21.18814736;-0.75891117;-24.15594029;3.954113496;58.66648316;-18.37653148;2.324786914;26.36447988;7.737936949;-6.737195331;5.000380626;1.921904459
-22.25317105;-9.85315593;-12.27026465;-5.305419713;-7.960873284;0.455199512;20.32816429;22.59152823;2.860604212;-23.04388689;-14.40739598;59.73010017;-8.44019671;1.68692661;34.57995025;2.172378831;-6.099809002;3.631051858;1.052320268
-23.42940806;-11.42949634;-13.89038808;-5.494858751;-10.14706454;-0.621546528;23.97410107;20.09679025;6.868594807;-23.1929277;-9.996135962;56.00280138;0.761017695;-0.060149403;42.33505644;-5.232693125;-6.178583515;1.036525731;-0.05895446
-24.24315095;-8.871715406;-13.32335906;-2.638783142;-10.10846099;-0.372713365;15.78879071;15.95298267;9.022285957;-23.04890141;12.13132192;50.00271227;3.577513393;-2.537824225;46.00502172;-10.7064693;-7.015025792;-1.387097207;-1.002635567
-24.69930374;-3.317599953;-10.7041725;0.463808801;-8.426898812;1.188481686;-2.0562182;15.26541793;8.829322;-21.90887469;35.83196294;48.19643724;0.783865132;-4.443664345;43.68968263;-11.74747071;-7.930927985;-2.512101542;-1.454321011
-25.1598687;2.01519004;-7.642550766;-0.21369094;-6.423533518;3.389269546;-21.262667;21.99673088;8.052979044;-20.24596195;46.62928081;55.87493691;-2.462230962;-4.588191173;36.83763887;-8.346765005;-8.004750513;-2.034350812;-1.235157593
-25.73987162;3.974733093;-5.827993245;-6.166572901;-5.37213164;5.186898961;-32.77797131;34.21502063;9.213445959;-19.09992536;42.08469602;71.22690438;-2.286562742;-3.07621523;29.7004573;-2.484538492;-6.987020258;-0.584696466;-0.444641347
-26.1259894;1.49222953;-5.803148959;-14.42102547;-6.020945717;5.649589946;-32.38740506;42.99620998;13.27205279;-19.1008602;31.67027696;83.77826693;0.060296772;-1.546834814;26.85284153;3.388846768;-5.780633114;0.674224136;0.474435099
-25.9278635;-3.827974825;-6.783839664;-19.18220195;-8.461903036;4.422624342;-22.7741988;37.2692695;18.42696801;-19.92738607;27.07566647;79.8339655;-0.328332555;-2.070948232;30.42731954;7.603528568;-5.880522061;0.774800096;0.931780351
-25.1054533;-8.811946462;-7.46333574;-15.97615344;-12.15063264;1.95612034;-10.99698493;12.07752216;21.14610755;-20.58092938;31.81702609;52.17676692;-6.723242462;-5.448229132;38.90723556;9.567678372;-8.084254727;-0.406296309;0.628319443
-23.96;-10.68373777;-6.99984382;-5.149712901;-15.99035873;-0.648469693;-3.533109947;-25.87674975;18.82163472;-20.16335922;39.08931675;7.170078125;-16.64949926;-10.27166091;48.2007759;9.433227549;-11.54394359;-1.994223289;-0.080661146
-22.67295597;-8.635572284;-5.4221261;7.986876133;-18.60210339;-2.143909203;-2.452573044;-60.46810923;12.09;-18.47074412;39.17665183;-36.74812346;-22.94948535;-13.63648412;54.16830708;7.833595493;-14.09003906;-2.624246957;-0.284108662
-20.91468092;-4.145791216;-3.339700358;16.54538945;-18.88110513;-1.768878404;-5.103225892;-75.68222095;4.964301552;-15.95788972;29.24547609;-59.38796134;-19.40644393;-13.09334958;54.91177253;5.895900745;-13.74509071;-1.35883444;0.851099566
-18.0585108;-0.028548109;-1.438973453;16.5048649;-16.64397839;0.327103567;-6.998368291;-66.08735352;2.434797446;-13.23447132;16.44749505;-51.46951399;-6.20444411;-8.411997026;51.46134538;5.059378124;-10.29;1.565494822;3.316546389
-13.95570956;1.125097607;-0.257609445;9.060689326;-12.91007813;3.12406703;-5.444147461;-40.54899742;7.036649522;-10.65668179;11.4931406;-20.80566574;9.508699785;-1.805157679;46.63602944;6.272500459;-5.583961065;4.709049654;5.994721434
-9.584750885;-1.717375083;-0.248023956;-0.58318926;-9.473164043;5.250423344;-1.267059812;-16.18196068;16.73208683;-8.41123453;18.56638061;12.6342946;18.59523391;3.570655673;42.97419554;8.957141151;-2.279922763;6.232902596;7.222124609
-6.825893632;-7.486550689;-1.739621372;-6.80478587;-7.907327652;5.709719057;2.311130879;-6.812568587;25.68598956;-6.922503458;30.84563919;29.56007813;16.44239776;5.703421869;41.07344379;10.82658141;-1.876719933;5.078321013;5.889721193
-7.283715148;-13.41506669;-4.545865689;-6.848479449;-8.631149693;4.404320962;2.460714439;-14.36224144;27.62054176;-7.007723273;35.94593205;23.19182742;5.824216273;4.861686642;39.32586029;9.273677119;-3.618432278;1.757140735;2.317745424
-10.95584385;-16.19890663;-7.507594183;-1.727803122;-10.6868755;2.152553521;-1.036028515;-29.21384791;19.68890125;-9.389829902;26.69966892;2.024459868;-5.905342549;3.043903828;35.19740196;3.663854963;-5.094752983;-1.80211056;-1.76357959
-15.84698448;-13.48579883;-8.615320104;5.32440562;-12.40058188;0.195560788;-5.698374705;-38.64313726;4.388107976;-13.83265531;7.764265472;-17.79920722;-12.58966626;2.332887727;27.32485146;-3.321597857;-4.045810423;-3.299242402;-4.174914552
-19.01278306;-5.099746304;-6.034000739;11.24469226;-12.44870804;-0.506108701;-8.258416255;-36.38259888;-11.75790434;-18.68861063;-7.979131728;-24.35074528;-13.13652216;3.503742948;17.17160339;-6.842150142;0.051116706;-1.358113484;-3.559593844
-18.4219154;6.604262685;0.469403342;14.59565772;-10.58428555;0.227413712;-7.008338439;-26.06327591;-21.94723874;-21.49268242;-10.36081808;-17.27154897;-10.67063292;5.856299332;9.06232709;-3.224637193;5.787205545;3.720484939;-0.121765356
-14.32658875;17.5895715;8.792623554;15.49942409;-7.582416667;1.769452602;-2.849255911;-16.65037024;-22.91124239;-20.42469277;-0.763984326;-5.908725919;-8.468528936;8.139682525;8.196679455;6.884738259;11.02034308;10.16610811;4.612504918
-9.127195196;23.94893322;15.28078019;14.7504275;-4.575544079;3.110300335;1.610204938;-14.43700401;-16.38982684;-15.64148784;8.955098888;-0.733832597;-6.812464241;9.589935796;17.4750793;18.20550747;14.38;15.70586273;8.768049606
-5.807160092;23.81710619;16.77217181;13.14460975;-2.355781323;3.450631339;4.093705056;-18.41507616;-7.428703121;-9.396245931;6.823934057;-5.251355446;-3.63179817;10.19793252;34.99239294;24.06425992;15.88576453;18.66972688;11.13645748
-6.053580744;18.30700464;12.59938494;11.40296193;-1.123294906;2.620877834;4.248715349;-22.36162114;-0.772524496;-4.692123785;-8.331404333;-14.40208818;2.041529059;10.17965806;54.068999;21.08988686;16.37150541;18.6383338;11.62784999
-9.363544965;10.85003906;5.108331372;10.27489721;-0.704760231;1.120947882;3.631555201;-21.06216458;2.128551577;-3.357755452;-24.83779148;-19.79887948;7.566870956;9.392426022;66.36204496;11.8702317;16.45304283;16.41324958;11.02465544
-13.65114655;5.265334871;-1.747874589;10.30436055;-0.886661196;-0.195568622;4.195939817;-14.86724639;3.479755216;-4.951610094;-27.08389541;-16.82104422;8.045103473;7.416380002;66.54936112;3.409871197;16.05897628;13.49191664;10.3571207
-16.7650109;3.701914656;-4.796083847;11.32978694;-1.518858835;-0.590479881;6.549112788;-8.772319546;6.762167943;-7.320393304;-8.293823197;-7.769788828;0.712944501;4.260997393;55.68146804;2.363830233;14.88;11.39470807;10.34095783
-17.76145089;5.690380263;-3.374004782;12.32988849;-2.373355405;0.183696566;9.417262979;-7.339471277;13.48319028;-8.365814718;23.23313274;0.860358131;-11.57213994;0.919314703;40.76389697;10.49104674;13.14696404;11.10660818;11.11768221
-17.1292079;8.797204635;0.688773167;12.05300448;-3.034814718;1.77088075;10.81019232;-10.38104375;21.54149576;-7.623443348;49.53265786;3.991602743;-21.3;-0.980058594;30.4634777;23.58282455;11.82297644;12.74374479;12.27609094
-16.05346968;10.31358936;4.60863037;10.08820083;-3.064181349;3.393628394;9.984525983;-13.33222048;26.47355015;-6.414192221;55.77257351;1.530930587;-21.52064657;-0.355289578;29.56224189;34.43956714;11.88545251;15.4964931;13.03541992
-15.47934528;8.800950127;6.436456357;7.444812938;-2.362332719;4.235027465;8.541847096;-11.7762488;24.68258776;-6.490572623;40.4634944;-2.685036366;-11.25867821;2.253098699;35.90162648;37.48379054;13.31455997;17.91679518;12.53423763
-15.6944509;4.578342251;5.861488406;5.981629329;-1.391660076;3.844449922;9.526627061;-5.793992749;16.24915551;-8.33076535;15.54910781;-4.956684823;3.395610062;4.744285635;42.04348956;31.67622856;14.79425936;18.55964042;10.2181945
-16.5467703;-0.888304225;3.759856022;7.015227448;-0.972388518;2.377603465;14.92073764;-0.068373771;5.220815762;-10.52323885;-2.936482089;-4.864664925;13.61954234;4.825301674;40.62159484;20.11241747;14.56780643;16.78077389;6.231466687
-17.84710017;-5.973076285;1.223185206;10.24322627;-1.72617648;0.544374157;23.35051635;0.369005129;-2.847775544;-10.78648377;-5.879498882;-4.875113762;14.25;1.730914597;29.67849492;7.388282177;11.84742292;13.2646651;1.573699351
-19.46498842;-9.463813959;-0.989896513;13.93826783;-3.57440989;-0.731337096;29.96913613;-5.140078125;-4.317075327;-7.815876284;4.405426305;-7.24185164;7.166941133;-3.066863783;14.20806119;-2.794915389;7.596626646;9.858990525;-2.2060393
-21.07540733;-10.52477115;-2.294822135;16.28773343;-5.702178433;-0.784725097;29.06438969;-12.02003906;0.566312128;-2.456955162;18.37846839;-11.39782519;-0.885943505;-6.80805551;2.803819445;-8.243093796;3.942514506;8.647808499;-3.745477233
-21.96346846;-8.501984681;-1.942282082;16.72703676;-7.051964146;0.429009129;17.891033;-14.32614046;8.368227969;2.75656974;27.49122957;-14.30128605;-4.019136691;-7.406237469;1.814748355;-7.645386825;2.599358811;10.72575677;-2.646584102
-21.28635253;-3.121394192;0.807701092;16.10379242;-7.001538649;2.291772242;-0.924355064;-9.969169395;15.03419172;5.337860955;29.49674278;-13.28523881;-1.660926013;-4.952605198;11.14461586;-0.397422781;3.541317484;15.44466707;0.236528865
-18.72283766;4.906546462;5.929707876;15.57137598;-5.745879246;3.836707065;-20.31070803;-2.712710201;18.28093241;4.478067184;27.55283158;-8.63914861;1.734381036;-1.625509911;24.53456863;12.32818172;5.005108967;20.69231197;3.273062778
-14.96451267;13.49566704;11.99964305;15.29135525;-4.139410517;4.25418247;-32.66184182;0.823024577;18.20289696;1.320788059;25.46842731;-3.504092152;1.113964607;-0.096077315;33.87338728;26.39097566;4.844662945;24.10689436;5.050174624
-11.50428073;19.69453915;16.50532866;14.21723336;-3.151812276;3.310715758;-34.21575228;-3.407893496;16.10041983;-2.231794149;24.10023853;-1.225660735;-4.606602702;-1.656551871;34.2928411;35.38076376;2.175818813;24.47514709;5.246246632
-9.717380641;21.12138102;17.18179403;11.21378536;-3.330597562;1.45446024;-26.96641363;-13.59951737;12.91378194;-5.098818642;21.77349297;-2.633901844;-11.68016062;-5.449896922;26.55070972;33.8869571;-1.96631109;22.39879093;4.790431292
-9.866035687;17.47108312;13.486232;6.453177843;-4.592893964;-0.434100693;-16.87799325;-23.60780363;8.678744283;-7.649808056;17.29561116;-5.683672065;-14.85542412;-9.271308878;15.48818958;21.47711654;-5.423375392;19.79412087;5.19815044
-10.82347747;10.9482469;7.041309626;1.667392641;-6.397162583;-1.491150025;-9.783092114;-27.78835928;3.229747252;-10.92168031;11.88401131;-7.618303735;-11.83653052;-11.21273349;6.257957816;4.138587427;-6.481615088;18.58354505;7.538434304
-10.8148631;5.125723384;0.609609389;-1.16065951;-8.111110304;-1.275162317;-7.9112352;-25.03941245;-2.854523103;-15.20694548;7.983002161;-7.494340914;-5.077670833;-10.87838454;1.317163183;-8.685786679;-4.982369464;19.47509465;11.72440721
-8.682661791;2.877341066;-3.659948596;-1.579697342;-9.34261633;0.057548179;-9.349957419;-18.90993748;-8.208927207;-19.34557321;6.477494644;-6.68969874;0.386150382;-9.369374207;0.071168095;-9.988774259;-2.198222472;21.62561261;16.56607469
-4.741037449;4.775335795;-5.36698543;-1.235878186;-10.09786636;1.854536388;-10.4373885;-14.16457596;-11.67353664;-21.43960553;5.544292468;-7.05718784;0.98226384;-8.246906632;0.698309646;0.074188492;0.284801414;23.33957288;20.49417153
-0.563740637;9.044856338;-5.550160552;-2.491740169;-10.74173987;3.267510692;-8.944152311;-13.07070412;-13.3099105;-20.45432116;2.616699774;-8.704043265;-2.920898612;-8.390945122;2.107840748;14.23323335;1.711752858;23.25210892;22.44710697
2.150469985;13.02710449;-5.330143269;-6.134107125;-11.7867539;3.616383741;-5.557147105;-14.47662681;-14.30956085;-17.34117054;-2.460597682;-9.746636641;-7.884095683;-9.574252263;4.356313972;23.0886644;2.472246959;21.17796003;22.377063
2.794366624;15.01065518;-4.768485349;-10.20286888;-13.56740703;2.685813738;-2.776400939;-15.93499602;-15.71818234;-14.63356908;-6.520967772;-8.424353201;-10.4353162;-10.8765494;7.59730829;21.43593532;3.488756006;18.1211391;21.14094037
2.256636893;15.10572688;-2.954341438;-11.20023152;-15.92594941;0.848710906;-2.473936643;-16.41589387;-17.14019262;-14.69089973;-5.792955419;-5.506802997;-9.483865918;-11.42274806;11.06530249;11.3226088;5.313875097;15.55089313;19.93446106
2.239320328;14.67395382;0.817694842;-6.935231605;-18.10982322;-1.051958414;-4.287748541;-16.96370174;-16.78095118;-17.90112661;0.099402263;-4.378156846;-6.3013213;-10.84065752;13.41481894;-0.178958879;7.687280169;14.50094254;19.64329231
4.016308181;14.97075136;5.935223503;1.285220197;-19.04292477;-2.060442719;-6.086627482;-18.9322216;-13.03680962;-22.26104596;6.898595809;-8.21;-2.671651906;-9.246767407;14.1985517;-6.408049369;9.805358162;15.06165116;20.44500028
7.538388562;16.17302698;10.54284354;9.081003023;-17.91983873;-1.585451852;-5.877029862;-21.86950906;-6.343155287;-24.72661903;9.024924835;-16.49240095;0.672621541;-7.014077337;14.8854998;-5.420879633;10.94601576;16.4811239;21.80267224
11.48777632;17.483347;12.84699754;11.9504659;-14.79622439;0.232992377;-3.374883678;-23.39469506;0.45488272;-23.3695412;4.865191983;-24.21662342;3.882703764;-4.645705948;17.98515792;-0.1363991;10.88766242;17.68269651;22.7955789
14.17278176;18.00930786;12.53146845;8.543056554;-10.74572056;2.506241715;0.05128214;-21.34297822;3.811756772;-18.75529466;-0.894933968;-25.0366511;6.649381428;-2.790985633;24.54575477;5.087168001;9.861330109;17.82273172;22.61292112
14.58240486;17.50308269;10.98496606;1.662339427;-7.376940583;4.01317325;2.801359344;-16.11283304;2.071288882;-13.54667058;-0.666218923;-16.29265561;7.503789835;-2.16951057;32.0631388;8.071716136;8.229577079;16.60806738;20.99185066
12.88634996;16.31457466;10.05433644;-3.848346933;-5.945485533;3.870727521;4.390575083;-10.81756693;-3.147876901;-10.65970951;9.245569284;-1.838146506;4.86774266;-3.23419309;34.98999853;9.59198226;6.268722207;14.31321318;18.39723844
10.13087724;14.75146093;10.37060864;-4.706475187;-6.628354095;2.076935926;5.515607686;-8.863747394;-7.976963596;-11.33279619;24.27113747;9.96924816;-0.995790609;-5.747185359;28.17943177;11.18467565;4.22644481;11.59491985;15.8335585
7.453272779;12.63097669;10.74892695;-1.466672663;-8.463659297;-0.431224928;6.958535351;-11.04348742;-8.989173092;-14.45629899;33.96510864;11.94831559;-7.185382129;-8.685434324;11.08926102;12.63097022;2.491729304;9.226943679;14.35320585
5.403494853;9.584544248;9.277018904;2.24517155;-10.00814159;-2.286288053;8.564272338;-14.79056571;-5.463311342;-17.52316941;29.87698836;3.191503855;-9.733062802;-10.7268508;-10.50329825;11.83705491;1.593744153;7.8335119;14.5111029
3.787160062;5.851950023;5.208625301;2.803498049;-10.25886035;-2.481492639;9.38144832;-16.34154462;0.467208564;-18.39609599;12.67404948;-10.40544246;-6.565847396;-11.08200725;-27.0777517;7.275577251;1.94033537;7.675337535;16.08113965
2.02677857;2.684181565;-0.015271067;-0.569746508;-9.214142831;-0.959990827;8.823892099;-13.9090745;5.671530524;-16.60694978;-7.560573482;-20.62883864;0.620046387;-10.0626577;-30.95497237;0.422325993;3.499335282;8.553444932;18.20957968
-0.293377038;1.714908231;-3.630284974;-5.406683549;-7.738757825;1.366378422;7.614436983;-9.053440856;8.186522941;-13.38529498;-18.48879442;-22.92504209;7.345499675;-8.897588748;-21.19052352;-4.614543667;5.718835446;9.889044673;19.8995662
-3.077130934;3.620737048;-3.695906457;-8.189956688;-6.906365256;3.172204151;7.414597401;-5.089075628;7.974923995;-10.59489781;-14.53903016;-19.19836749;9.570019531;-8.873877915;-4.272853893;-4.467281982;7.788447984;10.96951612;20.50031153
-5.733931319;7.211647907;-0.737290755;-7.208773085;-7.31635826;3.48735917;9.331130417;-4.063779572;6.030847846;-9.469016531;-0.541407543;-15.38390396;6.548491246;-10.43517705;10.04208195;0.016247921;9.055307182;11.25386123;19.89543535
-7.477929164;9.94906634;2.595130839;-3.747918998;-8.801563228;2.205925966;12.69326435;-5.107661452;3.105843267;-10.00710302;12.79940411;-16.0032773;0.985937733;-12.92453862;14.96725878;3.693018131;9.296921861;10.58773958;18.34049856
-7.687422798;9.765571334;3.70018741;-0.799938895;-10.58794415;0.062163533;15.39543926;-5.613436675;-0.533537633;-11.27042133;17.54742128;-20.30013868;-3.52031073;-15.14780761;10.68656717;1.199300491;8.703844796;9.233607523;16.1786374
-6.136963162;6.852506588;2.287913985;-0.550902541;-11.67181818;-1.845232509;15.68569448;-4.033926245;-4.218725719;-12.15259145;13.95100532;-23.13618096;-5.427715834;-16.27650197;3.423250304;-7.911084057;7.672312772;7.7323454;13.72180153
-3.039840093;3.872302012;0.788781164;-2.767816699;-11.16625569;-2.644924818;13.82948505;-1.563845236;-6.165252669;-11.99364504;8.367632187;-19.81047478;-6.010823916;-16.36056723;0.443212976;-17.54303034;6.612845828;6.687793161;11.36932622
1.050270721;4.158892724;2.418703411;-5.282236533;-8.558345619;-2.063688479;12.01645235;-1.033784534;-4.236153973;-10.70946602;6.158792212;-10.67746353;-7.424979788;-16.08539387;4.747993553;-19.02535504;5.873268288;6.557413792;9.746441459
5.390747757;9.092931214;8.351396594;-5.941262162;-3.946803376;-0.443111286;12.40484293;-4.005346654;2.040821535;-8.573374253;6.411070647;-1.585265125;-10.05475626;-16.05967489;13.28338841;-8.067888284;5.704433308;7.482965544;9.570262301
9.193873604;16.65867684;16.28323035;-4.273445356;1.765531062;1.504250903;14.99839902;-8.833183087;10.03329214;-6.002717705;3.465592167;0.401964536;-11.77758778;-16.2939971;19.7383139;10.81325798;6.165577525;9.183539691;11.19624999
11.7554613;22.45212816;21.67153291;-1.562994682;6.942735343;3.013462668;17.41667114;-11.66190849;14.95335609;-3.54248181;-6.248373075;-7.369152102;-9.955497881;-16.3119286;19.55296785;26.40637694;7.006913977;10.97732926;14.16599736
12.59674474;22.59723517;20.85290583;0.488906859;9.772267433;3.530337143;17.04181867;-9.639402342;13.0821837;-1.919483503;-18.80043254;-20.70828921;-4.333044368;-15.7372948;13.21559057;28.42846893;7.705675355;12.01989107;17.21634542
11.63702959;16.52540674;13.75154626;1.177050495;9.207782392;2.884179489;13.78263043;-3.511318304;4.915906823;-1.899407262;-24.55354615;-31.38806229;1.991447392;-14.76497867;5.422142142;15.09146762;7.771754773;11.75174347;18.92987028
9.351792751;7.579350556;4.157385263;1.066314049;5.767734462;1.364353291;10.82988487;2.803910661;-4.548892005;-3.859115803;-16.42753335;-33.09061169;4.731256595;-14.03723075;0.98115406;-5.238725074;7.184484548;10.35255392;18.68039716
6.793692953;0.951627262;-2.634990768;1.081462804;1.535742477;-0.341784541;12.26586696;5.40712573;-9.102047758;-7.323794967;2.480983363;-25.92174686;2.052713149;-14.00695272;0.870669771;-19.73821165;6.606324501;8.862569676;17.18403863
5.339020087;0.391310319;-3.11369238;1.441340792;-0.869475595;-1.401304544;19.1521978;3.629974193;-5.891861501;-10.89168358;19.32771381;-16.05744085;-3.496893881;-14.36934768;1.645608021;-19.97033442;7.091999846;8.737000025;16.14239418
6.136266335;5.955486295;2.51870522;1.491874094;0.156969624;-1.238506684;27.39894725;0.454241287;2.338487378;-12.78209141;20.86262145;-10.88213186;-6.680279671;-14.12910193;-1.345436316;-7.280289233;9.380078125;10.96186573;17.09564083
9.456166522;14.24914857;10.92219102;0.534102157;4.14648048;0.101051774;29.6841981;-0.212588334;9.298853921;-11.79722554;4.564495355;-13.41589494;-3.70303733;-12.3389637;-9.565499854;9.088341807;13.23459897;15.25133378;20.23341546
14.33173882;20.7840547;18.00951262;-1.241257488;8.783911291;1.880282456;20.54703487;3.032857661;9.984115207;-8.116065885;-17.92293146;-20.25786053;4.598756453;-8.950200661;-19.34758591;19.3041273;17.35369982;19.9338178;24.03534754
18.84328642;22.68836968;21.32428855;-2.68630436;11.36814165;3.0221998;1.00195914;8.003182524;4.442106482;-3.346343555;-28.7723608;-24.46386104;13.25207549;-5.071634642;-24.15031853;19.81122811;19.9911614;22.75827883;26.08544446
21.06980401;19.99250806;20.91165125;-2.608108145;10.56390678;2.736563873;-21.01585591;11.10083148;-2.549295717;0.307885625;-17.65592161;-20.99884767;17.01865698;-2.3755254;-19.45064895;14.62881982;19.91375872;22.21249798;24.58045271
20.25048705;14.94763;18.51291307;-0.807193595;7.256502039;1.044366665;-35.13123703;10.74096707;-5.538596414;1.318771727;9.756027484;-10.57472437;14.48991049;-2.055464998;-6.568225664;10.69453049;17.06050248;18.50253744;19.53348861
17.41588693;10.23943624;16.08106527;1.759333862;3.933375464;-1.165871365;-34.98156997;8.874421618;-2.737005816;-0.237079511;35.62666475;0.90688121;9.0411195;-4.089671029;7.593264438;11.57922722;12.48835677;13.47834844;12.85257231
14.94377048;7.489838388;14.77338886;3.877474724;3.044729023;-2.633057127;-22.10861612;9.191720001;2.967040359;-2.715126953;43.39884049;6.674913296;5.913106983;-7.321373806;14.89288011;14.82397966;7.705481078;9.478245864;7.230727173
15.14538652;6.867519265;14.83420019;5.208202953;5.477266736;-2.480651294;-4.585796614;13.60335902;6.985296441;-3.931598943;30.24452701;3.803099908;7.91805108;-10.25037932;11.35246949;14.75591761;3.893592985;7.838723538;4.580170916
18.69833119;7.618242095;15.95380937;6.556036037;10.12581481;-0.754230483;8.486194569;20.18436574;7.211951277;-2.56275991;8.624447215;-5.109812574;13.34405202;-11.93618555;-0.214117503;7.960789133;1.509605299;8.0956472;5.020972723
23.98497384;8.76194572;17.50681275;8.940947013;14.72429114;1.60683843;12.58903074;24.50562806;5.662388389;0.978443979;-4.086407525;-14.24596214;17.68194685;-12.40643221;-12.16166624;-3.44262085;0.394491431;8.443889049;7.024423858
27.90750148;9.429112759;18.54403798;12.26283304;17.24777085;3.337213029;9.673227272;23.27521308;6.179078591;4.772907302;0.711125203;-18.83639004;17.54385416;-12.39265629;-17.12882829;-13.42980654;0.142848032;7.132674059;8.531674155
27.7864469;8.918974488;17.91865383;14.81677973;16.92960007;3.580374153;5.472851343;17.15130509;10.37781113;6.607509939;16.89878839;-18.14318675;13.38941796;-12.69656648;-12.76018391;-16.99127816;0.399901404;3.803363679;8.268184714
23.15820846;6.876326371;14.87976926;14.27577064;14.3618305;2.335854297;4.745234906;10.29105363;15.58831162;5.392004335;29.78653583;-15.19237554;8.865117102;-13.66023382;-2.943040037;-14.00150895;0.958144221;-0.173230849;6.432949597
16.26153942;3.712724579;9.892960628;9.516962782;10.84822898;0.383417487;8.114461118;7.030111526;16.7315531;1.853497577;28.56731024;-13.89592604;7.560424681;-15.0166308;5.017727197;-8.773251576;1.763488455;-2.569397532;4.423558472
10.82297264;0.887217357;4.954002333;1.872945596;7.603854241;-1.207864293;12.53668557;8.538540659;10.50851345;-1.949493318;14.37273835;-16.0428321;10.13075844;-16.07763066;5.1932051;-5.863693538;2.9622586;-1.72927689;3.887774875
9.8809721;0.51627175;2.835015616;-5.273128327;5.301153573;-1.652409203;14.44769372;12.23736661;-1.825262757;-3.967015194;-2.474301672;-20.40913526;14.20289152;-16.05670822;-3.330391377;-5.917843865;4.936360254;2.450470224;5.74923968
14.03937834;4.250823775;5.510902017;-8.406703407;4.053757212;-0.787981542;12.77662282;14.30357112;-15.55508784;-3.457706555;-12.79178531;-24.3254413;16.85083501;-14.38613333;-16.03322398;-5.216203135;8.134302983;8.595959424;9.760243411
21.24509758;12.06557548;12.79073492;-6.027912484;3.608194151;0.933850707;9.50915965;12.95151573;-26.43955579;-1.396825839;-16.74530411;-26.09482787;17.13503205;-11.00379585;-25.68643282;0.677124222;12.63026312;14.79454438;14.72846111
28.15088252;21.88500866;22.2023568;0.447318081;3.509212325;2.716610337;7.687798679;9.657289448;-33.91771154;0.238786858;-22.49171832;-26.19610425;16.30222367;-6.569011174;-26.4042044;12.3432064;17.66905825;19.63085047;19.15815139
32.08819722;30.48582298;30.33643044;7.615280502;3.210247134;3.772498644;8.749587004;7.450771842;-40.77503494;-0.220563107;-36.76361344;-26.45358941;15.60302894;-2.43874102;-16.77081514;25.02956227;21.65836004;22.62280178;21.88716617
32.35927041;35.19784592;34.78383835;12.16560873;2.239197502;3.624195708;11.4059358;8.007990339;-49.7909451;-3.130103061;-56.50274289;-28.14433372;14.08337624;-0.207194886;-0.554740553;31.71131102;22.86693507;23.94698472;22.42605442
30.13986165;35.31007813;35.35811208;12.72691652;0.448820599;2.288469019;12.84014847;10.21013801;-60.72765561;-7.45129691;-70.01179149;-30.83418432;8.866219931;-0.849934137;15.19825623;28.35460366;20.5419325;23.9202035;20.96136735
27.28938187;32.28251567;33.83880276;10.36431083;-1.806723313;0.30344979;11.12713304;11.35607507;-70.67855663;-11.55025765;-67.54474493;-32.96616611;-1.891283732;-3.911886409;23.73736686;17.1931692;15.69026254;22.79344481;18.17057264
25.04616371;28.71023877;32.55554513;7.583457921;-3.78180545;-1.438608547;6.920736039;9.759736022;-77.52068229;-14.24747472;-52.23969561;-33.60239478;-15.93628273;-7.383546899;22.15342944;5.393388447;10.8263808;20.98527266;15.00742302
23.49390198;26.80763078;32.89352936;6.631686847;-4.761150095;-2.0510842;3.124763791;6.27609636;-83.03989275;-15.41676854;-40.97;-33.66724146;-26.9197478;-8.621193594;13.0736356;0.12319536;8.638747144;19.36111418;12.502456
21.98092201;27.36591982;34.68815972;8.202914135;-4.537839009;-1.093964032;2.812236511;3.389046896;-92.29039352;-15.85055248;-52.7252086;-35.4578359;-28.27998295;-5.961071635;3.344069867;3.789164547;10.33850853;19.05457163;11.52299607
19.95458977;29.64361211;36.68292711;11.25676844;-3.584970196;1.126392054;6.908984553;2.781448374;-109.1366391;-16.64678442;-92.99909008;-40.7124201;-18.39681514;-0.038533058;0.032182509;12.93293006;14.79967156;20.75547349;12.46114309
17.4791535;31.97611321;37.46631003;13.90940351;-2.755465521;3.616951433;13.29749091;3.675585507;-131.7231744;-18.61150679;-147.0206236;-48.84374403;-2.844439119;6.196758044;5.838806357;21.3439946;19.15668908;23.98555991;14.95574835
15.10863503;32.59034478;36.16983859;14.73477176;-2.702415182;5.161923182;18.02928785;3.476232635;-152.247003;-21.98811289;-188.3415594;-56.90609795;8.561028299;9.026008227;16.88180982;24.77260595;20.55922411;27.084861;17.87408279
13.3810697;30.29452305;32.67250676;13.65117947;-3.435303764;4.977054553;17.93411057;0.126966264;-161.9907231;-26.46512628;-197.1048899;-61.46612681;8.228541663;6.245040476;24.79771896;23.65678363;17.97666671;28.18035611;19.72984737
12.47360488;25.01951429;27.56666532;11.88749291;-4.328552451;3.177276847;12.94198034;-5.935750622;-157.9186346;-31.23804226;-174.2023031;-60.94795661;-3.854714296;-1.266457049;22.37504991;22.07230116;12.88471873;26.60361451;19.45980748
12.31764507;18.20658367;22.18702281;11.11061631;-4.562190978;0.753099353;6.476917078;-11.93131016;-145.3806359;-35.04329648;-140.3340803;-56.58077155;-19.92822386;-9.80223724;9.159603625;24.07728426;8.402202069;23.71654549;17.1650931
12.98107188;12.76616803;18.60770842;12.31456092;-3.674317619;-0.961649546;3.38557142;-14.78929134;-134.3922491;-36.33735165;-120.6458735;-51.19903805;-29.68809777;-14.86963227;-7.141478433;30.42653217;7.455810279;22.37151501;14.29582686
14.8435672;12.19938929;19.18478054;15.21515169;-1.864097771;-1.028949736;6.482202709;-13.29705621;-132.2556534;-33.82572379;-126.7774092;-46.91873301;-27.15721405;-13.77341595;-15.12564858;38.06007813;11.1361302;25.16172689;12.99276954
18.2778944;18.87031966;25.43865057;18.54937517;0.104481732;0.583422747;13.96034637;-8.608916415;-138.4312682;-27.23926463;-149.8672993;-43.6467006;-14.25289701;-7.115723687;-7.484131236;42.5117572;18.20508925;32.54994982;14.82414838
23.03919072;32.20537868;36.75555894;21.03618055;1.283875516;3.014066445;19.7406633;-2.96107812;-145.7561549;-17.86402089;-169.1158475;-39.66168912;1.287662896;1.706035087;13.28808809;41.27435917;25.92453231;42.17898937;19.64297912
27.91744776;48.10116874;49.91145422;22.25533469;0.974345314;5.013771617;17.10114501;2.02903101;-146.7894521;-8.276165647;-168.3350135;-33.71288637;11.70663287;8.604120759;35.70047433;35.67789556;31.57292123;49.94809132;25.36040325
31.09216923;60.39594785;60.16165065;22.75020326;-0.976195191;5.630481534;3.571456632;5.988270025;-139.794785;-1.19547728;-147.3049834;-26.73161155;14.25874376;11.10288775;46.54;30.09102197;33.71331943;52.26114655;28.94196811
31.10130029;63.95268085;63.59990585;23.28803266;-4.075466169;4.683481331;-16.28758479;9.111644565;-129.3466322;1.93829832;-119.8278983;-21.52876236;11.97985446;9.414380699;39.7024628;29.13098975;32.58078397;48.04617402;28.14229348
27.80893802;57.5933615;59.41270051;23.95488695;-7.309631092;2.794187608;-32.67114281;11.25793872;-121.3532215;1.712682698;-101.433231;-20.5765423;10.23866974;5.784796881;20.23445057;34.73980702;29.57090554;39.28475317;22.92669569
22.66036049;44.90375666;50.45819616;23.97449075;-9.490019531;1.005626409;-36.34975434;11.9464158;-117.201833;0.224960401;-97.48600352;-23.70833076;12.26724879;2.769417985;0.580621419;44.85624627;26.29824487;29.77055428;15.62465173
17.95585547;32.17198963;41.59527122;22.54297274;-9.765731378;0.227390874;-24.8753451;11.22405407;-112.4224103;-0.401918173;-100.9635516;-27.80293418;17.19219091;1.677189126;-8.21492898;54.3264286;23.79729197;22.9435171;9.625675513
15.54995396;24.66556502;36.73820051;19.99061613;-8.102156339;0.791459166;-4.715253859;10.26732736;-101.1266539;0.569893641;-100.3781438;-28.96254401;21.61599599;2.103488205;-3.83141228;57.45478365;22.20528623;20.15476559;7.38353162
15.80147855;23.67007813;36.56748732;18.08690582;-5.420078125;2.311337117;12.64939334;10.74369994;-82.199233;2.175055;-90.05903376;-25.58718915;22.81061712;2.590717094;6.780595027;50.85251221;20.9326963;20.31698739;8.984488411
17.45720076;26.2311529;38.42151217;18.87391365;-3.188360676;3.883234568;18.31225315;13.28934702;-61.52436406;2.718872269;-74.03809349;-19.86330059;20.59075701;1.723836953;13.6196125;35.20616982;19.110661;20.94056829;12.19658391
18.54452311;27.64280712;38.37751364;22.72296296;-2.591421725;4.528679883;11.90185037;16.6019666;-47.98110086;1.244372332;-61.21874267;-16.33452751;16.55794833;-1.125578812;11.42317119;15.14047165;16.06958679;19.73798774;13.95777917
17.69386419;24.803321;34.01031702;27.2652433;-3.745693833;3.688462823;1.453983676;18.31720084;-46.49417715;-1.679824333;-57.18574509;-18.53744114;11.98210099;-5.711414953;2.887688115;-2.775750168;11.67830089;15.80374061;12.32912807
15.04495052;18.05045585;25.91174848;28.4634376;-5.513633332;1.549149994;-2.901885696;17.17048114;-54.12409883;-4.453546092;-60.21852188;-26.2818967;6.727636546;-11.22441435;-4.820203714;-12.95657352;6.460321862;9.837490167;7.66540936
12.17243875;10.35217489;17.03325026;23.43901169;-6.126653399;-0.970683154;3.169981935;14.49854171;-62.57018184;-5.76350562;-64.38400937;-35.69628306;0.361443154;-16.57626058;-6.817562694;-13.23783956;1.463429291;3.541573554;2.307437855
11.09265287;4.751644929;10.50694176;13.00730234;-4.275715639;-2.615853997;14.73551687;13.44043451;-64.83331192;-5.591803315;-65.77764308;-41.98032181;-5.827567491;-20.50789704;-4.560109176;-5.602425673;-2.087873507;-1.283277079;-0.92464717
12.97789742;2.173154277;7.609195953;1.703527999;0.031305421;-2.423628535;21.28036978;16.21214693;-60.16721249;-5.058657345;-65.40876398;-42.67813209;-8.367140314;-21.73885871;-3.820884119;5.13960027;-3.255078436;-3.463151987;-0.427024761
17.36710858;1.203233956;7.259317184;-5.169586577;5.416578735;-0.279292817;14.83231805;21.78896304;-53.10288326;-5.253598105;-66.03346102;-38.94089962;-3.887993705;-19.413012;-8.633631021;13.90844995;-1.788977228;-2.802822807;3.343061093
22.34670587;-0.242318836;7.198926987;-5.491183843;9.909275456;2.925761062;-3.699104222;26.29676883;-47.78987124;-6.09892599;-66.57170435;-33.95503374;7.389512649;-13.74007813;-16.81376459;17.66871837;1.718058542;-0.093885983;8.290349609
25.59362837;-2.943223274;5.784496846;-2.153383775;12.02086521;5.678822804;-24.8525089;26.14912323;-43.2135709;-6.28741653;-60.46529437;-30.03399806;20.20143847;-6.333299024;-21.30010456;16.28259816;6.039620082;3.161948531;11.98348397
25.67295845;-5.762250485;3.038972472;-1.00478541;11.43125961;6.615790301;-37.33411835;21.35868811;-34.03340461;-4.417525912;-40.73240808;-26.88041615;26.89841331;0.24879497;-16.40788515;11.71047201;9.823664056;5.302481292;12.98485346
22.84677314;-6.780439858;0.352587634;-6.142479838;8.93435125;5.26707921;-35.91100808;15.94287882;-16.47770099;-0.380684244;-7.804613861;-22.41236591;22.93516273;3.720613011;-3.604246509;6.411757039;12.17094808;5.247369581;11.46845348
18.94225481;-5.050369408;-0.69408348;-16.11826896;5.825186955;2.344048881;-24.47685494;14.67342144;6.269606716;4.236316529;27.24671469;-15.29649491;11.07;3.346054341;8.446829093;2.114312655;12.98289984;3.145813659;8.903453248
16.36737422;-1.38184242;0.638334537;-24.25824261;3.222994711;-0.626418834;-12.23724051;18.74191227;24.74604035;7.192123267;48.24254668;-6.866169756;0.445081712;0.352658237;10.06980341;-0.443970609;12.87635945;0.499407764;7.124980588
16.83799343;2.483602313;4.054417218;-23.27228956;1.720078125;-2.131743057;-6.404616746;24.24795322;30.20983219;7.304244456;44.89039263;-0.655628826;0.347423733;-2.924583069;-1.869984506;-1.08560187;12.70019474;-0.507511405;7.372379808
20.52018925;5.480480861;8.747175118;-10.90288489;1.393106462;-1.497881504;-7.325408325;25.29315007;22.23255082;5.424905324;20.77421566;0.148347574;12.79347185;-4.649801246;-21.26093762;0.197380808;12.93901432;1.741198273;9.776455111
26.02424102;8.083393284;13.96289574;7.711038778;1.954910176;0.765214101;-9.630784815;19.43145258;9.981301646;3.803153902;-8.306141462;-4.76830624;29.61959332;-4.695567806;-37.19194734;3.178029866;13.38830152;7.162996794;13.46149497
31.1837507;11.59128734;19.07525188;22.98454852;2.860448352;3.287568518;-7.881439162;10.74230386;5.358908205;4.272730206;-24.76367518;-12.45235324;36.93908563;-4.528981001;-41.94446954;7.115049646;13.33852585;13.75644736;17.10399918
34.12639889;16.46413653;23.2642365;27.1821997;3.399931842;4.63024267;-1.58105391;7.287076163;13.33123794;6.724053837;-20.56659759;-18.74502479;24.46609341;-5.822807717;-36.0289793;10.81164477;12.17356288;18.59299022;19.60626284
34.04578728;21.28618306;25.376428;19.49415849;2.933198056;4.079157307;4.708966662;14.3055837;27.70854945;9.161096563;-1.072644737;-21.09563564;-6.699284394;-8.845983208;-26.36675701;13.20789573;9.978910439;19.5221663;20.5453843
31.34664598;23.47650491;24.40514298;6.212757929;1.283621898;1.997953306;5.987142956;28.49643625;36.4388559;9.382331009;20.8409991;-19.8661495;-43.56653979;-11.92346563;-19.5878827;14.05357801;7.698428806;16.53492082;20.21334603
27.24911372;21.35434657;20.38226802;-3.967884771;-0.951947468;-0.429087173;1.852963463;38.5590966;32.37316935;6.963616435;34.87953522;-17.22007813;-68.79174174;-12.48481192;-16.49957365;13.97237293;6.655159645;11.85833545;19.28969673
23.20914721;15.87711883;14.9151277;-5.886103612;-2.512703883;-1.882255652;-2.656152704;32.56804035;20.36295769;3.892195793;39.47501541;-14.75518069;-71.28697171;-8.998158298;-12.54468478;13.72833053;7.701326887;8.642720026;18.37675599
20.48264893;10.45520374;10.69064686;-0.714392486;-2.097771137;-1.618040305;-1.342498431;7.165250901;14.1009132;3.22575548;39.96351139;-12.03687526;-52.69486693;-2.351176446;-3.594300189;13.31758027;10.56775214;9.03536907;17.67902031
19.91757932;8.731410517;10.02126506;6.094404137;0.818273488;0.173534193;7.365702626;-28.45456195;24.5625558;6.741939394;41.84796994;-7.294332005;-25.4612253;4.414583115;8.49525533;11.82086716;13.89652123;12.86796221;16.99162365
21.84727588;11.91947166;13.34452562;9.639909278;5.536281383;2.523049075;18.15986581;-57.33107966;49.31155611;13.41955757;45.89379097;0.430676303;-4.187731179;7.919166469;16.09110472;8.350246779;15.99007813;17.80324917;15.95204298
25.96685518;17.7995904;18.79707589;9.194308493;10.41801959;4.223221779;22.29880174;-65.38087175;71.92010423;20.01311554;49.18273156;9.7070915;3.480157292;6.571416409;12.17845658;3.35856764;15.80578754;20.84181685;14.35112969
31.26517225;22.27986871;23.31151126;7.97629003;13.76883748;4.44941496;14.19020379;-50.45496444;72.96944568;23.36851049;50.1227923;17.25805204;0.256858612;1.540546334;-2.443998598;-0.961943742;13.54176367;20.21857814;12.30444461
36.22848433;22.43915161;24.58369901;9.761654166;14.74820497;3.143886276;-4.090435973;-23.3772197;44.69338798;22.74636673;51.60716681;20.32447066;-4.786703817;-4.051724576;-17.88213177;-1.863152698;10.44529465;16.49522608;10.23099377
39.42399137;18.75079671;22.56298797;15.47182206;13.72484647;0.99724796;-23.90378556;-0.356362506;-2.006367091;20.37442911;58.52299712;18.9281788;-3.959879325;-7.082893495;-21.8738998;1.881668041;8.01944613;12.19987618;8.731971255
40.24300478;14.75063569;19.39547367;22.55499183;11.90299271;-0.92916339;-35.86206946;7.634692255;-43.85403831;19.79383934;71.64457542;16.11072616;3.539633677;-6.161813645;-9.721144345;8.65403144;7.197154818;10.28850191;8.473352894
39.3115637;14.35437235;17.83982722;27.36371817;10.54644535;-1.731638929;-35.85054782;1.017852938;-60.3457353;23.2472414;84.02889875;15.84026648;12.05738657;-2.078554931;10.71371176;14.6894972;8.005048069;12.39792917;10.06116701
38.15806152;18.84321437;19.28282392;28.19991333;10.33418547;-1.084445246;-26.87601815;-10.52714976;-46.64862655;30.06401975;84.34891483;20.15628646;14.79865039;3.074911115;23.74036637;16.52318721;9.816746058;17.91712768;13.80942675
38.19852618;25.80112954;22.77662247;26.3681516;11.18072506;0.634807398;-15.8815349;-16.12568048;-15.16465331;37.193266;65.43603054;27.71481284;9.456392479;7.259038415;17.45836722;13.41973298;11.85736722;24.34982683;19.38355314
39.6483378;30.79610986;25.77053671;24.55210451;12.4704034;2.553389737;-8.524766195;-11.35639042;14.50212069;41.37772007;31.1707318;34.76576307;-0.165054761;9.335190383;-6.422918794;7.88870438;13.51879884;28.67151654;25.52392389
41.14852784;30.51850793;25.97022641;24.22492103;13.4225913;3.730848183;-6.022972348;-0.176055425;28.94138572;41.26506894;-4.444854866;37.72197542;-7.354827499;9.057496144;-32.41627456;3.811953632;14.32744578;28.86762573;30.19224618
40.49059725;25.03246723;22.95098589;24.50217581;13.367655;3.599677484;-5.933262579;9.385957007;27.83980481;37.9285464;-25.97690637;35.38775447;-7.590319692;6.62387122;-41.48957621;3.587663644;13.78717771;24.8322839;31.31936186
36.06749332;17.54611847;18.37304618;23.34887831;11.92333568;2.218283998;-5.358276346;11.67831463;20.51580963;33.61345395;-26.47260267;29.3846571;-1.457684271;2.44521407;-24.50596179;6.486136915;11.44056224;18.2393296;27.89395057
28.11239477;12.02581724;14.71068545;19.83555734;9.159327116;0.228447207;-3.447159944;6.979150854;16.47650348;29.91611294;-10.95212147;22.80596474;6.548740436;-2.630431435;10.9177811;9.443753022;7.24071409;11.5738235;20.73868276
18.85852431;10.54968271;13.49778664;15.24252891;5.72809716;-1.453974649;-1.303589271;0.054804733;18.24589996;26.92236135;8.855220084;18.35413805;11.90394168;-7.02989575;45.1439775;9.581516599;1.94264895;6.912612463;12.35288033
11.45225429;12.33181841;14.39265736;11.9885933;2.782541038;-2.067651721;-0.05893081;-4.269972231;21.58998921;23.87957751;23.68727741;17.26013421;13.2734265;-8.70440648;59.38199584;6.415929615;-2.920149644;5.088546214;5.747628177
8.291999969;14.91558502;15.67788453;11.44577446;1.536161406;-1.356367471;0.590639856;-4.595581131;21.4596614;20.59693852;32.11290675;19.33784391;12.68052048;-6.085933829;47.51691509;2.086009771;-5.643565378;5.590058594;2.91314325
9.841432458;16.33952971;15.69806404;12.73435408;2.599284365;0.317136221;1.906722932;-2.982774171;17.46964232;18.14281673;38.17156798;23.57584371;12.94094321;0.782866373;18.89386173;-0.411434449;-5.241187908;7.120680117;3.885028047
14.61305025;16.46607375;14.0683748;13.63218193;5.515645653;2.144313727;4.386189152;-2.214539591;14.01965323;18.06453449;44.4218576;28.5340035;14.83395994;9.81421298;-9.107158571;0.561445644;-2.027490036;8.409273806;7.007895658
20.21296984;16.53721321;11.75607216;12.70890191;8.915277353;3.251079842;6.813799643;-3.084095488;15.53712726;20.73351067;47.54262917;32.4357279;16.4005677;17.63259731;-22.72508213;4.330280011;2.525848422;8.795886986;10.16482196
24.67559627;17.57575438;10.09099787;10.62768806;11.30807412;3.110595401;7.313638072;-4.007234645;21.74727949;24.33238286;41.05821614;33.44091475;14.75801429;21.19485307;-19.46269167;8.720757833;6.588205789;8.333221536;12.07693495
27.25133908;19.17362607;9.614996877;9.359092686;12.03795923;1.797062381;5.51208042;-2.914596538;27.55180174;25.62517361;22.90848994;30.46043496;8.720704063;19.30823057;-7.261714638;11.69104519;8.913364069;7.490403027;12.80016459
28.3199446;19.77300877;9.752577764;10.08333525;11.72325782;-0.040863315;3.584981971;0.595798426;27.63355254;22.22398089;0.605854919;24.13189578;0.029073994;13.1312864;2.837002807;12.4026432;9.365436672;6.783198987;13.2266206
28.74201581;18.17793256;9.542138875;11.89052658;11.83185181;-1.480452307;4.776357372;4.845699443;21.51093829;14.72242152;-11.78458597;17.01828758;-7.677141254;5.425766127;4.47321422;11.15343635;8.797793192;6.621287715;14.16626851
29.24412263;14.92116201;8.739442792;12.69900657;13.66381785;-1.763503287;10.30828667;7.641445093;14.36821589;6.937553271;-3.668870431;12.42401233;-11.14391362;-0.886885072;-1.090565057;8.730912511;8.476872505;7.39553216;15.80815137
30.21128589;12.19700236;8.269660345;11.65776583;17.45493383;-0.667904436;17.33965384;8.261915653;12.80755284;3.787774503;22.73035083;12.32557184;-9.233286113;-3.984964402;-7.777377824;6.081472512;9.436359345;9.556529674;17.88988682
31.80697121;12.27746449;9.54794317;10.67843985;22.21748011;1.367919781;20.09434786;8.051952997;19.19778367;8.105316196;51.75545233;15.85972653;-3.028074287;-3.629957263;-9.998894003;4.490593817;12.04335099;13.41253883;20.20218375
34.07793704;15.64060004;13.16914305;13.28388664;26.37747443;3.435526241;13.76604486;9.159229622;29.52288566;18.58171566;64.03908312;19.66850869;5.309352363;-0.863085609;-6.214065751;5.580761949;15.84682249;18.65775002;22.77938785
36.83162409;20.35466672;18.06936427;21.36044117;28.69712399;4.58054994;-1.609047197;12.61032926;36.5677399;30.34380939;50.00282575;20.10713603;13.70908496;2.689354744;1.21104216;10.42876559;19.67954886;24.00897357;25.52765713
39.42420615;23.30393488;21.96137942;32.56800521;28.83053912;4.262830747;-20.36229094;17.42011288;35.69349635;37.83523339;17.21841022;15.83720415;20.56392005;5.492486645;8.634884079;18.13785581;22.01853258;27.43019183;27.72
40.80007813;22.38026989;22.84779992;41.02330885;27.22346211;2.629165828;-34.3155838;21.42977686;28.34126189;38.069233;-14.02263009;8.880878941;24.50461712;6.578068858;13.59860723;25.25507932;21.6047391;27.07913293;28.05316212
39.95918852;17.97776669;20.50696908;41.28501796;24.59669832;0.456447527;-37.71426122;23.05097282;20.47723982;32.10090736;-24.00538995;3.260230771;24.39212273;5.801959629;15.41455199;27.2401185;18.14841809;22.51;25.48845162
36.62673358;12.64688795;16.77248412;32.71215891;21.50624848;-1.222040392;-30.54231484;22.39584465;17.5187064;23.87387757;-6.492989526;2.14404754;19.94617295;3.848424189;14.23064965;21.57216582;12.71321987;15.28515144;20.27946066
31.62645492;9.175295738;14.29041157;20.54524693;18.28249069;-1.635602221;-18.0588151;20.91994195;20.09626301;17.43409533;27.49824923;5.58357141;12.50007813;1.887478666;10.09922182;10.30096913;7.373482775;8.37787368;14.20742189
26.58793685;8.554207019;14.59868193;12.4299507;15.24136615;-0.683457496;-7.163693851;20.02991014;24.02897075;14.52529762;57.13816923;10.51445741;4.905484866;0.906730823;3.097664248;-0.34957212;4.14205975;4.541275246;9.574119328
23.08832206;9.347277814;16.9370042;12.793272;12.8223507;0.989134984;-2.299107736;19.92860323;24.17399097;14.10368357;64.9357643;13.02364436;0.170355656;1.026093833;-5.809729048;-3.746731427;3.759332713;4.635821663;7.581279425
21.77468618;8.892779741;18.70923776;19.449564;11.4381758;2.310819153;-3.547483684;19.64192187;18.66607994;13.79216961;46.91621096;11.20595554;-0.4304046;1.291391018;-14.30398794;2.390667338;5.21864806;7.09794095;7.41788336
22.07042367;5.402674833;17.32607896;25.28035874;11.16174942;2.359089814;-7.701290129;18.08232972;10.0816443;11.92987372;13.96405371;6.529565879;1.664898115;0.246596471;-19.37547407;13.88634516;6.515524121;9.039399797;6.966516754
22.67173856;-0.593984276;12.13580101;23.86550431;11.58113131;0.895703922;-10.98589231;15.14486225;2.969712955;8.645671671;-15.41581688;2.765196817;3.191047586;-2.966838991;-18.77163241;22.69262315;6.214786513;8.313659061;4.734796365
22.4814731;-6.473977784;5.059001466;14.69592077;12.02133953;-1.440623254;-11.34383674;11.89869789;0.27355931;5.34477484;-25.73326515;3.316703603;1.389527068;-7.736668908;-12.1951235;22.66912843;4.69957978;5.110357451;1.472516072
21.32640138;-9.196901369;-0.553596825;3.764434503;11.98780238;-3.425151746;-9.010600242;9.777006081;1.774389152;3.290886038;-12.36670895;8.884576594;-3.818157468;-12.06791935;-1.502522361;14.33171687;4.058789529;1.879054889;-0.005724424
19.97948914;-7.249313536;-2.079840139;-1.099309839;11.45944612;-3.899119422;-5.57070523;9.498597198;5.52237772;2.56523258;16.96069952;17.04505106;-9.442337267;-13.73218434;10.0012412;4.786716723;6.541099717;1.545017626;3.088692331
19.51746631;-1.594971673;0.65652025;3.40540563;10.77156564;-2.437746362;-2.580581524;10.59478699;10.42200924;2.197405746;46.90585289;23.8868216;-11.22552905;-11.75605329;18.54170711;2.586649688;12.66156338;5.247883642;11.02399434
20.50456123;4.867762223;5.252359604;12.99777703;10.18768828;0.352895906;-0.72163426;11.83733972;17.25215434;1.194141839;62.49994973;26.43047659;-6.476474848;-7.175902626;20.70337192;11.21455633;20.44659629;11.25311319;20.68518878
22.58060581;8.873320743;8.243685679;18.60332602;9.544026367;3.111386051;0.253301831;12.13345542;27.10609447;-0.534732787;56.53766749;24.16441448;3.963474322;-2.446830701;14.23915457;26.15113432;26.53258281;15.89422949;27.25062231
24.71065683;8.398442728;7.267067897;12.99733797;8.301585305;4.445609747;1.070712989;11.17698407;38.84950504;-2.170373454;33.0574586;18.83586558;15.94363974;0.134589141;-0.864864818;37.87632152;28.41648589;15.9446484;27.34207757
25.87947907;3.488704138;2.483672589;-3.686341427;5.99631866;3.707723843;2.368686541;9.461189941;48.28042071;-2.847949041;5.245904212;12.9352374;24.28960947;-0.110523002;-21.35145848;38.64138819;26.19906979;10.76202956;21.33398748
25.72660336;-3.958362188;-3.586840993;-23.73041548;2.732593435;1.368801766;4.247054012;7.803596318;50.24620768;-2.567236205;-11.48990579;8.129183229;25.72206096;-1.931910657;-40.66588856;27.94584983;22.46848664;2.690782116;13.04464911
24.69465578;-11.17739775;-7.648631795;-37.04022856;-0.688912274;-1.238119374;6.10220791;6.831818143;42.31509212;-2.311738699;-7.990510737;4.712185957;20.64715883;-3.166948517;-50.87038624;12.66396922;20.36236396;-4.543399961;6.997410347
23.62025613;-15.75950516;-7.604251952;-37.88859865;-3.142618303;-2.669256088;6.924081999;6.760078125;27.07229032;-3.255452589;13.29109548;2.218607967;12.8084766;-2.299962986;-46.27284149;1.889308297;21.24978762;-8.281378861;5.298826605
23.07318981;-16.60851035;-3.725315717;-28.30561662;-3.810892862;-2.182902726;6.06638381;7.462016575;11.05254023;-5.744962975;39.49204144;0.436721101;7.076224607;0.5625779;-26.99406298;0.539366109;23.77491864;-8.495114513;6.452843198
22.90160832;-14.27708236;1.626482487;-15.9034583;-2.663459322;-0.142835173;4.073462396;8.642331962;0.928902444;-8.941316419;54.88924524;-0.137254572;6.694079752;3.913413158;-0.057911912;6.49141889;24.95071035;-7.444942971;6.898446596
22.29126343;-10.55486568;5.48276216;-8.108379748;-0.494318362;2.214806269;2.809249943;9.956442864;-0.327995954;-11.43298421;50.42826812;1.216812128;11.56421355;5.955221462;23.32293867;13.05584784;22.41755756;-7.811373793;3.954397722
20.30943485;-7.476260704;6.020363151;-7.234850731;1.478521696;3.502715588;4.390378781;11.08280505;5.312272416;-12.29561611;29.20376668;4.503002317;18.53665212;5.706549955;33.24558152;14.42454225;16.13472965;-10.7325236;-2.147436985
16.59429752;-6.224396819;3.538175776;-9.844567071;2.210269666;2.965619032;9.339804383;11.8165359;12.88014478;-11.70025865;4.265351633;8.533089514;23.51641141;3.368487538;26.344102;9.693994736;8.299257216;-15.1246427;-8.606241341
11.75130813;-6.542181626;0.12116233;-10.37034341;1.33185589;0.881553653;15.29886906;12.17494425;17.82359727;-10.57548008;-9.784525879;11.49138932;24.1139206;-0.097433001;7.520809711;2.617234119;1.717749766;-18.62205118;-12.2923741
7.183719476;-7.033527596;-1.742605523;-5.834673136;-0.644875207;-1.623976784;17.65048014;12.41746826;18.4572313;-9.653923406;-5.736286203;12.24904101;21.16769508;-3.641405461;-13.01686232;-2.118178535;-1.988076475;-19.28762524;-11.96909735
4.417275273;-6.19066205;-0.703989452;2.003012844;-2.501509861;-3.21674029;12.19591323;12.91709587;16.11763798;-8.765550016;12.5905333;11.42139537;18.09420895;-6.483582936;-25.64365577;-2.647839421;-2.986738207;-16.80246571;-8.781015041
4.286563185;-3.463279155;2.701185234;8.426313352;-2.841976172;-3.072702758;-1.655168883;13.9534317;13.52397894;-7.021776493;33.92543658;11.20602857;18.41586147;-8.058746289;-26.46061836;-0.702562851;-2.402242072;-12.39576936;-4.856476885
6.449420347;0.384029236;6.525365316;9.698463302;-0.822502545;-1.290278826;-19.51526677;15.5770076;12.87057191;-3.756313274;47.19353333;13.893069;23.13940658;-7.901517087;-18.54876747;0.766742922;-0.989288653;-7.797687524;-1.423852536
9.519531331;3.871768631;8.726823217;5.891021709;3.227833354;1.197506668;-33.85309324;17.62080461;14.84184144;0.583125056;47.71597086;20.01259561;29.92128121;-5.826725677;-8.808415215;0.580183478;1.440630211;-4.157705749;1.900442187
11.75361176;5.873690473;8.414844037;0.484211256;7.685316817;3.130640116;-38.20982215;19.78582926;18.6895743;4.390912683;38.28142263;27.5375034;34.77914303;-2.331034389;-2.794991183;0.16079683;5.404082061;-1.70795822;6.160984438
11.9107009;6.2944767;6.19516836;-2.690615542;10.24368958;3.565805936;-31.11948473;21.67858991;22.81099153;5.826263778;25.5944882;32.94303399;35.17653732;1.259431696;-1.184843376;1.660230193;10.64015414;-0.204705467;11.47042708
9.813751971;5.833478571;3.457932654;-2.549319281;9.085713;2.330374812;-17.03925324;22.79874203;25.3641162;4.038132062;15.65953828;33.5798678;32.05992389;3.296317405;-0.189497849;5.393754706;15.66852435;0.465211224;16.33320623
6.337533428;5.102893068;1.225143455;-1.408389531;3.998077814;0.078617238;-3.570546529;22.6255682;24.91105674;-0.216644615;11.40962176;29.71589568;29.00615608;2.819386983;4.655134243;9.167899837;18.55288985;0.144656938;18.58049993
2.887859392;3.94549388;-0.522543004;-2.77198913;-3.30587026;-2.054629569;3.178795204;20.91824959;21.18128346;-4.997175793;13.15432999;24.64626096;28.85188758;0.363049734;14.3007548;10.20624179;18.29325571;-1.190930874;17.14238372
0.701724701;1.628904687;-2.532158116;-8.119598359;-9.993652298;-3.018511087;1.978310601;18.09028699;15.64157672;-8.300505363;19.97526577;22.56855476;30.41020521;-2.165781392;24.78946717;7.840215516;15.64684869;-2.994658031;13.10514588
0.332796179;-2.214827338;-5.290439231;-15.30050442;-13.66404031;-2.351209107;-3.535989593;15.28157319;11.21085299;-9.085193446;30.14380486;25.59506077;28.23494818;-2.636665525;29.74118891;4.310147951;12.60855135;-4.247581164;9.081682498
1.512203987;-6.785639276;-8.252514997;-19.84;-13.6971927;-0.385871691;-7.961149721;13.8448149;10.80443049;-7.588831344;40.57810775;32.05494067;16.27331883;-0.15783682;24.95355205;2.725618793;10.90454299;-4.162907837;7.34593743
3.34895044;-10.3162967;-10.02763048;-18.1991717;-11.51999347;1.932963548;-7.923868066;14.43046987;15.36995919;-4.927838161;47.00146095;37.43263039;-6.924472393;4.193976003;11.78402799;3.947021483;10.70221039;-2.941387545;8.223434345
4.712693985;-11.30464424;-9.470333736;-10.54880623;-9.594278747;3.522037138;-3.939520486;16.33595959;22.83720509;-2.437156195;45.96687057;37.39263309;-35.47294242;7.960890113;-3.159015283;5.364097989;10.58423453;-1.867001611;10.01516921
4.654115795;-9.825643304;-6.821073845;-0.996092806;-9.795093305;3.680633998;0.669511207;17.78183782;29.07130826;-1.203222414;37.70934094;30.7547176;-58.54244583;8.856786876;-11.87560419;3.023540784;8.801719131;-2.516890552;10.46747302
2.772521808;-7.742806215;-3.90303727;4.917832412;-12.25289288;2.402375338;2.633638743;17.13418452;30.50323071;-1.884888347;27.17874137;20.25920185;-66.79859772;6.229601698;-9.786867035;-4.48829076;4.777640567;-5.603096257;8.562841745
-0.55863012;-7.453272446;-3.075153081;3.677482832;-15.3899718;0.33465086;1.115803061;14.24685378;26.66716679;-4.623392102;21.49701614;10.58862634;-58.53534925;1.439385062;1.652489252;-13.87759642;-0.356722964;-10.33663984;5.210847977
-4.23595046;-10.03986384;-5.640303949;-4.171292136;-17.04643331;-1.571811448;-2.012188704;10.79703495;20.67535865;-8.90276326;25.02648788;5.172692643;-40.9922229;-3.067430544;16.05641388;-19.03925589;-4.603891502;-14.86332537;2.375547136
-6.833853238;-14.31113419;-10.90101373;-14.69014806;-15.87858539;-2.527691713;-3.916892365;9.13965741;17.05986103;-13.5147879;35.67506508;4.188171174;-25.68340401;-5.31;25.90793046;-15.97309791;-6.615279027;-17.50773434;1.446772744
-7.287892218;-17.59768201;-16.60809488;-23.26846738;-12.11562155;-2.249227132;-3.064736649;10.41715124;18.42214353;-16.91583198;45.62368246;5.159190213;-20.97196521;-4.902433309;26.46737619;-6.815044665;-6.660699477;-17.91879755;2.201453963
-5.520405889;-17.77298416;-20.48596026;-27.39434061;-7.287525471;-1.032218721;-0.300252323;13.444215;23.35985819;-17.99494362;46.39971788;5.461080356;-27.1875267;-3.085307858;17.56031539;0.68883354;-6.312429032;-17.25812256;3.126325846
-2.581556776;-14.92520983;-21.68547865;-27.62656147;-3.246185561;0.444837427;1.939807086;15.46035472;27.29243253;-16.80083478;34.74139082;4.534727516;-37.6367281;-1.767573338;2.767645691;-1.482039802;-7.143985548;-17.28588208;2.733970731
-0.098314488;-11.32662651;-21.0888356;-26.35180681;-1.178062084;1.464889685;1.590547191;14.37787888;25.67288176;-14.58802772;14.94317498;3.957010201;-44.3723615;-2.295853338;-12.81049267;-15.2150354;-9.489792034;-19.02502589;0.759607145
0.721914959;-9.69713493;-20.31526489;-25.51143716;-1.15706146;1.596952419;-1.346190866;10.78033571;17.28916025;-12.94614686;-3.962885287;5.407596729;-44.08120037;-4.723613116;-24.64975489;-33.80585188;-12.19860425;-21.98457015;-1.668980949
-0.087135692;-11.13988791;-20.29836454;-25.09089514;-2.331672677;0.870932211;-4.566965403;7.8750949;5.299405172;-12.53713396;-13.93656204;8.4325821;-39.655986;-7.918216186;-29.98461937;-45.79823696;-13.49624283;-24.47976647;-2.905041717
-1.193846566;-14.38533509;-20.59487982;-23.42055255;-3.470219454;-0.252123943;-4.888983403;9.12225059;-4.672710887;-12.43665153;-12.36270873;10.13745514;-36.67403537;-10.29902596;-28.26563217;-42.74237537;-12.24426227;-24.76555075;-1.924815807
-0.786433449;-16.89200083;-19.92503954;-18.88743755;-3.522154614;-1.094075392;-0.463836528;15.25300019;-7.959808274;-10.75267895;-2.412642137;7.302510838;-38.08729156;-10.70615317;-21.26852818;-25.3439114;-8.67284398;-22.13991217;1.118352974
2.24003418;-16.83300245;-17.40864156;-11.62127045;-2.009320465;-1.077907443;7.601819984;23.18308003;-3.432365624;-6.215638942;10.07564838;-0.740669387;-41.6423337;-8.956726631;-12.71475995;-3.425346693;-4.159840398;-17.27847479;5.193500358
7.520394045;-14.32753385;-13.41982975;-3.83244712;0.79189847;-0.026396298;15.31409746;28.05657609;6.303026739;0.442599361;20.23730232;-10.95431189;-42.03013865;-5.901739661;-6.930390076;10.44575371;-0.356185337;-11.69414891;9.124783958
13.39335284;-11.00291284;-9.366568906;1.423936027;3.901999972;1.69767377;17.70265861;27.12617362;16.84745296;6.501199692;25.79124923;-18.35724834;-35.7321847;-3.041510327;-6.63807535;9.201553112;1.65738317;-6.842683682;12.1222704
17.87174552;-8.436121338;-6.643527272;2.096161025;5.979716174;3.30793694;11.6241473;22.38739339;24.5141719;8.842659667;26.45151895;-19.50861012;-24.36502367;-1.8926816;-11.0968018;-4.393434803;1.677662673;-3.537160685;13.81971494
19.72998127;-6.936986816;-5.68298133;-1.747259305;5.928642736;3.955893526;-2.141730444;19.47283589;27.80345501;6.058582365;22.86589498;-15.00286152;-13.73736995;-3.347809222;-16.25679685;-20.20086389;0.140490091;-1.946573034;14.03454021
19.0080168;-5.714757543;-5.872961765;-8.227692843;3.532997172;3.183451622;-18.84937785;23.11128888;27.32509889;-0.496423032;16.53550613;-8.949090309;-9.491458339;-7.271247323;-17.49032139;-27.93486714;-2.306717056;-1.925490498;12.65987926
16.71350882;-4.127153397;-6.303778827;-14.9901204;-0.271209076;1.223203876;-32.0154853;32.41457301;24.77164428;-7.545459435;10.33668673;-5.791678035;-12.96229314;-12.51600204;-13.32562949;-23.88717516;-5.072158841;-3.219461124;9.853795335
14.08244052;-2.684299441;-6.58639549;-20.48361922;-3.770455975;-1.052913935;-36.74230091;39.9298348;21.88688458;-12.04110839;8.045608319;-6.978484866;-20.51023494;-17.38856347;-7.243872696;-12.57644193;-7.651089884;-5.353791476;6.294678421
11.9782677;-2.721610651;-6.993855922;-24.33537695;-5.381902248;-2.553450305;-32.19689053;35.93524627;19.9157341;-13.03780022;12.13294491;-10.11171101;-26.56356253;-20.3671685;-5.548571559;-2.654692684;-9.586009975;-7.451105169;3.124697189
10.74692828;-4.960740644;-7.872341938;-26.8105694;-4.575362755;-2.548336611;-21.762358;15.47445517;19.41633764;-11.92696214;21.27239828;-11.19416161;-27.63256139;-20.72332878;-12.30340605;-0.48715664;-10.52758903;-8.390450716;1.446805999
10.39167895;-8.344725175;-8.9871855;-28.07221925;-2.20344621;-1.083126448;-10.83615632;-16.86665599;20.16680599;-10.97594418;30.15197394;-8.066504636;-24.09883628;-18.73646679;-25.10210377;-6.121725704;-10.39455721;-7.427060234;1.651469543
10.71392727;-10.43846782;-9.533320282;-27.97688249;0.010898915;1.024590786;-3.748266367;-48.31824036;21.19902106;-11.43041995;32.72207171;-2.197335843;-18.80703138;-15.42747285;-35.46180265;-14.17750558;-9.480251661;-4.88465635;3.060332639
11.25395366;-9.323251548;-8.882296806;-26.5189729;0.517917101;2.619033703;-1.751606265;-65.1069923;21.22556855;-12.71210972;26.90710428;2.597501493;-14.24873841;-12.01258377;-34.387324;-18.40694492;-8.370253246;-2.290525518;4.200692945
11.225493;-5.459645156;-7.372047534;-24.36699289;-1.151658534;2.829203992;-3.161191581;-60.85946012;19.4841832;-13.26604501;16.88304347;3.358161141;-10.99353606;-9.400183474;-19.40840755;-16.21130206;-7.684630379;-1.633087241;3.602891775
9.766058889;-1.792946054;-6.307285213;-22.82034967;-4.169404497;1.532119774;-5.165914693;-40.48669223;16.4850073;-12.21436118;10.42677631;0.380767978;-8.424563218;-7.952153747;2.372570698;-9.88012665;-7.79142182;-4.097121513;0.66044591
6.543209501;-1.729660372;-7.003903278;-23.04406982;-6.952241084;-0.591363772;-5.788979587;-16.81847241;13.92648212;-10.32590926;12.83219199;-3.187617865;-6.471658277;-7.520980358;18.15394581;-4.110616526;-8.64890203;-9.136587021;-3.953330365
2.308351592;-6.442020363;-9.609227396;-25.13;-8.053284074;-2.419095918;-4.671776589;-2.316603274;13.55605999;-9.440944899;22.1634749;-4.163973863;-6.191756282;-7.636638683;17.95504385;-2.152453197;-9.842718465;-14.62507087;-8.558200208
-1.168475632;-13.68215966;-12.73803768;-27.7728921;-6.844022268;-2.958249635;-2.512094972;-1.608975588;15.6895661;-10.84540899;30.09818189;-2.118525344;-8.455419664;-7.73475858;1.661997308;-3.65871814;-10.78402435;-18.10148211;-11.29628321
-1.976823323;-19.20037465;-14.35100926;-28.92039648;-3.671702454;-1.8297498;-0.057797048;-9.835939773;18.62566949;-14.01030423;28.29208982;0.264586492;-12.18931099;-7.404539552;-20.76193658;-5.674221911;-10.98582493;-18.32041814;-11.09946644
0.711432246;-19.78721404;-13.25526319;-27.02012038;0.442801462;0.553746006;2.337838526;-17.48464692;19.67609513;-16.81641656;15.45318634;-0.412661421;-14.35663096;-6.645570552;-36.22208452;-5.631891633;-10.32055531;-16.04475396;-8.303457068
5.939536386;-15.60380293;-10.03034997;-22.03554281;4.276619956;3.174854344;4.41171588;-17.76176638;17.23647532;-17.12893879;-0.785471607;-5.12762847;-12.285579;-6.021613263;-37.45426262;-3.764328576;-9.147551715;-13.51705746;-4.567249997
11.3826076;-9.983157644;-6.606818734;-15.58541955;6.795294873;4.865790618;5.612390014;-11.04053172;12.29521243;-14.44044095;-9.298704812;-11.25386129;-6.496918867;-6.518055546;-27.34642996;-2.978128143;-8.203303689;-12.96541231;-2.074648616
14.69484278;-6.883187314;-4.820179923;-10.17648239;7.386714842;4.836997096;5.357102003;-3.496213615;7.99861435;-10.23508373;-4.438721849;-14.41908521;-1.243216238;-9.015910339;-15.65915671;-6.337231188;-8.230401907;-15.16349736;-2.36935679
14.8888185;-8.016944845;-5.107523505;-8.046207279;5.976827678;3.061986779;3.817394461;-1.573186665;7.358846095;-6.791243642;8.422084778;-11.97045733;-1.678327962;-13.59222065;-11.13037704;-14.18207564;-9.491733445;-18.99369733;-5.434739948
12.79592541;-11.87176529;-6.38300887;-10.23640148;3.044029315;0.34091054;2.319064319;-6.883360676;10.79130948;-5.42788058;15.49200025;-5.255471152;-9.595528357;-19.11992329;-15.33991654;-23.18133967;-11.46805337;-22.23191966;-9.588396259
10.32656855;-15.23749158;-7.129239087;-16.22576298;-0.513807874;-2.025200283;2.564226639;-15.37825503;15.52468661;-5.628287085;3.920790618;1.149837148;-21.29784844;-23.58644;-22.86822115;-28.1532814;-13.00983844;-22.94172797;-12.35502103
9.121546329;-15.84504408;-6.72723884;-24.10300181;-3.682616536;-2.847868163;4.978485683;-21.00103895;17.58597762;-5.700913041;-28.68730544;2.699729745;-29.73826044;-25.11201177;-26.89513582;-25.44575827;-12.95232695;-20.53044806;-11.884823
9.579937688;-13.93285943;-5.881663795;-31.13155708;-5.709712975;-1.678402096;7.579574892;-20.52879129;14.98443657;-4.337673348;-71.48464526;-1.894953063;-29.58933686;-23.09923061;-25.04098247;-15.52466175;-10.85468628;-15.86746977;-8.075224214
10.87963889;-11.59118162;-5.808765722;-34.59893984;-6.365271662;0.893805424;6.711565771;-15.68089879;9.586839635;-1.710925778;-106.3324958;-9.908242973;-21.29567888;-18.72446364;-20.53564241;-2.962667138;-7.363738781;-10.56601052;-2.663558462
11.81124474;-10.63642793;-6.932238561;-32.81732695;-5.944254471;3.49230348;-0.411481669;-11.08830833;6.026863069;0.799143137;-118.316688;-16.74970903;-10.76677863;-14.33679732;-18.24841465;6.195630644;-3.903651624;-6.039289541;1.808534855
11.68144369;-10.92090899;-8.249864839;-25.94;-5.033139999;4.680830692;-13.08708624;-10.15444914;8.278744465;1.94942985;-103.7668565;-19.21917694;-4.832924513;-12.06832908;-19.6866196;7.960991764;-1.852345911;-2.936562103;3.501917731
10.62766377;-10.48205067;-7.949983617;-16.08735669;-4.208349897;3.785933793;-26.61925829;-12.36505699;16.46597723;1.838243891;-71.01493953;-17.34840834;-6.066843762;-12.55113058;-21.74075465;2.548710798;-1.747943967;-1.155971849;2.268059656
9.270686411;-7.308281822;-4.794009964;-6.465452173;-3.827299295;1.323081064;-34.74162533;-14.12089962;26.45345854;1.903546265;-34.44830478;-13.61028936;-11.12164462;-14.61293773;-20.23651852;-6.135642821;-3.065455397;-0.210988039;-0.507486771
8.166755706;-1.177087061;0.846718687;0.229907649;-3.947206409;-1.267289161;-33.5306801;-12.09878532;32.69034936;3.709575917;-6.592287534;-10.43018913;-13.84542312;-16.16289983;-14.71570516;-13.17546512;-4.69568287;0.393763328;-3.017946651
7.560726897;5.926607066;7.097058482;3.20439719;-4.310734902;-2.45248642;-24.04785241;-6.129552887;32.21627227;7.564292539;6.790283382;-8.179204123;-10.51188326;-15.64843459;-9.600894056;-15.6280507;-5.750595445;0.950817989;-4.256622046
7.527315537;11.04468597;11.68338959;3.771053662;-4.375492739;-1.517629196;-11.72504983;0.780166007;26.75813027;12.15178104;6.732493157;-5.239844589;-2.837300493;-13.07515256;-10.23624089;-13.89805656;-6.104310403;1.467033818;-4.48901552
8.168112103;12.06138786;13.15235293;4.122788224;-3.469587258;1.007363386;-2.872354749;5.072856987;21.27509049;15.4956896;-2.048958426;0.084915424;3.601304008;-9.917049921;-17.2427199;-10.7944191;-6.315692612;1.643553424;-4.744728427
9.522700716;8.753289268;11.3680903;5.49762461;-1.151783392;3.669133983;-0.801928723;5.479460612;20.07306724;16.4483447;-14.37142374;7.552113576;4.073230005;-8.042707643;-24.60038101;-9.162006358;-7.064798294;0.969597298;-5.847624315
11.24036027;2.555034085;7.160793628;7.125854869;2.338106639;4.954890428;-4.261408899;3.64748537;23.52221694;15.47859863;-26.15437463;14.58597723;-1.449818151;-8.449505595;-23.85836003;-9.853970032;-8.579036626;-0.970291581;-7.783882572
12.42625176;-4.424820213;1.67266339;6.84616537;5.883541819;4.159988866;-9.034034481;2.229586511;27.9321822;14.14694793;-34.66472783;17.85416202;-8.377516779;-10.66374918;-11.36772346;-11.40407668;-10.47097114;-4.038737267;-9.834946065
12.0113631;-10.26563809;-3.999202152;2.99719985;7.883745453;1.74183891;-11.20439803;2.355537831;28.6353414;13.7624735;-38.62790661;15.56908538;-11.22502753;-13.13243682;7.659067147;-11.4305846;-12.04029445;-7.255609315;-11.23364778
9.507428829;-13.61644733;-8.783198711;-3.880464217;7.19071707;-1.01033996;-9.571665925;2.832029067;23.79498635;14.37056316;-38.61405486;8.75824615;-7.741393569;-14.23745448;22.16863047;-8.555618199;-12.73599748;-9.045432143;-11.71421473
5.54431431;-13.90325319;-11.65708352;-10.94895253;4.032725729;-2.735779223;-5.689803966;1.710171689;15.91718627;14.89215621;-36.959727;0.624703134;-0.143916297;-13.21047637;23.3455431;-3.361275858;-12.41395597;-8.071786486;-11.51821301
1.627864025;-11.71483957;-12.0761739;-14.7904477;0.170939502;-2.715082356;-2.026167055;-1.369266588;9.91608139;14.2364129;-36.4423485;-5.41328684;7.174051184;-10.41165882;11.24662235;2.230402001;-11.26558651;-4.198209704;-10.9673763
-0.852034092;-9.127918159;-10.59902851;-13.69872162;-2.049000234;-1.15285293;-0.030351233;-4.364397287;9.335677916;12.40017095;-38.14603345;-7.534280773;11.15368663;-6.939916944;-5.531198811;6.487566881;-9.58673324;1.148194545;-10.10126363
-1.663346471;-9.248972484;-9.030308293;-8.804836023;-1.26489904;1.048352247;0.450040283;-4.434265656;13.74871688;10.61527151;-40.16332727;-6.012909131;11.79267522;-3.960078125;-16.88930057;8.970248504;-7.641516495;5.633943008;-8.760776273
-1.975205564;-14.6076555;-9.58955124;-3.18194294;1.808012757;2.812180198;0.414727685;-0.558729997;19.32954176;10.43159515;-38.5663057;-2.349871737;11.0109667;-2.197733923;-19.0336714;10.32312039;-5.710251776;7.391716603;-7.01377148
-3.516283881;-25.12141988;-13.4167152;0.348485275;4.67548068;3.39669944;0.725831707;5.256547429;22.01846446;12.50856645;-30.364997;2.056520613;10.23219685;-1.810367824;-16.47637079;11.0726146;-4.184632156;6.193721801;-5.441376539
-7.215464187;-37.17909832;-19.45637891;0.99906624;4.721723836;2.664487741;1.826222056;9.44011298;20.67644091;16.09877303;-16.35869175;6.659521254;9.179634907;-2.547667124;-16.70137602;10.66049375;-3.515369414;3.557077291;-4.902030331
-12.34056132;-44.99145918;-24.70063317;0.084472151;1.131348998;1.062654185;4.027959586;9.844182358;17.76766734;19.60815508;-1.533585776;11.55925315;6.901206254;-3.984853559;-22.36257093;7.781189349;-3.976803723;1.658424231;-5.884778421
-16.80840586;-43.7713815;-25.83931063;-0.483342024;-4.340888199;-0.6148508;7.512150131;7.668665097;17.19697446;21.74412347;7.641195477;16.77682692;3.699121022;-5.682127208;-28.0670761;1.923274695;-5.424730087;1.837000763;-7.99648791
-18.4653511;-32.73125724;-21.26900646;0.128910655;-8.414392718;-1.570459156;11.60876427;6.541592547;21.19019337;22.3383765;7.300463943;21.74858716;1.723764953;-7.258985455;-24.8111708;-5.198513186;-7.275980435;3.797008972;-10.08368466
-16.42405263;-15.7187389;-12.06431325;1.253576783;-8.478562277;-1.341616111;14.05880221;9.416146805;28.70793383;22.25846893;-1.208027737;25.4523989;3.352669661;-8.439630935;-8.392791465;-9.817922308;-8.775340299;6.077310761;-10.97911232
-11.54077796;1.105175646;-1.249151919;1.782400708;-4.386118569;-0.02222669;11.51516903;15.88808124;36.45;22.57324263;-12.0515187;26.9923784;8.772612004;-9.099102423;15.51719122;-8.257369376;-9.384484242;7.34782278;-10.32229579
-5.790713381;12.95237711;8.041018162;1.590494629;1.453943197;1.741596206;1.686528974;22.25839538;41.35587114;23.67781342;-18.48019152;26.131883;15.17079788;-9.288846913;34.29455534;0.257479281;-9.034031855;7.436113923;-8.808867137
-1.081716693;18.82695456;14.1484974;1.894394444;5.741932869;3.028530598;-14.15797962;24.36070146;42.45839498;25.0189629;-16.82987971;23.38389259;18.60057136;-9.211367152;37.19761631;12.23094189;-8.095345864;7.240039063;-7.667708871
1.660465142;21.05473798;17.19507829;4.114351138;6.486040572;3.104143914;-30.53953141;20.81709875;40.77623094;25.52673446;-8.439726673;19.65275435;17.1083623;-9.143492945;23.03555835;21.32237158;-7.136203471;7.649666043;-7.774410063
2.648573578;22.57539916;18.15310425;8.232549909;4.161162174;1.840946117;-40.21992686;14.02222019;37.75914708;24.33899358;1.453791988;15.72394243;12.40659428;-9.331378738;0.568319329;21.96447178;-6.642174182;8.474889084;-9.074065887
2.756838334;24.34073793;17.67866522;12.20381759;1.088756196;-0.159705476;-38.6028374;8.100679606;33.96492201;21.29430766;6.813229464;11.92551252;8.535498489;-9.87876008;-18.39591207;12.88446889;-6.840546081;8.398026246;-10.70289108
2.894375148;24.89415249;15.71989147;13.13982708;-0.363773103;-1.856981936;-27.0407154;5.647128961;29.17562331;16.9583353;3.87143829;8.105064451;8.596485364;-10.65231627;-27.33671234;-1.884049547;-7.644105833;6.090914799;-11.63293479
3.6082235;22.24725645;12.07845109;9.440695065;0.634737645;-2.335784303;-12.37034956;6.018202444;23.60910745;12.31421415;-7.390937228;3.872094522;12.37407532;-11.25895841;-28.16355007;-15.28335219;-8.675215824;1.58348097;-11.30133393
4.955172532;16.20861426;7.201201804;2.134823492;3.105256986;-1.322873494;-2.635698735;6.496600648;18.75746131;8.382671207;-23.68415549;-1.036381926;16.87914254;-11.17386541;-27.33769442;-21.36020324;-9.370708252;-3.343211417;-9.797748171
6.490078125;9.017979974;2.311592761;-5.753875198;5.289570922;0.658418724;-1.901223546;5.101672922;16.7483353;5.920348446;-40.04307461;-6.423167863;19.21552677;-10.04187954;-29.13058393;-18.57316775;-9.206368295;-6.223591916;-7.613843944
7.323113771;3.709670677;-1.332841674;-11.38222231;6.018151329;2.587734161;-7.912392883;2.438100847;18.61998773;5.19335327;-51.65775496;-11.48815041;19.08201669;-8.023597336;-32.13748177;-10.26242161;-8.009231133;-5.697145725;-5.294687637
6.387930374;1.668303867;-3.40012288;-14.06546637;5.343585648;3.513551416;-14.29652688;0.955603416;23.09340677;5.828062322;-55.24923858;-15.0093529;18.60570513;-5.919513445;-31.66214628;-2.250019531;-6.177321427;-2.603932041;-3.295534226
3.02382305;1.563079413;-4.746817699;-15.43611308;4.109289791;3.045757087;-15.5536944;2.416879855;27.14245575;6.859989452;-49.80272201;-15.86236828;19.7414313;-4.848202665;-25.06378675;0.632259713;-4.568759503;0.561552734;-2.034571931
-2.348566895;0.636327498;-6.664333163;-17.66171342;3.018102434;1.5064619;-10.98621565;6.026479613;28.09829846;7.119943425;-36.69823859;-13.66983588;21.83343351;-5.537517377;-14.69095118;-3.116341532;-3.993800652;1.50112147;-1.891520083
-7.97882876;-2.747451335;-9.698797227;-21.24048824;2.072658192;-0.302045705;-4.646624729;9.048617253;25.58905861;5.886831841;-19.28519474;-9.186719576;21.88385746;-7.648143437;-5.702807707;-11.53961721;-4.573813422;-0.138319212;-2.983690625
-11.38493282;-7.502522909;-13.04518326;-24.29152201;0.800024414;-1.535395909;-1.594544499;9.398683871;21.65771646;3.436745861;-1.945977809;-4.080847297;17.55304364;-9.680078125;-1.180350346;-20.78487415;-5.448094885;-2.492601373;-4.864088356
-10.65873211;-10.58097716;-15.05767092;-24.04126334;-1.074764794;-1.700292425;-3.643723213;7.777474838;18.94815366;1.035305483;11.18254674;-0.121434033;10.18937929;-9.716094347;0.444735027;-26.97427197;-5.163641067;-2.923462281;-6.492326781
-5.721861243;-9.482798239;-14.48760603;-19.35622039;-3.205837687;-0.833280576;-8.03647991;7.226288527;18.53959089;0.229295118;17.47306712;1.764981668;4.827470767;-6.660590538;2.961777241;-27.38416937;-2.604055869;-0.074271483;-6.679903099
1.360554672;-4.423079284;-11.45857929;-12.21117252;-4.856574984;0.561454595;-9.966168416;10.30970567;19.30767454;1.821221346;16.602997;1.929548354;6.617971439;-1.165215067;7.337746483;-20.90617528;2.153422172;5.04;-4.802077123
7.352927634;1.639570935;-7.414983461;-6.734354125;-5.54654824;1.742868915;-6.700787249;16.40329788;19.29770295;5.23411062;10.52257332;1.582076957;16.43189422;4.494419665;9.324503076;-8.317928537;7.714701439;9.724616684;-1.266426831
9.581202417;5.121649386;-4.117052556;-6.368885139;-5.492682412;2.036965816;0.157677081;21.66565609;17.7607702;8.776637745;2.529111762;1.791040505;29.45486255;7.667191136;2.73518829;7.441496529;12.16466046;11.51704298;2.664132142
7.356233865;4.356575113;-2.485000843;-11.23103419;-5.418067652;1.12838101;6.079732913;21.99419097;15.91130637;10.69184801;-4.216807321;2.652952575;38.31239506;6.961495232;-14.07744057;21.5170264;14.28427585;9.861242859;5.628800884
2.230648432;0.591340064;-2.138378436;-17.70137691;-5.879510869;-0.751083849;7.394209811;16.55709733;15.68517877;10.28198314;-8.046960642;3.302992014;38.4552153;3.169549064;-34.60638828;28.59065222;14.33165777;6.346797003;6.989886043
-2.978232099;-3.178759615;-1.867767324;-20.673188;-6.700999551;-2.838738745;4.240820885;8.79900509;17.70329171;8.320268201;-9.259015624;2.800773306;31.46604537;-1.19581754;-47.56546894;25.40331617;13.80535533;3.464043858;7.140217618
-5.702303203;-4.436087426;-0.574661456;-16.93684519;-7.02112307;-4.122597427;0.266079303;3.871491663;20.46984122;6.471800611;-9.352775409;1.193102667;23.52595307;-3.484263995;-45.26301098;12.99690516;14.34014532;2.911560422;7.102683191
-4.774387706;-2.675431824;2.019035665;-7.362890626;-5.953337141;-3.822734115;-0.585494273;4.537739799;21.72235939;6.161616592;-9.456475642;-0.172427714;20.27837444;-2.550842133;-30.08504412;-3.08989252;16.52374956;4.685083377;7.74097491
-0.725458031;0.68539609;5.268510715;3.573140135;-3.35820339;-1.851570046;2.581606906;9.026096192;20.77042096;7.698517187;-9.071413826;0.511541546;22.37198959;0.649168834;-13.1721483;-15.38604972;19.47847973;7.425840926;9.144088888
4.669676037;3.543464283;7.99153213;10.51727146;-0.13692608;1.029317142;6.959692817;12.72077044;19.5577861;10.22142736;-6.260899589;4.031458692;25.40161793;3.876461082;-5.787804013;-18.57179103;21.48598778;9.513721223;10.5663758
9.181986187;4.29407576;8.993149732;10.34500022;2.184796548;3.51570617;8.613912097;12.26866617;21.19518786;12.40236445;0.544456715;9.155240184;24.21433173;5.205626306;-10.31499676;-12.48158605;21.18428023;9.970394021;10.891766
10.91990455;2.209297023;7.50679524;3.703391734;2.315316632;4.421722977;6.101636564;8.521008204;27.03714996;13.32527125;10.33091528;13.00959242;17.79449877;4.262318072;-18.52720636;-1.901604853;18.49390028;8.632335742;9.281221224
8.999649865;-2.746563066;3.535272427;-5.744106172;-0.036387432;3.338391507;2.038150921;5.677043791;34.90616859;12.93413777;18.78879137;12.75756981;10.43249679;2.279203697;-18.83054038;6.793952651;14.67827608;5.793642687;5.641555488
3.999066156;-9.95736842;-1.927111435;-13.58059299;-3.917889024;0.889244731;1.151321235;7.325782719;40.2811355;11.85686839;20.23671417;7.497330341;8.101350657;1.035083678;-6.507301662;9.815610532;11.57510887;1.901288731;0.739159995
-2.049841782;-17.82731743;-6.988511897;-16.85340636;-7.517136565;-1.598415927;6.228598476;12.91460682;39.70532464;10.87795568;11.3517221;-0.959848469;13.16690419;1.517235551;11.74433037;7.955021761;10.55982249;-2.380232638;-4.034010798
-6.393570246;-23.67865787;-9.505249917;-15.0578882;-8.964744579;-2.83273047;15.15432122;17.95340818;33.57768373;10.48828559;-5.84133606;-9.045602371;22.09384657;3.264470939;22.95548673;5.054529059;11.8738415;-5.984430582;-7.15907756
-6.919925819;-24.62318756;-8.187866732;-9.716455417;-7.193761482;-2.273584702;21.5417721;18.03328495;25.84554145;10.7388411;-24.2022019;-13.52104649;28.28680704;4.7803657;18.45097418;4.309654195;14.60961384;-7.637098783;-7.634737572
-3.483179912;-19.31129679;-3.569243216;-3.225278824;-2.493613601;-0.403813073;18.80690104;13.22412395;20.76535469;11.3288093;-35.2920089;-13.28383366;27.73158194;4.624930422;0.896529438;5.439799024;17.21628481;-6.575531233;-5.551937182
1.742078255;-9.359606855;1.95177372;2.206752543;3.508141252;1.591808679;4.921751271;8.743737331;19.55146825;11.75364482;-34.4192766;-9.701085715;22.5302365;2.375383315;-18.10723767;5.043665799;18.17791208;-3.312661775;-2.270078125
5.362995426;0.944815001;5.307532698;5.13121383;8.509489259;2.5297308;-15.53492398;10.76242761;19.93802675;11.46195219;-23.41433684;-5.35585882;19.05722602;-1.160092773;-27.69391522;-0.136545906;16.57239392;0.298105805;0.074568711
4.815698031;6.932456407;4.611628208;5.047399175;10.62180633;1.890979564;-33.60559366;20.46988267;19.08436355;10.10417519;-9.150305793;-2.228002495;22.03173946;-4.509336545;-26.25910627;-9.740803627;12.37716815;2.004708269;-0.350413939
0.034759182;6.447995539;0.437210288;2.448037344;9.363646053;0.075242339;-41.11589477;31.45879763;17.08878124;7.884144406;1.040525497;-0.660900293;29.47;-6.409902757;-21.55506755;-19.09730629;6.478227562;0.580076904;-3.956292581
-6.480267732;1.237990166;-4.463003742;-1.247347606;5.960363345;-1.86311865;-35.44237681;33.22560309;17.57363208;5.785010477;3.643555116;0.236257402;33.06820336;-6.414870846;-22.53013554;-22.16555768;0.357155736;-3.31;-9.340078125
-11.35275045;-4.326942479;-6.927543721;-4.071257918;2.654880512;-2.812651772;-20.83564388;18.75377275;24.33153184;5.318309883;-0.008877419;1.263120824;24.25331907;-4.947197363;-30.37382266;-16.05997901;-4.505732011;-7.527087034;-14.02879205
-12.62463445;-6.352507661;-5.47317578;-4.316070758;1.338860262;-2.194575515;-5.531340972;-9.411705682;36.81077933;7.684379031;-6.098317286;2.092142248;1.401150319;-2.917446192;-36.91754158;-3.711139949;-7.308266622;-9.954882841;-16.00481789
-11.01;-4.072020374;-1.243628674;-1.502219136;2.332990214;-0.245505501;3.399368033;-39.4755443;48.81556781;12.74653729;-11.50398898;1.43;-27.54310291;-1.23443578;-32;7.504475487;-8.326985268;-10.00833554;-15.0157714
-9.19953151;-0.120773032;2.825783438;3.103056563;4.153632828;2.121377901;4.128395696;-57.34777678;52.43285652;18.58857226;-14.97474355;-1.756165152;-49.44898972;-0.482666838;-13.36611096;10.35278191;-8.74112527;-9.04120797;-12.71380212
-9.763691899;1.637244724;3.983707626;6.941831778;4.497006604;3.77967929;0.541028695;-55.49865086;44.57975516;22.229803;-15.79320832;-6.999387485;-54.43600591;-0.840394169;9.779892272;2.338196428;-9.902538326;-9.340058594;-11.46208841
-13.24289348;-1.047846587;1.360501369;7.548896895;1.827711001;3.941271669;-1.049618806;-37.46844126;30.66427242;21.31257641;-12.13174138;-12.17632663;-42.26200632;-2.153332224;23.06782286;-12.88401762;-12.46903389;-12.43521621;-12.63609943
-17.82296816;-7.430306959;-3.71563065;4.113143491;-3.5046457;2.536178991;3.333240965;-14.96326486;21.53011991;15.76251514;-1.69331817;-14.66375891;-22.09229165;-4.050450145;18.04791167;-28.09616468;-15.96726111;-17.93987388;-15.65965132
-20.74173194;-14.64156815;-8.795466547;-1.81953324;-9.396764703;0.246466707;12.28361481;0.140803895;25.18514466;8.221363748;15.22800981;-12.97389681;-6.021020992;-6.049278415;-1.259794724;-37.05922014;-19.08916825;-23.70771147;-18.48530215
-20.26734906;-19.80101457;-11.82448016;-7.103246941;-13.27274104;-1.824424396;19.72466271;3.065236099;39.53502551;2.745572019;33.1872363;-7.644712134;-1.209728753;-7.65776927;-21.89229663;-37.77202267;-20.51832208;-27.13898847;-19.13665946
-16.75443067;-21.59274426;-12.03189636;-8.862216604;-13.61346722;-2.696434579;18.93649951;-2.226424751;52.30551881;2.446328218;42.97323272;-0.761422699;-6.179439984;-8.489347484;-32.48608314;-32.48368552;-19.71450078;-26.70808691;-17.12927726
-12.12146498;-20.33489775;-9.833156146;-6.301875969;-10.70304704;-2.008813077;7.247935286;-7.48878171;49.10071036;7.571376199;37.34304939;5.430236916;-13.36751722;-8.382144304;-31.82061823;-25.06879632;-17.14625803;-22.74472425;-13.71387718
-8.354807935;-17.02972359;-6.20570278;-1.217664534;-6.183570851;-0.21060448;-11.74455628;-6.851584754;24.05037459;15.33612927;17.2497253;9.692480269;-15.39353077;-7.487743707;-28.20842435;-18.17959999;-13.89450476;-17.10561636;-10.83189233
-6.29225534;-12.61668001;-2.227173572;3.217414094;-1.879938751;1.668845788;-29.9741491;-0.645916198;-14.98247967;21.6656875;-6.851885749;11.91380515;-10.14715331;-6.283780371;-30.61652476;-12.31386725;-10.99713043;-12.0996384;-9.667627793
-5.51824332;-8.07117996;0.985706298;4.602770606;1.199250179;2.563540073;-39.60997925;5.950343922;-50.87520394;23.70030378;-20.9;12.32172361;-1.310803908;-5.466947375;-39.6093921;-7.023144881;-9.013195939;-9.371294972;-9.928173721
-5.177881153;-4.819773857;2.280323624;2.894211149;3.058609744;1.941952172;-37.62244155;7.699002092;-68.35892713;21.39398657;-16.82869868;10.72949965;5.289304788;-5.707639465;-46.29700491;-2.652131964;-8.008689224;-9.287251361;-10.31895483
-4.812256433;-4.459617635;0.843473255;0.265242821;4.192738066;0.090753823;-27.25637255;3.464686334;-63.65648614;17.19297228;1.26963946;6.665672841;6.155012383;-7.313036245;-40.37648483;-0.757915088;-7.787047867;-10.97131913;-9.698337345
-4.491718904;-7.535361431;-3.11703241;-0.672090013;4.951146078;-2.048783227;-15.55791859;-3.294264844;-45.70632414;14.14428215;19.63803885;0.332456431;2.039166985;-9.940306351;-20.25713885;-2.779467108;-8.049610432;-12.82581899;-7.913354643
-4.315774115;-12.39147127;-8.000534522;1.046917869;5.343812378;-3.397661434;-8.755384879;-7.593463278;-28.53136596;13.85754959;24.73354698;-6.566937973;-3.551571346;-12.55744129;3.77937766;-8.265982427;-8.36397991;-13.27759531;-5.699107723
-3.968930815;-15.5190307;-11.34525492;3.976022469;5.327680921;-3.314720261;-8.655082631;-6.772287747;-20.96266213;15.75071991;13.23407135;-11.15082348;-7.420039063;-13.78022366;16.59616972;-14.46836028;-8.110275985;-11.48829144;-3.878302255
-2.900482101;-13.72419826;-11.16652339;5.481325025;5.147094547;-1.911696291;-12.3429837;-2.135881;-21.52432216;17.97869465;-5.541046129;-10.92839669;-8.649677203;-12.50676406;9.893909307;-17.92258251;-6.648304009;-7.757284465;-2.658648993
-0.991390532;-6.691293825;-7.221196226;4.060424542;5.29307655;0.049225445;-15.05289769;2.530230567;-21.77697112;19.17301799;-16.76249687;-5.556840997;-8.256245535;-8.539439584;-11.03983059;-16.85199054;-3.713492967;-3.371522093;-1.632792724
1.004636274;2.260790847;-1.189534076;0.9157905;6.06822204;1.589800868;-13.86530481;4.021942753;-14.64495397;19.56927913;-11.26650776;2.642721209;-7.438128446;-2.810429491;-31.14628404;-12.38537794;0.260287975;0.13976567;-0.370006104
1.823229358;8.276395392;4.486979865;-0.594980964;7.176466667;2.023082912;-9.519992457;1.861911111;-0.690810636;20.65850971;7.867533183;10.01021463;-6.324601357;2.984411386;-36.89857531;-7.495337009;4.242455612;2.005025184;1.061538684
0.683600372;8.627281359;8.308567215;2.604089114;7.787135973;1.264352508;-5.250827403;-1.891438759;12.43756321;23.70700296;28.18953177;13.88263474;-4.298750666;7.176710052;-25.96830077;-4.472515989;7.169576623;2.818322676;2.183882722
-1.921993671;5.088880967;10.66617797;10.76600138;7.116256005;-0.186504196;-3.864746803;-4.624620511;16.30099536;28.39634803;37.47272922;14.23932644;-1.314042888;8.886473909;-7.731438034;-3.044277438;8.585900582;4.213465415;2.698179261
-4.414590401;2.877996187;13.27989043;20.68279633;5.090207942;-1.538327729;-5.505034174;-5.160667107;8.145525115;32.73952336;32.18708754;13.4021474;1.301823264;8.304929904;5.201709777;-0.783523139;8.839752187;7.651479252;2.915362267
-5.268825698;6.629785969;17.54189198;27.59236167;2.536959985;-2.101033813;-7.79465352;-4.2916353;-7.579664361;34.41096446;18.47116191;14.00395605;1.499501743;6.368021649;7.026720032;4.439104104;8.637526572;13.08024403;3.478034347
-4.241113051;16.38944445;23.04990125;28.31409078;0.70213667;-1.58773918;-8.040252545;-3.734363541;-23.26370285;32.48638602;5.769825161;16.77596335;-1.863977921;4.090115238;2.166569571;11.98176713;8.297188751;18.48309061;4.518858251
-2.675043576;26.84723402;27.48702446;23.28895838;0.418543444;-0.212765309;-5.544054453;-4.586718747;-33.78416318;28.21924893;-0.77956744;19.83895209;-7.850900705;2.019416129;-0.125714898;18.11736243;7.336697037;20.82568896;5.045938752
-2.583100951;30.68893867;27.98531711;15.99178596;1.532468574;1.426102137;-2.096221796;-6.534086492;-39.03325601;24.18894236;-2.804915032;20.00750869;-13.79596491;0.130556307;5.249312048;18.39880701;4.797434509;17.91980936;3.300485886
-5.181051058;23.75039757;23.01506962;10.20765089;2.99850025;2.613356428;-0.307649051;-8.270224321;-41.86192452;22.41090057;-4.789887361;15.07882768;-16.96796556;-1.878943998;14.51860542;11.03668004;0.103994039;9.976128952;-1.947666872
-9.978282273;8.184201228;13.50151616;7.329876427;3.568320497;2.821485253;-1.24886375;-8.618039839;-44.11623795;22.83515829;-8.407986217;5.397999991;-16.25058678;-4.192015451;18.34596129;-1.328073653;-6.208883155;-0.268480421;-10.08331824
-15.06341669;-8.720301966;2.477350171;5.792438047;2.599478574;1.941539454;-3.412200177;-7.416853721;-44.75176446;23.41335155;-10.89194444;-6.341990168;-12.6012437;-6.679000915;9.967185105;-12.97462926;-12.51073768;-9.00946358;-18.42645269
-18.28608475;-19.18709844;-6.406881773;3.000925563;0.468587972;0.344862373;-3.895067099;-5.570544874;-41.5838234;21.74102011;-8.869577984;-16.7133443;-8.098606986;-8.987426211;-8.894547823;-18.75222038;-16.88252828;-13.46898948;-23.50067386
-18.41220446;-19.69024126;-10.54149775;-1.925111312;-1.636130921;-1.264030536;-0.853766981;-4.339592816;-34.55062294;17.05852434;-3.428712154;-23.27028792;-4.489591404;-10.7645154;-29.10369335;-17.42492099;-18.16296962;-13.24431136;-23.0524769
-15.49378925;-12.51471704;-9.300451229;-6.959306784;-2.390396906;-2.160153559;4.79181648;-4.461619605;-26.9175096;11.06308459;-0.661036386;-25.25227841;-2.381370736;-11.81580524;-40.89024004;-12.27477787;-16.51271697;-10.09693857;-17.45112317
-10.42063604;-3.402353285;-3.976489239;-8.604965734;-1.096660549;-1.947016402;9.855288534;-5.708151123;-22.92133724;6.835277161;-6.196702603;-23.18626614;-1.496780979;-12.13407953;-40.53326355;-8.531825616;-13.16007813;-6.491296611;-9.484521555
-4.236733332;2.606854517;3.015238904;-4.833981156;1.852907464;-0.77136611;11.28954376;-7.11666054;-23.92495215;6.608475063;-18.42848113;-18.17392358;-1.454254511;-11.87356388;-31.8020785;-9.523001321;-9.594620084;-4.008989881;-2.691157718
2.190450002;4.030717792;9.186216013;2.915838449;5.050255028;0.723859461;8.664744736;-7.678070795;-26.81520025;10.03961125;-27.31758287;-11.6119162;-2.200539488;-11.34579031;-21.78979482;-14.32937916;-6.808821385;-2.695105244;0.626142668
8.067118685;2.801629644;12.89599023;10.44461983;6.696489949;1.712693202;4.747618209;-6.992001505;-26.49327865;14.34184561;-21.34165696;-5.303198051;-3.735047497;-10.99631191;-15.28517972;-18.57352343;-5.03070238;-1.571626412;0.417002433
12.52725208;1.879435442;13.90315837;13.79238852;5.541409724;1.623405796;3.596348325;-5.45167196;-20.52439007;16.28827398;2.275116251;-1.261628803;-5.559991724;-11.24841127;-12.33098481;-17.64794235;-3.938490619;0.318150441;-1.581625035
14.8150348;2.852731413;13.35845836;12.24291715;1.681589161;0.471928354;7.449444505;-3.841616597;-11.79874752;14.6717034;32.79908266;-0.73657081;-6.592133762;-12.19721574;-10.18026048;-9.981750622;-3.019824865;3.221111664;-3.254568627
14.72147377;5.275934618;13.15065244;8.9550309;-3.290868536;-1.102647486;14.64791575;-2.64078139;-6.544450142;11.38282144;51.84740253;-2.944089619;-5.80513464;-13.34298048;-6.936475664;1.948380145;-1.777247939;6.752176307;-3.389280264
12.82040637;7.752063727;14.80253396;8.661408144;-7.040391279;-2.146435592;20.1864322;-1.566651043;-9.055266678;10.20770367;46.43832487;-4.734123449;-3.098639367;-13.65152612;-3.233956237;13.40313931;0.22500831;10.43365265;-2.057095263
10.15255292;9.390747104;18.48112986;14.13403322;-7.857824827;-1.900541049;18.69886818;0.226508889;-17.54833315;14.09710719;19.33203323;-2.062963348;0.435482851;-12.06241738;-0.81527975;20.48127465;3.266779613;14.06113014;-0.111743498
7.520518877;10.30855953;22.78623177;24.03504723;-5.852891161;-0.245354693;7.996932966;3.353490458;-24.88469874;22.82281482;-11.84157098;7.249916848;3.217369591;-8.208594795;-0.07065569;22.25870872;7.212899936;17.54343637;1.569771681
4.980474148;10.99724476;25.5712588;33.67311201;-3.103781544;2.17231792;-9.153088422;7.386989933;-23.91348982;32.73714763;-26.63031495;21.32415685;4.363422026;-2.853263407;0.591266702;20.60498668;11.25515457;20.43833067;2.475981073
2.003932622;11.45746029;25.32084958;38.00126455;-2.465501983;4.223959407;-26.2320335;10.7546414;-13.26399916;38.90157666;-16.07873825;34.44280849;4.380585835;2.348200089;2.848433483;18.13847359;13.98169181;21.72865215;2.337936895
-1.805208764;11.04234158;22.12596362;34.6513888;-5.659600902;4.869294392;-36.47118513;11.62657456;1.128800847;38.17931589;11.47747665;40.01668505;4.757749579;5.707262417;6.165157015;16.09182827;13.92669836;20.17928005;0.841964664
-6.085561083;9.101049989;17.52952211;25.01051007;-11.89519809;3.718324646;-36.52549768;9.289787732;10.11362599;31.19673234;37.24103286;34.5606989;6.754644506;6.456290971;7.769513127;13.72473178;10.35744679;15.09139926;-2.392155487
-9.793640432;5.693067833;13.36552341;12.96130255;-18.06174753;1.277081216;-28.0925431;4.98039547;7.886546367;21.86355311;45.69150451;20.0124938;10.37331466;5.154083395;5.306563544;9.558265177;3.785645403;6.90099372;-7.470809453
-11.97545306;1.64238111;10.51531571;2.540401388;-20.52311316;-1.276118438;-16.56348231;1.385067951;-4.024907264;14.8307008;34.55871809;2.727406622;14.35089032;3.258386319;-0.314076371;3.240256145;-4.18711924;-2.836732448;-13.82943173
-12.58051739;-2.073422717;8.562368622;-3.809996622;-17.40439371;-2.686911858;-7.65626514;0.965424115;-18.24797842;12.6471585;14.060607;-10.23244557;17.14957666;2.163090365;-4.909310383;-3.587763477;-11.62877609;-12.08096135;-20.19003906
-12.57760905;-4.942513223;6.552594367;-5.599959261;-9.843976968;-2.285590329;-4.203901773;4.224633267;-27.06113091;14.49328031;-2.624059614;-15.02855091;18.08141876;2.364958776;-4.371055123;-8.183375094;-17.153302;-19.13817633;-25.01667579
-13.21259945;-6.954541837;4.110602812;-3.675333123;-1.343518334;-0.353555133;-5.072003717;9.222791261;-27.49496629;17.19189393;-9.072787775;-12.65003906;17.61745596;3.303932528;1.432926419;-8.674838023;-20.36492643;-23.2034489;-27.21252488
-14.99591238;-8.134619663;1.872067092;0.470575217;4.35617853;2.015700732;-6.70347934;12.80877075;-22.34965141;17.62124568;-7.912903283;-7.390528516;16.66959339;3.919663526;7.939408404;-5.551502628;-21.66213167;-24.39079244;-26.6026315
-17.25459329;-8.201796077;0.851179523;5.025064822;5.452669189;3.499972039;-6.027239025;12.75439995;-16.96388676;14.79780222;-5.211250379;-3.575578442;15.55304848;3.47589789;9.495013434;-1.461635606;-21.65261065;-23.37700065;-23.89168239
-18.60603151;-6.808151191;1.390754963;8.126234572;2.917896617;3.266382644;-2.620087891;9.253690553;-14.83482753;10.29742383;-3.273666857;-2.91673122;13.62759184;2.07755105;4.472401673;0.609084255;-20.64997529;-20.93988201;-20.14805139
-17.93173309;-4.108078804;2.784953021;8.525695124;-0.413441635;1.431285682;1.340636902;4.695333277;-15.61034397;6.945853995;1.183326718;-4.083395368;10.01001953;0.589066608;-2.645320897;-0.52647392;-18.57153013;-17.60793187;-16.17081042
-15.0433708;-0.933459845;4.058081791;6.500285475;-1.72459285;-0.996195467;3.121159104;1.914438984;-16.54190401;6.867761412;12.15654299;-4.316305234;4.765819559;0.093610997;-4.468538008;-3.368293451;-15.20857633;-13.51053573;-12.14585678
-10.5709392;1.821274308;5.229174843;4.208402721;0.232391938;-2.663545524;1.78219121;2.259996785;-15.53187664;10.24751358;27.96905602;-1.585557513;-0.513975783;1.283176899;3.081866373;-4.759425631;-10.5934046;-8.460255281;-7.785543667
-5.332488651;4.124160948;7.761387621;4.773205397;4.778966842;-2.62068021;-1.029468723;4.883121662;-12.93498712;15.4624796;40.04531287;4.199008834;-3.400784125;4.111757326;16.69;-2.14178872;-5.197238728;-2.280493878;-2.829555616
0.119813515;7.027998837;13.46778626;10.3195674;10.06834043;-0.854156944;-2.449394105;7.631976189;-10.82484502;20.22926699;38.73398347;11.37818033;-2.191776908;7.808665251;27.40251932;4.505078692;0.123610489;4.708433487;2.442731924
5.344226099;11.65107186;22.53487553;20.22003906;14.20209139;1.68530678;-0.788501248;8.693183201;-10.84449392;22.82761876;21.44901391;17.55085344;2.811464441;11.16010927;27.21086168;12.34423023;4.358186209;11.3251061;7.054292626
9.508828741;17.57147648;32.33388409;30.93546462;15.96891943;3.581526331;3.022673721;7.660747467;-12.81991621;22.66151723;-4.031493174;20.5774402;9.31221601;12.92673933;15.34125911;17.1774506;6.644890957;15.66713853;9.691252615
11.25431523;22.12156725;38.32860526;37.80131203;15.00467786;3.710666192;6.157585389;5.353554576;-15.27148838;20.08060409;-24.31729018;19.23861932;14.35369089;12.29798078;-0.834935966;15.79275836;6.584607042;15.93063787;9.428739264
9.349559767;21.62300834;36.79697275;37.66988868;11.65733826;1.849921487;6.231247283;2.813890999;-17.02422434;15.91360245;-29.58567609;13.68899435;16.02858634;9.269756756;-11.12415916;7.751446749;4.485704103;11.58486006;6.403526855
3.77644008;14.05015366;27.50904488;30.64114909;6.87340749;-1.190963283;3.33377554;0.517004403;-18.18718222;11.17446647;-19.85846684;5.777239629;14.38695732;4.767421791;-9.944057171;-4.329037009;1.392461734;4.134758741;1.974321545
