Channel 1 - P4;Channel 2 - O2;Channel 3 - P8;Channel 4 - T8;Channel 5 - C4;Channel 6 - Cz;Channel 7 - Fz;Channel 8 - F4;Channel 9 - Fp2;Channel 10 - F8;Channel 11 - Fp1;Channel 12 - F7;Channel 13 - F3;Channel 14 - C3;Channel 15 - T7;Channel 16 - P7;Channel 17 - P3;Channel 18 - O1;Channel 19 - Pz
-68.15642949;-60.08174963;-48.39036062;-14.35714249;-68.56548692;-10.12126086;-49.90488896;-89.07672065;-58.3489936;-45.43243848;-80.5022635;-61.5651933;-88.84387843;-35.66079197;-14.80127318;-56.38053566;-58.00701795;-48.44060064;-61.93500411
-51.7448632;-45.80677491;-40.06148281;-15.90460383;-34.84912643;-11.92401429;-14.11277872;-40.74970744;-36.97663826;-33.17270523;-52.14201916;-35.99579259;-48.22561941;-15.02842865;-6.950396151;-36.53321304;-39.77647721;-40.02263659;-37.89914729
-24.89864573;-22.97965506;-28.05634785;-24.11861915;7.462494899;-9.749975811;21.37807103;15.24151132;-9.85532213;-18.43127531;-10.0118391;-3.070205692;1.504274688;8.309665272;-0.741321027;-3.963577025;-11.82777741;-24.6951843;-7.142102361
-6.064309431;-8.824608971;-22.98555484;-35.2303319;33.82383395;-4.850901473;36.20087024;44.78965748;4.833040798;-11.38050911;18.56730143;17.18814616;30.42462713;21.99226474;0.111641206;20.11342785;6.934823691;-14.19023744;9.634834941
-5.752206991;-12.49475315;-28.99632278;-42.67348332;32.65334515;0.226840074;25.07329401;34.0556559;-0.100358513;-15.22543142;19.24106636;15.06432818;26.50165081;21.30477818;-3.626254891;20.99111971;6.324462069;-15.13193751;3.366532064
-20.04257115;-29.16070837;-41.04851544;-40.82723513;11.92117544;3.230106845;0.264289456;-1.592278355;-17.06003906;-24.60457779;-0.449847861;-2.847551901;1.857776371;11.536873;-8.638392567;-0.107369375;-8.806049604;-24.77585459;-17.88484364
-35.19121885;-44.82269603;-49.41477514;-28.84619585;-8.876612389;3.385074355;-18.45524778;-31.24697468;-30.95117351;-30.58404962;-19.44233016;-19.88107707;-19.12186411;2.892801947;-12.38629179;-27.97061932;-23.78281489;-34.0675613;-36.36948137
-38.99278613;-47.54743801;-47.54532864;-11.9163151;-14.22905266;1.491169984;-18.36038543;-33.05096859;-31.34394599;-27.96907047;-21.08585394;-22.43659821;-19.38770148;2.320364614;-14.6696131;-44.68354172;-26.11221816;-35.19813447;-38.5899539
-29.69887063;-36.13809862;-36.96089303;1.357193018;-3.28674611;-0.926443235;-1.94049809;-9.798534648;-19.90628922;-19.02184916;-5.682000543;-9.613782238;-0.984729541;8.743329695;-16.32046662;-41.61503572;-14.58060434;-27.46040632;-24.677615
-15.91021758;-19.81736472;-25.50742765;4.092213199;11.89453067;-2.647006969;16.7734475;16.1603745;-7.722836719;-10.86663532;11.99967355;7.725015684;19.19988824;15.07823101;-16.84351262;-23.62395632;1.279615486;-16.94289405;-6.426034673
-8.452613818;-9.970411079;-20.78277899;-4.536813019;17.82027027;-3.253770157;23.9810271;23.09690598;-5.378195885;-9.140671457;16.88042415;16.76928682;24.69277581;14.80646046;-13.83453423;-3.430863283;10.01204548;-10.83388591;3.424019511
-11.45584427;-11.15329431;-24.28895118;-18.80997245;10.64670605;-2.952779731;16.45032273;7.672567933;-14.24284798;-13.40344198;6.577647843;12.89994035;12.55629403;7.399307985;-5.207914533;8.479380084;7.556569209;-11.42272795;1.356236868
-19.82237418;-18.55889249;-30.92371449;-30.2482023;-1.927079763;-2.112705351;2.7355963;-14.06704021;-25.92767916;-18.06832171;-7.738562067;2.078458082;-5.775361794;-1.740857447;7.680197632;10.38302558;-0.449043581;-14.78036582;-5.376679495
-24.48059652;-23.32635702;-33.80124545;-33.05836586;-8.536555941;-1.021843425;-4.811573723;-22.03354814;-29.86813388;-17.7792197;-12.53718362;-5.601295897;-15.30176336;-6.337927707;19.22623383;7.95844484;-4.573788643;-14.87781993;-6.26996242
-20.38364416;-20.5644254;-30.05637975;-27.45627774;-4.344203466;0.006459567;-0.209644033;-9.737799282;-22.38262527;-12.38958784;-4.584711944;-4.938039588;-9.990993718;-4.691477426;22.59627452;7.405213517;-0.077554208;-9.275262756;2.870554587
-10.42121622;-13.12777256;-22.78485712;-18.72318215;5.179492097;0.471782;11.96725503;10.87249572;-9.680039063;-7.175837064;6.356633639;0.62649008;3.26999338;-0.864666402;14.70088933;9.506704794;9.323871579;-1.381565479;16.49
-2.364551404;-8.273489878;-17.8041956;-13.01532168;9.586827119;-0.174207675;21.2057159;20.76349758;-2.605246535;-8.129899458;7.002002401;3.253527553;11.63671585;-0.807053183;-0.8234046;9.579712063;15.21187214;2.557091595;24.44910629
-1.964200635;-10.5783601;-18.33157702;-13.18295507;2.780068359;-2.073171537;20.10454853;10.76412837;-7.768413736;-16.45294012;-6.555594859;-1.424353905;7.407970685;-6.939141867;-15.39897476;2.801788921;12.02214816;-1.015700145;20.88882244
-8.251619101;-17.53935908;-22.24011275;-17.51085549;-11.77496076;-4.583789631;10.26209726;-10.73645794;-22.41590281;-27.05227033;-24.30068317;-10.0752942;-6.185313358;-15.88291391;-21.16212939;-10.21132564;1.739986828;-9.756980478;9.078971745
-14.77173172;-21.68837723;-24.11544093;-21.81627423;-24.08079984;-6.433284156;0.442261116;-25.56162524;-36.96240407;-32.39692316;-30.44723747;-14.75594168;-18.64034577;-21.18617984;-16.39476826;-22.71286208;-8.080185872;-17.25456983;-1.634001407
-15.24520774;-17.27013312;-20.14740173;-22.82620132;-25.86901023;-6.451326597;-1.029077216;-21.6426043;-42.67351827;-28.51421026;-17.33961296;-10.33566954;-21.27795723;-18.62437848;-6.597726153;-26.78327652;-10.90054457;-18.26337376;-3.79708723
-8.617309349;-5.603587158;-11.56736822;-20.15293202;-16.94058997;-4.416043015;6.878255721;-3.020503781;-38.01347236;-18.11872945;7.053060472;0.521724807;-13.77313776;-9.609263428;-0.323014932;-19.80053662;-6.556487835;-12.88469928;2.200444196
0.589577782;5.546607554;-3.743962674;-15.73088574;-4.551097606;-1.35363707;17.36651868;14.40062969;-28.7588965;-8.326938337;24.79777335;9.316122016;-3.15458998;0.005470491;-2.871453051;-6.952006462;-0.948004624;-6.253609191;9.033959604
6.431344303;8.104708006;-1.814011325;-11.74700088;3.059820177;1.017093986;21.78678664;17.0880384;-22.43942071;-4.955627734;22.27136457;8.912306168;2.912052503;4.525277417;-12.53520065;2.435160813;-0.679301052;-4.162521565;9.014256492
6.312643605;0.209203734;-6.57406833;-9.044646441;3.171500418;1.36745575;17.00657854;5.403588426;-22.20900162;-8.151820454;1.114073001;-0.308919113;2.274614396;2.540043945;-22.03556122;1.926121751;-7.459255199;-8.381211606;0.493025287
2.405839074;-12.22224181;-13.96031423;-7.120097656;-0.182536158;-0.37861011;8.090576716;-7.431182938;-25.18258728;-12.80429482;-23.23971827;-10.67178253;-1.089813781;-2.631227539;-23.85982927;-7.140845038;-16.93673483;-15.47633647;-11.16978388
-0.981390522;-20.04271484;-18.3250464;-5.197383095;-0.65668959;-3.011005866;4.170380373;-7.525316248;-26.0249578;-13.08368415;-34.04196993;-13.54956185;-1.649349509;-6.139914693;-15.44356634;-16.69304795;-22.59093612;-19.83511855;-18.42565994
-1.297466924;-17.72396641;-16.64324659;-3.033101641;4.646975022;-4.843531873;10.88634222;7.365199046;-22.07811474;-7.111598181;-26.17838712;-6.339637841;2.596810492;-5.490448014;-0.581222127;-18.00037928;-21.03890941;-18.13014928;-17.66199144
0.592041038;-7.059870218;-10.29212425;-0.708617917;13.09375652;-4.789936487;25.42759769;26.16288442;-15.40762685;2.058162909;-8.989288521;5.82218274;8.975891531;-1.93386335;13.51605473;-8.111075624;-14.27341396;-11.53226035;-11.47572534
2.050167703;4.867753974;-3.3302016;2.074165751;19.43730056;-2.978996712;38.03840903;34.61067743;-10.31644352;9.597628623;2.802973959;14.84479271;13.35752855;1.371750951;20.98260384;8.095537673;-7.342654525;-4.165621197;-5.661772799
1.613897306;11.35321443;0.885252756;6.113650709;20.6483154;-0.555284894;38.809342;28.06599272;-9.035576656;13.14041141;1.856608492;16.63516259;14.25248916;2.40074326;20.46385019;21.49072214;-3.950754738;0.47901665;-4.069751956
0.295263398;10.6545976;1.843829598;11.86233063;18.23765955;1.108373196;24.65429176;15.64860445;-9.718484969;14.37728983;-6.205613954;14.22;13.96812239;1.726940193;14.94750588;25.00465382;-3.920543773;1.991194155;-5.939994853
0.160662875;6.211515564;1.361862187;18.43246437;16.31381198;1.212383287;1.476089732;12.12555287;-8.465296709;16.88179964;-8.66565127;14.54862104;16.08992588;1.374154797;9.113702387;18.06944925;-4.392609581;2.525077349;-7.669457393
1.838317615;3.063491781;1.417936153;23.68179115;17.55944712;-0.134842475;-19.72529507;24.55734691;-3.273490617;22.42770249;2.574158724;21.99533385;21.96255807;2.45998911;6.491451015;6.379230671;-3.15939428;4.246089772;-6.846725577
3.584344985;3.922903539;2.561963926;25.68954833;20.9560898;-2.138101455;-29.71463704;45.16704416;3.896810275;29.24071701;23.69390867;34.28913337;29.4740491;3.993563022;8.178732104;-2.307897853;-0.826473101;7.293612886;-4.572048173
2.925926222;8.00579716;4.162681561;24.49895822;23.1565157;-3.827528851;-26.05199643;56.54296443;8.868878073;33.67316195;42.07538069;44.29391408;35.02717718;3.912018256;13.26022544;-3.062522348;0.086799373;10.01115254;-3.99823518
-0.686168432;12.85959874;5.780439849;22.47232923;21.91079399;-4.514160465;-13.32589187;44.95623409;9.107093407;33.59619255;46.70278521;45.92102248;36.61368299;1.254326898;19.87422075;3.791151659;-2.021340021;10.90564107;-6.717041946
-4.852187682;16.83664531;7.914228705;22.63592242;18.17;-4.004876144;0.757684639;11.04910042;6.016055002;30.2930194;36.72108027;38.98880845;35.13829729;-2.675078834;25.94567331;13.68627234;-5.957435363;10.22040733;-10.62202095
-5.991561544;19.78179667;11.20675237;26.17331499;14.94214203;-2.59586245;10.18620816;-30.36984041;3.497354273;27.11761191;21.11856553;28.95347241;33.04162725;-5.302277246;29.46566453;20.89216167;-8.659427115;9.541649471;-11.43562003
-2.437751151;21.69265526;14.97712598;31.15115101;14.14700357;-0.936962323;13.18987766;-60.72179887;4.114429245;26.22718876;10.45270043;21.9815345;31.82361421;-5.044374061;28.80783843;21.44955689;-8.047115722;9.884763776;-6.621344262
3.9364413;21.28243541;16.85353593;33.69455631;14.59510253;0.190162414;11.57616353;-69.76535015;6.506040282;26.48840948;8.227969277;19.78606694;30.85788161;-2.758966854;23.36133771;14.55809353;-5.084921706;10.24915929;1.87643597
9.120584599;16.42613329;14.33357558;30.82179918;13.0942492;0.175799784;8.256255766;-60.47423297;6.592208938;24.56623446;9.293245069;18.65733255;28.38103226;-1.048742139;14.10689136;2.375754743;-3.079354251;8.227420256;8.656888301
10.24944263;6.424427074;7.153937218;22.71887247;7.684151594;-1.099520982;5.180121631;-44.26713774;1.604241638;18.24500933;6.049489579;13.34729408;23.41275063;-2.033118134;3.488066721;-11.05817814;-4.791700856;2.293725868;8.937863942
7.90855963;-6.076840874;-1.716435515;12.6538715;-0.058634646;-3.105634804;2.930179211;-31.72935883;-6.748418142;8.918498733;-3.615775294;2.290852772;16.69871344;-5.562877699;-5.595675267;-21.19407897;-9.945996313;-6.282027778;2.291537382
5.446029968;-15.72378089;-7.694118194;4.663025357;-5.909614108;-4.836114351;1.602333727;-26.43101916;-13.0560225;0.864869677;-13.93347335;-10.37613774;10.0246421;-9.425794555;-11.07368227;-24.45477338;-15.34883214;-13.76337282;-7.057780119
5.921700711;-17.69587842;-7.794739207;0.920101433;-6.437192975;-5.310487586;1.688382934;-25.57186158;-12.54207528;-2.192432913;-16.40437406;-17.69527965;4.942895938;-11.3033039;-12.38451552;-19.65345628;-17.49675244;-16.46755661;-13.53791395
9.404371362;-11.15349769;-2.875260952;0.810716287;-1.997152261;-4.149837377;3.999526835;-25.06655993;-5.300323414;-0.239293274;-7.697474397;-15.21593127;2.291195978;-10.72120999;-10.19527653;-8.784972429;-15.37928607;-13.47661694;-14.33098238
12.98561518;-0.032370403;3.03873552;2.150205625;3.385113919;-1.855630018;8.721479375;-23.69475206;3.326845729;3.000251009;6.833001913;-4.414566876;2.630455236;-9.321560754;-5.641793973;3.5288314;-11.10821368;-7.30339883;-10.98964867
13.44320895;9.627268411;5.907359612;3.175808476;5.196669284;0.426603657;14.51369398;-23.03255717;6.769736029;3.288595393;17.13214513;8.415968748;6.410058594;-9.324422584;0.097147301;12.08572178;-7.992634076;-1.967228493;-7.552481821
10.14899223;13.79636069;4.765110601;3.515822329;1.976301713;1.541810526;18.5651113;-24.3881289;2.418466479;-0.400429197;16.44503556;16.70219846;12.91637591;-11.61928702;5.586329432;13.72829047;-7.877393691;-0.069266982;-7.060812224
5.648759506;12.82408029;2.207041045;3.571437443;-3.754353377;0.967068075;17.81108277;-26.51629278;-6.299058765;-4.899197672;6.485575986;17.9062004;18.79033677;-15.14216068;8.817102965;8.966788709;-10.02619964;-1.200155488;-9.444810414
3.454258851;10.35663311;1.916057562;3.374410268;-7.818615026;-0.934328925;10.68118979;-26.4870637;-12.62449775;-5.49669834;-4.420547598;14.53020434;18.23612604;-17.94670826;7.622678758;1.466669041;-12.27246432;-2.785796661;-12.23947852
5.060230027;9.961113067;5.376700075;2.408447861;-7.832577286;-3.17283999;-1.659740381;-22.58992048;-11.65804694;0.028790357;-8.300851446;11.56928165;6.173691373;-18.86551935;1.030188839;-4.330865073;-13.11378537;-2.421302934;-13.0540863
8.831477936;12.37031179;10.59;0.703545288;-4.8143114;-4.69972165;-15.39220262;-16.14372134;-3.783021737;9.428748565;-3.539561111;12.78256153;-17.19446863;-18.24669186;-9.296878354;-5.855285839;-12.75831968;0.351516614;-11.43
11.67735322;15.49614388;13.86003906;-0.073043312;-1.770407412;-4.917201232;-25.56900504;-10.35007813;6.239315043;17.69944194;4.89697868;18.53532054;-44.15326344;-17.23537121;-18.85549433;-3.528440966;-12.33520405;4.15029762;-8.644379686
11.93353281;16.84599897;13.07020539;2.866583554;-0.767150829;-3.872281534;-28.42067055;-7.379636466;13.34628126;20.96423959;10.57984302;26.23425337;-62.49875301;-16.45977859;-22.01944165;0.276409075;-12.303597;7.31353148;-6.070140061
10.84188068;15.96818143;9.595421456;11.13745118;-1.196092464;-2.119007525;-23.27047667;-6.608284035;15.77247107;19.21111523;11.17353777;32.32948858;-62.86478399;-15.46846373;-14.97929336;3.453149427;-11.78762537;9.312302882;-3.911316497
11.33858545;14.7492619;7.19013475;22.89608161;-0.680826354;-0.41511726;-12.97352216;-5.687950871;15.32091154;15.68973103;9.622062859;34.16895051;-45.46222974;-13.44075552;1.823275852;5.751024921;-9.533021451;10.78600086;-1.487971459
15.29757493;15.47680855;8.805077146;32.89645561;2.40155729;0.570782516;-2.50904451;-3.265522152;14.6331465;13.73691056;10.42166536;30.81858099;-20.88932451;-10.39068135;23.34692948;8.535748641;-5.492532614;12.41831689;1.4561711
21.73182553;18.60634839;14.05811015;35.56767169;7.221883574;0.46730834;3.605651808;-0.532191614;14.3836629;13.97054528;14.83942096;23.10619278;-3.656090034;-7.568728346;42.01891491;13.05745498;-1.364835397;13.95768951;3.980649631
27.54426735;22.3268089;19.50395234;29.15460357;11.19018579;-0.674594388;3.643857995;0.019626674;13.06342591;14.2938475;19.58891353;13.4347782;-2.645465008;-6.532180836;51.11089319;18.77124597;0.60006958;14.42501581;4.65373991
30.10529305;24.25343064;21.44409048;17.64028912;12.33460468;-2.356676246;-0.636288935;-2.566708802;9.30729513;12.50906544;20.03349091;5.341368984;-15.40023806;-7.67533485;47.65505683;23.19070751;-0.489506208;13.26896107;3.090540319
29.31413186;23.57594352;18.87470761;8.534702421;11.10939021;-3.775859994;-5.342877819;-6.149528848;4.195091642;8.963600355;14.76457137;2.343985438;-30.47583194;-9.623373459;33.56018126;23.49261629;-3.334263107;11.21414589;0.717517346
27.31462893;21.60043396;14.10976392;7.784854436;9.92791781;-4.167357698;-6.953401485;-6.935819924;0.996596144;6.665481897;7.232733372;6.103975907;-36.02820842;-10.18663191;14.62680122;18.66025508;-5.549547373;9.803200404;-0.19687036
26.18926548;20.17833996;10.64386584;15.49654729;10.82912944;-3.23522346;-4.33292162;-2.794423621;2.36755149;8.662210888;2.915209459;14.96357786;-28.10596001;-8.162751929;-1.914940411;10.48899848;-5.77956247;9.927383599;1.457229192
25.7969279;19.55642289;10.15992655;25.76491595;13.40853982;-1.413037564;0.986326747;4.58431783;7.608035515;15.03173111;4.605863495;24.29325709;-12.55368162;-4.448459982;-10.3013689;2.629172119;-4.912558096;10.72773782;4.39503685
23.79994737;17.80474416;11.2448698;30.86138317;14.92463137;0.281638387;6.257548078;10.76270808;12.75293271;22.27930063;10.07696114;29.03947141;0.395615175;-1.455332431;-8.520578137;-1.675716584;-5.260331342;10.05076869;5.707624697
17.95722009;12.57555514;10.84555755;26.70020596;12.55252608;0.801273555;9.496584722;12.02916426;13.73634427;25.85759173;14.16879831;27.03227821;4.106184928;-1.265488946;0.865685966;-1.53033677;-8.400211839;6.273579891;3.136252238
8.694814652;3.756859419;7.143829483;15.56215453;5.854355538;-0.271179271;10.53714774;8.250373312;9.953639777;23.76689226;13.38819607;20.61227966;-0.231780895;-4.042116235;11.84423985;1.351727529;-13.59823022;0.001057275;-3.012911839
-0.371568481;-5.405249485;1.370675471;4.219093053;-2.648736862;-2.392315469;10.58080256;2.651153962;4.976661422;18.19052951;8.929041215;15.09744424;-5.942748521;-7.978481731;17.80078103;4.16966026;-18.21831164;-5.893716855;-9.914773159
-4.597997994;-9.983063022;-2.953952102;-0.896721074;-9.264450115;-4.322469436;10.87878487;-1.14228541;3.599670264;13.76263683;5.527510243;14.99254386;-7.106300272;-10.74921515;14.94407547;5.155652341;-19.74629993;-8.074736182;-14.17852757
-1.536831365;-6.751274391;-2.677490447;2.211794835;-11.74198208;-4.85994563;11.75476683;-2.040769668;7.691203153;13.9132504;7.280918779;20.73220939;-3.189738123;-11.19406461;4.507366322;4.73724986;-17.64369292;-5.020970825;-14.0847164
7.298484157;3.345918082;2.638264664;10.53266121;-10.57061459;-3.590476711;12.68768661;-1.815968853;14.50278382;18.31650069;14.14403913;28.4684144;1.498828508;-9.879415879;-7.740503984;4.953573769;-13.46905666;2.011478531;-10.36343301
17.47282993;15.63714788;10.51285149;18.86812683;-8.060757317;-1.168345005;13.13701204;-2.741900992;18.99080324;23.44937646;22.0561864;33.05786533;2.393269537;-8.256014697;-14.7;7.639037392;-9.32193533;10.03515579;-5.132167248
24.59913638;24.77953121;17.47339859;23.47671344;-6.208933568;1.05369134;13.17137242;-4.986901362;18.14768012;25.5971154;26.36832251;31.86567331;-1.151948325;-7.34864351;-12.1085407;12.76762339;-6.156473107;16.43092512;-0.168806935
26.95702116;28.09529402;21.41247833;23.82199098;-5.245459392;1.80971661;13.28790234;-6.333072387;13.50291653;23.66108046;25.42937416;26.39710999;-5.710415294;-7.186855367;-1.084125978;18.2011812;-3.507887541;20.3757553;3.936632204
25.95387122;26.74;22.53246132;21.69019618;-3.963002254;0.636307078;13.71049314;-4.495873455;9.549616264;19.49907149;21.28677179;20.61473483;-7.384213874;-7.338624604;12.63607113;21.05267539;-0.72218291;22.59857442;7.254265252
24.43629005;24.07953057;22.40571188;19.11148112;-1.263137762;-1.893132925;14.01752801;0.23410117;9.510193354;15.81219266;17.20771425;17.53389181;-5.541141725;-7.800585823;22.26876692;19.71301259;1.712404259;23.97982612;9.492076516
24.43655132;22.83879843;22.27239077;17.06846816;2.637805064;-4.510384827;13.60033845;4.684108882;12.30172837;13.69880732;14.5535031;17.00757363;-3.211416564;-9.195347128;23.95557605;15.10868445;2.226807524;24.44426685;9.747187213
26.06473102;23.3396596;22.1365777;15.71652254;6.414089866;-5.933516016;12.52868579;5.320108244;13.53959411;12.08741834;11.92387366;16.43907111;-3.946298995;-11.99820743;18.50447685;10.27297885;-0.289205855;23.15561303;7.377428289
28.04649436;23.96800253;21.25679418;15.20902322;8.910995879;-5.501217556;11.84597905;1.397652696;9.763013876;9.363685052;7.211945928;13.56911498;-8.236478883;-15.59212165;9.960966678;8.457741776;-4.949676933;19.68347104;3.070078125
29.04731952;23.05263835;19.26189694;15.81529269;10.18673961;-3.455585566;12.77342606;-4.152763501;2.033898929;5.426308553;0.444795948;8.735556902;-12.90212706;-18.25490313;2.376005851;11.00531051;-9.001636842;14.85559772;-1.148005338
28.54485085;20.30367021;16.63392847;17.10139329;11.31643346;-0.780931662;15.42113936;-7.025159523;-4.552913273;2.054203702;-5.440981596;4.579328459;-14.01827038;-18.36229068;-2.702539084;16.37873684;-9.819085187;10.32440975;-3.24504255
26.73346022;16.63280651;14.07073512;17.27937787;13.19048427;1.287282542;18.29961009;-5.080938834;-5.313150943;1.135858587;-6.810405053;3.507147503;-10.62713431;-15.87385643;-6.319758755;21.00168852;-7.151532327;7.157454133;-2.79305757
23.92537199;12.81016564;11.46430333;13.94901718;15.49427815;1.849640798;19.38628607;-0.057422706;-0.556562368;2.434005049;-2.655133742;5.241245868;-5.761973769;-12.7159663;-10.15565283;21.38944887;-3.575123739;4.790700575;-1.367058537
20.22753312;8.470148321;7.697684841;6.117323642;16.85735515;0.770031738;18.05132844;4.015930069;3.930203263;3.147506602;3.967510018;6.727203153;-3.791119192;-11.49929124;-14.475407;16.23294512;-2.539236803;1.461936977;-1.247523632
15.76400603;2.542003899;1.701869018;-4.150410629;16.04134213;-1.252433411;16.08315776;4.251184949;1.357962004;-0.009850106;7.829463847;4.605067353;-6.476295423;-13.45674312;-17.79909638;7.158000145;-5.52220357;-4.08202741;-3.475175036
11.02718864;-5.276585091;-6.074336181;-12.23190427;13.07087927;-3.02554329;16.51927894;1.175024526;-10.15219383;-7.820595479;5.344520334;-1.815608488;-11.32966397;-17.28633874;-18.45232125;-2.241887361;-10.70694274;-11.05264256;-6.957702902
6.812277547;-13.47501525;-13.214082;-13.76102653;9.287848762;-3.486847602;20.82744684;-2.039565737;-25.28199415;-17.28424774;-2.798125619;-9.644490834;-13.7846655;-19.9642359;-16.46789411;-8.412540344;-14.38480679;-16.71118753;-9.444585156
3.707659513;-19.28574145;-16.59523325;-7.830948695;6.316114666;-2.301113303;26.69621111;-2.525739364;-35.13953492;-23.38725934;-12.33716743;-14.45396387;-11.2636089;-19.0082288;-14.01156695;-9.620447968;-13.97593135;-18.21680129;-9.526431712
1.680678743;-20.57484102;-14.57401883;1.995268723;4.898010452;-0.087890939;28.64999204;-0.15099936;-34.18366897;-22.72295053;-18.90383665;-13.73;-5.532400799;-14.4403094;-13.81094172;-6.516756309;-10.13202259;-14.83045984;-7.877894522
0.273421249;-17.51983863;-8.363003164;9.933557649;4.613686625;1.89587679;21.63569947;2.64476211;-24.93637149;-16.12744345;-21.45546579;-9.010192651;-1.276807519;-8.877242963;-16.82616039;-1.361182413;-6.135735206;-8.663127772;-6.619809826
-0.705144538;-12.57329428;-1.369760441;11.98903447;4.621962398;2.475769866;5.165560074;3.233203611;-16.5727995;-8.190527066;-22.98582199;-5.009018992;-2.18963061;-5.650289729;-21.11523335;3.395880535;-5.113166055;-3.266566843;-7.358857934
-0.695489384;-8.594519979;3.151332627;8.730977917;4.621347878;1.266083118;-15.27694776;1.093206914;-18.34267277;-3.973701837;-28.06228677;-6.364602924;-8.006790094;-6.412430321;-22.93129584;6.245124194;-7.443980352;-1.099040763;-9.661563408
1.279156636;-6.588985041;4.394253571;4.708309767;5.099242768;-1.081596813;-31.0816316;-2.018127103;-32.91453575;-5.475102069;-39.22756294;-14.40583989;-14.99463442;-10.06223773;-19.32146823;6.95421228;-10.564969;-1.81843005;-11.34656756
5.622984409;-4.891464376;4.479275563;4.972471348;6.694761189;-3.260878996;-35.89250997;-3.951427539;-54.75800265;-10.52028424;-55.06522634;-26.22417855;-19.28505191;-13.7267499;-10.31917453;6.240626839;-11.28605477;-2.703080411;-10.36043969
11.41048477;-0.50462553;6.740946367;11.39637738;9.38331388;-4.092765207;-29.68466983;-4.152599235;-74.61947327;-14.77193209;-71.29668753;-36.569256;-20.00071319;-14.92937897;0.862974349;5.258528141;-8.582971193;-0.822655052;-6.587648018
16.69247287;8.425057261;13.14978771;21.54813373;12.34432911;-3.214246671;-18.49470111;-3.867399712;-86.37711496;-15.12101405;-83.92456012;-41.11941795;-19.46703444;-13.23808212;9.744926418;5.232386043;-4.460197671;4.751742231;-2.000820992
19.80737281;20.93284229;22.83702963;30.7934077;14.66723544;-1.248206987;-9.995751587;-4.533117986;-90.93385349;-11.80731866;-92.01487691;-38.92473917;-20.55024296;-10.24571501;13.23432002;7.200194581;-2.182740565;12.35330847;0.973894428
20.68281354;33.67451064;32.79225969;35.79818637;16.18998258;0.62035631;-8.262643943;-6.110777809;-94.47367603;-7.836697663;-98.16757032;-32.6250693;-23.74441159;-8.119428388;11.27692144;11.66555401;-3.445452084;19.06952065;1.439976438
20.98261823;43.13940701;40.1056683;36.68100848;17.60079589;1.355619533;-11.61852047;-7.100249535;-102.9852991;-6.471762777;-106.5124972;-26.60910308;-26.73;-7.993305201;6.584566641;18.17607524;-6.91585934;22.88449483;0.65753313
22.84761143;47.94845708;43.98116462;36.34197461;19.64282404;0.614791349;-14.94306629;-6.228460895;-117.660766;-8.930114765;-119.760894;-24.45436023;-26.73301387;-9.392062348;2.82226415;25.18892221;-9.343377566;23.98214698;0.843938124
27.16746048;49.5362915;46.01568439;37.79936289;22.16711596;-1.166673634;-14.29317124;-4.057366799;-134.5928861;-13.95127952;-137.3031782;-27.14854709;-23.38276127;-10.8851697;2.476441099;30.61271496;-8.208612956;24.36927569;3.280654829
32.77033695;50.79263438;48.64208413;41.79615537;23.99572421;-3.113412822;-10.00263695;-2.762851772;-148.4192716;-19.19465096;-155.4660166;-32.90905747;-19.32168689;-11.20702323;5.598074841;32.957906;-3.630855321;26.29638275;7.396899203
37.20503634;53.76509671;53.02870773;46.46530869;23.83686045;-4.394794421;-5.903979687;-4.124499718;-156.4881954;-23.03310285;-169.6044877;-38.48062582;-17.93681215;-9.914649819;9.968551206;32.41401889;2.002185931;30.74137754;11.53556974
38.4988224;58.14548345;58.05878122;49.04575985;21.48473295;-4.568156041;-5.639787646;-7.616069729;-160.1738353;-25.29577121;-176.6677738;-41.09931313;-20.28510314;-7.276941495;12.49155578;30.98631668;6.201751998;36.96948618;14.5629565
36.49510577;61.58387022;61.10554072;48.08274463;18.18906465;-3.665538221;-9.389648272;-10.55924557;-162.760296;-26.67899951;-176.7502981;-40.06317408;-24.07183111;-3.813349804;11.10815162;31.3694585;8.371243846;43.25249627;16.77736123
32.7591623;61.49916524;59.94823979;44.40299622;15.75903829;-2.09070819;-13.7993184;-10.43060109;-166.2248154;-27.71715917;-172.8321183;-37.06122;-25.68518365;-0.060413879;6.319931732;35.18411402;9.946566339;48.03152438;19.31355875
29.23791069;57.02924658;54.39018733;40.32717952;15.09326271;-0.448371047;-15.02279088;-7.312551074;-169.8321368;-28.37598919;-168.9540454;-35.03372964;-23.48751854;3.303947233;1.474584837;41.7953567;12.72847889;50.68930778;22.69939632
26.84144609;49.77141082;46.4583334;37.95351921;15.38713884;0.636208456;-12.10270726;-4.169464539;-171.4824385;-28.50900934;-167.9221652;-36.18096965;-19.37824562;5.359800432;1.398274324;48.60930537;17.02652388;51.57664147;26.02513495
25.07387532;42.88326431;39.14392529;37.84240394;14.73536742;0.715424546;-7.716977343;-4.504227428;-170.2152534;-28.49958107;-169.8793946;-40.37035434;-17.16960415;5.266050851;9.775450405;52.67694258;21.29233275;51.50583997;27.5943983
22.87876179;39.21852693;34.63919524;38.8703082;11.66894623;-0.279356265;-5.709565013;-9.347984405;-167.4289065;-29.27547985;-172.5696158;-45.09768968;-19.18579678;2.904528918;26.57411106;52.45115891;23.49562371;51.15850618;26.50206345
19.85403712;39.72030052;33.25768172;39.08149728;6.371313375;-1.932885136;-7.659993587;-16.24045429;-165.7875568;-31.58595833;-173.0842753;-47.18635527;-24.11840184;-0.733734914;47.15938811;48.46392994;22.92612661;50.72776775;23.66352559
16.783889;43.02263937;33.63972831;36.83943926;0.596615409;-3.466297171;-11.5422229;-21.15965871;-166.9757584;-35.22716631;-169.9182787;-45.10476739;-28.07711578;-3.931790649;64.02413852;42.60154144;20.78661369;49.88398265;21.26810234
15.12733431;46.40791848;33.94722087;31.6862116;-3.594264984;-4.104131415;-13.61799815;-21.75415304;-170.3969683;-39.00131408;-163.9381278;-40.14638038;-27.93701231;-5.282097612;70.48604765;36.78698834;19.09520082;48.02683362;21.04798742
16.01003906;47.47814267;33.17272113;24.6831225;-5.21761595;-3.51923649;-11.82173833;-19.07853225;-173.8761789;-41.51526784;-157.6276582;-35.41766966;-24.03643512;-4.624656472;64.2491949;32.24213975;18.94160901;44.74313701;22.848536
19.58454805;45.55344697;31.74102008;18.198076;-4.80428308;-2.07150323;-7.588496306;-16.39129317;-175.5362825;-42.13420853;-153.2473075;-33.26256638;-19.84588762;-3.114821879;48.55503598;29.77502316;19.6654061;40.29892271;24.75405528
25.15277293;42.02729621;31.12454219;15.10600503;-3.701683836;-0.64274919;-4.498157547;-16.20772786;-175.0678003;-41.26288831;-151.3645634;-33.13595785;-18.89708553;-2.314134747;30.10408906;30.40069442;19.6270334;35.86080288;24.67
31.71366418;39.51150216;32.8176053;17.49141505;-2.988534881;-0.127992965;-4.978449608;-18.30479372;-173.3844691;-39.75677313;-150.8842748;-31.79505425;-21.66240589;-3.004552954;15.11270596;35.17623791;17.79431307;33.15383123;22.00481576
38.31460085;40.26922791;37.34380785;25.34202086;-2.934086725;-0.891613656;-8.062067933;-20.39033124;-171.28062;-38.0613515;-150.4311651;-25.9295205;-25.09936169;-4.669962907;6.180751459;43.93520794;14.68833333;33.57169392;18.04947116
43.96592826;44.8285082;43.87042986;36.08059833;-3.28602371;-2.542250996;-10.25558697;-20.61955281;-168.5807022;-35.8914409;-149.7602954;-15.30332894;-25.23387432;-6.040740023;2.022515617;53.99174335;11.89125776;37.22113948;14.83304549
47.467063;51.58015754;50.59444858;45.56635172;-3.86979619;-4.176047252;-8.770391722;-19.43976923;-164.6168438;-32.71032703;-149.8448259;-3.841248986;-20.53427671;-6.21736366;-0.053033194;60.49037222;10.65507498;42.60725116;13.54904897
47.64887952;57.60829744;55.60903282;50.27900457;-4.788000461;-4.927124491;-4.190232159;-18.96011873;-159.4203851;-28.49251216;-151.5143601;2.470702847;-13.2073438;-5.426659286;-1.098258394;59.05274356;10.92548531;47.34109049;13.9274582
44.07626212;60.26540047;57.71252795;49.37561618;-6.049230964;-4.470068359;-0.077804104;-20.49057469;-154.2430145;-23.99459184;-153.9506477;-0.472205188;-7.404008077;-4.803615285;0.543479953;49.29740325;11.63400891;49.5140506;14.96526323
37.643266;58.53347499;56.71173354;45.10553298;-7.136422993;-3.172273201;0.268003619;-22.73921529;-150.6978066;-20.25359283;-154.6556163;-11.9819166;-5.964133347;-5.424952741;7.462667123;36.42288082;11.89149111;48.79895778;16.15587324
30.39229808;53.34839785;53.1349391;41.08820852;-7.131668189;-1.838711854;-2.930078125;-22.60410044;-149.2536567;-17.79632605;-151.2746011;-26.86893682;-8.451417681;-7.427978492;20.06246932;28.84569615;11.88954261;46.44902277;17.95681491
24.48826992;46.76567216;47.6759939;39.57515485;-5.424860332;-1.242771274;-5.673223376;-18.00818341;-148.5815932;-16.33544725;-143.8757926;-38.69153283;-11.94943529;-9.928447979;34.77308768;32.70287349;12.6355044;44.18031146;21.04901237
21.06817841;40.64991353;40.86094091;39.75231848;-2.343438153;-1.728653286;-3.443459135;-10.13989817;-146.5353813;-15.25604686;-135.5766609;-43.52412123;-13.65628658;-11.74251275;45.31660344;46.85330834;14.78710705;42.825541;25.17236846
19.90388564;35.88081455;33.22288287;38.50839702;1.01517857;-3.076323939;4.611889165;-2.82243048;-141.9896097;-14.40203288;-130.5780744;-41.5836522;-12.90811346;-12.25203765;46.37255312;62.42371004;17.73753358;41.87078674;28.79078905
20.17474114;32.61243014;25.8126972;33.23852261;3.751943313;-4.643101429;14.14666938;0.667433778;-135.8484063;-14.32255884;-130.875985;-35.8980859;-11.02657362;-11.69051955;37.08674597;68.12760588;19.90197634;40.28162453;30.08593197
21.65824031;31.21700409;20.50274782;24.57728518;6.095637431;-5.667749728;18.2745524;0.532547473;-130.2032487;-15.60843813;-134.2807248;-29.51071819;-9.479223959;-10.68250955;21.89225316;58.27762059;20.05;37.92593488;28.4949622
25.20405524;32.90790013;19.58075335;16.83510082;9.326005168;-5.596331635;12.54307159;0.355100816;-126.3091431;-17.84572244;-135.5694122;-23.5878423;-8.29663578;-9.528321288;8.021832439;37.83741276;18.52557133;36.32324747;25.39839721
31.92759992;39.2369289;24.62243868;15.543715;14.54174341;-4.324095816;-1.607801986;3.82456757;-123.2122753;-19.21431092;-130.1267016;-17.65847827;-6.241928999;-7.915580987;1.402061045;20.29997516;17.21821749;37.92470389;23.23135456
41.71723353;50.62016008;35.25295894;23.69792426;21.2250559;-2.281273512;-17.5904122;11.11270011;-118.3781502;-17.34804976;-117.3109784;-11.23044601;-2.422267064;-5.322521115;3.624647255;19.01983597;18.19826688;44.31717816;23.66759511
52.39291902;65.02557679;48.67879864;39.33755128;26.92748663;-0.310858062;-28.01665969;18.23939926;-109.9113797;-11.02870403;-100.8724632;-4.988458606;2.368616879;-1.743787521;11.76696168;37.5361214;22.0854867;54.69082315;26.37858857
60.47026681;78.10586486;60.5197185;56.22703459;28.60867423;0.665365967;-29.31870279;20.23872155;-98.48895678;-1.474139228;-86.09016544;-0.486617484;5.9817817;1.929033757;20.81481322;65.7014182;27.47993491;65.81538303;29.41786997
63.20427603;85.12344595;66.66885704;67.23348479;24.78527324;0.092509079;-23.31615662;15.5071549;-87.28677432;7.879577472;-75.9786471;1.141446663;6.663823107;4.262200915;26.84427761;84.83749797;31.92045747;73.67554179;30.90365124
60.44600854;83.61599115;65.19352345;68.18766697;16.8480139;-1.872214167;-14.98723108;7.489196139;-79.85542357;13.15754408;-69.66125648;0.021831533;4.582092745;4.157317854;28.95421193;79.00287008;33.59862685;75.67529318;30.57363545
54.82862461;74.9767199;57.17761309;59.81478851;8.417935269;-4.343901277;-8.624747012;2.051331716;-77.62887725;12.28161271;-64.13440693;-2.889831078;1.687784891;1.612700682;29.05977914;45.10781825;32.48475051;71.91080964;29.91885731
49.99899124;63.68284558;46.01165719;46.75415349;3.089511777;-6.108166139;-5.451861632;2.675667935;-79.02534865;6.176630125;-57.72515091;-6.902490958;0.06825408;-2.193874288;30.07710463;-4.779583502;30.06;64.73135124;30.83174762
48.11275651;54.51044975;35.56884047;34.59877871;2.171036615;-6.265146313;-4.120620089;7.622134352;-80.72677657;-1.848465675;-52.08177006;-12.01481827;0.365989997;-5.573506453;33.80484759;-50.39203374;27.9941868;57.05961105;33.94281303
48.42111674;49.57879173;28.34811676;26.93898116;4.052208986;-4.756703074;-2.959460056;11.58732834;-79.95363366;-8.10361719;-50.82187772;-18.09358454;1.725324315;-7.303062233;39.67472959;-74.81392661;26.89349911;50.74423778;38.01427858
47.99400118;47.30461568;24.6128727;24.04665008;5.587666144;-2.43599956;-1.620977014;10.46603038;-75.91856275;-10.57947592;-55.91501064;-23.71374517;3.181867082;-7.287195631;44.87913956;-73.17767443;26.07030918;46.00655578;40.80147795
44.04345814;44.04655788;22.88169011;23.58739811;4.385942654;-0.597515244;-0.788898427;5.042499737;-69.58102076;-9.797530208;-64.95258128;-26.20576435;4.948897108;-6.513568574;45.70825901;-53.41573151;24.38661247;42.0948585;40.57536233
36.14625546;37.2761315;21.30935433;22.56686674;0.315742932;-0.226957453;-0.682656243;0.317249713;-62.34813999;-8.051546858;-71.84141297;-23.42172935;8.148126178;-6.353237507;39.484734;-29.54667472;21.39103697;38.38909876;37.07646933
26.78327585;27.95703551;19.04694877;19.26673637;-4.72418498;-1.423947776;-0.230871397;1.013290141;-55.05854475;-7.676341983;-70.64080437;-15.88969916;13.15512511;-7.629398247;26.2525017;-12.69264329;17.84642407;35.05455324;31.32202294
19.87684102;20.34130601;16.80644269;14.21217404;-8.352400847;-3.35515393;2.037853606;7.237902904;-47.94273041;-9.49748057;-59.63153582;-7.213020618;18.31585337;-9.994716491;9.357055744;-5.748343876;15.3243722;32.90351366;24.72526751
18.42596624;19.25054064;16.4043505;9.831101781;-9.260604118;-4.766936814;6.234711597;14.21869822;-41.09531948;-12.37361454;-42.47775888;-1.829223064;20.68881677;-11.99744746;-5.610408722;-4.306193723;15.26310394;32.80566018;18.44212494
22.87403194;26.74514778;19.63894599;9.052510679;-7.691295379;-4.739787143;10.40142352;16.45423098;-34.57494898;-14.00086284;-25.67372813;-1.654545769;18.57650701;-11.86526595;-13.26965846;-1.89724656;18.17504174;35.21239378;13.39149693
31.18576954;40.53758283;27.15154048;13.51766841;-4.758985691;-3.226394733;11.90939997;12.64288543;-27.96066645;-12.40538848;-14.3545668;-4.490259314;13.62455434;-8.635505399;-11.17464804;4.837898419;23.43314;40.0484859;10.56100101
40.34776475;55.24582351;37.84913474;22.3045373;-1.42048662;-1.062480171;9.964190267;6.941222452;-20.16617923;-7.209795615;-9.603649221;-5.8648219;10.194539;-2.994031814;-1.253737175;14.41809773;29.59759334;46.78963485;10.88919411
48.09782242;65.55579756;49.14120302;31.95765021;2.02175967;0.533143438;6.892076532;5.280680111;-10.31714017;0.054554856;-8.881069138;-3.017467155;11.94709384;2.764387501;11.03589419;22.47201444;34.97462852;54.44357675;14.53978559
53.72431832;69.06677807;57.85765748;38.03245881;5.645482418;0.657418594;6.665542365;9.914569631;0.700946565;6.750019531;-8.597915488;2.415315908;18.30272881;5.805665558;19.50990726;25.03787873;38.1417291;61.44081402;20.21114384
57.60189972;66.95218354;61.42445428;37.45184165;9.328400265;-0.782519424;11.4856801;17.12636288;9.646359857;10.57041684;-6.438688548;5.634241417;24.12789766;4.360886257;20.42201315;20.62760263;38.33443667;65.75026526;25.36761497
60.05872233;62.24257985;58.77190048;30.28359374;12.48399083;-3.038698495;19.16125025;20.41113668;12.64992312;10.75913002;-1.831155752;3.087239843;23.63440084;-1.087347849;14.13905775;10.18415108;35.64599283;65.47024415;27.58290106
60.54893113;57.22826684;50.57693554;19.70238074;14.31897946;-4.942971694;23.73188963;16.58758304;8.667454708;8.370683592;5.031963692;-3.758441492;15.77475481;-7.873996855;4.453205676;-4.090058594;30.94152032;59.70368526;26.12
57.75754348;51.94284284;38.76130562;10.00807209;14.30988373;-5.529054176;19.34194138;9.429157192;1.927743307;5.424354918;13.9984923;-8.956508065;6.530320335;-12.57921934;-3.820068359;-19.62935996;25.41636321;49.12684634;22.44532806
50.53326857;44.67856252;25.54930225;3.957083864;12.47177634;-4.52194472;4.708646988;7.179205795;0.547107247;3.526340917;24.60627846;-7.012000392;5.389810477;-12.99478113;-7.352759403;-33.71883646;19.94170258;35.74467931;19.09081117
38.96426671;33.87853517;12.62436968;1.264445246;9.285936778;-2.45292221;-15.15929776;15.44771799;11.12022489;2.920198835;35.25701364;1.84396756;17.88679861;-9.35939271;-5.542870136;-43.72459318;14.59310018;21.91060096;17.62851261
24.83448663;19.81143621;0.847609548;-0.634658071;5.490579098;-0.361643534;-31.42938552;31.20957665;32.70330429;2.645945753;43.43462158;10.97464717;39.73671479;-4.015139579;-0.163843397;-48.01281381;8.761927547;9.300228178;17.34961245
11.11179136;4.803736026;-9.372978425;-4.141037049;1.965756806;0.745854627;-36.51100718;43.25338275;55.09769667;1.680984742;47.49888994;12.63157477;57.67351815;0.295543885;5.923475603;-47.13043535;1.884923414;-1.392815371;15.78429015
0.724793902;-7.948864625;-17.41758733;-9.240985495;-0.312674958;0.400969055;-28.33382246;39.52312792;63.92688803;0.169991031;48.66653895;5.28146707;57.42412237;2.310381232;10.14201182;-43.90882617;-5.677572246;-9.855260208;10.74987412
-4.6855214;-15.9220581;-22.05607571;-13.19347635;-0.465854701;-1.114201398;-11.18115452;16.20795705;50.0059199;-0.265468536;50.9552747;-3.450231748;33.72351453;2.992929507;11.22645789;-41.62477847;-12.30390655;-15.25121158;2.348552661
-5.337158765;-18.04250043;-21.68879861;-12.39090118;1.874925173;-2.940822581;7.05514035;-18.29888492;16.68766739;2.533978199;58.27140807;-1.69104878;-4.811136655;4.658894954;9.861069299;-41.07643282;-15.69320049;-15.93527426;-6.691071891
-2.896444544;-14.44671183;-15.13959437;-4.931116932;6.208232502;-4.099119518;19.04409499;-47.83484243;-20.48029891;9.732908445;70.49518213;16.86122135;-39.89;9.17662944;8.77585945;-38.90512635;-14.09370569;-10.22617367;-12.6708589
0.63621109;-5.861995807;-2.511626419;8.076648515;11.27119643;-3.978273073;21.01693484;-58.36308409;-42.34715656;20.53122543;81.94376142;45.86559032;-54.41496185;16.57590176;11.86412575;-29.14599998;-7.403258581;2.221521136;-13.37413337
4.040178561;6.603577357;14.44159492;23.37224197;15.71735994;-2.607625967;13.39034156;-46.41329822;-37.5947712;32.49755647;84.26816667;68.40474812;-42.75358313;25.02898889;22.11598028;-7.690078125;2.583710201;19.50553171;-9.505636103
7.292695699;21.14258205;32.66860038;37.71323006;18.91616482;-0.589383287;-0.413893175;-20.37708975;-9.336765944;42.92858237;72.38416598;67.83324113;-13.53837188;32.10251759;39.13490343;23.25308947;12.94405591;37.84675084;-4.106841765
11.06299823;35.0456432;48.70346888;49.52318712;21.18631851;1.237238612;-15.62828699;5.715455622;27.50742118;50.17454066;49.20768514;39.92054224;16.61600104;36.26152916;57.97639894;54.28103976;20.92167222;53.15026878;-0.451066142
15.6956728;45.31737571;59.6421159;58.78943383;23.17545261;2.198114735;-27.48772046;21.07537083;55.95957571;53.98402477;25.29284447;-2.886305186;33.79456006;37.53061994;70.84563354;72.96699881;24.99662399;62.77857333;0.026120925
20.47112725;50.03961844;63.83533711;65.58272367;24.87423237;2.047722253;-32.35552226;23.52643485;66.91265625;54.82528303;13.00834017;-38.79460328;34.47156892;36.97663071;71.40651146;70.91526479;25.22011868;66.39984687;-1.630083008
23.74593539;49.50920573;61.16247473;68.77119082;25.20560156;1.000117926;-28.89253678;18.43293312;62.68380281;53.0321785;18.98893477;-50.69437408;25.47;35.61076703;59.17730161;49.14153663;22.81133109;65.46098552;-2.928974513
23.92924348;46.0610566;52.93462089;66.27175277;22.75172958;-0.42964233;-18.90675454;13.14861147;52.71446341;48.6934703;40.01444528;-36.89044105;17.23497359;33.66459899;40.67968936;17.98191649;19.38748627;61.82240576;-1.727659777
20.60372655;42.41909793;41.49747802;56.75707766;17.1851687;-1.657091883;-6.9807824;11.7171679;45.65244192;42.37973462;65.03395667;-10.99290495;15.97278207;30.74817964;25.82910933;-8.689111494;16.25378145;56.61812343;2.498308018
14.94732844;39.69146166;29.55948564;41.37996679;10.1948594;-2.232238284;1.583453553;13.4356304;44.04781868;35.84563287;81.67383132;8.47277735;20.2942476;26.59486596;21.55360731;-21.27972362;14.00734353;50.09785949;8.614834157
9.096927853;36.61801927;19.33185901;23.968606;4.902956949;-1.974252774;3.652982366;15.30945559;44.9865891;31.69235153;82.65071612;10.71562313;24.01349879;21.63538503;27.14030232;-19.3263574;12.51529592;42.35862582;14.79227966
4.867081607;30.83;11.76259612;9.361620619;3.92167232;-1.031823072;0.104365466;15.49151081;44.89249779;31.86579114;68.1662861;-1.554961303;22.04750525;16.87551346;35.01527892;-10.46819474;11.21102649;34.17315532;19.66088421
2.70939369;21.26720229;6.289042917;1.031445756;7.405339529;0.144867024;-4.8793414;14.66947978;43.67662538;36.05908844;43.75443192;-16.59512706;14.49150638;13.21531936;36.72011344;-4.674832399;9.568916928;27.10422201;22.92114095
1.609039719;9.823837168;1.384250489;-0.35494595;12.66242003;0.949806807;-6.781297415;14.6887377;44.65160753;41.46734383;16.25719941;-23.78698825;6.002618823;10.8371153;29.64569348;-7.866802274;7.518909666;22.72895337;25.17886463
-0.079635968;0.735087097;-4.294498291;3.379679714;15.81376896;0.880620901;-3.907856995;16.20792071;50.73272904;44.42463541;-8.848309871;-21.19188315;1.608778838;9.196511976;19.12228201;-19.03765754;5.525511005;21.5546758;27.27394547
-3.509836159;-2.078100285;-10.83605489;9.43716868;14.40357824;-0.178471871;1.640177094;17.78285738;60.74612043;42.90030743;-27.66991065;-15.15659332;2.709256737;7.599897666;13.90478857;-32.18182036;4.213954901;22.49311323;29.57995022
-8.703675857;2.175834794;-16.85483444;15.46198029;9.056726003;-1.81423309;5.91940466;17.2091796;69.41119397;37.9595928;-37.10913792;-13.44677816;6.443298239;5.84949728;18.47315502;-40.98442383;3.76537432;23.36898329;31.66931104
-14.7166415;10.31562685;-20.39204157;19.98590838;2.935994348;-3.2209882;6.44520855;13.80409932;71.18235858;32.94805108;-35.11825992;-18.32683389;8.575937354;4.409097373;28.52019545;-42.73606284;3.57244891;22.18496661;32.50863025
-20.30916291;17.03007813;-20.40314958;22.06597052;-0.590429479;-3.606073941;4.177220477;9.474479823;64.68217875;30.92;-22.39115082;-25.2957125;7.211606363;3.97568809;33.79545277;-39.09401054;2.544159469;18.31195671;31.0821507
-24.55232935;18.12522445;-17.76951003;20.93595376;-0.306954732;-2.66319921;2.600712339;7.516777548;53.91429699;32.28451007;-3.734830222;-27.90296862;4.225298337;4.833262966;26.52628677;-33.90857923;-0.056827078;12.81306048;27.10095664
-27.01596179;12.88923509;-14.99077394;16.22109951;2.208159327;-0.81987137;4.710462791;10.07;45.19191292;34.54172294;13.00828334;-23.92955241;3.412100948;6.505978221;8.680170054;-30.28302562;-3.893054145;7.697159923;21.34059743
-27.62824143;4.046865698;-14.61100395;8.464522398;4.035083016;0.936659144;10.43379219;16.29129406;42.32596714;34.34201742;20.70627277;-17.45680185;7.095724638;7.949695527;-8.323929022;-29.04572062;-7.642947392;4.613919355;15.298213
-26.5297528;-4.366456983;-17.39195762;-0.741424195;3.230479268;1.59859403;16.64311191;22.73912356;44.01;30.2220888;17.04860265;-15.25277919;14.0641153;8.108347382;-12.02704508;-29.24566663;-9.992916119;3.861801398;10.29203549
-24.09661488;-9.437826704;-21.54339074;-9.365840855;0.204784154;0.738430157;19.72362497;25.69179529;45.4141757;23.81703781;5.935274246;-20.85953251;20.44189535;6.458484652;0.799890675;-29.63077369;-10.7936991;4.355385565;6.599621513
-20.99500884;-10.42327408;-23.67012833;-15.85596062;-2.799779363;-1.201010567;18.51527357;23.6480547;42.4784314;18.58391427;-5.117202764;-31.53053471;22.6531702;3.270952601;20.45425145;-29.62687341;-11.33613064;4.547569347;3.341064148
-18.02065405;-8.099424532;-20.91584906;-19.56086459;-3.564489784;-3.128061964;15.14900699;18.18444445;35.26496687;17.09278698;-9.812616047;-40.47500808;20.02191321;-0.448874499;30.87547735;-29.2058995;-13.31;3.655213278;-0.661559031
-15.70813757;-3.51970315;-12.91267432;-20.34772344;-1.556707585;-3.923605257;13.09648824;12.63808516;27.68694727;19.07609742;-6.732199872;-42.27823205;15.01297597;-3.253888264;22.00280761;-28.2226927;-17.14330298;2.317399832;-5.617011623
-14.02501281;2.501864627;-2.228378255;-17.97174352;1.818356103;-3.09760367;14.12595377;9.68138277;24.04256512;21.75461791;0.590439332;-36.86717385;11.11467502;-3.713856566;-1.692890192;-26.20794922;-21.12462992;2.179052207;-10.13982742
-12.51224133;8.890039063;6.99909591;-12.1056666;4.381601606;-1.086737627;16.79334493;9.565607542;25.37175767;22.07270639;6.767275171;-28.93182265;10.20122625;-0.989489494;-23.69521068;-22.96719003;-22.27161265;4.62265742;-11.96692335
-10.87095937;13.71718951;11.34139247;-3.285710165;4.697400353;0.986568441;17.7956229;10.20377897;28.625186;18.96766308;8.17435779;-23.70930911;11.45049165;4.644754148;-27.67726958;-19.36349346;-18.52892151;9.497638931;-9.66967263
-9.524393226;14.63453819;9.80869021;6.077945882;2.78649665;1.951290145;15.05908937;8.893265734;29.17103556;13.89758876;4.508553684;-22.9507295;12.4756384;11.65655153;-10.27570405;-17.32201715;-10.65212986;14.78359649;-4.073837231
-9.575020907;10.3866317;4.013499045;11.93796305;-0.29996356;1.247972409;9.895443175;4.372157237;24.43811313;9.399445741;-2.233632377;-24.35669638;11.52215769;17.77585596;15.72644928;-18.72706429;-2.153977678;17.56003906;1.881039316
-12.02095413;2.179702324;-3.141440637;10.58118386;-3.434762306;-0.765494079;6.250019531;-2.210888355;15.74725449;7.07242492;-9.769373113;-24.51782472;8.854158697;21.09312964;30.74272646;-23.92314024;2.901208178;15.77007813;4.988841231
-16.76893753;-6.548132437;-9.217622419;1.254891935;-6.016800887;-3.025532948;7.458714329;-7.985390204;7.074598002;6.707730566;-16.59090548;-22.40844686;6.293355108;21.15386619;23.33445872;-31.03718203;2.724081304;9.648936152;4.063414113
-22.28772432;-12.19485051;-13.26597293;-12.57648888;-7.866643379;-4.357411503;13.07233018;-10.13696528;2.040101067;7.117499582;-21.56842969;-20.27969541;5.47435791;19.28161052;-0.82589196;-36.82247273;-0.92038647;1.807162972;0.872174798
-26.34298937;-13.47588728;-15.63763108;-24.68854791;-8.797927695;-4.110811236;18.42978573;-7.553920636;1.664996605;7.659390356;-23.24194405;-21.33125679;6.388767939;17.76505558;-23.15549146;-38.57088898;-4.055159907;-4.199909053;-1.157892954
-27.40321425;-12.29288252;-17.02413319;-29.64343694;-8.492068791;-2.487474904;17.60775653;-1.331827357;4.492002784;8.907795732;-20.17867276;-26.42;7.43884307;18.34306674;-26.46941706;-35.77601509;-3.49695505;-5.95496448;0.398410152
-25.69529371;-12.10637145;-17.63530978;-26.0706944;-6.877865331;-0.396070705;7.737633657;6.037991204;8.518275319;11.83567312;-12.42080567;-32.78424285;6.897303454;21.01850374;-8.329433678;-30.35459483;0.777788812;-3.555490786;4.967474983
-23.06535643;-14.9685046;-17.13206705;-17.31753983;-4.590391447;1.066931189;-8.480927408;12.12468982;12.96877051;16.36422634;-2.542970612;-35.86228554;4.517859059;24.09430538;17.00732285;-25.26212499;5.739400053;0.641916626;9.266067513
-21.67890031;-19.58813201;-15.19964568;-8.962805872;-2.897654238;1.214515866;-24.01174108;15.68974004;18.37153667;20.81526582;5.210681419;-32.59531396;1.980485052;25.46597465;29.607785;-22.48968058;7.766719745;3.73340764;9.746487854
-22.49297372;-22.08;-12.10728805;-5.0162858;-2.943205273;0.11965585;-31.70803481;16.90500868;25.1351667;23.01330717;7.614751453;-23.47811023;1.852842358;24.2437585;19.26910341;-21.8530285;5.485235498;4.248486668;5.344497634
-24.62542556;-18.90469581;-8.680576357;-5.578457181;-4.837143094;-1.459474324;-28.64220257;16.77569018;32.23137952;22.21981472;5.018473476;-11.8921849;5.918752215;21.48129439;-6.673737077;-21.39907767;0.744755852;3.025864908;-1.608560614
-26.06766202;-9.701553678;-5.702256199;-7.546874647;-7.385374328;-2.522237722;-17.62134131;16.37737238;37.41609491;20.16225574;1.506384982;-1.611263329;14.11642618;19.43514265;-29.11130428;-19.11157491;-2.954625261;2.403554428;-7.026773522
-25.17677664;2.217593504;-3.318854571;-7.580789041;-8.799510148;-2.382999564;-5.010243531;16.4607103;38.90641718;20.03424047;2.131197386;5.301526562;24.71154529;19.89886287;-31.84;-14.70874023;-3.218070033;4.350301558;-7.980535702
-21.83617649;12.04925358;-1.059074133;-4.871510953;-7.933749129;-1.038210107;3.452966349;17.50115207;36.99120794;24.03545847;9.096679211;8.705277705;35.32023577;22.87188225;-13.67395396;-10.27183599;-0.442636883;8.910926562;-4.628104368
-17.49080244;16.55759372;1.4772031;-1.594342391;-5.130344569;0.847116395;5.918854933;19.8342682;34.01057292;31.35849756;19.80633665;9.100751772;43.87211573;26.56317698;11.2427014;-9.216142849;2.828189218;14.07961665;0.243859138
-14.14177238;15.64076818;3.857579083;-0.882867515;-2.02768739;2.311022346;4.707511387;23.51519204;32.54816063;38.33045765;28.39661222;6.510196068;48.93447436;28.69389016;24.77815868;-14.18526441;4.172763121;17.15560674;3.552942806
-13.10719901;11.44536706;4.7553193;-4.124776601;-0.47565803;2.611243563;3.781084215;27.95526485;33.29549454;40.77494307;29.72762618;0.710924437;49.58644992;28.07326298;18.70427848;-25.14912499;3.191844689;16.5675707;4.177626375
-14.39503004;6.178505398;2.83477841;-9.786867357;-1.364052185;1.607558115;5.507372156;31.79333549;34.42921129;36.88926264;22.92596923;-7.564344806;45.45440162;25.25609781;0.442170456;-38.9128966;1.500014648;12.85773831;3.394302359
-16.95950895;0.706322273;-2.008990942;-14.62676047;-4.181940064;-0.18331674;9.099346638;33.40189565;33.11371337;28.47561026;11.93803639;-15.95609917;37.18764175;21.85374175;-13.30217797;-50.45405092;0.986387769;8.18;3.348754232
-19.46391375;-4.977928273;-8.10385168;-16.23919566;-7.522162739;-1.871935657;11.67769209;31.87638788;27.92602647;19.60057653;2.805611236;-21.40076631;26.91681112;19.12824585;-9.551874574;-55.44483907;1.992823767;4.758450905;5.022710348
-20.95396427;-10.28082286;-12.80639842;-14.94844789;-10.04964436;-2.657369599;10.89147478;27.78460838;20.15157608;13.69925441;-0.292915412;-22.16561557;17.88579557;17.00689539;11.41434442;-52.5808938;3.029204688;3.453251289;7.44375452
-21.11882925;-13.42139708;-14.29315373;-13.71065995;-11.21117353;-2.22563112;6.939386051;22.95044508;12.78229604;11.26603749;2.483977027;-19.32028338;12.96589771;14.24597322;36.78195886;-44.36061601;2.207004866;3.407507737;8.694069081
-20.22147031;-12.71654348;-13.0776259;-16.24237028;-11.29787219;-0.892099161;2.415944432;19.24877943;7.970529137;9.754512386;7.082756564;-16.26529752;12.81531583;9.530718207;50.69739197;-35.78467325;-0.966581999;2.893834496;7.692891309
-18.93218796;-8.708120684;-11.99432947;-24.76233298;-11.02263534;0.570383792;0.166720262;17.26701584;5.061943765;5.624005317;8.271014903;-16.49556849;15.10224038;2.602161999;44.75128293;-31.64582549;-5.075118047;0.62692013;5.127094187
-18.1474542;-4.909317961;-14.40782665;-38.74349324;-11.06464443;1.324801871;0.918176491;15.94536249;0.969371943;-3.046865829;2.696110317;-21.23900162;15.72893435;-5.42665772;21.9385106;-33.95362608;-8.010853732;-3.422592845;2.749298606
-18.69638727;-5.869820672;-21.75261695;-55.16837939;-11.88073605;0.892197067;2.640675573;13.5953397;-7.218797791;-15.2141473;-9.459543141;-28.72420117;11.5555913;-12.69823842;-7.479954543;-41.00662418;-8.798010692;-8.185216922;1.753376941
-20.89846249;-13.65765942;-32.16079546;-69.83540734;-13.72049028;-0.599305495;2.242322256;9.52;-19.39788511;-27.56697042;-24.80934254;-35.53677744;2.800952514;-17.605155;-33.53914086;-48.63499025;-8.344686377;-12.32676821;1.744397153
-24.19465174;-25.61351096;-41.30607944;-78.92762732;-16.59160818;-2.460580037;-1.697760975;4.834712323;-31.74028206;-36.58945565;-38.53811414;-38.94567178;-6.756356379;-19.42042541;-51.31776526;-52.77907557;-8.411928611;-15.03145315;1.253605864
-27.21290816;-35.60451083;-45.05019108;-80.28606582;-20.07013204;-3.767887865;-7.388052037;1.662780157;-38.94634095;-40.51699098;-46.61255935;-38.49682057;-12.19330103;-18.27339932;-60.3403385;-51.74122086;-9.712600563;-16.18951262;-0.663925403
-28.40268027;-38.26270332;-42.12664879;-74.14025689;-23.14857068;-3.818672148;-10.88709915;1.283013582;-37.97145188;-40.02181973;-47.51324934;-35.92839822;-10.91142315;-14.75790417;-61.19548873;-46.7365302;-10.8930679;-16.02428672;-3.215185151
-26.90702389;-33.06170435;-34.97600624;-63.12188517;-24.42657096;-2.493766986;-9.137954483;2.847468746;-30.47823369;-37.44641976;-42.85402405;-33.78543577;-4.630700628;-9.658076291;-53.78719878;-40.58847553;-9.446127732;-14.65958484;-4.218359508
-23.059059;-24.89964692;-28.11372692;-51.38420057;-22.72081804;-0.337764804;-2.63491715;3.957355888;-22.07127987;-35.28469192;-36.57762376;-33.89031985;1.694817392;-3.980346238;-38.9803443;-35.69174238;-3.937583802;-12.11037381;-1.862619388
-18.11442642;-20.49415278;-25.17248188;-42.92101535;-17.78549059;1.69489619;4.560087891;2.808771987;-18.70834177;-34.87265138;-32.92925723;-36.58562544;3.391977806;0.96452417;-21.19925001;-32.76034986;4.275559203;-8.727293079;3.514343946
-13.43389607;-23.30196542;-26.70869552;-39.7409454;-10.64276273;2.706859837;7.780039063;0.093816653;-22.79436373;-35.91668578;-34.11330902;-40.85965132;-0.535535884;3.815111672;-8.046490318;-31.11890951;11.36;-5.640807156;9.124682732
-9.793472231;-31.00235012;-30.27450107;-40.93300604;-3.223719099;2.299142229;5.575738752;-1.208516658;-31.73636112;-36.93116977;-38.98732813;-44.90526122;-6.710727198;3.807539166;-5.783489273;-30.00502728;13.30264423;-4.652267712;11.27700921
-7.377096693;-37.60384105;-32.56563528;-43.33480846;2.520509649;0.758061384;1.301513191;1.667555925;-39.9386857;-36.22575935;-43.75838926;-46.72313345;-9.985974219;1.39985937;-13.96518743;-29.57903725;8.565165123;-7.41;7.718762551
-6.365015415;-38.47825087;-31.94506026;-43.51591188;5.513160739;-1.104253029;0.830609709;8.426566156;-42.70281521;-32.90292921;-44.38780109;-44.73849252;-7.398627712;-1.703717414;-24.30137261;-30.70680284;-0.83238913;-14.301556;-0.877712513
-7.437071036;-34.18607344;-29.45637348;-39.82990665;5.933085303;-2.362080625;7.755817665;15.13907719;-39.16835404;-27.37309274;-39.11233733;-38.49853143;-0.402299501;-3.34342542;-25.86443358;-33.76412113;-10.55762264;-23.83088776;-11.28824097
-11.54072399;-29.91174951;-27.69442831;-33.19673658;4.918052649;-2.420304807;19.67587399;16.96032918;-32.2805609;-21.12949304;-29.28599455;-29.21255341;6.448523059;-2.103854326;-13.33852716;-37.67968533;-16.61235427;-33.04698411;-19.63977946
-18.96290323;-30.94918622;-28.58500448;-26.21444518;3.849081329;-1.27022795;28.75701059;12.35186943;-26.0993487;-15.9043129;-18.01200461;-19.61165281;9.410297514;1.853231675;8.153224327;-40.31563191;-17.54771366;-38.94175021;-23.52756976
-28.49933218;-37.98413634;-31.91012145;-21.43261748;3.672698082;0.547555538;26.73535677;5.325573366;-22.74191414;-12.70469618;-7.846641082;-12.84155818;8.940811218;6.897471151;25.94828913;-40.12251103;-14.89117034;-40.06319704;-23.04682067
-37.61312757;-46.14357255;-35.70795852;-20.11785785;4.600139096;2.224623098;11.04583674;3.30428399;-21.3473262;-11.3478799;0.366719536;-10.83426281;9.654614188;10.91431183;28.7582278;-37.76361447;-11.77999664;-37.35545269;-20.29954992
-43.73273186;-48.70284028;-38.09063519;-22.20742651;6.233077506;3.057687056;-12.45083094;11.51741815;-19.65183726;-10.80682268;6.561005382;-13.20189509;16.50113156;12.5056618;14.90941248;-36.18482113;-10.93684565;-33.6362383;-17.91623538
-45.83692137;-42.49552593;-38.87244059;-27.00611169;7.927971054;2.745214297;-32.47455291;27.92104099;-16.57407407;-10.08456908;9.547409944;-17.50834731;29.88619661;11.63857494;-6.474859738;-38.70886641;-13.29516046;-31.94010594;-17.57354126
-45.09310235;-30.64342612;-39.62;-33.62138166;9.149756347;1.496318747;-39.26091267;42.8596668;-13.43543094;-8.903550465;6.497978219;-20.80919229;43.63032407;9.404099384;-22.25112485;-46.34656878;-17.87376399;-33.68845994;-19.26186363
-43.96232974;-20.38938477;-42.11470573;-40.67311236;9.651212495;-0.076610074;-30.63539187;44.54245595;-12.71031201;-7.632859307;-4.893841265;-21.36849413;47.87578676;7.167289797;-24.64984246;-56.3409699;-22.6166006;-37.81383555;-21.5023711
-44.38888852;-17.76844349;-46.58266508;-45.87846821;9.444007382;-1.234352855;-12.95267077;27.04511528;-15.43106946;-6.543968085;-22.91803962;-19.32738883;35.47033656;5.740407924;-16.03613778;-63.25709931;-25.50074368;-41.42098641;-22.25183014
-46.4579307;-23.3345094;-51.24467477;-46.54318925;8.62860747;-1.450862315;3.647160046;-4.717798247;-19.65053921;-5.137884465;-40.28509094;-15.97561443;7.567525386;5.084842691;-5.703090215;-62.15293392;-25.37330914;-41.6191926;-20.0335844
-48.55541211;-32.18259346;-53.60210917;-41.19187727;7.207920562;-0.675950806;12.07469001;-36.87179034;-21.54622233;-2.301300777;-46.9355597;-12.4230443;-25.66351368;4.606143979;-1.786848225;-51.82842513;-22.33833897;-37.40029257;-14.81728977
-48.85166481;-37.97281275;-52.37446439;-31.19165218;5.021669838;0.612685398;12.24263248;-54.47551686;-18.46026548;2.68428399;-36.29169505;-8.879037905;-50.17433927;3.712937623;-5.029845059;-35.99912522;-17.70578925;-30.36991181;-8.243693332
-46.85379431;-37.54248932;-48.42721514;-20.66479023;1.882735194;1.627142928;9.561894861;-50.35072731;-11.34131192;9.140948388;-10.70183633;-5.06880217;-55.97269537;2.226209448;-9.145422333;-21.58203406;-13.50978975;-23.8415614;-2.987782459
-43.74289031;-32.50243971;-43.88679645;-14.07565736;-2.136112147;1.682365759;9.678946313;-29.06023515;-4.327518456;15.05311851;18.46172174;-1.186965135;-42.79230432;0.43639237;-6.866560986;-15.12658855;-11.64394692;-20.84430041;-1.435784819
-41.26235534;-26.9453267;-40.21602897;-12.93161837;-6.464527626;0.600224157;13.90304133;-3.583369225;-1.501615815;18.42679084;37.10124151;1.730237522;-19.86478735;-1.112639168;3.736999448;-19.49229453;-12.89534056;-22.29928888;-4.303928325
-40.16291278;-23.62610938;-36.96364461;-14.26451987;-10.08380642;-1.134973097;18.88514009;12.82046539;-3.323003674;18.9751693;37.27397338;2.540938133;-0.066903456;-1.900930181;17.79370945;-32.55;-16.41019222;-26.51608125;-10.03007813
-39.57801046;-21.99733087;-32.36336812;-12.60024707;-11.94580846;-2.596703237;20.41139781;14.06560529;-5.777963426;18.63109369;22.43854756;1.211351492;7.62868224;-1.62250069;27.65866488;-48.37283325;-20.05276682;-30.30619814;-15.44801324
-37.88296568;-19.58079352;-25.3523308;-4.417110039;-11.56328987;-2.922530936;17.74434724;3.439266152;-3.277295868;20.16844698;5.077751703;-0.735940472;2.573430113;-0.276411514;28.51098145;-60.05859472;-21.60851634;-30.97459686;-17.48946186
-34.28762072;-15.12141293;-17.2579788;8.242700555;-9.376226149;-1.826002951;14.5937268;-10.11427909;6.716728649;24.80057646;-1.8670792;-1.205611512;-8.719595233;1.790331259;20.8267111;-62.73838234;-20.14783944;-27.91658744;-14.93650103
-29.75125909;-10.46116334;-11.53300224;18.18886656;-6.580218898;0.196631754;15.76843253;-18.3697767;20.95542151;30.69271267;6.245516731;0.700396183;-17.92137984;3.887360706;8.385579436;-55.53649947;-16.63640766;-22.8548442;-9.120593841
-26.36674647;-9.322447549;-11.47221398;17.82617131;-4.455867037;2.107460171;22.34537834;-18.38610079;31.92452292;33.83760553;22.97268167;3.633142087;-20.41859904;5.106792741;-5.387453217;-41.84290815;-13.32203205;-18.65926821;-3.100267454
-25.6670857;-14.00982196;-17.57910764;5.013756422;-3.616363623;2.889082239;29.61492384;-12.75924586;32.74696573;30.91818017;35.76142277;4.731782692;-17.38800185;4.628442317;-18.85114693;-27.84858094;-12.27180793;-17.57249974;0.163853008
-27.24711149;-22.92903762;-26.70709079;-14.44975168;-3.688165873;2.103662474;29.90411981;-6.385352688;21.9180286;22.04868135;34.87475874;1.75082981;-13.58255688;2.132737313;-30.25969208;-19.81912707;-14.04289904;-19.94969153;-0.522114125
-28.86499696;-31.16797514;-33.83079868;-29.98054089;-3.649153809;0.127057092;18.37695252;-2.697932626;4.372492762;11.15237803;19.85930258;-5.05740648;-13.0721543;-1.897983152;-35.32492409;-21.11722217;-17.36987984;-24.19117219;-4.075777846
-27.98764582;-33.80374174;-35.27143426;-33.06405624;-2.576198187;-2.066139725;-2.664479239;-2.011888794;-11.8429806;3.466718112;-0.701626079;-12.86552611;-16.31061139;-6.234948552;-28.03093008;-30.37138368;-20.02146007;-27.7623878;-7.985325272
-23.58408493;-29.3353985;-31.02793509;-22.93126529;-0.267493178;-3.429288657;-24.47690296;-2.511740247;-20.71632605;1.954587093;-15.39440623;-18.16138088;-20.46898472;-9.398657442;-5.468685379;-41.98701962;-20.18613316;-28.59692285;-9.857355291
-16.80906037;-20.5860714;-24.51198144;-6.897762235;2.669442455;-3.38175072;-37.2851027;-2.426282761;-21.43973346;5.364326507;-17.39822911;-19.18930113;-22.28973195;-10.40212303;26.98772698;-49.12190712;-17.47003906;-26.09328783;-8.687562814
-10.14929423;-12.52651732;-19.95372882;4.863762081;5.247185428;-2.077776364;-36.51787779;-1.466312339;-17.56930902;9.448377838;-8.156983595;-17.07865245;-20.8957307;-9.334954907;55.43887323;-47.69279885;-12.96751116;-21.28063889;-5.208552207
-5.808636901;-8.891572735;-19.47941815;6.221011466;6.659654316;-0.292188788;-25.38640499;-0.664304093;-13.36270346;10.35384124;4.480211846;-14.84691985;-18.31973653;-7.395871634;64.19614308;-38.98863437;-8.527902372;-16.21814975;-1.308908257
-4.584952244;-10.1901149;-22.00410737;-1.368501794;6.573266474;0.991082769;-12.12782441;-1.188514697;-10.51524661;7.467506959;11.60606706;-15.12866858;-17.55044711;-6.261233486;45.78517425;-29.00303021;-5.780491652;-13.00894033;1.009031963
-5.91565519;-14.29387102;-24.56809477;-10.96418449;5.058519461;1.072914232;-4.192023856;-3.32410759;-7.796876164;3.480068359;8.329348759;-18.39669092;-19.89968671;-7.084535809;7.051348383;-24.62755692;-5.451943352;-12.86939191;0.581822145
-8.729054764;-18.60248721;-24.83262787;-15.86976464;2.400316491;-0.115403885;-3.698554337;-6.345766888;-3.401103995;1.751293295;-4.137058671;-22.9201934;-23.90666931;-9.706199104;-33.7074252;-29.08651292;-7.189653417;-15.59635125;-2.411744808
-12.17289251;-21.72336447;-22.67379186;-14.39468461;-0.941522511;-1.968489843;-7.198353149;-9.109708893;2.468214441;3.284293163;-19.74718837;-26.27015069;-26.59799629;-12.60220625;-57.28190635;-39.74183145;-9.814446958;-19.62832517;-6.52768822
-15.64268819;-23.44068208;-19.73333674;-10.19789748;-4.225622285;-3.490668858;-9.349494336;-10.71420269;7.217846284;5.88645082;-30.91803289;-27.05454333;-25.95053125;-13.6927443;-54.72709482;-49.8872139;-11.83681457;-22.7167198;-9.682813842
-18.38094803;-23.53514278;-17.563071;-8.483959707;-6.463642287;-3.79288291;-7.306601503;-10.79213548;7.965221429;6.182609325;-32.17686825;-25.59992868;-22.48035867;-11.58792538;-31.60386312;-53.32528795;-12.08819484;-22.98189837;-10.1373766
-19.40356896;-21.05401194;-16.13072518;-11.5329664;-6.843859418;-2.577562911;-2.489189365;-9.497700549;4.090380754;2.684245306;-22.87914402;-23.30773985;-18.69907404;-6.517444516;-2.855883912;-48.46078533;-10.28088164;-19.88572913;-7.435929983
-18.14476324;-15.02165215;-14.02940748;-17.23108481;-5.402236301;-0.35747697;1.226143383;-7.460730841;-2.160155991;-2.790476189;-8.004308973;-21.45120911;-16.99012762;-0.328687445;17.36208083;-38.97969698;-7.222319581;-14.58342479;-2.78318372
-15.34357737;-5.987305541;-10.16811734;-21.49087662;-3.403591716;1.74758196;1.016143283;-5.758574476;-7.589404607;-6.623143921;3.737649793;-20.41132899;-17.73653203;4.497932386;23.4606231;-30.7475635;-4.454016984;-9.373649648;1.493665709
-13.19139513;3.218355585;-5.377991694;-22.1667697;-2.917203163;2.580009766;-2.624463564;-5.661891111;-10.73048192;-6.562085347;4.37026542;-19.75225531;-19.243354;6.226442448;19.00145989;-27.40650166;-3.386387463;-6.480870304;3.229140149
-14.2007155;8.606411093;-2.391970051;-20.99920629;-5.611615171;1.59562939;-6.503156803;-7.984756254;-12.83568362;-3.812897175;-8.164681487;-18.78525471;-19.43318828;4.768831541;11.20487096;-28.05855412;-4.407384555;-6.861182247;1.721974727
-19.36025976;7.472655354;-4.019784717;-22.00241195;-11.47853675;-0.781684136;-7.446872825;-12.32350982;-16.2784497;-2.196751004;-27.3822924;-17.03708106;-17.78863198;1.552231951;4.753257874;-28.67993927;-6.59494164;-9.765278474;-1.81752426
-26.9621422;0.322958284;-10.89392092;-27.81033401;-18.4441083;-3.346148724;-4.773544546;-16.84123886;-21.87210914;-5.01845228;-40.87192992;-14.38537374;-15.83166408;-1.517429957;-0.279538574;-25.92103465;-8.325729279;-13.32625364;-5.053057757
-33.2225856;-9.298048432;-20.60374696;-37.16869088;-23.33817489;-4.767033194;-0.595854753;-19.06225971;-27.65341712;-12.26787199;-37.71040997;-11.05081799;-15.70344191;-3.262125866;-5.85883441;-20.11387309;-8.420455299;-15.76265828;-6.066191412
-34.54684321;-17.04274644;-28.99355072;-45.68932734;-23.74902737;-4.341461691;2.09887885;-17.39555085;-30.38487846;-20.53730921;-16.38107569;-7.665900642;-18.05605464;-3.80166294;-12.30860769;-15.07924712;-7.008336014;-16.39012658;-4.609867894
-29.96947056;-20.41945682;-32.72443639;-49.1922003;-19.58262612;-2.385077152;1.914845494;-12.38767827;-28.5310663;-25.75892581;12.52303973;-5.313200715;-21.09901114;-4.179401753;-17.40992379;-15.00926089;-5.451951999;-15.81772547;-2.207520943
-22.01072411;-19.96051432;-31.2384263;-46.84566441;-13.24310438;-0.017718227;0.089488474;-6.68673758;-24.01384399;-26.47780139;31.71462738;-5.213206424;-21.71923119;-5.425726505;-18.93050162;-21.05968796;-5.378002803;-15.32091791;-1.071377523
-15.23298677;-18.22484682;-26.75739891;-41.58753163;-8.241250315;1.516099623;-0.62401174;-3.528664659;-21.00418892;-24.90672893;28.01261866;-7.99245407;-17.8737916;-7.798210187;-17.65564557;-30.40372538;-7.554245001;-15.94628424;-2.660163647
-13.41034955;-17.62970359;-22.45962065;-37.62061128;-7.101379064;1.559443829;1.734452995;-4.663250433;-22.58234116;-24.8635257;1.426726953;-12.98245076;-10.3634261;-10.71088008;-17.42640549;-38.36490931;-11.45413043;-17.98724466;-6.889407799
-17.21647213;-18.84171663;-20.28461313;-37.1282233;-9.910306821;0.353135551;6.669450931;-9.148341281;-28.03760547;-28.31;-34.02544596;-18.21456602;-2.537845537;-13.27186932;-21.60527054;-41.72262585;-15.7644775;-21.05930467;-12.42304557
-23.95168145;-20.76983673;-19.93685242;-38.83753418;-14.40180416;-1.208130214;11.51093328;-13.89949762;-33.14612745;-33.39564152;-58.77453098;-21.33978585;1.896933091;-14.88981422;-29.02557211;-40.48800604;-19.32;-24.49280585;-17.63030144
-29.38165352;-21.81136822;-19.60172929;-39.40628241;-17.43605685;-2.16384439;13.45840125;-15.64813663;-33.29221964;-35.67487138;-59.81628152;-20.9213629;1.322277247;-15.45018728;-33.41879831;-36.95842577;-21.66011253;-27.59919491;-21.39127875
-30.33952597;-21.12062553;-17.57803195;-36.3035843;-16.85690223;-2.021007115;11.88424433;-12.9549844;-26.91624887;-31.56174929;-38.21319638;-17.15212052;-2.895260528;-15.02935951;-27.56295395;-33.26306643;-22.8359797;-29.65511493;-23.25739131
-26.36230896;-18.93480756;-13.49798118;-29.79434486;-12.57206776;-0.928697112;9.141404958;-6.911789351;-16.53669916;-21.2662362;-7.116181531;-11.48080471;-7.590117948;-13.56486984;-9.276117865;-29.78131805;-22.83451768;-29.85927901;-23.14837634
-19.47030265;-15.99184246;-8.353868832;-22.56122751;-6.322141811;0.5322824;9.10927934;-0.147359673;-6.680554223;-8.897577677;17.66244263;-5.558079208;-10.00061171;-10.91755679;15.52453167;-25.77743047;-21.33494683;-27.60744708;-21.14068471
-12.5369425;-12.83119236;-3.594448511;-17.49351848;-0.479975822;1.729310773;14.29110762;5.022613192;-0.616823373;0.306633286;27.41;-0.470351291;-9.270469023;-7.326641423;35.45165064;-21.36598688;-18.13778264;-23.07375146;-17.64775201
-7.538162955;-9.660395834;-0.191962054;-15.55273894;3.255123383;2.267668782;23.40676515;7.920354536;1.396464075;3.451951269;23.99081495;3.150676179;-6.294172212;-3.780009766;40.37896813;-18.5809043;-13.8572485;-17.61636309;-13.71328103
-4.801499259;-6.743635991;1.631423802;-15.36146743;4.511237769;2.071309724;31.31368937;9.435413624;1.196884273;1.583558502;15.75472315;4.54;-2.398426848;-1.774111835;27.56752955;-20.13238772;-10.07620221;-13.44549431;-10.86233616
-3.479427496;-4.709430171;2.062202958;-14.6398137;4.03440696;1.312150733;31.69408038;10.80929132;0.414565924;-1.561794252;10.26772526;2.72895883;1.775733492;-2.426753767;3.022857563;-26.70126649;-8.55740769;-12.49163614;-10.31649312
-2.606170512;-4.316100448;1.310265646;-12.17189634;2.950172785;0.310349529;21.07365362;12.36842305;-0.849821477;-2.424956594;9.815577913;-2.503335901;6.227286008;-5.540390295;-22.47335953;-35.26646143;-9.984731239;-15.13612904;-12.06943637
-1.863000172;-5.850809826;-0.374217883;-8.738238332;2.04003418;-0.539338995;1.61538492;13.23638328;-3.192613108;0.124635013;12.31153127;-9.381326513;10.65784996;-9.419268883;-39.51988365;-40.38857711;-13.27394276;-19.77480606;-14.65183823
-1.604771077;-8.780395331;-2.404172462;-6.43401373;1.41767847;-0.855851315;-19.35831047;12.19444245;-6.029744728;4.585949731;15.32089516;-14.07123359;13.82104402;-11.76743963;-44.3003753;-37.92425007;-16.16581993;-23.71218539;-15.97996247
-2.336083297;-12.05408271;-3.79598965;-7.076922458;0.66788472;-0.422946674;-33.16222499;8.918121959;-6.94319635;8.350299015;18.72172498;-12.62343537;14.07471875;-11.15876611;-38.75917463;-28.3893232;-16.79272759;-24.90697753;-14.78145582
-4.164499254;-14.79975434;-3.66438027;-10.96682259;-0.739997996;0.643028954;-34.65384035;4.539930624;-3.389124274;9.463539329;23.63752772;-3.961220213;10.85208774;-8.043250561;-27.76634166;-17.1511791;-15.04622235;-23.36465812;-11.51353197
-6.631863555;-16.73591629;-1.976061583;-16.79186069;-3.031555701;1.848341571;-25.10856341;1.060583503;4.516275087;7.380138339;29.36452524;8.414502002;5.733804971;-4.504378021;-15.9261268;-11.00397038;-12.64423144;-21.1269453;-8.00569153
-8.949179373;-17.89455249;0.149239372;-22.52216504;-5.908783578;2.513125289;-11.13003906;0.060960389;12.83391787;2.636875;32.10978819;17.8649018;1.931947624;-2.869336549;-5.991221569;-13.57511483;-11.80177032;-20.79584766;-6.071209658
-10.37920057;-17.97521742;1.056239052;-26.49875193;-8.623222767;2.151298241;-0.307207737;1.704129367;15.88928529;-3.721638376;27.52678893;18.77344888;2.271720444;-4.131606743;1.012855576;-23.01320789;-13.5335499;-23.62240153;-6.191868255
-10.49932973;-16.10476993;-0.211464447;-28.00450841;-10.29775048;0.816152898;3.420756716;4.75589955;10.43796556;-10.26828776;15.09049559;10.62180225;7.117111593;-7.303926572;5.054379905;-33.6325134;-16.9136921;-28.53646962;-7.326074151
-9.25361618;-11.45529568;-2.992954889;-27.15687145;-10.33640258;-0.844948563;1.555586689;7.539648807;-1.350366867;-15.02899887;0.110700166;-1.21288304;13.92417342;-10.14511216;6.636333615;-40.06941709;-19.82950735;-32.80799809;-7.938185023
-6.867372297;-4.310774741;-5.23222839;-24.45232255;-8.70540373;-1.917748576;-1.041106461;9.047993753;-12.75140013;-15.76332588;-9.093859011;-8.904452385;18.92300183;-10.71014481;6.587364989;-40.60995442;-20.55697911;-33.83305446;-7.311622044
-3.731852503;3.425849869;-4.821925014;-20.38576405;-5.926901147;-1.759856665;-0.287056702;9.399181462;-16.87633353;-11.05436128;-7.06281141;-7.557503277;19.74341176;-8.611946452;5.686187239;-37.22032771;-18.87203252;-30.74763563;-5.999376938
-0.303588608;8.994740335;-1.125502121;-15.33778734;-2.795491215;-0.415257445;4.155050339;9.427474956;-11.3615386;-1.590355564;4.659823012;1.476859268;17.00040781;-5.154487408;4.171099016;-32.67399751;-15.88584145;-24.77282816;-5.071442055
2.991107932;10.48293481;4.491599758;-9.665821983;-0.006556015;1.37106876;9.217372655;9.895920807;0.235002553;9.556008085;18.71113997;11.91954525;13.63855437;-2.350340671;1.739282853;-27.58;-12.90579246;-18.18496048;-4.919775178
5.847176991;8.238791685;9.582003307;-3.846145622;2.06380948;2.562652805;11.48457423;11.03243734;11.34236974;18.30616743;27.6136428;17.52323882;12.59200247;-1.600680882;-1.62507237;-20.05029692;-10.39673527;-12.7860992;-4.780200999
8.132340411;4.828777654;12.3328579;1.443295216;3.319705175;2.420382813;10.24564404;12.67985357;17.19355537;21.93988766;29.32007813;16.79641849;14.62545521;-2.945130364;-4.641679842;-8.296326589;-7.906526014;-8.98773989;-3.452718681
9.86411043;3.431639898;12.78890859;5.365788282;3.755088877;0.920453315;7.984738873;14.72943297;17.74765527;20.79069756;28.04;13.79015973;18.01973817;-5.267431358;-4.792727294;6.254882669;-4.871929966;-6.014060398;-0.554093358
11.12377564;5.787312353;12.65816371;7.14911843;3.333228803;-1.231836472;8.036789612;17.25969983;16.64081363;17.92388064;29.84332939;14.40938995;20.23725537;-7.141942484;0.01954381;18.35298754;-1.424540844;-2.844175425;2.920143058
11.96310315;11.18128929;13.86591858;6.475434864;2.061134984;-2.979720029;11.56860032;20.15748791;17.42378178;16.91450615;36.99750275;21.31643061;20.11582163;-7.6607083;9.314867534;21.82052558;1.612398557;0.937458037;5.360835698
12.35483959;17.13275976;16.97882042;3.851898851;0.16308971;-3.45981443;16.56191419;22.61603064;20.44793187;19.31798875;45.96075159;31.59215686;18.78465062;-6.767603705;19.43818051;13.95476998;3.507252953;4.948311125;6.032395648
12.19460108;21.13492813;20.6946333;0.627425672;-1.876204879;-2.427732302;19.6564057;23.17384779;22.93231422;23.69;50.61322199;39.00792739;18.61950788;-5.08222059;25.6308225;-2.007963855;4.360019531;8.395490113;5.907119571
11.33156202;22.05736458;22.74539667;-1.586511481;-3.528303824;-0.36904675;19.16633822;20.55675868;21.83837342;26.82201986;47.65987826;38.96212241;21.18;-3.508574779;25.51229414;-18.46699806;4.990465439;10.54496897;6.935115368
9.618559935;20.24485331;21.47985529;-1.935326161;-4.566081834;1.734937709;16.55579516;14.81160529;16.79056619;26.16256751;39.32184792;31.99994071;25.84922862;-2.897341071;21.04026468;-28.10106661;5.994723061;10.89191729;10.20950237
6.998897081;16.52433886;16.9254969;-1.166997019;-5.229494552;2.867849605;15.05338648;7.771282206;10.43874267;21.5562844;31.02664765;23.1066508;30.23057572;-3.811258812;16.86944444;-28.26840453;6.862274744;9.099648034;14.5830346
3.632137906;11.22899381;10.611648;-1.582459548;-6.008245888;2.461617675;16.66837436;2.252635476;6.084535546;15.07586382;26.42102947;17.52447412;31.87427948;-6.318604369;16.07961661;-22.07331308;6.112250786;5.055521019;17.09064728
-0.00404197;4.20940217;4.430335053;-5.833272633;-7.166477158;0.688858036;20.32509734;0.362478847;4.839743584;9.275038587;24.45081387;16.67786955;29.87710236;-9.833068705;16.92975534;-15.55623039;2.539103638;-0.787693561;15.09574098
-3.149919583;-4.212405598;-0.495218655;-15.11519736;-8.403041651;-1.584193062;22.83351113;2.092148431;4.884498009;5.360471539;21.25160754;17.55078605;25.14143601;-13.17876643;13.95812841;-13.28639674;-3.40758493;-7.068189572;8.565664545
-5.008443284;-12.35961003;-4.099722962;-27.88011374;-8.980254424;-3.196336603;21.83097814;5.295896722;3.379666131;2.677462344;14.976873;15.82717584;19.29979209;-15.0364836;3.181874853;-15.58277428;-9.371859631;-11.68757447;0.59589032
-5.127131846;-17.45384864;-6.776798835;-40.04036997;-8.273464284;-3.279480035;17.99390183;7.154862911;-0.831584842;-0.281285984;8.714076721;9.916372641;13.40658001;-14.65383699;-12.81687555;-19.09454732;-12.40724385;-12.7203292;-4.430594112
-3.704160126;-17.1336277;-8.591469017;-46.77614325;-6.306540807;-1.74246475;14.4356639;6.086797727;-6.223650419;-4.355171965;8.17923422;2.34429088;7.548368307;-12.39506674;-24.847351;-19.87631139;-11.00136099;-9.634009627;-3.810202421
-1.594331957;-11.22279965;-9.084997599;-45.02441956;-3.801963626;0.634386423;13.78644563;2.706895722;-10.11232021;-8.970582498;15.74334969;-2.622110317;1.563535046;-9.681910687;-23.31741034;-16.43609216;-6.272724868;-3.953048017;1.573440645
0.049549772;-2.355688643;-7.838856833;-35.23176959;-1.661018359;2.59250285;15.66944042;-0.808781986;-11.16925276;-12.67159457;26.19815592;-2.948827067;-3.993205271;-8.241971546;-6.450749017;-10.62022812;-1.353940861;1.285295099;7.842580852
0.332620488;5.199163912;-5.219086866;-21.34007813;-0.289616087;3.090405174;17.05591438;-2.360546597;-10.54176201;-14.33681813;28.83744209;-0.872651875;-7.705980376;-9.093344448;16.26285767;-6.058674158;0.652204769;3.134619051;10.79669895
-0.931964425;7.878617544;-2.509998656;-8.991705555;0.645728053;1.907193688;15.37508831;-1.249747905;-10.59524599;-14.02088021;15.25384605;-1.172758104;-8.233427449;-11.94067651;29.14416851;-5.63939856;-1.337551753;0.450307044;8.713332415
-3.121916004;4.826168166;-1.163087393;-2.93238259;1.79232548;-0.217347023;11.56094541;1.734007214;-12.59061133;-12.80975655;-13.00154187;-7.108745524;-5.533256579;-15.40506205;21.05075309;-9.864339582;-5.87383029;-5.41784901;3.305293528
-5.089834706;-1.737031568;-1.693780744;-4.966508282;3.367428658;-2.010645344;9.956585727;5.273762727;-15.6102854;-11.95636068;-43.44516146;-17.46436183;-1.243958361;-17.92345068;-6.102081734;-16.95087;-10.21406061;-11.44281478;-1.706224454
-5.666353705;-7.962586036;-3.152544921;-13.42347755;4.769404575;-2.415157826;14.62164577;8.506640558;-17.79622666;-12.08173279;-60.09;-27.19946642;2.228053374;-18.68007813;-37.84418504;-24.19202143;-12.28993429;-14.7353429;-3.216316542
-4.144135993;-10.66268344;-3.70873218;-24.24239847;4.956889777;-1.202297251;24.93763925;11.16494618;-18.6443872;-13.01394275;-54.33386868;-31.18371054;3.26949026;-17.94051683;-56.82814395;-29.42917567;-11.93675668;-14.19147168;-0.655500273
-0.567976656;-9.003374074;-2.001435459;-32.98782032;3.351037288;0.917317452;34.48775476;12.98069476;-19.946987;-14.19480608;-31.27393522;-27.96228701;2.067106701;-16.63300346;-54.66207293;-31.79693137;-10.61192981;-10.95746769;3.981863579
4.234929859;-4.672681333;1.750871211;-36.75729644;0.516179238;2.737157557;34.8155873;13.26044561;-24.17194264;-15.14155701;-6.551875973;-20.57863103;0.312112531;-15.5785602;-37.03123049;-31.64281349;-10.0251729;-7.513133468;7.728633835
8.878444342;-0.608165287;5.769347561;-35.12215948;-2.011523833;3.26059737;21.63377113;11.36246673;-31.58494587;-15.56201647;4.158710603;-13.98556764;-0.097832913;-14.97653101;-18.39325455;-30.01;-10.8358178;-6.059475746;8.546864374
11.85148876;0.803463377;7.908852008;-29.7904171;-2.704127368;2.239080617;-1.272840232;7.780297753;-38.88861023;-15.18538067;-4.527047232;-11.32216303;1.681380663;-14.4746416;-10.65414287;-28.05977514;-12.3430564;-7.25753287;6.286133086
12.06116885;-1.031711236;7.162842444;-23.31301476;-1.102034241;0.250241675;-23.73033878;4.661703776;-41.05753045;-13.68059698;-24.81521438;-12.03907681;5.10427384;-13.65324678;-14.79007813;-26.57740572;-13.21395242;-10.02629137;2.337183964
9.290218539;-4.847451893;4.356473465;-17.5952901;1.883002306;-1.676239275;-35.49122849;4.834680435;-35.20650379;-10.89143465;-41.86594639;-13.08090515;8.875093519;-12.45171336;-21.70624217;-25.62;-12.53461067;-12.3797143;-1.46834524
4.325080778;-8.501205356;1.51239061;-13.03237408;4.672869329;-2.622684116;-32.62504794;9.728326884;-23.27285964;-7.202168687;-44.0544421;-11.74603991;11.87048868;-11.18469521;-20.98412237;-24.45623133;-10.3877575;-12.68003906;-3.876008806
-1.386087086;-10.32020498;0.377518303;-8.72031024;6.178288886;-2.21490449;-19.3880651;17.82703842;-11.01284227;-3.613668074;-30.0146565;-7.671454405;13.61026778;-10.19569294;-9.897568708;-21.96229558;-7.681960059;-10.54870478;-4.655190941
-6.426098327;-9.997354655;1.21982045;-3.566068152;6.490321037;-0.731414416;-4.513848712;25.2175715;-3.873533127;-1.32071897;-8.163391888;-2.485669849;14.12164788;-9.511654295;4.717173627;-17.38464186;-5.548247912;-6.991860605;-4.488190134
-10.07153391;-8.553424833;2.768023222;2.436673909;6.592700486;1.096735576;4.926479286;28.20247435;-3.091872017;-1.048451907;9.871700305;2.12102134;13.62007813;-8.831407531;12.83026171;-11.02090648;-4.805713248;-3.786916902;-4.546323519
-12.5027575;-7.461022636;3.275562319;7.638850712;7.396486052;2.444620653;7.439170117;26.09542928;-5.348048383;-2.670642319;16.59571397;5.871709503;12.45776883;-7.854252073;9.950459285;-4.30161255;-5.75023738;-2.537827919;-5.935035118
-14.40651757;-7.538524621;1.8477038;9.342675818;8.942073118;2.738380195;6.36497625;21.8627244;-6.30525112;-5.41713917;11.91977767;9.57610171;11.31712467;-6.636987596;0.616183341;0.858859405;-8.18490517;-3.897527881;-9.111869101
-16.24179454;-8.371234735;-0.976974435;5.318010614;10.42868438;1.869765839;5.924011867;19.84572202;-4.914212982;-8.462705222;1.285500435;13.53827505;11.21083379;-5.639436011;-6.134022414;3.007255966;-11.51377227;-7.306857692;-13.47127514
-17.70829832;-8.680950911;-3.769927272;-4.646671103;10.99117988;0.22853807;7.740896351;22.24094367;-4.524489215;-11.35504099;-8.773985376;16.49073514;12.9761617;-5.397696958;-5.019531402;1.727437883;-14.86623493;-11.32886001;-17.40916671
-17.83847668;-7.413665427;-5.376688163;-18.12069758;10.49765864;-1.453517294;10.48820414;27.24821096;-9.537920002;-13.91229397;-14.14623696;16.31459192;16.52727899;-6.099932918;0.946333224;-2.470408753;-17.34739875;-14.3842214;-19.04121561
-15.68453765;-4.765412329;-5.756204455;-30.79407259;9.648094518;-2.408375179;12.18899952;30.59333649;-20.37411765;-15.7544484;-14.06128645;12.02525371;20.55523291;-7.436140614;3.653777347;-8.650117353;-18.41865944;-15.51415848;-17.29877366
-11.11770677;-2.333736834;-5.866416017;-38.30319455;9.296664765;-2.185469459;12.47968536;29.30737406;-31.36916784;-16.03065635;-10.14200263;5.171307207;23.13434131;-8.865483948;-2.116702155;-15.75712283;-18.19106082;-14.78575911;-12.70327094
-5.148083584;-2.159760942;-6.74917133;-38.20319135;9.623263208;-0.894805566;12.64150158;24.54259426;-34.07878871;-13.7713273;-5.158798077;-0.815356291;22.92848054;-10.0849642;-13.19839224;-22.49404406;-17.34505897;-13.13754165;-7.177792198
0.495406006;-5.248329614;-8.579162098;-31.08991682;9.918492839;0.808700405;13.72173815;20.75949014;-23.89265462;-8.714119519;-2.182370351;-2.986546601;20.08331535;-11.29602095;-20.19048105;-27.1570624;-16.63179369;-11.76946826;-2.892285295
4.258655821;-10.61480463;-10.42186455;-20.30843365;9.198582427;2.035493022;15.03742875;21.60100095;-4.691167177;-1.935316539;-3.680897;-1.049837874;16.0619597;-13.01296069;-15.64856634;-28.05609808;-16.28986584;-11.4447797;-0.909200721
5.535534875;-15.61394925;-10.85829754;-10.3739713;7.119230068;2.130651547;14.87613502;25.79269496;12.65834969;4.351223861;-10.13373757;2.491015012;12.55507022;-15.52688409;-1.206531522;-24.61417607;-15.8607136;-12.11729238;-0.63546717
4.833886566;-17.42247891;-8.977831211;-4.843417587;4.376003594;1.045531528;12.7964269;26.82530432;17.4595883;7.862974662;-18.85174356;4.368903386;10.40539927;-18.43810712;12.82553017;-18.36703246;-14.60482999;-13.07990792;-0.510390087
3.289992633;-14.71257137;-5.01895377;-4.658710215;2.21808946;-0.616881086;11.01285921;17.3655133;6.849253469;7.525688837;-24.46720804;3.068267336;9.46083023;-20.65884674;15.46872085;-12.74628848;-12.20894024;-13.4873747;0.620914832
1.920465833;-8.404791979;-0.266556986;-7.817767347;1.478191163;-1.930188435;12.93987646;-4.596569422;-11.92490654;4.088213089;-21.75405987;-0.238078347;9.382781133;-20.96441127;4.108294812;-11.25963855;-9.183264637;-12.87901524;2.571203035
1.11611826;-1.046373652;3.629356908;-10.63280481;1.949965365;-2.166133297;19.69184605;-32.68659581;-26.55149425;-0.337735376;-9.426214388;-2.994410535;10.49412371;-18.76944717;-13.17852401;-15.05036023;-6.573384408;-11.37499973;4.08059704
0.637433036;4.679835083;5.414019557;-10.00470362;2.645230149;-1.20504296;27.6748483;-55.02017142;-28.35669773;-3.466886219;7.874002544;-3.559712675;13.67527772;-14.61774115;-24.22628376;-21.67146561;-5.19395354;-9.492249091;4.039491944
-0.007278817;7.278135988;4.65399932;-5.466267401;2.696951898;0.404745272;29.99451755;-61.43;-18.14511276;-3.952339639;21.45980838;-2.483443882;19.25755752;-10.03644298;-22.95559436;-26.33666237;-5.028901279;-7.800384261;2.581324853
-1.141586315;6.817632637;1.74976375;0.312294342;2.113403555;1.765849508;21.29760503;-50.01636843;-4.875500618;-1.781356283;23.72681217;-1.749091221;25.97404314;-6.808107295;-14.54049168;-25.13216504;-5.329578015;-6.701855668;1.051852149
-2.73860575;4.364845113;-2.297145781;3.081911845;1.725675833;2.133838837;2.461685702;-28.30461932;1.597096557;2.083662549;13.24894613;-2.800009766;31.1997794;-6.084307036;-10.99292152;-18.01574505;-5.348571511;-6.446157104;0.828767911
-4.520964915;1.106699698;-6.204509145;-0.146210064;2.382846066;1.312206426;-18.83716548;-8.214514781;-2.025756721;6.347821472;-3.813415137;-5.179507626;32.63332403;-7.8593212;-20.57602162;-9.300945134;-5.079675572;-7.249725507;1.995326303
-6.188785495;-2.176034051;-8.803581329;-8.788020168;4.10965618;-0.268880022;-32.61987451;1.45857141;-10.55049608;9.806430798;-17.25551787;-6.971974501;30.13227419;-11.08799728;-39.78314701;-5.012255141;-5.339955285;-9.308709575;3.063101665
-7.591392726;-5.115850072;-9.521023081;-18.61573395;5.972106816;-1.807957066;-33.05189431;-0.268791616;-15.13539602;11.42798795;-19.11417594;-6.569985085;25.99363297;-14.33132094;-54.778744;-8.817637946;-7.079883243;-12.63055509;2.088453074
-8.763980022;-7.563659542;-8.789361494;-24.26921059;6.774957509;-2.560644812;-22.05394266;-7.620724929;-10.86882137;10.36476708;-8.54771586;-4.13071234;23.15125579;-16.50961027;-51.61056765;-19.41320454;-10.4791407;-16.83414028;-1.670712666
-9.863862109;-9.552327924;-8.047285606;-22.84021261;5.991311283;-2.209526549;-7.455632554;-13.36960015;-1.020367312;6.18172224;7.826724711;-1.436013566;22.66244756;-17.32369536;-27.34809539;-31.28512139;-14.59700867;-21.15781164;-6.936616488
-11.07326939;-11.41834224;-9.091229916;-16.03753318;4.131791386;-1.000530727;2.67973717;-14.01745536;5.356890984;-0.73722615;20.1322141;-0.353570462;22.75908498;-17.16085954;6.59655592;-38.36500223;-17.90421656;-24.76910753;-11.18571623
-12.50263752;-13.76142034;-12.97511375;-9.215638586;2.260039063;0.398305831;5.113863979;-11.16659268;0.562364001;-8.977551755;21.04129075;-1.333455885;20.61557824;-16.64532493;31.65367097;-38.02181368;-19.29540986;-27.2019357;-12.48067124
-14.10283187;-17.02535177;-19.1192612;-7.716516773;1.105226874;1.230406853;2.293856311;-8.798923651;-15.41279055;-16.42390294;9.575401933;-3.261329365;15.56653164;-16.18748878;34.38927311;-32.62872727;-18.78135957;-28.59022095;-10.93089106
-15.61330269;-20.93203189;-25.33703897;-13.01860751;0.556477614;1.017123635;-0.928656411;-9.348352839;-34.18909849;-21.07982676;-8.995846691;-4.685009858;10.85521902;-15.81539675;14.82613426;-27.70635953;-17.32111946;-29.47543392;-8.601678426
-16.59946513;-24.31689742;-28.94714442;-21.51275783;-0.036248084;-0.205176049;-1.441553896;-11.90337559;-44.48023515;-21.8996567;-26.42702831;-5.173514272;11.78711915;-15.31629092;-14.85305539;-28.0206102;-15.95175358;-30.2768173;-7.90159934
-16.60859561;-25.69760828;-28.3412329;-26.93175036;-1.056865252;-1.882139924;0.552274439;-13.59247133;-39.7376207;-19.09429206;-35.59461365;-5.514191207;21.09288529;-14.4860043;-39.35755693;-34.29511981;-14.92625061;-30.79289019;-9.679931042
-15.39482446;-24.27067781;-23.94794566;-24.77928883;-2.065122871;-3.18185252;3.205254298;-12.40268699;-22.52130996;-13.7578256;-33.2644336;-6.620150587;35.07355524;-13.2550004;-49.75304771;-42.60606521;-13.53735391;-30.12858885;-12.50201548
-13.09384467;-20.54798097;-17.88722193;-15.55366263;-2.020451228;-3.383545725;5.642721795;-8.765160807;-2.711170433;-7.17486755;-20.72878557;-8.286214516;44.20151245;-11.63338233;-46.65147122;-46.67115041;-10.74079879;-27.17749717;-13.66271102
-10.23542343;-16.03054847;-12.54673557;-4.389047972;-0.136975;-2.243433878;8.726141142;-4.746921355;8.915534707;-0.36712227;-2.763158631;-9.092959545;38.76100111;-9.621021587;-36.16155069;-41.49930919;-6.072049853;-21.40868909;-11.17390066
-7.568982327;-12.10014497;-9.126107291;2.613618721;3.335161941;-0.157490923;13.3934436;-2.002048192;7.212749504;5.851094791;14.26032958;-7.651770487;16.00283817;-7.265053996;-23.38304662;-26.28576513;-0.158972168;-13.47013211;-5.249373839
-5.77697957;-9.028498909;-7.215428451;2.623878478;7.059211211;1.981258232;18.66152395;-0.598065677;-4.864423045;10.55734377;24.52754164;-4.046015424;-16.52214743;-4.870087891;-9.354406684;-5.109326055;5.525905532;-5.185656494;1.775533646
-5.193522589;-5.975988179;-5.64597823;-2.243365123;9.357554663;3.190197734;21.79676751;0.293882924;-18.91222099;12.67012509;24.8416531;-0.035493278;-44.52064635;-3.138702696;6.599558491;14.75782813;9.468694599;1.144097947;6.97787019
-5.625814459;-2.020680178;-3.821673004;-6.953350933;9.197991271;2.88480046;20.89588029;0.831466104;-26.52922464;11.44665036;16.03388844;2.319444769;-55.53591839;-2.978646314;22.40791284;26.04113172;10.92013948;3.818204166;8.699460179
-6.341926406;2.68358037;-2.359498408;-7.601257278;6.720866692;1.197683323;17.38432082;-0.09202159;-23.87530115;7.239100411;2.925008867;2.45421949;-46.76299208;-4.954156576;31.83394891;24.7281907;10.22141599;2.619291412;7.439377068
-6.270764799;6.711640351;-2.476132494;-4.357168705;3.013013168;-1.05560322;15.53525536;-3.670087891;-12.87195123;1.816243116;-7.649273719;1.840830423;-26.56334583;-8.714406441;28.24853034;11.97421455;8.523352805;-1.014538517;5.269635136
-4.425227374;8.419037485;-4.669051327;-1.160684145;-0.596881746;-2.774210805;18.71387777;-9.350297662;0.892969664;-2.267785631;-10.20445637;2.623864625;-8.571873406;-12.88793277;10.68086846;-6.310778387;7.123468436;-4.70217153;4.299616448
-0.452655453;7.380186957;-7.912571009;-2.582286625;-3.186664589;-3.143868087;25.40502024;-14.33127168;11.57807815;-3.08034679;-3.691939733;5.42813579;-2.632794081;-15.68627062;-13.35429549;-22.21075341;6.792402518;-6.404972709;5.290183537
4.940601415;4.896458559;-10.21224482;-10.3586804;-4.490573973;-2.080696692;28.95460822;-15.28027041;15.63954948;-0.617094229;7.635073839;8.300924639;-8.998296117;-15.93744208;-31.48823013;-29.70055114;7.40458887;-5.60432297;7.297928551
10.01725013;2.980652685;-10.19998389;-22.15374216;-4.790968375;-0.292102725;22.15605898;-11.05426056;12.53712831;2.981053339;16.43679497;7.929081079;-19.61281701;-13.86448636;-34.52254423;-27.63662318;8.032009283;-3.666476143;8.466926648
12.6587007;2.572676152;-8.470375053;-33.22093213;-4.691569602;1.102873555;3.502686316;-4.052095484;4.011151315;4.6394958;16.54958557;2.352348528;-24.95315573;-10.9999219;-22.8846982;-20.00695615;7.476170671;-3.088361965;7.348175474
11.42410247;2.539918234;-7.429151634;-39.46208034;-4.907620887;1.203830392;-20.09437412;1.212905058;-7.0595778;2.323423041;6.790768696;-7.001044056;-20.95511897;-9.198494103;-6.392420253;-13.12628688;5.016717838;-5.968451985;3.871154146
6.436857978;0.48287713;-9.573973904;-39.59657048;-6.015042761;-0.137979358;-36.96957545;1.397749058;-17.55214736;-3.522994095;-8.145980432;-15.75722546;-10.97672635;-9.383280445;2.76982743;-11.49147682;0.990111194;-12.57685917;-0.60308187
-0.520146165;-5.147317709;-15.45806523;-35.19445155;-8.102908824;-2.198675534;-38.51633887;-3.123051544;-24.73484432;-10.11103328;-20.44679596;-19.40179169;-1.968928629;-10.91156321;-1.280664923;-15.09117204;-3.196067328;-20.93771277;-4.116060117
-6.890402004;-13.34651827;-22.98269725;-29.10839928;-10.4981105;-3.766107788;-25.29827546;-8.545587228;-26.90527667;-14.02585823;-23.98014853;-16.41498327;1.461287061;-12.04322183;-14.25072014;-20.07435113;-5.74813392;-27.78059658;-5.284701081
-10.73774105;-20.83047939;-28.72055652;-23.83103656;-11.8985506;-3.83;-6.630540048;-10.56330009;-24.01855455;-13.43269777;-18.09629343;-9.370078125;0.16171063;-11.20458238;-25.37135288;-22.24192608;-5.551805641;-30.36193991;-4.102812091
-11.75974791;-24.29660496;-30.37726552;-20.85129882;-11.07077139;-2.185917922;6.159052683;-7.590322613;-17.884165;-9.283988062;-7.879744391;-3.165877703;-1.437606374;-8.152008594;-25.72213531;-20.61116414;-2.948450279;-28.05400216;-1.908307019
-11.22936236;-22.98640902;-28.52119459;-20.86316287;-7.785019925;0.406700385;7.592368671;-1.757444154;-11.50134431;-4.681608903;-0.572258706;-1.734961484;-0.052951576;-4.204773254;-14.86343512;-18.14493932;0.370908529;-22.6906071;-0.552216264
-10.90516439;-19.44996467;-26.18201983;-23.94912485;-3.29020589;2.620871044;1.016520376;2.953451862;-7.627650146;-2.805316469;-0.496059626;-5.643214573;3.19807945;-1.392385125;-0.947836971;-18.95673795;2.393483345;-17.43536461;-1.277405364
-11.69780509;-17.73209643;-26.52864959;-29.24992475;0.202507882;3.295117398;-5.27615443;3.763473575;-7.334073383;-4.817356792;-5.996154303;-12.17786225;3.789891457;-1.136171749;5.481453964;-24.24680647;2.095830189;-14.89781967;-3.988056598
-13.06260756;-20.25159552;-30.3492594;-34.601828;0.859574606;2.081981996;-5.227897948;0.877928787;-9.501278254;-9.17768692;-10.72180888;-17.56266043;-1.988163515;-3.381281124;-0.842962723;-30.47240644;0.124237213;-15.7038557;-7.348250415
-13.53770399;-25.77303606;-35.27114992;-37.05172183;-1.493443712;-0.361420299;0.487206482;-3.192130541;-11.68893645;-12.81904531;-8.591422413;-19.45023859;-13.33452695;-6.720426456;-16.4214104;-31.6121339;-1.66873439;-18.38848229;-9.621693546
-11.97229469;-30.11669996;-37.37541249;-34.47780484;-5.128038782;-2.743006507;6.04410788;-5.854994711;-11.87896264;-13.32653479;1.011140924;-17.93256446;-24.95892036;-9.328978927;-31.88954668;-24.01883342;-1.52233089;-20.56705841;-9.689800189
-8.473646109;-29.16576887;-34.05344492;-27.32786449;-7.488947313;-3.84124506;6.255871589;-6.209368664;-9.935677219;-10.57419212;11.80146552;-14.72358439;-30.79758447;-10.0205162;-38.7203615;-9.994317023;1.029073771;-20.51151437;-7.591885966
-4.352689912;-21.94808546;-26.00710483;-18.95279734;-6.875995365;-3.140807571;1.284103716;-5.085873206;-7.766240924;-6.690210362;14.51312706;-11.60438186;-28.33621242;-8.772319258;-34.60750827;3.061601139;4.897746618;-18.0872244;-4.29561528
-1.158977791;-11.49700362;-16.92911149;-13.85275308;-3.520975743;-1.057813359;-3.764617855;-3.769235062;-8.04714414;-4.44600426;3.84692236;-9.512268544;-20.11112965;-6.540831441;-23.87825573;7.662143382;8.255250427;-14.56129044;-0.96286705
0.394804052;-2.876002357;-11.11247846;-14.81023141;0.711637549;1.331226536;-3.727844522;-2.851028591;-12.38455742;-5.293618425;-16.52434943;-8.734836498;-11.44870646;-4.660149548;-13.31520803;1.712656087;9.750078125;-11.60680044;1.699388069
0.780972838;0.14686855;-10.71758913;-20.96062372;3.722708657;2.867180995;1.792046123;-2.207731024;-20.16498073;-8.481152602;-35.0550213;-9.526726303;-6.566126238;-4.246869001;-7.10748249;-9.830326391;9.232389751;-10.28804856;3.569251445
1.080707963;-2.617907292;-14.5853911;-28.32512121;4.581712083;2.868225795;8.026835818;-1.773200894;-28.84197089;-11.81765499;-39.56600984;-12.18206289;-6.202675933;-5.83117061;-4.828958121;-18.54750508;7.566062594;-10.64320119;4.775322384
2.049318695;-8.026319437;-19.27919885;-32.50849105;3.91372877;1.405806319;9.374158951;-1.974173401;-35.38271397;-13.39974887;-25.97480072;-16.36214346;-8.285388201;-9.188482483;-3.495749971;-18.71255887;5.854592616;-11.9236763;5.340776342
3.630586014;-11.94814765;-21.44083677;-31.58681702;3.120804191;-0.788290682;4.539577289;-3.197109505;-37.83387615;-12.91730801;-2.159633386;-20.4718614;-10.42866815;-13.3116567;-1.359939032;-11.28616444;4.784779109;-13.10646713;5.195763085
5.268275086;-11.88543494;-19.75186904;-27.05999211;3.208365644;-2.68894144;-2.127958046;-4.874278881;-36.01314998;-11.55210301;16.45439446;-22.06431637;-11.75527718;-16.60511832;0.113084991;-2.720999321;4.528426179;-13.28566596;4.510657496
6.628748519;-8.113590366;-15.2911637;-22.2652034;4.192121585;-3.432289562;-4.31780356;-5.391213675;-31.09717859;-10.64766257;17.14822269;-19.37091716;-12.61192655;-17.4367317;-2.179563413;0.345965148;5.048863691;-11.86138334;3.908183
7.994532408;-2.909276805;-10.36059591;-19.61259635;5.433526475;-2.675655693;0.782368899;-3.302120609;-24.70242393;-10.3315584;-1.012337196;-12.88379702;-13.01274122;-14.96526863;-9.327465251;-3.757723444;6.319510247;-8.69383939;4.168985793
9.922291002;1.187341157;-6.877051323;-18.83759084;6.402877526;-0.737750923;10.04210421;1.067187976;-18.27269466;-9.306556523;-25.97205386;-5.580319337;-11.85762379;-9.805834838;-18.07035759;-10.75214964;8.177459698;-4.315388173;5.545678321
12.47297311;2.714981326;-5.4896274;-17.54733924;7.07039179;1.532079393;17.07187955;5.226787674;-13.07339205;-6.055482329;-40.69522593;-1.305465707;-8.01579687;-3.973257278;-22.186743;-14.13618976;10.04779258;-0.009766502;7.288034153
14.76882929;1.550324351;-5.791146643;-13.48269995;7.609874436;3.12163649;17.63446214;6.072178449;-10.37419472;-0.499420055;-35.02329329;-2.316578448;-2.234084676;0.096003611;-16.93575431;-10.43958562;11.02522796;2.55452666;7.948995828
15.39628497;-1.60669361;-7.098873982;-6.635538146;7.859918168;3.328423785;13.03141799;2.354860013;-11.18601305;5.309906736;-12.95122175;-7.783663382;2.324808602;0.971022797;-3.197464694;-1.765672515;10.48560618;2.176303791;6.420966655
13.44276104;-5.767845348;-8.99090319;0.39477077;7.262047733;2.125058193;8.571098679;-3.984322458;-15.4452129;8.19316682;10.04889891;-14.39586721;2.035915903;-0.828938934;12.11401148;6.199472212;8.794877503;-0.993983549;2.944363627
9.360543342;-9.805112716;-11.21998264;3.981965993;5.493492217;0.209774382;8.611706849;-8.931330442;-21.32677394;5.946897185;17.90684568;-18.6165333;-4.036406573;-3.101045396;20.09908887;8.808775874;7.403625654;-5.233809759;-0.801431065
4.917801271;-12.43636184;-13.29854468;1.756651878;3.209260087;-1.33370782;12.68757966;-9.270285218;-25.61264884;-0.970188344;5.308292903;-18.86146071;-12.57288336;-3.353023052;15.71123719;5.851138368;8.023397017;-8.052717379;-2.752923134
2.189285071;-12.49894529;-14.34457589;-5.97567773;2.016025574;-1.623358622;16.20451583;-4.973133885;-25.35457091;-9.463865262;-18.57574353;-16.000812;-17.80378431;-0.402801217;1.236833331;1.163532426;11.39125836;-7.634805791;-1.926294413
2.289074257;-9.582908052;-13.48339872;-16.44470582;3.394699481;-0.49202826;15.04912166;0.81258916;-19.91518695;-15.61854092;-36.55461273;-12.00356471;-15.64709209;4.929466014;-15.10862898;-0.841503342;16.61173935;-3.962193036;0.883432525
4.743046693;-4.544191253;-10.53294064;-25.87412302;7.304794748;1.392303616;9.878636633;4.143068427;-11.85031655;-17.07639426;-35.3402521;-8.066623454;-6.934160778;10.49776976;-24.48294578;1.371646237;21.70647232;1.208475184;3.798471965
7.898657405;0.693284535;-6.38421401;-31.20667398;11.70573688;2.902459142;6.037074271;3.075681329;-5.695650312;-14.36475777;-14.48758962;-3.916841284;3.055490362;14.32202624;-22.88326707;5.773506048;25.02140865;5.535771358;5.436929942
10.00389576;4.128187052;-2.692446675;-31.27919382;13.65547304;3.117527044;8.875270924;-1.290298402;-5.236637715;-10.33698092;13.61142994;1.146562239;8.588893733;15.76268098;-13.07486565;9.011366181;26.36657334;7.589903177;6.068513502
10.16993184;4.84877803;-1.026793175;-27.14272926;11.37095118;1.873265137;18.40998591;-6.103997151;-11.10596002;-8.227775541;32.10131667;6.528207235;7.85788041;15.55996501;-1.96838784;9.318478429;26.91846422;7.56508137;7.324438674
8.642431605;3.520598176;-2.037969892;-21.57032335;5.716852759;-0.146588697;28.08768634;-9.007412152;-20.46764237;-9.708832217;30.19232861;9.708791391;4.163218294;14.86228953;4.339036361;7.587688435;27.94392624;6.748790551;10.63335138
6.390781098;1.815153722;-5.177079628;-17.89507656;-0.127112705;-1.831683331;29.12074385;-9.382451084;-29.04265994;-14.16489181;8.86133779;7.630584731;2.925965956;14.15951122;4.261266881;6.030948557;29.45292527;6.282269206;15.68470895
4.465631962;1.213538008;-9.092507143;-18.45834676;-2.719885152;-2.305986086;17.19099151;-7.850593277;-33.93671864;-19.42667664;-21.13872739;-0.75943122;7.034121531;13.03185459;0.864800658;6.02617021;30.01682839;6.281291043;20.29552206
3.562407674;2.086327463;-12.38572282;-23.28222651;-0.676708206;-1.414430416;-3.784450826;-5.00129165;-35.10902165;-23.20793097;-46.36415779;-12.86654199;14.43582341;10.85519674;-1.086697291;7.2214405;28.01613038;6.014787286;21.93874279
3.894018507;3.684814225;-14.24178266;-29.81712777;4.45263863;0.244018736;-23.88149205;-0.89598944;-34.44239013;-24.21041189;-57.5492006;-23.3135625;19.97796272;7.745042246;1.297085438;8.469154476;23.29918912;4.881249974;19.77143735
5.20801804;4.920708013;-14.62639726;-34.26313838;9.359424443;1.712262;-33.72474727;4.181067465;-33.37193994;-22.3577736;-52.42363273;-27.064885;19.87295774;4.81695529;7.271038278;9.282408398;17.76466679;3.209991416;15.48212811
6.821848031;5.210399452;-14.06370008;-33.95649685;11.26748886;2.218749891;-30.39725775;8.81202885;-31.24808976;-18.36475928;-34.37173231;-22.7195664;14.95438786;3.461220725;13.20329364;10.09563269;14.19996445;2.077391022;12.15500307
7.765914706;4.702825462;-13.22938269;-29.31598558;9.63110174;1.542917962;-18.45978021;10.83042893;-25.98191011;-13.21659023;-9.504367782;-13.55249662;9.964592379;4.227708469;14.76327959;11.02604383;14.18254942;2.240747649;11.95163453
7.188472088;3.814967207;-12.60809105;-23.80735341;6.115086081;0.041438173;-5.824356831;9.140627797;-16.51126933;-7.929367184;15.44861934;-5.414800165;9.559339821;6.302589128;8.972344197;10.61231669;16.73388461;3.15740308;14.42230185
4.935198204;2.612869288;-12.34321773;-21.63993108;3.125910929;-1.597995051;1.901596791;5.363330574;-4.912429098;-3.512389168;34.08715772;-2.893551046;14.52467248;8.082308815;-4.704679724;6.294897179;18.90579561;3.08594969;16.81318702
1.890029297;0.670073242;-12.28217206;-24.67033251;2.190499308;-2.683001811;4.292732934;3.377729918;3.926527917;-0.836928741;41.34819622;-6.440078125;21.44224489;8.411177172;-24.10759238;-3.236173104;17.93946127;0.376899227;16.16157118
-0.352251205;-2.445112273;-12.1556479;-30.83041641;3.360681072;-2.762754247;4.634916893;6.539018259;5.222161294;-0.307011456;35.3358798;-12.48307023;25.96057845;7.45593895;-44.66813697;-15.77816951;13.32971321;-5.017887349;11.54333056
-0.463517818;-6.514005357;-11.80456287;-35.44973454;5.79370545;-1.747666379;6.142168082;14.67358981;-2.272387086;-1.567979528;19.00477854;-16.34367159;26.65219178;6.467008664;-60.40159399;-25.83398658;7.161330125;-11.11127865;4.725032086
1.608032141;-10.50487573;-11.34947789;-34.66253688;8.698922706;0.068253646;9.346895531;23.63685157;-15.03202;-3.581432909;-0.221821133;-15.71778841;25.96856796;6.60455335;-65.94099134;-27.83538676;2.464520858;-15.04131387;-1.233305332
4.413825079;-13.17404281;-11.19898548;-28.36241919;11.75474624;2.066014248;12.52101412;28.30222761;-26.85;-5.114202666;-13.69102115;-12.12864906;27.46348477;7.808767731;-59.20267459;-20.18824842;0.935233571;-15.05466148;-4.244730004
5.898209649;-14.04015784;-11.85654821;-20.36934174;14.82899589;3.470689141;14.05;26.78581955;-32.7892625;-5.30480709;-16.02149967;-9.345236532;31.88034177;8.68527216;-43.13618443;-6.853437994;1.856845272;-11.79609549;-4.509778698
4.872538813;-13.95388263;-13.60486938;-15.57746113;17.58188617;3.646040467;14.13919562;22.25908486;-32.02760319;-3.879041991;-7.820739667;-10.08620614;35.81984221;7.552809376;-24.81979206;5.12548096;3.036697496;-7.843603769;-3.905271482
1.985037093;-14.70094698;-16.24561969;-16.23807764;19.55781609;2.429243841;14.28280405;20.44875981;-27.49031921;-0.906753255;5.416958711;-13.62057729;34.46;3.838973927;-11.6776239;10.4786755;2.892206282;-5.774394961;-4.076999977
-0.613332606;-17.75937909;-19.06163268;-20.26334875;20.70859158;0.314791296;15.33708195;24.641626;-22.72727317;3.56849863;17.43473019;-16.16658767;26.11977546;-1.296053096;-6.962134519;9.1991511;1.88843416;-6.223188119;-4.892947122
-0.74139604;-22.99464069;-21.04066763;-22.87483153;21.67618724;-1.691542079;16.42321002;32.4909494;-18.69634536;9.57219434;25.23886244;-13.8330732;14.60510534;-5.628115149;-7.833902806;5.88886824;2.109186722;-7.446431679;-4.54818555
2.26493552;-28.23945137;-21.24841163;-20.29998248;23.29556096;-2.554301562;15.95845269;37.73611018;-13.14890468;16.80480388;30.07684469;-5.885476285;6.984022273;-7.337520409;-7.921841288;5.537610493;5.333424628;-6.76413952;-1.205304783
7.085018753;-30.22253488;-19.17690398;-12.64990249;25.59298473;-1.792148432;13.83319796;35.77770148;-3.136190591;24.20915998;34.96490872;4.170009766;8.330990145;-6.175198788;-2.845518681;9.265648766;11.25082704;-2.796954463;5.209092638
11.3621998;-26.4586423;-14.94888388;-3.833126464;27.24632452;0.194607618;12.37286166;28.37776473;11.46683123;30.06567812;41.13946831;10.59862098;17.71179632;-3.48723361;5.536182622;13.59024211;17.34163676;3.215579991;12.53485963
13.32552622;-17.01452895;-9.347923528;1.274167621;26.26365479;2.299466543;14.66890449;22.97090421;26.45149922;32.78836807;46.50630708;9.186652881;28.81734748;-1.151072358;9.901260182;13.79021661;20.57805327;8.049992168;17.6342402
12.86527398;-4.983621569;-3.675493787;0.129032741;21.57910724;3.330477424;21.36973715;26.40772731;35.27585703;31.9397175;47.28842384;0.100192811;34.83427929;-0.273509815;3.241574773;8.437052565;19.62301233;8.661585721;18.42381863
11.33618308;4.838748902;0.586321076;-6.112651456;14.28553901;2.718267644;28.79565794;37.97348725;33.29446233;28.65541973;41.31640609;-12.13219386;33.58103907;-0.597510417;-14.65245735;1.121631906;15.8128958;4.323917576;15.19188279
10.38761217;8.505078611;2.302611674;-13.8451452;7.30246634;0.870430546;30.52570717;47.85355554;21.12477355;25.02372798;30.11472605;-21.45668921;28.69991165;-0.948310262;-35.44403391;-2.244786102;12.19023364;-2.771810556;10.32606147
10.82217824;5.242411326;1.256485386;-19.53556642;3.497933294;-1.062432199;21.8109637;43.3051207;4.628218991;22.76817055;18.09895189;-23.96762412;26.02920229;-0.257479009;-47.35190598;1.600382418;11.36413613;-8.855576217;6.766655313
12.32067486;-1.949336256;-1.561809121;-21.51987991;3.652360383;-1.876227539;3.607818233;18.50422464;-8.538386844;22.18112977;9.673089456;-19.97943915;28.36780675;1.646929407;-43.726976;10.19437835;13.80536088;-10.91365413;6.313251216
14.05386328;-7.997952585;-4.274098104;-20.10449391;5.932087984;-1.038103972;-17.05681208;-19.49489886;-13.39423699;22.12076628;6.640966759;-13.30669031;33.18662343;4.001350845;-28.49110582;16.84472127;17.73684777;-8.471806761;8.815620015
15.47888998;-8.872975306;-5.060962305;-16.58170472;7.377498742;0.994282571;-31.0452657;-53.84606524;-10.12249683;21.08220021;7.843926564;-8.508743289;35.25880217;5.71370634;-13.76176542;15.63095115;20.51541421;-3.751043215;12.5190258
16.59718208;-4.177869443;-3.272592927;-12.41594217;6.235668906;3.045156584;-32.7434001;-68.43871316;-3.143224892;18.51769399;10.93169905;-8.087842646;31.85768976;6.08129126;-10.92721712;5.96614635;20.36564382;-0.231526587;15.10126688
17.5757249;2.555702424;0.043071594;-9.153633699;3.233698279;3.911051519;-23.37757052;-58.40303397;2.230242553;15.38740479;14.49092899;-11.37582962;25.82110881;5.130453428;-21.78935362;-6.859293542;17.27181499;-0.601502735;14.73480741
18.27283628;6.222971044;2.701471119;-8.480078125;0.78257977;3.056408888;-9.725166302;-32.90693984;3.089837759;13.52855624;18.75622807;-15.47605338;23.48364445;3.473234216;-36.74122023;-15.46779153;12.64685653;-5.282001906;10.7792778
18.25787167;3.681872492;2.824104098;-11.57810146;0.880198806;0.917519168;0.673275306;-8.286228214;0.138865466;14.34339139;24.59269414;-17.25794954;28.87998669;1.925307375;-41.73428792;-15.4288851;8.309908395;-12.22479708;4.038141221
17.35223482;-3.930661165;0.247645456;-17.86459843;3.583659555;-1.34075539;4.246573297;3.22370985;-3.51944386;17.7986621;31.93648576;-14.9816347;39.03218576;1.184095508;-28.96531805;-7.680352343;5.604165906;-17.92910629;-3.405178732
16.11702667;-11.77416213;-3.13445891;-24.30867579;7.350438074;-2.46163437;2.826896626;0.810494365;-4.727461748;22.44155062;39.15088786;-8.760484018;44.6124834;1.673794043;-3.176288777;3.157456652;5.089962455;-19.07774026;-8.830751832
15.68258875;-14.45972367;-4.466425117;-26.5406393;10.80461815;-1.77096732;1.200219175;-6.501203792;-2.062659998;26.34684598;43.77537415;-0.05636538;36.11;3.474990443;21.28849983;12.69542015;6.659388917;-14.04116124;-9.984857316
16.92142595;-9.624516611;-1.800873847;-21.54935614;14.1571193;0.46512857;3.024600531;-8.310332152;3.814690741;28.26554178;43.96282085;9.079597065;11.138297;6.254962332;30.47777022;19.50301736;9.693951212;-3.651246191;-6.275363564
19.64739278;0.559718872;4.535017997;-10.11124692;18.84629699;3.173717966;8.258070442;-1.127190538;10.98837625;28.21105726;39.53596761;16.53102254;-22.66630845;9.254462349;20.37520839;24.67225302;13.12827683;9.051119808;0.637036906
22.60990671;10.93736986;12.05469047;3.163723129;25.69984926;5.019894689;13.72932027;9.794371682;17.41504507;27.22737878;32.13327305;20.46492193;-51.58198797;11.46892265;-0.976717651;29.20410303;15.61758244;20.02061136;7.430507563
24.40140302;16.75630934;17.6380853;12.61828139;33.44646349;5.082549076;15.97567445;15.78442282;21.6675589;26.6581174;24.61772523;19.80799439;-63.98975925;12.05602089;-19.90137835;32.029053;16.01420368;25.89862039;10.79656982
24.56341274;16.41105113;19.38927457;15.27254477;39.22835903;3.321782657;13.94505891;12.28217624;23.15684576;27.44322803;20.12155138;14.85507423;-57.17378366;10.7849277;-26.77544265;30.64028404;14.00689062;25.43976836;9.283069917
23.92887056;11.70963613;17.55308391;12.61780808;40.92213969;0.603354633;9.602406671;2.335384305;22.05274508;29.76647174;20.87976428;7.539499679;-38.24182297;8.227070937;-21.68098529;23.71761935;10.44600856;19.95031839;4.11218192
23.85046223;5.832220354;13.97773917;9.020380257;39.21457567;-1.735667443;6.281412074;-6.34886243;19.09777033;33.06016888;26.97199896;0.832455145;-18.97483909;5.511975865;-12.39631318;13.17501595;6.967811235;12.46689917;-1.631095018
24.93623256;0.874885139;10.70417098;8.029848655;37.31920844;-2.564252955;6.257133263;-7.821218563;15.33125615;36.2405055;35.52842223;-2.698485834;-8.531011424;3.760116984;-7.200019531;3.532463544;5.043543089;6.10577732;-4.943528721
26.38659469;-3.044857993;8.818134546;9.6578767;38.22526494;-1.53151401;9.335461655;-2.279755101;11.71395394;38.10856857;41.34442365;-2.370014648;-8.916847417;3.531168284;-8.560361996;-1.058928895;5.085332616;2.533768461;-4.686940967
26.55151333;-6.684601054;8.315702705;10.88360463;41.75546169;0.764089928;13.27277387;4.896350542;8.790602701;37.88846199;39.37254984;0.166383834;-15.62600251;4.611336379;-12.32169416;0.359525534;6.268185874;1.455129778;-2.045190425
24.28614367;-9.924595296;8.796728973;8.855253579;44.23527983;3.104049464;15.48997653;8.122076973;6.617512377;35.73316976;28.12816292;1.979295029;-22.05232534;6.227618412;-12.162276;5.315588069;7.205496642;1.350560882;0.542853883
19.97971875;-11.19476766;10.14604936;3.882318699;41.50603156;4.303275511;14.8140146;6.109990523;5.028015119;32.84489716;11.73059112;0.809334343;-24.06318045;7.51013831;-5.076049263;10.42385225;6.961401984;0.873975109;1.110270099
15.39405715;-8.701486063;12.53195025;-0.530634789;32.96467203;3.833264002;12.18686485;2.270189188;4.012990574;30.927263;-1.459372745;-3.413631436;-21.76975849;7.915589845;6.499368916;14.38411537;5.642171536;-0.098493095;-0.676020218
12.4592924;-2.299161214;15.83224554;-0.725794456;23.00751657;2.075676569;10.04742797;1.143993079;3.858255991;31.12314248;-3.492984742;-8.559879709;-18.06837598;7.41366424;16.95861034;18.75129913;4.175006251;-0.464806592;-3.591558984
12.05078177;5.854896435;19.2259942;3.70211432;18.12443722;0.075187629;10.82454699;4.297059036;4.883298401;33.10590822;7.992381554;-11.77486719;-15.78885549;6.411000436;21.66107985;25.77087565;3.533833029;1.153099687;-5.884931727
13.73894086;12.6755561;21.55161946;9.322444991;21.61934738;-1.056947707;15.3458173;9.20048382;7.007629245;35.08672545;27.77538316;-11.33500305;-15.74353752;5.506488826;19.47040778;35.26634613;4.060211722;5.271023459;-6.384534172
16.59665829;16.47527183;22.24253176;11.87020418;30.35937542;-0.745892832;21.96423953;11.74999877;9.568119415;34.94057125;45.99017456;-7.558246713;-16.73096336;5.195664846;12.31523913;43.55087953;5.359420196;11.0492167;-4.961303645
20.19038383;18.15553411;21.96233846;10.31773172;36.7312829;0.769032503;26.93376579;9.916317795;11.61147348;31.77383496;54.17664178;-2.245044307;-16.92205148;5.624325522;3.116942163;45.67462859;6.724051073;16.73603717;-2.275323184
24.7510592;20.0655413;22.18198548;8.294095924;34.76871367;2.613819499;26.06269606;5.29144398;12.4561845;26.76976519;50.17872039;2.722082384;-15.29807566;6.485752091;-5.682104218;39.38425028;7.633260192;20.64742693;0.741605735
30.35388268;23.41759789;23.85544151;11.21964035;25.59661649;3.785696033;17.00811766;1.404025383;12.05797987;22.55198811;38.44778458;6.429061375;-12.19290763;7.141003651;-12.14491659;27.49238899;7.921680332;21.96859367;3.215809597
35.9736512;26.59423878;26.2742688;21.25975532;17.31903944;3.685873664;1.025447335;0.566009195;10.87431629;21.39305114;25.87809079;8.890894807;-8.876961997;6.957186204;-14.4545923;16.44944514;7.603627661;20.91463284;4.416852753
39.53958573;26.09502022;27.23;34.3743255;18.68875035;2.393535408;-17.00332981;2.123330504;9.362461826;23.53769461;16.74982651;10.20922459;-6.718341272;5.707433794;-11.47003906;11.95443444;6.671214328;18.32434759;3.857473243
39.27664529;19.61364816;24.61748833;42.32923039;31.16130242;0.565551345;-30.63072731;3.497709662;7.554599557;26.9151738;10.80294616;9.90519327;-6.486179196;3.770370888;-4.096886218;14.93152145;5.149123885;15.12557312;1.579569472
35.37620875;8.714156152;18.3422772;38.54098715;45.87290209;-0.942260026;-35.08013837;2.82617557;5.053441736;28.50799068;5.534607646;7.169142603;-8.074261706;1.940195066;4.186734683;21.03952371;3.35105177;12.05226025;-1.568071314
30.51024081;-1.37291412;10.95595769;23.32265112;48.74319219;-1.506850596;-29.81908056;0.676279983;1.399600884;26.3892946;0.05444332;1.838377929;-10.66756362;0.918113135;9.017970056;24.14712424;2.003344812;9.652839609;-4.062620109
28.45869167;-5.061954551;6.306287462;4.312572887;30.60251015;-1.006150225;-18.83117841;-0.676030769;-3.534427574;20.93985054;-3.434528419;-4.858192812;-13.24091498;0.82459785;8.305232029;21.08950432;1.976089792;8.35966999;-4.412345118
31.6266312;-0.416240168;7.042914502;-8.453799495;-5.08690205;0.176361661;-8.311474475;0.386264057;-9.402188107;14.41613574;-2.078878911;-10.64620323;-15.15955006;1.1119028;4.201209674;14.03113367;3.735307405;8.419551806;-2.071702496
39.24825578;9.341420683;12.80393306;-9.173832978;-43.06627105;1.37085001;-3.176607219;3.079811201;-15.46195237;9.323733344;3.620753129;-13.57440527;-16.52762438;0.98509923;1.682422779;8.671890513;6.946952307;9.729880169;2.113187028
47.70313484;18.12924306;20.47440476;0.345585185;-65.63697058;1.936192756;-4.566590266;4.752078199;-20.66282145;6.909943998;8.44425717;-13.38280607;-17.978259;0.04105398;4.330712549;9.79032603;10.60629242;11.80082931;6.362717081
52.82441648;21.39378079;26.34745047;12.8901876;-64.073854;1.532848193;-9.813000801;3.246218422;-23.68235301;6.853215255;5.822066339;-11.71812637;-19.95379279;-1.365651302;10.70003906;17.62281323;13.65735495;13.98071589;9.088618414
52.56299995;19.16216275;28.5666121;21.5745784;-43.95968902;0.259820791;-14.64777533;-0.989829161;-23.15463476;8.151828502;-6.341920132;-10.90687043;-22.0018467;-2.329946639;14.69949294;27.7986112;15.65584246;15.82328105;9.896384566
48.0986134;15.4312539;28.05281359;24.50953938;-20.7525288;-1.379072931;-15.97024235;-4.922483925;-18.33414996;10.24646846;-22.43783357;-12.16480236;-22.76168669;-2.024553841;10.27961245;34.70240046;16.97653523;17.30691565;9.727126428
42.68035632;14.56196229;27.35019564;25.00932003;-9.06212056;-2.664749966;-13.31994943;-5.120019531;-9.990999897;13.35681522;-31.97702242;-14.62380138;-20.85476475;-0.253659647;-3.119263804;35.5253622;18.42138346;18.71618073;10.04362856
39.1841197;17.74196674;28.44540773;27.73826446;-13.50606998;-2.952250667;-8.35563951;-0.330712426;-0.796520003;17.84757128;-27.03648799;-15.95466632;-16.09470643;2.497765397;-18.99626888;31.90658612;20.54450484;20.28166862;11.68776384
38.25203002;22.3766295;31.31377036;34.34186143;-27.39356944;-1.964833159;-3.148077886;7.595276163;5.530199088;23.36393107;-8.696265473;-14.12944072;-9.995077563;5.514986301;-27.84880726;28.11153852;23.19566494;21.87979423;14.25626718
38.28979199;24.68390318;34.20990223;42.11885569;-39.3282105;0.029479351;1.21322241;15.06777694;6.22632656;28.650562;12.88197534;-8.992604425;-4.985806267;8.369314324;-23.96406707;27.41727662;25.56916196;23.02965477;16.40051319
37.08946688;23.05063383;35.23723081;46.43135802;-42.04373622;2.266753345;4.756843085;19.20334482;1.448643059;32.26808213;25.27058423;-2.488225177;-2.808435121;11.02069069;-9.581715189;29.62654407;26.64781969;23.15775296;16.74029065
33.65602007;19.18761203;33.76863366;44.43454204;-36.75356872;3.789593089;7.776587222;19.44396123;-5.389345457;33.53381496;22.47619359;2.553220021;-3.350164396;13.43050436;6.961525002;31.54387154;25.69348492;21.88948033;14.67769297
28.84072935;16.19773129;30.60476773;36.94337713;-30.4366199;3.90181509;10.04749369;17.30656299;-9.58034944;32.78941912;8.849253662;4.100700516;-4.915862106;15.10460165;17.60185867;29.81792183;22.51227766;19.1606378;10.59003906
24.48126778;15.4713546;26.97149883;27.23346002;-29.17416032;2.559462569;10.92369786;14.80371858;-8.319406004;30.7545148;-4.761054651;1.874063342;-5.736494936;15.1152252;20.22012669;23.75740089;17.47323681;15.16301095;5.438751975
21.93642357;15.3491784;23.44634034;18.31145424;-33.32619197;0.466233827;10.1675627;13.00295137;-2.846838809;27.63735475;-9.44415516;-2.94515256;-5.39062609;12.75047618;19.06113496;15.91049904;11.41533797;10.29832184;0.246491582
21.23246533;12.83294256;19.81078074;11.23199523;-38.16345362;-1.233464965;8.602520315;11.79631705;2.280928783;22.95047642;-4.556852895;-8.759284341;-4.837071693;8.325400445;19.84210726;10.08357153;5.519294786;5.237644692;-4.152167668
21.35847969;6.769966728;15.81621064;5.649402701;-38.73330175;-1.548799638;7.820824123;10.74044419;2.556975374;16.30959067;2.842120175;-14.41899369;-5.01642896;3.408296635;23.98079241;8.489225603;1.076966367;0.954345471;-7.069870182
21.24929593;-0.522217103;11.92527419;1.492679614;-34.37938279;-0.214607008;9.06526762;9.926998742;-2.865977578;8.47253508;4.53218542;-19.35191645;-5.397928951;0.078264228;27.00819466;10.28869444;-0.915726417;-1.507113851;-7.929618803
20.54029552;-4.909592806;9.140185803;-0.316602859;-29.06587652;2.101374421;12.21326297;9.982898218;-10.18277719;1.48615918;-2.0051213;-23.17897555;-4.069932881;-0.396011391;22.50098334;12.57332974;-0.226660249;-1.566756939;-6.464808409
19.56045768;-4.102942669;8.004830415;1.029888642;-27.53568112;4.119949925;15.7699565;11.23788099;-13.609999;-2.490039063;-11.96396576;-25.47289357;0.370162456;1.497423009;8.044476098;12.86678699;2.398891755;0.37639882;-3.044038635
18.788244;-0.058103183;7.814058605;4.539557742;-30.89333594;4.657441457;17.92604455;12.93209399;-9.924226283;-2.872221594;-17.76458208;-26.03143413;6.687331375;3.739484007;-11.99295946;11.08546388;5.547135429;2.944261431;1.245817718
18.40620331;2.274468181;7.01231657;7.239332585;-35.49496125;3.322910193;17.81213236;13.33602406;-1.400674432;-1.380370896;-15.56163539;-25.36565498;10.80300094;4.145813314;-29.278553;9.416134013;7.892924649;4.502595192;5.002971703
18.3391575;-0.894054472;4.665538742;6.244061439;-36.01984758;0.783264067;15.9189676;10.85888174;5.325834707;-0.954479451;-8.146451761;-24.73299031;8.291329326;1.949453424;-37.49565351;10.27901268;8.944620957;4.225727316;7.229188402
18.58097405;-8.581716872;1.725394487;1.481767109;-30.01566974;-1.588625895;13.40987331;5.339415714;3.912336242;-3.498136937;-2.066765416;-25.38458841;-2.018009646;-1.567283451;-36.43800235;14.0711396;9.23838334;2.71638247;7.861074885
