Channel 1 - P4;Channel 2 - O2;Channel 3 - P8;Channel 4 - T8;Channel 5 - C4;Channel 6 - Cz;Channel 7 - Fz;Channel 8 - F4;Channel 9 - Fp2;Channel 10 - F8;Channel 11 - Fp1;Channel 12 - F7;Channel 13 - F3;Channel 14 - C3;Channel 15 - T7;Channel 16 - P7;Channel 17 - P3;Channel 18 - O1;Channel 19 - Pz
-102.8581909;-90.26146556;-82.0413061;-28.63802276;-145.8323458;3.004484478;-177.6387651;-205.1628015;-159.2969683;-74.30068768;-139.2159916;-109.3113369;-195.0840273;-69.28234575;-62.5416285;-100.4163025;-112.4643518;-77.1124874;-123.3775118
-98.91667218;-95.46728448;-86.87980039;-23.90204322;-132.2424684;-1.035177527;-162.3996436;-183.6512633;-162.1040264;-82.18767737;-138.6947393;-102.9292673;-192.6865603;-63.29021256;-55.77923;-111.0449554;-104.1150007;-81.52257348;-115.659306
-60.39;-70.58853631;-67.13537255;-16.61105485;-76.13697561;-4.2983024;-87.25164271;-106.3335258;-116.4124176;-70.00868475;-99.13029951;-60.80754923;-125.2786937;-36.93694869;-32.32299254;-93.75706686;-58.0224412;-61.55656368;-66.90593463
-11.4673312;-31.99305172;-36.35793095;-11.26421413;-10.33021183;-5.166453529;6.234626075;-15.4711292;-53.4952201;-46.35028661;-44.86176356;-8.522713039;-36.33213619;-5.121830394;-3.926478447;-59.37519958;-2.102891812;-30.48276083;-7.615522427
19.60891533;-1.35808271;-12.38114516;-9.873857772;30.42379004;-3.430624383;69.49940854;45.43323137;-9.890866976;-24.15064558;-3.33597609;26.77940294;23.02499693;15.82620114;18.69147157;-24.97173511;32.7445057;-5.368648287;28.8269835
18.91054806;8.289312054;-5.984502121;-10.83897921;31.98480533;-0.448510394;77.79530618;57.08346453;-3.070930761;-12.37736248;12.85892688;33.9266927;28.43204377;18.75812805;31.82500381;-2.86837211;32.79929441;3.943205735;28.03361898
-5.943386453;-0.531015791;-15.21579011;-10.45454244;7.344742283;1.754892491;42.29564762;30.65467209;-22.71322226;-11.31360488;11.08766065;22.3347034;-4.908155197;9.101176068;38.84784433;5.180874799;8.267776808;-0.193473137;1.539182665
-33.87766114;-13.95098087;-28.6952402;-5.759503744;-16.2611395;1.818559801;-3.161143091;-6.345122616;-42.4493196;-14.2937;8.55264346;11.7348225;-38.83024325;-0.807545425;45.24947422;5.407506548;-17.14054736;-7.158420899;-24.90553895
-46.4795292;-17.85202905;-34.60169605;3.439954979;-18.48651448;-0.12242813;-28.37574616;-31.32993918;-41.46203624;-13.84007813;16.52429513;16.18240126;-43.2948831;-1.47706482;53.15602329;4.644093997;-24.67581315;-7.060856431;-31.35516773
-39.69553675;-7.296791589;-28.43308008;14.66734025;1.017453866;-2.649675196;-25.66223154;-38.89850629;-18.97858643;-7.226389512;31.95736771;34.76458885;-17.20962723;7.471419915;59.72782164;4.901098537;-12.77630206;2.308710497;-16.51482213
-23.33707696;11.9088531;-14.43968166;24.54181832;26.12834478;-4.09880431;-8.907404498;-37.53613168;8.233899704;2.432743664;42.36662805;54.94219157;15.6884759;18.73770317;60.32807047;3.944945167;5.133434266;15.33;5.061221302
-10.71368078;29.17584944;-0.908914976;30.63848044;39.48645776;-3.643715665;2.939344567;-37.13278499;21.31076147;9.601929693;38.50765709;64.13;29.73235804;24.37148262;53.43448611;0.124107267;13.68703083;24.28091067;17.07556945
-7.869931984;36.98340341;6.157884668;32.18747509;36.12942916;-1.699167025;2.382507758;-39.49375676;14.18159612;10.9068514;23.40856965;59.3762739;18.61838507;22.20562348;42.99859197;-3.962286891;8.007726949;25.68732599;14.44515894
-10.81017082;34.7652847;6.16047193;29.61326183;25.12370605;0.523623685;-3.256896941;-39.10395779;-3.53962991;7.184671987;10.17886648;47.88602048;-1.947803394;16.68337431;36.17759041;-2.842013001;-4.064759977;22.28529782;5.173280395
-11.50514697;27.14386264;2.385662708;23.85200182;19.60906455;1.8689969;-2.093243556;-31.30634948;-16.33496296;1.896657488;10.93672086;39.41529205;-10.39163302;14.12698279;38.15636275;6.558418293;-10.32646086;19.71328794;1.290285896
-6.215286695;19.38099661;-1.734527921;16.20326183;24.96236209;1.862772155;9.484390637;-18.88673802;-15.8063642;-2.118639075;26.55838485;37.98124964;1.240957924;17.01905196;48.11681044;20.78725068;-5.00490067;21.36386286;7.816106222
1.362855193;14.20061718;-5.048969569;8.535300604;35.16206071;0.773916544;23.25687139;-10.59321667;-6.099097027;-4.548865195;45.8157061;39.86697394;21.3305116;22.22007813;59.53919123;31.1536058;7.155582983;25.85053918;19.20358344
4.233367379;11.79265806;-8.239915385;3.059565962;39.45593312;-0.751574462;27.31670416;-13.21857723;1.638401878;-6.784846702;54.2927928;38.69203954;30.29454208;24.28316505;64.70569552;29.96227097;16.10836523;28.83;25.36957631
-0.973767397;11.57315927;-11.82912319;1.309097914;32.51183333;-2.0957272;17.6137205;-24.89567929;-0.231405415;-9.578800384;45.46095758;32.17130451;18.46367425;20.59810719;60.10170809;16.73827113;15.5915231;27.09837069;21.09100574
-10.83735453;13.17319272;-15.08657687;2.979494359;18.92415435;-2.844627752;2.063760825;-35.99470979;-9.708359383;-11.6389695;25.03139035;24.2923299;-5.696347226;13.75676669;48.74713868;-0.815257216;7.97400637;21.22309871;10.2996856
-18.41051976;15.75202284;-16.91673766;5.799717966;8.624035502;-2.771686292;-6.350937643;-37.00797787;-18.02886869;-10.56777924;5.742152057;21.27585782;-23.5981609;9.19444465;37.76490547;-12.18576016;1.143203938;14.62546737;1.980092773
-19.62606363;17.02225429;-17.54754838;6.909264959;7.900321565;-1.833630645;-0.98718773;-26.54538791;-18.09144856;-5.30275933;-2.451327253;25.36965744;-22.92921452;10.32920223;32.97558462;-11.66782582;0.859800799;10.267249;1.909098784
-16.88879984;13.86612983;-18.98342747;4.841944235;14.19459347;-0.276593348;12.86536536;-12.52909179;-10.68483205;2.185271164;1.242229503;32.24534334;-7.773350088;15.48123193;34.45968276;-2.357309262;5.611395946;8.036783899;7.74290358
-16.68724877;4.654557651;-23.46647796;0.465608546;18.96637948;1.285832534;22.9954605;-5.65792261;-3.447816678;7.566528217;9.801107305;34.30393613;5.937354524;19.18412737;36.34504236;6.401150937;8.286608347;5.059775772;11.50306879
-23.52870368;-8.748629353;-31.27393607;-4.036033055;15.60266903;2.045320507;21.11424327;-10.79709913;-4.158013146;6.817053968;15.07623257;26.9034139;4.854750342;16.7007874;31.0853631;5.909446885;2.779849694;-1.523074221;6.834631836
-35.69182875;-21.50933416;-39.99157648;-7.336097273;5.153585281;1.453464603;9.782168906;-23.46645555;-14.54565632;-1.149804193;13.60724064;12.1101095;-10.53839932;7.921671102;15.31014059;-5.961964416;-10.49381644;-11.83285782;-5.506415246
-46.49783551;-28.95663964;-46.13401165;-10.32738283;-4.955917844;-0.318809942;-0.49749736;-34.0067933;-29.6767285;-13.84195394;7.24630662;-3.049500537;-27.38748022;-2.517783679;-6.854906925;-23.94039176;-24.8642944;-22.87007813;-18.48298187
-49.83745655;-29.9098622;-47.82425322;-15.29032259;-7.654189722;-2.31538838;-1.011074307;-35.51365186;-42.65657968;-26.88759293;-0.539027059;-12.05403394;-32.51122338;-8.843912961;-25.47384551;-39.5413304;-32.89840969;-30.64596248;-24.74417087
-45.05878569;-27.3488695;-46.22889997;-23.44800988;-2.18235396;-3.292024065;7.548363175;-28.81449811;-49.96953241;-36.68519645;-8.266157525;-13.33867358;-23.80139348;-8.438144481;-30.63513134;-46.62915478;-32.18192687;-32.95877272;-22.31214535
-37.12473895;-25.77950718;-44.52703045;-33.12815942;5.813952889;-2.513527173;16.30858133;-20.74150652;-52.92141272;-42.1117736;-16.55196149;-10.29418058;-11.02570467;-3.445116072;-18.76043505;-44.37809909;-26.60374981;-30.65303638;-15.33015387
-32.24412542;-27.55545919;-45.36827944;-40.46590017;9.660809243;-0.303258954;16.88249409;-17.80329208;-54.72430427;-44.35734332;-25.42942276;-7.456564273;-6.073835859;1.299791378;4.704450982;-36.34303709;-22.53128187;-26.66683501;-9.865422206
-33.0182715;-31.35408601;-49.04439916;-42.41612598;7.333817224;2.082321075;9.396295986;-20.95743525;-56.70244086;-45.42280846;-32.4701891;-6.652519441;-12.08133765;2.074307887;28.03259388;-27.39593196;-23.56380124;-23.94961397;-8.923776995
-37.20680958;-34.04038302;-53.82454595;-39.61043633;2.405630795;3.217250974;2.509847418;-25.69279293;-57.37884289;-46.59652442;-34.2845239;-6.4091882;-21.31580449;-1.254067997;39.72698607;-21.22204597;-28.3010872;-23.92036262;-10.94723351
-40.70267761;-34.04217612;-57.86181563;-36.36429089;-0.152882344;2.408677353;5.354120415;-26.73439411;-54.94290733;-47.87374474;-30.17683418;-4.619996435;-23.2191655;-5.730969201;34.74366701;-19.6332546;-32.48460642;-26.28434;-12.45197774
-41.56520254;-32.96862378;-60.70098826;-37.36475187;0.968684324;0.132056361;18.61497561;-22.82219852;-50.15880862;-48.34523548;-24.06599883;-1.467179072;-14.61097294;-7.945952649;16.65111228;-22.96258674;-33.00956102;-29.76130437;-11.7143428
-41.33715227;-33.86882267;-62.97655458;-43.50616582;2.326875887;-2.280293224;32.8346443;-17.38843857;-46.43824049;-46.94034196;-22.02718619;0.395924463;-2.352152154;-6.465154717;-5.31297301;-30.21175584;-30.0942981;-32.79313525;-9.912896965
-42.72017863;-37.76205253;-64.80565779;-50.42822234;-0.50661818;-3.465794439;35.70344852;-14.89569197;-46.74513932;-42.9745238;-26.96754691;-1.406003626;3.892918961;-2.313712426;-22.01338503;-38.70168088;-26.08755026;-33.83662152;-9.026253465
-46.19639961;-41.87069122;-64.77370158;-51.38933198;-8.051467207;-2.821832224;22.2559664;-16.42871557;-50.28493168;-36.40742075;-35.101488;-5.994039027;1.704056901;2.401522692;-29.11551773;-44.26;-22.65327604;-31.60842092;-9.071529537
-49.08171667;-41.58015145;-60.88559334;-42.56882636;-15.69620676;-0.785035979;-0.686337197;-18.55895112;-52.37111254;-27.98086891;-37.88288866;-9.047420298;-1.118116343;6.219349583;-27.91957618;-42.89336556;-19.32605603;-25.71637638;-7.782484314
-48.03515021;-34.69628814;-52.84937336;-26.64981391;-17.50666974;1.50035997;-19.61889956;-16.39481109;-48.01278976;-19.25296604;-28.48947974;-5.91093918;5.970987752;8.971583977;-22.4871774;-33.37749008;-14.7176217;-17.4176943;-3.199947268
-42.62202281;-24.19863395;-43.48;-11.6027919;-11.69940414;2.84788625;-24.77254462;-8.012448648;-36.28064702;-12.28699691;-7.789737434;4.51157154;24.83724734;11.15280078;-15.79372009;-18.79354556;-8.848401448;-9.625918229;3.461493676
-36.38881639;-16.68483632;-37.47410276;-5.288015705;-2.741362773;2.616829827;-17.2919152;3.627965513;-21.62508421;-8.837392521;15.26316242;18.39912728;44.02528933;12.94502764;-7.980434255;-5.324160614;-3.954362604;-5.590854049;7.818225576
-34.14764112;-17.37162495;-38.06978472;-9.886089221;2.041419237;0.948745305;-7.51803758;12.86742032;-10.8754823;-9.344383606;29.48799737;29.43163237;46.1265264;13.90886704;2.245205325;1.353963782;-2.70919811;-6.819814367;5.692114568
-37.73280436;-25.68654757;-44.204647;-20.44351679;-1.435202662;-1.375819925;-6.164962417;15.69309912;-8.34990069;-12.45337047;29.17139585;33.10595793;21.83721251;13.51097069;14.71192003;-0.334930454;-5.48898932;-11.764374;-2.979365107
-44.07764099;-35.2747695;-50.72742097;-28.66523086;-10.47329464;-3.317455935;-15.81789443;12.60754726;-13.05960392;-15.61068661;17.70347208;29.59250824;-20.94843794;11.82069377;26.23920925;-6.95364085;-9.44163489;-16.53297049;-13.3594311
-47.54492763;-38.67425939;-51.87409446;-28.99950007;-17.73740265;-4.016301722;-29.47335627;7.812389925;-20.09354798;-16.54337686;4.581209714;23.08871154;-61.08100723;9.644002128;32.05732822;-12.56091371;-10.56180931;-17.41429177;-19.13439888
-44.68705684;-32.97609203;-45.47932257;-22.33186785;-17.31299775;-3.146591123;-36.75274498;5.625708347;-24.69547082;-14.68041584;-1.537468063;18.47216814;-78.59866645;8.005333704;29.19573768;-12.80304178;-7.147056762;-13.47439967;-17.48283239
-37.36627394;-21.88878707;-34.63084205;-14.60392712;-9.551272455;-1.075593026;-32.27124201;7.178983363;-25.47605467;-11.49102034;1.733485231;17.99988231;-68.48036302;7.519679032;19.04995974;-7.639938439;-1.575058774;-7.265379554;-11.41298685
-31.4694147;-12.59422095;-25.42765792;-11.72976295;-0.647609409;1.25980583;-19.41762669;9.932953044;-24.32861136;-9.453391935;10.26211858;20.38012985;-43.09958744;8.210979773;6.882610098;-0.956120141;1.315059213;-3.05998148;-7.417841064
-32.20331773;-10.10528737;-22.59869441;-14.99323325;2.586909492;2.765530349;-7.06153949;10.0873613;-23.72093871;-10.37224984;17.53849499;22.40165389;-21.96802308;9.802062709;-1.522539134;2.288742473;-1.997133318;-3.931521198;-10.34429539
-39.89058056;-13.81960534;-26.40273483;-20.4722786;-1.716180206;2.744175497;-2.504655829;5.716721048;-24.22766059;-14.23108959;19.22479988;21.40930066;-17.36256137;12.0301863;-3.495646465;-0.89100835;-10.91402933;-9.862516273;-19.69301734
-49.75683046;-18.94211206;-33.08947973;-22.62397197;-9.196584541;1.302230637;-6.520629693;-1.819778168;-24.56211089;-19.32502367;14.74111829;16.73425626;-27.03323308;14.61262593;-0.603701342;-10.18818622;-21.19837237;-18.17556232;-30.26580879
-55.80774426;-21.22183644;-38.25407897;-18.86623231;-13.11821552;-0.664441936;-13.93909849;-9.017323016;-23.72908533;-23.4486342;5.813793117;9.511503536;-38.69399177;16.97798001;3.454084143;-22.68275821;-28.203283;-25.70050727;-36.36061941
-55.48671186;-20.6937859;-40.1586596;-11.45366661;-9.939413233;-1.960750379;-18.44649221;-12.73490497;-22.82974521;-25.19795443;-5.449709295;1.697593249;-41.30691614;18.22642033;6.215897773;-34.4124631;-30.05223364;-30.804117;-35.85187224
-51.2794632;-21.17857829;-40.36765;-5.407584895;-1.958277482;-1.799048726;-17.2456056;-12.10182129;-24.45531847;-24.51166142;-16.79832709;-4.668774805;-33.41819636;17.58310255;8.133649014;-41.69462139;-28.2124772;-33.74395634;-30.89779206
-48.13871923;-26.15574968;-41.49315796;-4.501708509;4.913343305;-0.284267766;-12.10087574;-8.630463283;-30.05115067;-22.27367381;-24.88098612;-7.741494304;-22.41597527;15.04906269;11.16291091;-41.98796143;-25.34141324;-35.38236013;-25.15553584
-49.12229581;-34.85324523;-44.2933716;-8.630991726;6.075052548;1.647338237;-6.765322705;-4.806360003;-37.75507109;-19.49210747;-25.47122835;-6.211624583;-16.75414378;11.62441294;15.69107479;-34.71223936;-22.64800138;-35.68929889;-20.36926779
-52.96481952;-42.16448209;-46.73815943;-14.40177792;1.672478484;2.808300131;-3.605515266;-2.364585875;-42.98141869;-16.72170356;-16.17584854;-0.067524779;-18.66957653;8.77020306;18.859783;-22.03666335;-19.20324982;-33.48890863;-15.42693416
-55.43826083;-42.57247898;-45.75661019;-17.98687585;-4.054704745;2.483491549;-2.246177657;-1.362550685;-41.60850448;-14.0072822;0.171219487;8.75362319;-23.42828794;7.459047604;16.27792492;-8.783402622;-13.60816866;-27.63282298;-8.437275554
-53.06657815;-34.6923001;-39.97924765;-17.64435159;-6.533825255;0.83127823;-0.784641627;-0.401233011;-33.22672733;-11.14588192;15.11385615;16.80342516;-24.72713578;7.5883565;6.138288851;-0.541112998;-6.153635756;-18.42186863;0.483751034
-45.91710991;-22.48144724;-30.99689284;-14.04140105;-4.349750749;-1.272056867;2.086124282;2.362961342;-21.70344234;-7.925710046;19.12391151;20.93929958;-20.60531328;8.25123963;-7.668465752;-0.383457377;0.796938256;-7.876435952;8.585294685
-37.25041194;-12.07470066;-22.085205;-8.718743706;0.267745229;-2.80014349;6.027925721;8.04881695;-12.51786834;-4.221424517;8.683945292;20.45697924;-14.52947701;8.59977624;-16.54104827;-6.263180849;4.684884065;1.467254662;12.71596853
-30.64857132;-6.988358067;-15.62522265;-2.573725154;3.870151947;-3.161729456;9.651880679;16.2787387;-8.981956066;-0.068949139;-9.647582011;17.78295396;-11.31927721;8.496820815;-12.33478609;-11.46620063;5.128327967;8.200078125;12.32496845
-27.29537175;-5.786072972;-11.53326522;4.175905573;4.664728638;-2.449512601;11.81054747;25.15569022;-10.2935776;4.188549818;-22.36573466;16.82863923;-12.32316608;8.360314355;6.650349075;-8.654218241;4.451070917;12.69104384;10.3203931
-25.65661673;-4.06936051;-7.993649817;10.85550821;3.398435805;-1.267621016;12.36667514;32.06866699;-12.73612934;7.832325366;-18.11588084;19.99343905;-14.48170531;8.387865822;33.29741501;4.846874391;5.690105003;16.22301708;10.79263669
-23.48977164;1.138130036;-3.662357418;15.62498047;1.912680713;-0.328395304;12.07991219;35.01950138;-12.75639695;10.03048776;3.655569063;26.118492;-13.82850954;7.978232232;55.05424655;24.36165892;9.768360082;19.45954093;15.49238597
-20.0878904;8.559182658;0.777719677;16.34107329;1.115354;-0.099520402;12.09801295;33.76943186;-9.344501218;10.42939546;31.32310923;31.16208274;-9.702774768;6.026034829;61.15458064;40.19177378;14.39479601;21.67335769;22.16398866
-16.6917123;13.84502497;3.153098844;12.40777423;0.350474423;-0.666280422;13.5285268;30.03711554;-4.069516397;9.648699868;48.61264351;31.25870024;-5.481644324;1.949853143;48.97877285;43.75443616;15.79932077;21.45090621;26.27128434
-14.89065428;13.61957838;1.901049347;5.786655278;-1.45444546;-1.78824659;17.00501219;26.48581252;0.739783986;9.124488094;45.7875435;25.83148275;-5.192422826;-3.437610601;25.41342197;33.29695639;11.90781227;18.22701904;24.71120709
-14.73534268;8.709493813;-2.239615298;-0.105947337;-4.246813557;-3.033180855;21.98696397;25.09136701;3.79150931;10.17092546;26.22360931;18.2608947;-9.382149226;-8.080189187;2.516312427;15.01821221;4.251772028;13.22893016;18.39715445
-14.4654052;3.644973632;-6.549995999;-2.944104115;-6.5678938;-3.907969317;26.11972302;26.02426803;5.164508458;12.84152992;3.551525164;13.49721588;-14.28955114;-9.884120615;-9.445663645;-1.25528188;-3.039523417;8.907045058;11.58587158
-12.14398118;2.843349598;-8.435493699;-3.290744744;-6.837720672;-3.991882466;25.61267243;27.85928014;5.343621405;15.52960354;-8.224112058;14.43527121;-15.16515463;-8.099780921;-7.108406513;-8.631052308;-6.333091966;7.251241107;8.592746297
-7.652141056;6.821508391;-7.466470529;-3.90241994;-4.937009851;-3.098398862;17.22906399;28.88932538;4.27368486;15.82264725;-4.00016599;19.85484774;-10.64458506;-3.81277578;5.491610934;-7.134529852;-5.107592797;8.367486644;10.65416154
-3.138538198;11.75718829;-5.558728784;-6.959046003;-2.530472064;-1.423028969;1.031565056;28.40661785;1.452877264;12.15269784;10.4678736;25.46772676;-4.113696841;0.809765806;20.49802629;-2.416934034;-2.015066658;10.47846115;15.39102025
-1.43207728;12.79233555;-5.15435042;-11.62812203;-1.788466623;0.440036621;-18.25463241;26.86371714;-3.178711182;5.047245228;24.53155787;27.15611435;-0.836340666;3.883492949;30.95241403;-0.615194575;-0.522336589;11.32352843;19.01695914
-3.775131259;8.229748265;-7.031233214;-14.30462638;-3.664193088;1.704863031;-33.00525474;24.87277228;-8.668871958;-3.034220344;30.9888723;23.84189185;-3.509942495;4.736812023;33.68678769;-3.619245976;-2.223382486;9.809269966;19.22094359
-8.834685212;1.030791609;-9.673876093;-11.62585338;-7.249856825;1.776354161;-37.09287647;22.13546675;-13.53751951;-9.246674426;30.02393673;17.86794337;-10.23673617;3.843878712;29.33776898;-8.341746737;-5.976614366;6.639601157;16.3944044
-13.79453782;-3.626227502;-10.72748738;-3.820678362;-10.67933739;0.605466482;-30.01237311;17.53532693;-16.89003906;-12.15915524;26.3540117;12.83483824;-16.52535678;2.084873317;20.51968324;-10.12697794;-9.283687687;3.568675313;12.58190434
-16.51142696;-2.604452354;-9.204994784;4.605672405;-12.62671219;-1.220133258;-17.47391339;10.53198469;-19.03478221;-12.44925598;23.153434;10.77995993;-19.21334139;0.13152782;9.958458769;-7.104087238;-10.43383818;2.028902082;9.517988148
-16.87193485;2.715076829;-6.465021397;7.78015089;-13.01551351;-2.748429304;-7.603165592;2.606951667;-20.97870132;-12.00945431;18.73012841;10.89382478;-18.63473898;-1.567971975;-0.342576332;-1.776789503;-9.532382924;2.257184045;7.610421147
-16.31474853;7.729701161;-5.083781207;2.847858529;-12.45064018;-3.168997329;-5.343317785;-2.842143695;-23.3541291;-12.26439449;8.93291007;10.55285339;-17.30154351;-2.464023764;-9.048633703;1.29393285;-7.802989957;3.457261402;6.491133816
-16.15888945;8.456306;-6.605174376;-7.695201188;-11.17590574;-2.264128489;-9.288494351;-2.575595555;-25.9423516;-13.12;-7.239682832;7.598436069;-16.82017248;-1.879262156;-15.27733277;-0.497928459;-6.180412978;4.613803747;6.136480778
-16.36351419;4.644881109;-10.12751582;-17.72980216;-8.768151198;-0.5390088;-13.42440074;3.846389551;-28.32102186;-13.39340644;-24.40944678;2.000180945;-16.3584888;0.445249578;-18.62755109;-5.623655872;-4.675865889;5.14749452;7.138621129
-15.80135416;-0.314359837;-12.94047086;-22.02616161;-4.928936198;1.046914337;-12.36283434;13.07863169;-30.8801643;-12.27942683;-33.47646198;-4.221117153;-14.22364282;3.696260214;-19.25386803;-9.87362052;-2.992081509;4.959593736;9.79636337
-13.63976842;-2.361411928;-12.64878667;-19.95289179;-0.500969537;1.595536947;-5.810457787;19.816477;-34.87328777;-10.49613599;-28.37509172;-8.468384781;-10.79028702;6.026270494;-17.63210587;-10.06297293;-1.492664679;4.103925167;13.10073918
-10.40087544;0.050632636;-8.975346311;-15.42438333;2.523571151;0.749599553;1.354281509;20.34384266;-41.02596932;-10.00513956;-11.31843541;-9.156780283;-9.447491341;5.588749444;-14.07400957;-6.712147401;-1.277595899;2.638099582;14.95038431
-7.635053551;5.154074591;-3.779913824;-13.22143619;2.313432146;-1.115334927;3.365087017;15.15735483;-47.81162052;-12.43153957;8.051202039;-6.341537436;-14.04728073;1.936434861;-8.487202766;-3.381101004;-3.107840821;0.875632648;13.74010992
-6.502131878;9.799444867;0.593395499;-14.80819587;-1.209603335;-3.079165331;-1.448707885;8.561607542;-51.25835109;-17.47416113;19.18901814;-1.26689076;-24.87959902;-3.36183897;-0.771622441;-3.261826335;-6.23345877;-0.316756583;9.979399292
-6.618138701;12.14233052;3.125153579;-17.15433985;-5.987914385;-4.146795547;-9.173137403;5.461528109;-47.13348688;-22.7017529;17.75730687;4.500822337;-37.04175507;-7.552134015;8.377085251;-6.017324491;-8.460616134;0.281749647;6.316074856
-6.305184986;12.69080047;4.544982301;-15.53259055;-9.189963523;-3.765771003;-13.50150367;7.821974611;-34.25730092;-25.05649381;7.82647778;9.657498575;-43.27397354;-8.492576964;17.01141617;-7.693951877;-7.694496238;3.450058594;5.64894215
-4.09153684;13.03468974;6.138463875;-7.923017196;-9.300403505;-2.133637461;-10.83226461;13.5323349;-16.35986115;-23.00312597;-2.198276205;13.28616122;-39.35710871;-6.084893171;22.42854708;-3.977317179;-3.731355286;8.690756751;8.770504964
-0.140289449;13.74966919;8.149227335;2.699770957;-7.193702551;-0.128111181;-2.970273133;18.43876637;-0.664320656;-17.70361593;-6.226539472;14.80327247;-27.62160552;-2.227914268;22.46053771;5.76772547;1.332637716;14.12906297;13.55422614
3.69396011;13.62357014;9.301473575;10.18041837;-5.256627978;1.129817197;4.706786971;19.72670065;6.179203335;-12.31898543;-4.257760726;14.00350124;-15.44518012;0.662309758;16.69231761;17.01821438;4.588398127;17.41349386;16.48744303
5.288969858;10.97507996;7.912555751;9.711197583;-5.296945609;0.876243301;7.838881104;17.82345132;2.035808104;-9.954664355;-0.676593872;11.16480809;-9.795282967;1.382040494;6.749257688;22.6219176;4.533448209;17.06652303;15.3682851
3.970932349;5.764410843;3.60732362;1.476802101;-7.031178947;-0.849060508;6.40176273;15.38473559;-9.695959383;-11.74576601;0.743334195;6.987788419;-12.25187714;0.574238301;-4.476084235;17.69448448;2.160894756;13.32230988;10.97397463
1.074862137;0.360206919;-1.925642605;-9.450293314;-8.435084063;-3.178814936;4.033147036;14.49764832;-22.60643937;-16.38501423;0.364317141;2.301473324;-18.52242631;-0.133216366;-14.00390126;3.367287625;0.004694333;7.865876726;6.366958168
-1.112370263;-1.999730245;-5.89426857;-16.81323374;-7.610901924;-4.869939074;4.264294843;14.73187809;-31.3321087;-21.25221525;1.684392632;-2.242461238;-22.59485879;0.344775861;-19.56180125;-13.3868948;-0.001721092;2.7395386;4.482594437
-1.132970735;0.113203178;-6.371419801;-17.51579153;-4.516729308;-5.002807849;7.23193379;13.80195205;-34.20125328;-24.15986602;7.041768592;-6.217183541;-21.77739457;1.662542985;-19.77905561;-23.85010195;2.006207713;-0.722806804;6.016625481
0.593344825;4.835539115;-3.690955603;-13.29130774;-1.061327415;-3.526263656;9.840838254;10.15962343;-32.92382689;-24.45163777;14.25605655;-9.225488169;-18.34538141;2.458412068;-14.22438254;-22.83989013;4.229219367;-2.221346086;9.249991385
2.246495704;8.185071553;-0.138718395;-8.641055859;0.474659974;-1.310053711;9.08274924;5.015400771;-30.21533821;-22.8808403;17.56579384;-10.78499623;-16.71042739;1.586510614;-3.765856888;-11.68021207;4.980512446;-2.071212207;11.72649409
2.133066617;7.139940741;1.821907044;-6.94603172;-0.717208303;0.347608083;5.285807571;1.752266277;-27.63435072;-20.68608294;12.33206151;-10.56691056;-18.99860473;-0.959195613;8.916908257;2.969908871;4.143983819;-0.636240293;12.19168558
-0.004187877;2.196641032;1.395087523;-7.933538118;-3.442610086;0.472492227;2.134211134;3.070379223;-25.23801335;-18.75497432;-0.472640673;-8.844737875;-23.13063921;-4.169402334;19.47521358;13.45161539;3.016617357;1.811233928;11.1854555
-2.87553664;-2.727050117;-0.047631504;-8.377195629;-5.658023284;-1.025351517;3.303706253;8.373130067;-22.76030377;-17.44088573;-13.98143215;-6.650304425;-24.98724723;-6.942982827;23.32959653;15.63670913;2.803632914;4.793175084;10.04116381
-4.687255834;-3.124062495;-0.150568269;-5.226060097;-6.208532701;-3.316406558;8.775843269;13.87003906;-20.71337042;-16.88916372;-19.92603906;-5.275187726;-22.43359971;-8.891362635;18.0102715;10.78545791;3.295478974;7.39020443;9.460152282
-4.429190553;2.616764135;2.504828774;1.502910584;-5.619817671;-5.146337685;14.36521008;15.55181462;-20.20250238;-17.3137483;-14.54297985;-5.363653631;-17.36812238;-10.33603399;4.94477107;3.833707604;3.036777704;8.514770413;9.034731131
-2.45257001;11.70348806;7.187072501;8.38328724;-5.349600272;-5.545599709;15.1979576;12.57751964;-21.76485742;-18.86382121;-1.358409658;-6.361893671;-13.9324123;-11.65870649;-10.79430593;-0.39108126;0.824937351;7.584673436;8.014316988
-0.064061119;18.5757957;11.36643878;10.98291292;-6.303542146;-4.333354306;10.24439746;8.065465889;-24.60464173;-21.25627179;11.21309311;-6.940520487;-14.64027258;-12.78402017;-23.00016974;-0.313107691;-2.94046886;4.994920172;6.363621107
1.388979631;18.53459396;12.33611615;7.09299894;-8.013796026;-2.153203764;3.797629993;6.419946747;-27.16070946;-23.65940657;15.53589447;-6.196110721;-18.07242569;-13.37466771;-27.63634784;1.912923614;-6.430039063;1.876504419;4.946992302
1.237693272;10.82297006;8.968139463;-1.640132838;-9.178395831;-0.073367071;2.215528407;9.401290009;-28.49561868;-25.08987034;9.490944981;-4.642438025;-20.24489391;-13.51463276;-24.75057133;2.615277253;-7.996765398;-0.735050849;4.640087891
-0.349892148;-0.899055189;2.47872425;-10.76910758;-8.966547775;0.982858729;8.336317962;14.44663828;-29.04393415;-25.05410282;-2.8491805;-4.007162178;-18.30241924;-14.06196712;-17.75225251;-0.329483224;-7.71077534;-2.609535987;5.320309041
-2.648242122;-10.85697906;-4.192869444;-15.8752517;-7.813091909;0.66612678;18.23143842;16.97547081;-29.8236152;-23.85655004;-14.48575426;-5.790311618;-13.06112178;-16.09515918;-10.74223631;-5.878200242;-7.274993738;-4.244410603;5.863434725
-4.758459515;-14.56698847;-7.920278419;-15.12443508;-6.952698047;-0.692243362;23.33495202;14.91287787;-30.80112137;-22.23575959;-19.87216475;-9.68087912;-8.0746652;-19.77825138;-5.978341204;-10.73717669;-8.259001727;-6.031693216;5.283943326
-5.895804133;-11.12565351;-6.917056657;-9.921737054;-7.152878587;-2.29206408;16.69995611;11.41669925;-30.13666035;-20.58878262;-17.38809659;-13.24249358;-6.193588269;-23.68163593;-3.279045635;-11.94928461;-10.23873611;-7.440651784;3.95773816
-5.590019531;-3.136555517;-1.471308964;-3.512447933;-7.862053937;-3.259447614;-1.328915945;12.91757883;-25.39322277;-18.46465249;-8.930398007;-13.37368111;-6.918314999;-25.38245195;-1.457343447;-9.058540397;-10.68484737;-7.068210178;3.65066723
-3.847731791;5.327713589;6.36937886;1.261631137;-7.608243199;-3.049427622;-22.50379951;23.41964022;-15.93815235;-14.84402556;2.09792022;-8.586474909;-7.045410636;-23.1195649;-0.188587432;-4.17314982;-6.968043008;-3.693015831;6.115920516
-1.211597967;11.1730137;13.86466333;3.487228524;-5.334567674;-1.701634778;-35.80223863;39.50010282;-4.410175088;-9.07574682;12.46100524;-0.352345766;-3.957233526;-17.2798948;-0.481773876;0.01572062;1.098484418;2.455640098;11.38797637
1.403011742;13.58527925;18.78947565;4.138534243;-1.496373375;0.154823863;-34.62200828;50.55372825;4.352115096;-1.74744008;19.58511786;7.623639995;1.616814158;-10.4616131;-3.322900726;2.514922946;10.42149486;9.316581278;17.30824214
3.082964613;13.61112939;20.19826916;4.766997713;2.060281253;1.572840119;-20.86644423;45.11072647;6.422679988;5.25889853;21.50648052;11.74780484;6.058997984;-5.909089847;-7.85;4.609930333;16.43514911;13.98219137;20.83562928
3.294519722;12.64034867;18.46227642;6.003944362;3.36696684;1.74672758;-3.174275988;19.21568641;1.572701736;9.681494205;17.2801482;10.76437525;6.194842056;-5.412638388;-11.00053299;8.193293996;16.28265936;14.44689446;20.16516621
2.022072331;11.04720072;14.70944204;6.958665101;1.716383264;0.453401688;9.10380807;-19.2825011;-6.561581256;10.1668922;7.936429646;6.221155921;2.397956517;-8.229458485;-9.373141617;13.29962262;10.87747869;10.86507904;15.96044679
-0.370358384;7.984386651;10.10300222;5.910557981;-1.916580557;-1.772248;11.6883214;-54.19911749;-13.14554934;7.023057675;-3.03717651;0.943081228;-1.506394279;-11.80643655;-2.05216788;17.17167207;4.193111109;5.395497234;10.74344281
-3.356078707;2.411368058;5.414915437;1.790442536;-5.648539462;-3.871132889;7.025329575;-70.4393789;-15.54616859;1.90536255;-10.75344143;-3.157744083;-1.589509399;-13.69874923;7.924554417;16.03939472;0.351272967;0.758817153;7.019349243
-6.330327717;-5.493121148;1.065322722;-4.629851831;-7.941041493;-4.818511629;1.263477519;-63.15552539;-14.80635917;-3.326118403;-11.39638034;-6.183845177;2.56562273;-13.20751043;14.92096006;8.445865339;0.808489335;-1.439691861;5.691926248
-8.59120449;-13.71183176;-2.591873723;-10.80546719;-8.371173299;-4.203692075;-0.653918387;-40.40216777;-14.21573953;-7.764083911;-4.616873794;-9.540631116;7.299341815;-11.57913747;14.18233545;-2.656163082;3.754440356;-1.481817845;5.928221127
-9.463510587;-19.21951136;-5.145486926;-13.91343736;-7.518082209;-2.477576036;1.915740906;-17.5594597;-16.42735818;-11.84736877;5.891189651;-14.24565375;7.966625281;-10.79532059;4.996997726;-11.17343738;5.957497142;-1.015746358;6.295403061
-8.711939207;-19.8641099;-6.383210259;-12.90537914;-6.327963666;-0.697460391;5.861175248;-7.51162301;-21.61986475;-16.79182712;14.21217974;-19.84532065;2.992024651;-12.03047703;-8.787590533;-12.03399712;5.359793896;-1.795036564;5.964096169
-7.000216885;-16.02719387;-6.715742861;-9.661432388;-5.592028636;0.08927823;7.448291509;-13.31919133;-28.02722402;-23.52569118;15.34264957;-24.86166048;-4.691875351;-14.94928898;-21.29642116;-5.212272722;2.33127308;-4.622203192;4.943209987
-5.868300028;-10.77159859;-7.272590316;-8.179425091;-5.816071878;-0.551763347;5.318611073;-27.99842008;-33.92298921;-31.86978682;7.715994702;-28.24763728;-10.07788789;-18.19506666;-28.36543982;3.71303368;-1.162813007;-9.085500635;3.413672728
-6.917240742;-8.137130018;-9.343395405;-12.01369405;-7.257187095;-2.216105239;1.208887538;-40.76858125;-38.94043926;-40.44612608;-6.24109318;-30.40634181;-10.22197288;-20.45852334;-29.81615257;7.337607178;-3.429132014;-13.99239484;1.137149796
-10.5634114;-10.57083384;-13.39332001;-21.54639442;-9.808643717;-3.928447878;-1.742632982;-44.72576373;-43.50315416;-47.2701542;-21.50419897;-32.74423456;-6.47608076;-21.21198718;-28.77459311;1.975029443;-4.211619274;-17.99410293;-2.255189271
-15.29500745;-17.21439695;-18.37028981;-33.0814036;-12.78310413;-4.712096127;-1.480934416;-40.48737414;-47.20160484;-50.59064174;-32.72416557;-36.10147916;-2.989029325;-20.68526242;-28.76724255;-9.260745892;-4.313346143;-20.01;-6.337991644
-18.22619707;-24.29846759;-21.97374081;-40.70190924;-14.99754773;-4.105565541;1.609251754;-33.90796215;-48.13455925;-49.51897992;-36.21625002;-39.4988632;-2.973087352;-19.38774523;-30.88800029;-18.42327286;-4.350228563;-19.43561529;-9.418361701
-16.83818707;-27.46614041;-21.90690177;-39.90722306;-15.41549531;-2.349799604;5.288254622;-30.51645365;-44.32537967;-44.25151241;-31.10902249;-40.4625247;-6.087692591;-17.76558447;-33.11919579;-18.51901784;-4.023193191;-16.30964218;-9.33119807
-10.78010295;-24.47998401;-17.3511135;-30.61731393;-14.01122026;-0.202323816;7.315066439;-31.37333705;-36.13235537;-35.96094881;-19.62572017;-36.8536095;-9.091478653;-16.24475381;-32.18322769;-8.830650127;-2.620812252;-11.46122019;-5.11306096
-2.35874315;-16.49026625;-9.62445904;-17.37639872;-12.0827834;1.455058848;7.107847638;-33.28899509;-27.22836661;-26.51063732;-6.508879032;-28.78098371;-8.890613377;-15.38390403;-26.4409419;4.297665254;-0.144953972;-6.407532295;1.846828338
4.795606953;-7.086116342;-1.499048706;-6.484003934;-11.50685508;1.988941155;6.054475362;-32.51857602;-22.68183149;-18.04981222;2.54471698;-18.98934852;-5.084181113;-15.7180245;-17.66569743;11.89160838;2.207679334;-2.797188106;8.360152665
8.032224933;0.071307527;4.400391336;-2.004835416;-13.30271005;1.22535366;6.342341407;-28.36196772;-25.25577893;-12.46568884;3.306978228;-11.28942491;0.155806127;-17.2575574;-10.38186702;8.704293597;2.849533836;-1.565593306;11.50216372
7.308155658;3.321266198;7.035824635;-3.46440883;-16.60903407;-0.522616595;9.189059291;-23.5916842;-32.94501026;-10.74702567;-4.601763477;-8.171139543;4.391657101;-19.10376516;-9.14810154;-3.217385144;1.241239615;-2.350239093;10.63326102
4.96963663;3.469146293;7.295099112;-6.805455337;-19.032231;-2.572609908;13.74794038;-21.6303831;-40.10830751;-12.50575625;-16.87860673;-9.408775289;6.968683333;-19.70317521;-15.51939047;-16.26343803;-1.39056077;-3.680561203;7.738163341
3.910353702;2.63765619;7.110515797;-7.753353615;-18.28726301;-4.103272599;17.53118203;-23.22771557;-41.66059894;-15.99901295;-26.32577538;-12.67539572;8.874939596;-17.76323588;-26.63134608;-22.7423479;-2.837407229;-3.93358886;5.771306918
5.538277578;2.613398276;8.077088084;-4.979153872;-13.94288689;-4.465618493;18.18314271;-25.67470373;-37.0793166;-18.81764057;-26.77;-15.58728242;10.84214093;-13.22206456;-36.38945393;-19.88682958;-1.631577915;-2.43197131;6.336478029
9.038258261;3.892649484;10.52631391;-0.720518149;-7.880259393;-3.491609365;15.42858246;-25.22817333;-30.8789046;-19.00428713;-16.91381283;-17.50281537;11.92525528;-7.503464098;-38.73420008;-10.86085846;1.733934316;0.106172109;8.563639035
12.31382942;5.798335844;13.54136779;1.416492026;-3.033114344;-1.645893511;11.69207017;-20.53800699;-28.98241118;-16.00841216;-1.495331718;-19.67568532;10.25583606;-2.787081254;-31.22079154;-1.572151739;5.129041529;2.092408302;10.01677812
13.67638419;7.146252929;15.68500399;-0.439351129;-1.350715831;0.125062243;10.61251964;-13.98752493;-33.82270388;-10.88220933;11.35261862;-23.74762652;5.327904872;-0.778154489;-16.84032454;3.753385459;6.376741944;2.162898919;8.776549581
12.90182906;6.770129647;15.83097494;-4.915852169;-2.564422902;0.849882105;14.16947845;-9.708984947;-42.14902496;-5.549729273;15.08106258;-29.91260086;-0.59207559;-1.830759535;-2.829796192;4.764470815;4.781491211;0.039968471;4.946751726
10.98479075;3.76037064;13.64251383;-8.564570216;-4.68686299;0.086359994;20.42460466;-9.984432399;-47.3629476;-1.589108164;8.792392965;-36.31476052;-3.689386339;-4.963781794;3.148547479;3.744320744;1.399751677;-3.394993598;0.451842731
9.081016027;-2.205994318;9.640734746;-8.594430635;-5.761833932;-1.761207871;23.87619563;-13.20585683;-44.52060859;0.676308613;-2.392352011;-40.21087108;-1.671017639;-8.611290179;-2.559305695;2.664187709;-2.001205349;-6.728605184;-2.503158377
7.70281262;-10.23151464;5.027012534;-4.905424556;-5.394375874;-3.605435435;18.80114931;-15.25247131;-33.9964013;2.169882037;-10.94360323;-39.99706584;4.091434511;-11.47618301;-17.2154899;1.367440374;-4.265964161;-8.7825222;-2.907775154
6.785456415;-17.76007813;1.33824624;0.095497936;-4.842755854;-4.280135034;3.651785176;-13.16156541;-20.98111147;4.166927601;-11.99582544;-36.51194421;9.502494197;-12.96196262;-33.05878565;-1.707159176;-5.350925752;-9.025483811;-1.239828479
6.294737278;-21.22933358;-0.121628073;3.503165543;-5.704481785;-3.246249617;-16.68334498;-7.903100646;-11.44367396;7.186793323;-6.353974653;-32.59374997;11.12808488;-13.1447952;-41.88989736;-7.321855777;-5.805601141;-7.579668973;1.333060427
6.543141594;-18.08111861;0.990499608;3.940946903;-8.39482154;-0.959980473;-32.90761092;-3.746536665;-7.982213346;10.50882094;0.56844862;-31.20415692;9.010078125;-12.60043196;-40.13664289;-14.06419088;-5.997699204;-5.103476507;3.831214912
7.791162881;-9.046879;3.573190811;2.017285607;-11.72024375;1.348489202;-36.85110288;-4.612096682;-8.825620756;12.68461746;2.946662141;-33.48658079;6.285865115;-12.30568788;-31.06617341;-19.14290947;-5.93824959;-2.733973734;5.601198487
9.584678568;1.225101689;5.394943378;-0.850850283;-13.8495867;2.373137291;-26.92910607;-10.46280225;-10.39869368;12.65572718;-1.23763631;-38.12582906;5.934063194;-13.48113394;-22.4937947;-20.5710109;-5.768988778;-1.916292882;5.901408165
10.70151;6.394870739;4.365287567;-3.900654724;-13.78253759;1.493031118;-9.530771577;-16.89665625;-10.86994681;10.60545306;-8.943244965;-42.38041822;7.755866002;-17.1038149;-21.36839363;-18.68161522;-6.157021942;-3.819768072;3.828269228
10.06090815;2.585241598;0.128063841;-7.356577593;-12.04225787;-0.858782116;5.028898315;-18.47064783;-11.50869621;7.865576414;-14.51228448;-43.96169944;8.606287275;-23.1382022;-28.90681294;-15.62480486;-7.883017064;-8.411937266;-0.904360162
7.933577037;-8.35863865;-5.191202096;-11.4528275;-10.05226546;-3.431702354;9.410691544;-13.10957925;-14.85487507;5.93715338;-13.8828713;-42.4141238;5.826164987;-30.02650022;-39.72856362;-13.41225118;-10.81452892;-13.83964909;-6.93745562
6.271499899;-19.24786217;-7.909977822;-15.29405267;-8.811916085;-4.850862454;4.11118729;-3.932874183;-21.61180978;5.398865583;-7.502725668;-39.12328416;0.591319907;-35.0804039;-45.67894035;-12.36959817;-13.3136967;-16.91090788;-11.2626946
7.560948404;-21.91056947;-5.052740075;-16.88003906;-8.049808979;-4.363796134;-3.348313606;3.102334712;-29.23172305;5.58802581;0.043416182;-36.11562579;-2.34064186;-35.8533494;-41.64418929;-11.3453034;-12.98550658;-14.81916918;-10.87414287
12.88056009;-12.79623213;3.519151149;-14.49200058;-6.559821059;-2.230009766;-4.423421315;3.881291943;-33.53046522;5.333046609;3.291121862;-34.62448314;1.247211348;-31.71621049;-29.17976932;-9.267206617;-8.505422837;-7.176433622;-5.161311063
20.69975171;4.2208924;14.7198594;-8.26565337;-3.375534123;0.436823959;3.672391726;-0.677307757;-31.8987061;4.159470408;-0.301902294;-34.42896794;10.64670614;-24.46929887;-15.36836356;-6.356033776;-1.096484552;3.167767394;2.91604047
27.54194514;20.13731148;24.05831415;-0.45624779;1.256879181;2.263586343;15.52233477;-5.507144538;-25.26868419;2.979365994;-8.557212218;-34.2854134;19.94905231;-17.36780313;-7.83420125;-3.729198854;5.778289198;11.46643323;8.228518776
30.19946005;26.83;28.49242554;6.03155783;5.923468673;2.324452548;21.33141935;-5.557494564;-17.14948872;3.663277266;-15.8356881;-32.93900549;22.8171389;-13.10178562;-9.60150999;-1.828364019;8.594280818;14.0073967;6.827154043
27.8938733;22.55595503;28.30099764;9.744968408;9.031388719;0.601921704;14.24317747;0.262366389;-10.65144334;7.790512747;-16.38524398;-29.85449682;18.45243507;-12.14016379;-17.41532531;0.599121123;6.271201746;10.72767777;-1.145524557
22.74035857;12.98603591;26.6331944;11.689328;9.907370566;-2.01562831;-4.286761548;8.586238927;-6.128205484;15.54776375;-7.611272775;-25.16026946;13.17562177;-12.65839599;-24.39473041;5.661814676;1.000339089;5.561972906;-11.31397479
18.17243091;7.08408224;27.11849411;14.37720409;9.155952942;-4.186578538;-25.04966083;14.78838349;-1.404040077;25.6284749;8.618444279;-19.03269305;15.37345817;-12.09765586;-24.70255948;14.14638616;-3.384683025;4.047327259;-18.00577263
16.55965565;10.9060899;31.34343986;19.68061308;8.091823915;-4.791056754;-37.13434175;16.99003906;5.794195775;36.15685632;27.15862684;-11.24968833;27.44186021;-9.157451245;-16.7720634;24.01049745;-4.292760802;9.67854879;-18.14685726
17.8127409;23.77866683;38.00305936;27.23442294;7.783916926;-3.493862975;-35.01433074;17.38712999;15.47048895;45.8113715;42.31570806;-1.493523574;41.65984568;-4.712086352;-3.232587252;31.20954421;-2.24478374;21.49322682;-13.17784446
19.89041314;39.3208702;44.14982541;34.65734054;8.444363229;-0.911133703;-21.63723526;19.82721577;25.11800681;54.18635233;50.46610944;9.719005843;44.38504193;-1.021925232;11.54512361;32.50184539;-0.244785536;34.559866;-7.583697413
20.58527451;50.08721504;47.35251708;39.34431569;9.49837538;1.710759394;-5.645177651;25.87897419;31.65374979;61.14874378;51.22357966;20.29482962;26.23745592;0.040289381;23.81421773;27.97283698;-1.200043945;43.00736875;-5.29760377
19.06543283;52.15528778;47.04435703;40.34032063;10.11387643;3.144429528;4.798941668;32.96116355;33.66828834;65.91327134;46.80453578;26.90535453;-9.464775635;-1.687995456;31.08238117;21.039385;-5.519022436;43.48342106;-6.863371749
16.06751634;46.53735736;44.23422242;38.84576224;9.728562875;2.81765095;6.908761711;36.2804575;32.0230935;66.90683449;40.2638524;26.59729158;-47.07949242;-4.751532311;31.51132142;15.77375947;-10.82205672;36.75349523;-9.500672108
12.89643838;37.12604633;40.21168263;37.10694482;8.288098375;1.092092023;3.671823559;32.96074978;28.51479952;62.84467345;33.79;18.8263085;-68.29632094;-7.336214317;23.86485704;13.75494994;-13.90839516;26.61491898;-9.774945468
10.33328189;27.50456826;35.60724217;36.72498951;6.21774773;-0.967380852;0.215665349;24.7782597;24.14744979;54.28456476;28.04808716;6.495977631;-64.21781726;-8.539130842;8.920551734;13.16943451;-13.2642526;17.22279216;-6.495392793
8.405620977;19.29536305;30.59904114;37.71780082;4.270836437;-2.197945004;-0.468052095;17.075441;18.7917057;44.2586038;22.80586068;-4.983254136;-40.92633563;-8.629129095;-8.869266902;10.97345573;-10.03288347;10.85162764;-1.455618142
6.993097244;12.82037941;25.80488185;38.86630985;3.298782564;-1.971488359;0.926981569;14.70786104;12.48696876;37.08132851;18.21268463;-10.34384728;-14.54093915;-8.265436999;-21.83560549;6.198035669;-6.7588578;7.462682187;2.396911533
6.418260417;8.628299709;22.67823631;38.79086681;3.90187589;-0.50100714;1.918983996;18.4216884;6.865060439;35.8288134;15.63594196;-7.311428801;0.215441606;-7.569674995;-22.74081413;1.354675503;-5.125112593;5.89060133;3.580972347
7.280519114;7.909771508;22.72461931;36.78987133;6.033383096;1.330625828;1.385802003;24.65535872;4.900136124;40.19781578;17.22472338;2.143702833;-0.748430834;-5.998119036;-9.761031352;0.480333357;-4.681891773;5.31093726;3.164230901
9.669908369;11.27954856;26.09620027;32.95670799;8.836289299;2.489598765;0.952529056;28.7839288;8.757209451;46.43898458;24.27246289;12.99754424;-10.2830852;-3.130909154;11.01301964;5.361280865;-3.598717223;5.743636344;3.469946307
12.64;17.30581747;30.91066298;27.85547258;10.99385367;2.343371314;3.38508885;28.90119845;17.48704121;49.67803861;35.44968178;20.05870419;-17.39076427;0.431801399;28.26406827;13.2760394;-0.655539437;7.43138579;5.709295798
14.65794651;22.6221374;34.16671546;22.29854255;11.53033701;0.947272138;9.477048936;26.91168395;26.7976507;47.1606584;46.35777838;20.69643552;-16.02482823;3.04196234;32.27923563;18.51647544;3.371652373;9.970475525;8.741345199
14.8026386;24.00588835;33.74660978;17.36092395;10.54572113;-1.0498706;16.27596129;26.20784299;31.53148705;40.14668001;51.20596671;15.73729438;-8.462381369;3.060294005;21.36273763;16.77145801;6.187252246;12.18489891;10.08175411
13.65739765;20.82705908;29.93690984;14.25212513;9.256600749;-2.777306251;18.42476396;28.25820213;29.12131218;33.03297375;46.01035487;8.188908079;-1.579066266;0.203147489;3.034618592;8.85673186;5.897054119;12.92321519;8.233453898
12.97652484;15.67773349;25.16747702;13.71098932;9.163343064;-3.565377675;11.84284516;31.29454504;21.29040748;30.24246499;31.45259072;0.941439198;-0.219791892;-3.971237964;-11.17873452;0.541739327;2.68418085;12.02872985;4.227806057
14.25343437;12.43878512;22.10932199;15.2217117;10.87888934;-3.216322553;-2.970694164;32.22625604;12.58845604;33.04931379;13.37624986;-4.843598933;-3.570411931;-6.951623397;-13.74228645;-1.716703914;-1.22638524;10.53864977;0.966550849
17.35289989;13.27958553;21.66157862;16.88218835;13.52689091;-2.035062831;-20.54736108;29.84993492;6.946006949;38.59442954;0.153520673;-9.67816319;-7.046240218;-6.947120851;-6.058794899;4.07175633;-3.294443657;9.857131072;0.890525492
20.41995305;17.08912576;22.47100868;16.47269286;15.25589846;-0.652303339;-33.40282355;26.19737277;5.061762456;41.8;-1.85480169;-14.42616039;-7.153836746;-4.107047508;3.222297498;13.50807537;-2.625265946;10.57644481;3.959074471
21.23336084;20.64624049;22.33358001;13.22661517;14.54973372;0.261264141;-36.37779309;24.63098919;4.676159627;38.84350124;7.897482592;-19.03398311;-4.560887443;-0.392801087;5.076657491;18.82781663;-0.544545396;11.95501064;7.65214687
18.92412343;21.46987481;20.23293089;8.905078771;11.34733992;0.278591881;-29.49434713;26.4398019;3.276328855;29.77954892;23.51510096;-22.4056078;-2.837313423;1.758801769;-3.174329253;14.73683894;0.629924047;12.5138293;8.981569461
14.63894737;19.84778384;17.25822324;6.996834141;7.104553349;-0.599727563;-17.56819123;29.26398984;0.70146021;18.5521637;35.80982393;-23.41611042;-4.571040153;0.967897249;-16.2963073;2.67317153;-0.459510481;11.27205084;6.831785398
10.61894115;18.3167648;15.65425713;10.26234645;3.768690238;-1.933460911;-7.03737863;29.10722491;-0.715360835;10.47824574;37.47391238;-22.05239409;-8.813065412;-2.415697348;-25.54975229;-9.769640271;-3.140889787;8.617783577;2.746160126
8.512458424;19.16615573;16.89289412;18.34373151;2.500240722;-3.027213067;-2.200445417;24.30652152;1.424237104;8.982589206;27.21179213;-19.59777442;-12.19650436;-6.81281647;-25.28743257;-13.92416692;-5.313116735;6.125934166;-0.367502145
8.359360987;22.29045247;20.47460522;27.41445866;3.133265686;-3.256341395;-3.208841786;17.73973327;6.83335918;13.74384373;10.37631974;-17.65783126;-12.39268512;-10.53851306;-16.57803487;-6.005417713;-5.108894706;5.490285608;-0.439725776
9.032502021;25.34681324;24.46450442;32.43105869;4.693581227;-2.394266223;-6.808375393;14.85703929;12.08239744;21.31684085;-4.18850542;-16.86969314;-10.39068895;-12.69043326;-5.453598513;10.24270752;-2.233173333;7.403965515;2.434562158
9.598717918;26.02334928;27.19228093;30.49520062;6.39108042;-0.768427215;-9.007958319;18.87475427;13.07758047;27.59137172;-9.108898449;-16.43658493;-9.382470781;-13.32493023;2.196124968;25.9389927;1.997482918;11.18350536;6.444311994
10.26376016;24.26162476;28.52570927;22.83033322;8.162796162;0.863635201;-7.763907704;27.34920385;8.510342813;30.33095101;-2.297212853;-14.92860766;-11.41876625;-13.07357228;4.654164514;32.70459163;5.751468993;15.29178586;9.669505691
12.00846225;22.31012968;29.57748813;13.849518;10.34511675;1.681505523;-3.990009766;33.57179285;1.344460838;30.18197015;12.4339294;-11.69323395;-15.17011614;-12.67125142;4.317591488;27.72189837;7.904683349;18.25388567;11.40730578
15.29064867;22.50733413;31.2018026;8.037146448;12.91294969;1.230668773;-0.451369036;32.15;-3.050571942;29.7095383;27.97344531;-7.664363172;-17.0315355;-12.69732976;4.288863546;15.06579419;8.474088725;19.29814431;12.24150952
19.10749458;24.859429;32.79740847;7.067501522;15.13680275;-0.319584856;0.496461321;24.17909845;-0.75346797;31.3202265;37.9211198;-4.824897518;-14.54874616;-13.4713167;5.11076308;2.797382877;8.159845365;18.42807305;13.0766401
21.42561087;26.76842305;32.66906742;9.316844756;16.08909466;-2.237605861;-1.317189058;17.18448886;7.872879658;35.52506676;39.66136434;-4.685053414;-8.867591394;-14.91241409;4.621758884;-2.04978362;7.62277232;16.12597409;14.17454504
20.73186132;25.3401321;29.71808134;11.90384245;15.56945615;-3.586188659;-3.799441433;19.11053419;18.5204154;40.60505137;35.02815641;-6.975490069;-3.803425264;-16.37637216;0.798727967;2.54723394;7.160564222;13.06564707;15.02223076
17.37340087;20.26143889;24.88380399;13.31900804;14.53197725;-3.691519854;-4.202353112;30.83801343;26.02747847;43.7481966;28.60739417;-9.634557321;-2.350899906;-16.7360822;-5.353084081;12.83121202;6.885771694;9.99500454;14.96067026
13.44866321;14.53196475;20.82520067;14.33711901;14.47556611;-2.484606077;-1.213655645;43.5754242;27.68449405;42.82242455;24.91262349;-10.18411971;-3.938576381;-14.91390688;-9.810331358;21.85197647;6.976311036;7.647065433;13.82271116
11.23992086;12.1210001;19.85112126;16.54548347;16.19766924;-0.545315996;4.024323519;44.07313778;24.29267088;37.66011503;25.98478071;-7.514983669;-5.088108064;-10.67039058;-8.671626958;23.70864614;7.580790395;6.496567943;11.95962828
11.46795191;14.40322437;21.77689804;20.02322002;18.96556777;1.171525365;8.747511218;24.40084352;18.58947317;30.14137737;30.49714245;-2.769313056;-2.924486162;-5.072228431;-1.712805098;16.99221059;8.44509277;6.434782435;9.74969346
12.84437903;18.5254223;23.67741609;22.52086207;20.89948917;1.798214399;10.64829752;-11.01379219;12.84092711;23.14020705;34.63785423;1.347229673;1.785963489;-0.130425218;6.872272611;5.531196207;8.741006081;6.686472421;7.217200347
13.29789148;19.39855574;22.03906691;21.15564811;20.36132384;0.988293159;9.605189631;-46.80606742;7.811348006;19.04405642;34.28581626;2.366120485;5.067141301;2.327064183;11.39782412;-3.947837877;7.467660239;6.217859646;4.224955599
11.80639821;13.92526623;15.74827419;15.28459433;17.25295067;-0.886137298;7.680252901;-66.06837889;3.714157261;18.71271858;27.46838417;-0.269239436;3.426042885;1.832707398;8.961844322;-5.901082706;4.244161285;4.479968367;1.043885617
9.245271675;3.992796485;7.458112655;7.925010482;13.13956086;-2.885688544;7.338316328;-61.17186993;1.693788917;21.36975858;15.88185793;-4.798955013;-2.546111202;-0.369724338;1.569016224;0.627921761;-0.14796445;1.949346755;-1.355004165
7.526507592;-4.441281579;2.005057218;4.096310001;10.05311288;-3.958975593;9.313482651;-38.31068018;3.832916444;25.30043171;4.516072222;-8.290799039;-8.132821546;-2.143035999;-5.58780613;11.41991544;-4.012392758;-0.040991671;-1.719245522
7.802179732;-5.714053118;2.876835569;7.031975551;8.921511059;-3.498623095;11.94110857;-12.71704727;11.17714023;28.77872117;-0.743803776;-8.582039474;-8.340244507;-1.927381376;-8.164144675;19.78651866;-5.70189995;-0.189793831;0.61695126
9.328200449;1.078165459;9.384833776;15.21375042;8.890667994;-1.710536094;12.64677548;1.678523453;21.46112361;30.64300129;3.513506944;-5.742781189;-2.363902847;0.167062931;-5.656372668;20.89385607;-4.626512844;1.749449614;5.15755997
10.0135201;11.08908907;16.78913832;22.83481207;8.086564035;0.434153729;10.4433134;0.612052497;29.01810132;30.33996515;15.80161446;-2.076433146;5.350893591;2.430552121;-1.041242958;14.81475219;-1.574152324;4.585781389;10.48872976
8.215029579;17.08810688;19.42562623;23.72515872;5.205138076;1.691971506;7.248971622;-9.654417628;27.82033159;27.71710484;29.97628896;-0.591248768;8.602961314;2.741699687;2.30781158;6.172066731;1.860538496;6.311328651;15.1459602
4.252198708;14.63652379;14.60382376;15.96593034;0.674422616;1.251684829;6.60855122;-18.61836296;15.8662654;22.98080759;38.40479013;-2.872522967;4.621719469;0.039581271;3.556033463;0.61985839;4.283091785;5.360768848;18.36750243
0.340958382;5.140362102;4.458836667;3.661532121;-3.494420809;-0.746459358;10.53011235;-19.54605902;-2.465067332;16.93876049;36.38160694;-7.75547555;-3.486264461;-4.92155929;4.657892767;0.760240571;5.230058594;1.656756206;20.15237642
-1.024159626;-5.424060984;-5.522383831;-5.664086447;-5.012563892;-3.21352442;16.95632358;-13.2738639;-18.37289158;11.19149012;25.01968109;-11.80769983;-9.159992001;-9.999913415;7.888359011;4.566833013;5.215836225;-3.28319062;20.73406312
1.075579929;-10.9355378;-10.14589726;-6.304231925;-2.780039063;-4.688318251;20.25674271;-5.814693674;-24.02347882;7.785888474;10.59631494;-11.52039531;-7.633307965;-12.93234378;13.03663203;7.46985185;5.229502937;-7.252329825;20.12796696
5.369348753;-9.235659702;-7.700216065;1.543912918;2.493514356;-4.184446564;14.91746058;-2.674375326;-17.69059782;8.222781511;0.629936323;-5.900584658;0.413021782;-12.59560249;16.89439666;6.360788366;6.131646036;-8.657793077;18.27007813
9.44335023;-2.976938037;-0.581472162;11.84993775;8.795507906;-1.807705253;-0.057752564;-4.765368721;-4.853855905;12.36442261;-0.738171817;2.338817623;9.756514457;-9.517589547;15.6236371;2.222350402;8.302383916;-7.368699049;15.57375163
11.52401636;3.003149924;6.781888918;16.96955152;13.92521212;1.248952512;-19.44880734;-8.740245735;5.700927536;18.12965643;5.082181266;8.089548349;15.10104897;-5.432022369;8.08067994;-0.774284222;11.58275835;-4.606750716;13.19188457
11.56896459;5.386948886;10.97970416;13.01171794;16.43947222;3.359098023;-34.48092665;-10.63078761;8.026756352;22.4738242;12.8235358;7.125115402;15.17242825;-2.235716053;-2.657936865;1.10170557;15.36754645;-2.028603278;12.46893609
10.92580106;4.294582058;11.49338574;2.578867957;16.00469348;3.390149468;-38.25816044;-9.246580024;2.930800497;23.20406164;17.53870789;-0.723931149;13.08622782;-0.969345762;-10.86082508;7.920117728;18.76905366;-0.643343568;13.87439984
11.03605342;2.339026017;10.36450533;-6.96;13.25264191;1.352741313;-30.15459493;-6.584719218;-3.170566778;20.40522281;18.09665237;-10.82803505;13.05823231;-1.337354652;-11.66106975;16.07783992;20.89996753;-0.247338563;16.36281759
12.35333686;2.096119723;10.28635959;-8.359019725;9.451769377;-1.613120065;-15.97936692;-5.415050281;-3.490957898;16.36055955;17.45989802;-16.34149903;16.64933139;-1.960587973;-4.003285039;21.50893479;21.28296249;0.321977085;17.90962784
14.29196298;4.241259588;12.68202267;0.831771113;6.140672413;-3.896714814;-3.833195887;-6.545232054;3.81233619;13.89953795;19.76785506;-12.67092785;21.82918012;-1.204749003;8.879072064;23.25915948;20.18539668;2.326593062;16.99451284
16.03750711;7.624243841;17.02494297;16.82981604;4.654338361;-4.319004927;1.236673771;-8.18291537;14.24884434;14.33868235;26.7126602;-0.818573248;25.32327729;1.830568629;21.44838567;24.16007813;18.5578628;6.21233277;13.88186774
17.34488408;10.72524524;21.56501364;32.09123841;5.534344304;-2.752741748;-0.10110587;-7.704571901;20.47494784;16.5868582;36.10285502;12.90809424;25.70550285;6.674223493;28.74780868;27.86436946;17.45894927;11.18677518;10.56081276
18.59968758;12.9132202;24.6639606;39.79882491;8.106908074;-0.128823814;-3.147637412;-4.049486054;17.87662947;18.14183656;43.58921196;20.8833654;24.26265819;11.5841573;28.47372478;34.83203139;17.2860709;15.5433881;9.250824545
20.19629024;14.44927784;25.74107811;37.42966783;10.66108855;2.129736566;-3.476671552;1.362863555;7.966893636;17.20942563;45.91767061;19.19300235;23.03999591;14.41559798;21.50020653;41.02171211;17.41152847;17.56339295;10.61171626
21.92977984;15.5448829;25.33236161;27.43246671;11.36436405;2.890687753;-0.280742928;5.808524181;-2.902136549;14.23299042;42.96087579;10.13323198;22.28941281;13.82700347;11.14278417;40.85070455;16.60886443;16.4940282;13.13746247
23.03568566;15.65300762;24.45452193;15.11187492;9.456813532;1.875679588;3.706769253;7.340039063;-8.365992705;11.55466159;37.03778359;0.331053494;20.07108725;10.11054285;1.76231751;32.19398782;14.03485094;13.03028296;14.30112175
22.85521886;13.80949988;23.84553901;5.476138512;5.886235256;-0.266437558;5.183979951;6.010150363;-6.614502903;11.44972536;30.48326926;-4.157237581;14.53227503;5.080422555;-2.909297545;19.09523778;10.01107363;8.978641061;12.57335672
21.49877877;9.71925959;23.5826293;1.055392277;2.810478165;-2.360771397;3.302887106;3.42620353;-1.256588165;14.15095617;23.88092911;-2.135529153;6.593490602;1.021121368;-1.418486323;9.461201976;5.922550546;6.250909669;8.676806746
19.88046882;4.514084515;23.23653232;1.640058594;2.194742856;-3.332036682;0.1510866;1.275352399;1.960495917;17.53780382;16.54895729;2.234211448;0.164134775;-0.659894936;4.413804884;9.157802031;3.233426944;5.764718279;5.032357368
19.06941824;0.38611138;22.37257533;5.469762495;4.457251776;-2.728834286;-1.451133348;0.139742751;-0.202433329;18.80469465;8.568310427;3.001743112;-0.735471555;-0.189968974;10.00036004;17.16407914;2.371420798;6.929446733;3.829575685
19.50211968;-0.699529516;21.02255501;10.63785865;8.147628976;-0.908050539;-0.585967556;-0.579923325;-6.166483859;16.75233615;2.037285479;-2.77737998;4.467796236;0.898246512;10.29097988;25.90632974;2.398085872;8.059318971;5.285011088
20.69184556;1.76760326;19.78091097;15.74723232;10.90343957;1.179307501;1.18063173;-1.844121032;-11.23341824;12.78352906;-0.095282571;-12.74983623;11.98127442;0.91657943;2.876625481;26.83788965;1.774403774;7.463365752;7.495915361
21.61774669;6.555926016;19.41033638;19.74866737;10.98760171;2.477355171;1.701553732;-4.077264351;-11.68617554;9.745231925;3.155765378;-21.15169379;16.47599257;-0.847779567;-10.09592445;17.02362745;-0.367943197;4.511294142;7.992120843
21.42405605;11.44027582;20.18800506;21.62082228;8.309295784;2.35101849;0.657051926;-6.825968005;-7.814601283;9.574435695;9.052343404;-23.22639889;15.37930538;-3.795472908;-22.78577625;1.532568688;-3.471612812;-0.002877456;5.726169032
19.89211965;14.36646754;21.48736195;20.55556965;4.275045582;0.898160178;-0.022854101;-9.017829977;-3.404157161;11.73245765;12.59540412;-18.60671608;10.89520593;-6.603857598;-29.04084521;-10.28831846;-5.923634158;-4.382439382;1.931373907
17.44358712;14.32401825;22.03397683;16.66599777;0.716194001;-1.105224789;1.678903584;-9.494776526;-2.240973911;13.74852938;10.57993087;-11.09876717;7.931849262;-8.17536982;-26.0971552;-11.73131903;-6.242426641;-7.01294113;-0.774239297
14.84319596;11.64295084;20.82168652;11.53771336;-1.239487369;-2.607716182;5.104004579;-7.545673221;-4.697594994;13.38260626;4.945868055;-5.338467291;9.741709751;-8.188066188;-16.00661068;-3.437832633;-4.128781648;-7.127904071;-0.280745461
12.90026804;7.821420892;18.08340451;7.841592662;-1.594516996;-2.836822158;6.390372014;-3.3442079;-7.389332198;10.51352066;2.148322842;-3.296015111;15.14020772;-6.929995416;-3.88300967;7.603844077;-0.589040512;-4.936092637;3.570262727
12.26946408;5.010479495;15.4696988;7.8864871;-1.10934043;-1.716843893;1.193581566;1.818607537;-6.282604208;7.094574262;8.34133397;-3.516468072;19.75536233;-4.753108181;5.492839119;13.66187117;2.861772562;-1.230792239;8.95963867
13.22976728;5.136105023;15.03396291;11.93887662;-0.634316963;0.081606262;-11.31948164;5.768666477;-0.651351316;5.21715577;23.88900863;-3.458857125;20.11754873;-1.766735156;10.00854007;11.84803995;5.181285196;3.049407695;13.30851227
15.37920728;8.762947183;17.55930313;17.58596911;-0.713234917;1.500914097;-26.67392228;6.331270516;5.577756122;5.01709969;41.81737106;-2.557682313;16.82801836;1.930347288;9.950604318;5.45191903;6.188396447;6.960685104;14.73426936
17.4715732;14.26183192;21.48215909;20.88568456;-1.602973876;1.676853358;-37.44918448;2.569096924;6.49263386;4.349728058;52.02319547;-3.057672143;13.90480842;5.784305689;6.034934141;0.505809709;6.206695578;9.483777863;12.80441298
17.76835778;18.12320387;23.47427081;18.79467637;-3.418833155;0.420694332;-38.35562529;-4.428541038;-1.065201466;0.637105543;48.40324892;-7.749532113;14.92878931;8.693087028;-1.850384865;0.859303885;5.489826515;9.630968251;8.379608744
14.98864785;16.77564589;20.5942924;11.29508777;-6.085663271;-1.666557708;-30.13402659;-11.95907996;-14.5059365;-6.648251683;33.4043669;-16.63017767;19.57881146;9.57880408;-13.6597292;5.801582225;4.064700209;6.95151144;3.000568553
9.359556428;9.098230019;12.60598945;1.641927395;-9.124976782;-3.510279952;-19.08738987;-17.27766903;-26.84371464;-15.05384602;16.24979507;-25.65969997;23.81191497;8.255557586;-26.95055769;11.64831355;2.102562155;2.151622585;-1.654897402
2.931886403;-2.131537916;2.669145918;-5.626547982;-11.62443307;-4.129395833;-12.46955837;-19.29647184;-31.58105522;-20.71423587;6.070783719;-29.11737146;23.58358761;5.825496549;-36.13994823;15.24299341;0.310944067;-2.8026862;-4.119520461
-1.334963116;-11.3043677;-4.378337714;-7.646833589;-12.64801266;-3.142373481;-13.30327912;-19.11569217;-27.4219723;-21.23990134;5.343952277;-23.94774419;18.68776465;4.118202726;-35.12294327;16.05478199;-0.241892904;-5.503677382;-3.492234551
-1.327098133;-13.33154506;-5.14956912;-5.086614124;-11.90368548;-0.94851412;-18.66982336;-18.92486375;-19.12957263;-17.58483096;8.86237218;-12.6039854;13.10590333;4.464836626;-22.05951385;15.35982027;1.102009832;-4.523425337;0.111931217
2.780595171;-7.15962817;-0.063027104;-1.54804547;-10.12410751;1.48922645;-22.66965614;-20.14423443;-13.83018997;-13.3567727;8.947093503;-1.910597917;11.42865605;6.715988256;-2.537949756;13.94582801;3.868670154;-0.48668047;5.318445618
8.486628795;3.173279867;6.847096592;-0.947472692;-8.731937869;3.122306483;-21.45506303;-22.34784702;-15.65626229;-12.14421872;2.423289961;1.396883817;14.5791337;9.309849654;12.24703474;11.05316282;6.534549139;4.100600679;9.897245561
12.4870072;10.99258773;10.62119364;-4.809014451;-8.916045184;3.30248622;-16.15150874;-23.85621389;-22.91781422;-15.04354907;-6.593735495;-4.868801397;18.83023415;10.4088163;12.08371313;5.754194353;7.539175612;6.338579626;11.85886337
12.7714582;11.40245753;8.667306108;-11.4501571;-10.77003906;2.048789063;-11.40737977;-23.41358241;-29.93147577;-20.30782632;-10.49948054;-17.19959078;19.17917125;9.273978507;-5.138773132;-0.747619779;6.510840782;4.804669004;10.64165625
9.849813683;4.512480131;2.315884714;-17.54267981;-13.16007813;-0.001803084;-11.05918776;-21.37795687;-31.87758085;-25.16542775;-5.320145041;-29.2118295;14.12138886;6.838037968;-31.07893601;-4.629982436;4.699097319;0.503646192;7.520721341
6.289397137;-4.876157806;-4.370776413;-20.67447382;-14.44623525;-1.907234566;-14.76465939;-19.28927857;-28.65439151;-28.03300597;5.084369127;-36.01617514;7.433686312;5.048958511;-51.54937761;-1.934264676;4.184922453;-3.795447668;4.834571719
4.966683252;-10.80506474;-7.481015765;-20.81840299;-13.52773812;-2.843337801;-18.46313797;-18.20433297;-24.60596076;-29.16897001;11.62920362;-36.75;5.137521892;5.495903626;-55.21409693;7.781689808;6.426375087;-5.36440649;4.514557566
7.307364604;-10.15827493;-5.617171264;-19.62674205;-10.46003906;-2.458098898;-18.10689471;-17.41564788;-24.45706356;-29.39638742;7.540796996;-33.69685452;10.15349798;8.343522087;-40.42898056;19.95476182;11.25083149;-3.178880922;6.964761563
12.66315183;-4.157599533;-0.148215572;-18.3694816;-6.274549695;-1.018068887;-13.27339552;-14.91847491;-28.94037316;-28.39851933;-5.42229952;-29.34404485;19.37633528;12.30516594;-15.63441521;27.52140755;17.0385429;1.672391516;11.06003906
19.02754054;3.447748629;6.436313292;-16.50715935;-2.264259521;0.711305509;-7.465292859;-9.39413521;-33.84785606;-24.51632316;-17.4843637;-24.25566453;25.91963358;15.5630629;6.559120125;25.85263944;21.86819333;6.947751958;15.12153393
24.33872475;9.59396703;12.41186488;-12.30419813;0.660026855;1.809490592;-4.901607064;-1.959847003;-33.38256814;-16.52263846;-18.08251774;-17.55058339;24.77096065;16.8771952;17.0636482;16.248359;24.65414034;10.70125512;17.97660528
27.39403177;13.67;17.36743638;-5.012911109;2.139794469;1.63213676;-6.721946163;4.058252648;-25.09634379;-5.814870534;-4.212654415;-9.190373096;17.04;16.11274142;14.52805571;5.05185005;25.42226524;12.13237488;19.27215548
27.96366379;16.56595107;21.27191521;3.390567327;2.156913386;0.138811373;-10.0104691;5.422797987;-12.34454892;3.240212473;16.76625455;-1.55442873;9.122109366;13.97987403;3.999928859;-1.034995093;24.70339911;11.42778515;19.00186338
26.4334581;18.3603282;23.34647779;8.749726165;0.834647487;-2.050945098;-10.49190318;1.559991607;-2.186126796;5.674501051;32.15350133;1.552998416;7.471788044;11.38721922;-7.800562174;0.28650507;22.79655801;9.091445357;16.97638615
23.54697646;17.28560828;22.15850835;7.502618852;-1.503435703;-3.92965583;-6.450136508;-4.792470151;-0.349963424;-0.53893517;32.83684909;-2.110508384;13.44484731;8.970379728;-16.54651115;5.844698578;19.67153581;5.578798002;12.96687378
20.42355909;11.32958653;17.0680128;-0.390850693;-4.174281865;-4.595450553;-0.322954386;-9.538419202;-7.23687227;-12.60927224;19.2690799;-10.81253386;22.51904844;7.030340837;-21.24380207;10.28237183;15.55531634;1.544535289;7.471355639
18.49759852;1.120591458;9.660542472;-10.85549099;-6.241292664;-3.727802557;3.478927963;-10.25391928;-18.02827946;-24.49114029;0.240777637;-19.31640643;28.32433009;5.690019531;-22.72313513;10.73211166;11.4870247;-1.779838201;2.244193674
18.96983572;-8.87418878;3.529101525;-18.22635829;-7.017584374;-1.787374949;2.562544574;-7.830186951;-26.61953206;-30.96596544;-13.96603881;-22.20224169;27.78509287;4.961162326;-22.09754399;8.886090674;9.077102936;-2.828460066;-0.267041752
21.89917456;-12.66669133;2.090885251;-19.1678306;-6.634633085;0.192682184;-1.279988034;-5.431753903;-30.07791969;-31.19836008;-18.29719983;-17.57295758;22.94539782;4.658104209;-20.62506786;8.850306786;9.451254192;-0.732388191;1.50159024
25.67013037;-7.297428998;5.954765476;-15.00449722;-6.125608748;1.140623902;-3.741292821;-5.745397809;-30.0929064;-29.00105131;-14.55871793;-8.249659185;18.25256383;4.380134517;-20.1581661;12.86429815;12.22119758;3.611190361;6.793919613
27.56779127;4.058983995;12.05053102;-10.59425168;-6.780244533;0.531738768;-2.022812485;-8.88022533;-30.5338703;-29.58422744;-7.712882464;0.47814848;16.20616463;3.765937542;-22.40891436;18.76408329;15.47193443;7.534037192;12.57519736
25.41408284;13.47394437;15.53766546;-10.54315148;-9.15;-1.297536254;2.499778848;-12.582965;-33.47854589;-35.34028567;-0.97010791;4.758797104;15.55404571;2.899717015;-26.74022226;21.46980262;16.97681248;8.072419155;15.35698065
19.24579497;13.72100993;13.29180682;-15.66451086;-12.4726469;-3.298384693;5.560572543;-14.33329685;-37.21811482;-43.96024003;5.833173517;4.708406507;13.5420455;2.463086097;-28.58503515;17.24830808;15.78419805;4.081033607;13.62468496
11.71664576;3.865204807;6.344086226;-22.4119957;-15.05128366;-4.262254467;4.243054462;-13.30422607;-37.90731288;-50.28676668;13.72032413;3.735018379;9.687792619;3.331719396;-21.1556941;7.116285289;12.91024238;-2.614682238;9.012152541
6.675535868;-9.517860782;-0.713357721;-25.68543629;-15.40003906;-3.486981063;0.304005051;-10.51105714;-33.33965663;-50.33473782;21.16601097;5.414342813;7.014766509;5.793260208;-0.639222432;-3.485960455;10.53397848;-8.119383509;5.184190051
6.718155575;-16.84253399;-3.044421911;-22.77986216;-13.33572193;-1.188376273;-0.775843858;-7.323073797;-25.49686546;-44.26775558;23.79716577;10.51280979;9.176693064;8.99927514;28.59421509;-8.467353963;10.30617923;-9.002223315;5.142385183
11.38922729;-12.57617601;0.859270749;-15.41198266;-10.18658651;1.582163648;5.296530249;-4.063143979;-19.55185479;-36.08504211;18.02022001;16.43899482;16.1210113;11.21434804;53.63639932;-5.243283835;12.1256395;-4.69652197;8.963593668
17.37555682;0.511126909;8.084616163;-8.338222418;-7.936082813;3.483554545;16.79431123;-0.179875347;-19.98284825;-30.46811677;5.299120846;19.35138613;22.81282498;10.84577458;59.55893566;3.89051691;14.35677234;2.051303432;13.71821609
20.65233987;13.2905009;13.52964357;-5.759117507;-7.911411548;3.602249303;25.70689385;4.291857563;-26.88013591;-29.41828043;-7.292537295;17.11699947;23.02657037;7.573652627;39.41143993;13.87150277;15.26504314;7.105494581;15.6464118
19.13440837;17.0403445;13.74883456;-8.341433568;-9.944051288;1.94569275;23.03467528;7.771892389;-35.41947872;-31.26748398;-11.55082311;10.87199046;15.35884682;2.727434571;0.657219254;20.41183661;14.44235288;7.86265358;12.91169048
14.00400349;9.898475698;9.477467873;-13.05322568;-12.5481319;-0.563691509;5.93515427;8.113388727;-38.98553603;-32.55458348;-4.37;4.229701106;5.890172027;-1.433186312;-37.44153612;22.17010284;13.03433182;5.013943256;6.821131536
8.827016525;-1.89899168;4.967506668;-15.72364993;-13.91813071;-2.59176516;-18.93932488;4.948633648;-33.61982035;-30.95980688;9.514059517;0.988952363;4.189014938;-3.058462524;-54.78500867;20.40161859;12.62389123;1.866187174;0.646231502
7.126127041;-8.829499148;4.745012006;-14.18972062;-13.02415764;-3.112129822;-38.9557325;1.103347711;-20.56079042;-26.85658326;20.89247605;3.076733408;15.07284135;-1.728408663;-42.7206665;17.21443064;13.77209559;1.802224139;-2.920039063
10.10789704;-5.130752994;10.32382981;-9.642032006;-10.12897523;-1.941656526;-43.65468133;1.194448843;-5.226611127;-22.4413515;23.11550721;9.936191811;32.84372582;1.527871912;-9.18939864;14.35960751;15.48917902;5.846122221;-3.617886238
16.03154946;7.308376742;19.31332893;-5.366521255;-6.534669788;0.198638747;-31.62561952;8.000806225;6.33591818;-19.50515415;17.1475595;19.33870908;43.54894178;5.123674291;26.87986563;13.30212947;16.08574185;12.13182031;-3.396574724
21.48789977;20.94668715;27.40663396;-4.104921846;-3.857153724;2.115468641;-11.04996579;19.56716816;10.87032479;-17.91292044;10.5130416;28.73998766;34.63995607;7.977720339;47.90519075;15.60193692;14.65668869;17.52804522;-4.466728053
23.56385529;28.55891087;31.53365103;-6.128898773;-3.288747567;2.810414611;6.33988452;29.90390358;9.025898931;-16.02511604;11.01434663;36.32031736;5.097895995;9.983539737;48.03900015;22.26778251;11.90834524;20.01023807;-7.350552188
21.40640239;28.33852876;31.72190862;-9.321081076;-5.149539884;2.005087576;13.20615715;33.29104525;3.964348341;-12.49968899;20.40098629;41.40316578;-32.00120566;11.6824993;34.7377202;32.14637521;9.606592196;19.90202605;-10.53871418
16.29426875;24.32457509;30.40124777;-10.91447451;-8.797143119;0.245550652;10.58606158;28.89634901;-1.008771946;-7.758785751;33.13178287;44.37258536;-57.13832059;13.57483069;21.37697457;41.07925479;9.101425435;19.13923371;-11.92916182
10.43299397;22.27270777;29.95609603;-9.419833701;-12.86108501;-1.443743147;5.403863783;21.6959123;-3.999694796;-3.823056906;41.07410243;46.23673056;-57.10160477;15.68784687;17.16205623;43.55232568;10.16281268;19.33323923;-10.71688362
5.4816344;24.64332549;30.60811598;-5.41488764;-15.76207267;-2.137875262;4.106929027;18.52241428;-4.598173976;-2.720382457;40.09175054;47.89256437;-33.68707466;17.66326814;21.84226151;36.47915352;11.09495864;20.29805531;-8.085058885
1.807187501;28.76630793;30.27617235;-0.928229816;-16.40859244;-1.494629524;7.750725161;22.27343991;-3.112532381;-4.89268;33.0748451;49.30108616;-2.149131909;19.11438735;28.29176792;22.35007813;10.03083408;20.19905917;-6.138572098
-1.211628563;29.380788;26.38659983;1.853599291;-14.78941497;0.104144437;12.20743498;29.22690944;-0.033370761;-8.937825419;27.10741252;49.10905041;19.20249289;19.82089123;29.73012233;8.664965748;6.355803697;17.08898207;-6.050783518
-4.273658584;23.16142948;18.09109832;1.605615776;-12.07361317;1.796378956;12.72707899;32.08739467;3.828233359;-12.81180721;27.36886076;45.26608447;20.56420574;19.60529805;25.2297833;3.137757469;1.149694236;10.50686933;-7.054279558
-7.402060288;11.4538938;7.146256338;-1.847430088;-10.00985381;2.70900965;8.586710436;26.51285399;6.970151605;-15.3979373;32.89419039;36.56616149;5.396872771;18.1496888;19.33589584;7.780503928;-3.625150939;1.881743916;-7.157700653
-9.860116732;-0.811821251;-3.142972961;-7.818731961;-9.873379748;2.396555397;3.793956056;15.56176427;7.33505048;-17.14823542;37.52070969;24.14267442;-13.99986679;15.1191194;16.89146721;16.53925561;-6.464589119;-6.451474726;-4.977919191
-10.69919378;-8.845383302;-10.01495212;-15.22716209;-11.61908407;1.037000067;3.36451946;7.82793205;3.205691936;-19.38426491;34.96921177;11.61450068;-25.73856791;10.62707014;18.036774;18.96321365;-7.133134022;-12.7107923;-1.116948902
-9.477066792;-11.2035902;-12.79757187;-22.98827012;-13.87221661;-0.687167476;8.483657155;10.21916524;-5.624926063;-22.96314699;23.80646288;3.36252617;-25.34771036;5.627971483;17.82885802;7.813091263;-6.431629644;-16.44735005;2.111131963
-6.635980631;-10.0787916;-12.89126125;-30.26531546;-14.842729;-1.94098346;14.76479284;21.16093309;-17.21432398;-27.42515988;8.514231318;1.888821356;-16.31750209;1.725787227;10.76257331;-14.88481035;-5.306469188;-18.21825918;2.418427197
-3.315660513;-8.864724062;-12.41446961;-36.54623744;-13.5562774;-2.14317083;15.21029874;30.24255109;-27.86316356;-31.20959446;-3.701099389;6.171572077;-5.450866169;0.314132193;-3.707196169;-38.15302001;-4.154756346;-18.69390928;-0.658385681
-0.755563333;-9.338500659;-12.65571224;-41.48044423;-10.51378082;-1.238197564;5.61227435;25.41223055;-33.43622679;-32.63263325;-7.470569323;12.40601885;2.257999604;1.583268172;-19.36377363;-49.02963161;-2.873251854;-18.10425365;-5.357841837
0.333316676;-10.77335957;-13.43587776;-44.53332611;-7.293037053;0.284417312;-11.83481332;2.57829099;-31.05772565;-30.84087734;-1.810838017;16.73704268;5.413076932;4.18330967;-26.8576081;-41.43995635;-1.456896007;-16.44168674;-9.012339869
0.077368695;-11.35936113;-13.65123324;-44.77534923;-5.405226928;1.628009416;-29.51583908;-29.94507976;-20.50520171;-26.16922679;10.49798906;17.93653649;4.613584043;5.932655019;-20.20091944;-20.59184475;-0.461519333;-14.03266893;-10.02859173
-0.69732746;-10.29105126;-12.37176381;-41.20090892;-5.280883894;2.074308391;-39.23486299;-56.07607125;-4.718479637;-19.88454283;25.22634296;17.90667741;0.301755451;5.174871133;-1.378085296;0.367421467;-0.818410163;-11.73957939;-8.972851077
-0.921319115;-8.51219305;-9.578180907;-33.60854956;-6.125808398;1.337721543;-37.35574237;-62.63591134;10.96158654;-13.6413856;38.48417012;19.60222067;-7.416884993;1.845125301;20.26908179;9.115696426;-3.126121498;-10.46139261;-7.953454561
0.213055957;-7.551511966;-6.050967951;-23.45102345;-6.672765021;-0.282686772;-26.67242909;-48.21450386;20.82532482;-8.921272024;47.16413593;24.11640702;-17.18104383;-2.526530521;33.49915749;2.157799584;-7.049540697;-10.34766229;-8.84856669
2.938991747;-7.718256028;-2.64277294;-13.76717469;-6.158054997;-2.035112549;-14.01740353;-23.67841779;21.44880672;-6.532200261;48.96604944;29.43555838;-25.39226617;-5.87570318;31.85764382;-13.44247902;-11.38035047;-10.49807375;-11.79226141
6.887888426;-7.48824343;0.403405037;-7.798153485;-4.744446356;-3.075773694;-5.654436378;-4.143365861;13.66529536;-6.238568616;43.15515058;32.00189939;-27.71213759;-6.950247587;17.36942451;-25.50792752;-14.74390736;-9.535891247;-15.05651171
11.28410011;-4.758519716;3.554570078;-6.958030195;-3.149777141;-2.884888853;-3.754922586;1.358660779;2.479673163;-6.759280655;31.80961638;29.81234361;-22.2799175;-5.98734244;-0.870963057;-25.24333325;-16.39244397;-6.660420849;-16.33492793
15.2293515;1.117854002;7.47750961;-9.617765932;-1.928829232;-1.528716056;-6.059828758;-5.13495106;-5.498619318;-6.378559319;19.97654036;24.37501759;-11.80785102;-4.309068596;-12.13003906;-12.80846635;-16.47565421;-2.319359583;-14.38054718
17.97539243;8.380215875;12.35309247;-11.86;-1.093960955;0.36836461;-8.374621194;-14.02545511;-5.897222551;-4.032247934;13.56132594;19.72007813;-2.301065984;-3.238243056;-10.16273283;3.559880466;-15.6450083;2.069687327;-9.777335628
19.14630144;13.95338996;17.5471275;-9.993851457;-0.37001709;1.930138181;-7.738459797;-16.6503535;0.698868282;-0.201599448;15.80679886;19.15780394;0.998176188;-3.181712102;3.459129063;13.71920393;-14.40013208;5.124589586;-4.385978549
18.88677616;15.77123008;21.88;-3.177559237;0.250684768;2.457972581;-4.078852004;-11.78609915;9.169199106;3.173155206;24.95549315;22.48786846;-2.696985433;-3.499346155;20.57491558;12.45666139;-12.74779239;6.407991927;-0.025742464
17.87112816;14.41743093;24.30602313;5.794789983;0.268847317;1.766257805;0.406632608;-5.3844698;13.4286291;3.943505439;35.24345981;26.11260703;-9.394920207;-3.119679467;31.39628317;2.378074971;-10.40715169;6.536490528;2.569287937
17.08775258;12.69159056;24.54211166;12.24841352;-0.948517598;0.258463278;3.262340957;-4.528978926;10.80946978;1.388153574;40.81814043;26.10846558;-13.60884733;-1.332487668;30.28826316;-8.631225923;-7.289326211;6.498859676;3.844338874
17.40111298;13.39967757;23.23446631;12.73205688;-3.495156031;-1.287303524;3.579020663;-11.07125257;4.080210781;-3.037117772;39.65795275;21.74921272;-12.48839864;1.825797675;18.93873453;-13.08555041;-3.760029297;6.851413153;4.705757849
19.07152304;17.10836678;21.5582674;7.224508983;-6.593353426;-2.110197994;2.444949624;-20.14081058;-0.53090283;-6.562517195;34.42393959;16.45382242;-7.43807646;5.747433409;4.933023052;-8.623360646;-0.435502173;7.482865915;5.700681024
21.53875283;21.61956634;20.50514378;-1.130339657;-8.974252868;-1.840828009;1.975298707;-24.32587375;2.007865465;-7.044523662;29.69333897;15.18181462;-2.138574529;9.686682818;-3.45126876;1.199416967;2.280366469;8.041622553;6.730258944
23.68866449;23.5461969;20.30157164;-8.436291694;-9.715150398;-0.677295287;3.753966433;-19.68494259;11.63159437;-4.497753496;28.07343012;20.26795184;1.003755554;13.04260164;-2.849564571;10.07999605;4.46092783;8.476208675;7.373649409
24.51330558;20.75264562;20.31348569;-12.67661097;-8.859772153;0.719197124;7.76123089;-8.627081232;23.01751134;-0.97673102;28.55776079;29.0944609;2.742876811;15.35036153;3.099280733;13.5159881;6.450679239;9.063157559;7.387061109
23.74908322;13.83958029;19.4876166;-14.60012071;-7.317813626;1.558328094;12.43329277;2.325430053;29.34475228;1.104502321;28.35986503;35.61745362;5.654403976;16.17520175;6.865279559;11.5141686;8.359082066;9.856144264;6.891320961
22.01928464;5.68;17.04847167;-16.40527401;-6.147019301;1.32438939;15.74309656;7.606135134;27.14877302;0.810116686;26.25076717;34.68358866;10.99674828;15.17954694;3.257053266;7.80469855;9.727308131;10.14699192;6.14443072
20.33046885;-0.496041073;13.0182153;-19.52872998;-5.824131427;0.052349214;16.54806623;6.242026112;18.61422383;-0.862394841;24.07477808;25.80984148;16.8040691;12.40163488;-5.945973456;6.434232047;9.724078713;8.631349454;5.214600449
19.27343016;-3.001956289;8.249314396;-23.41814983;-6.07426867;-1.667760188;15.2813642;1.474095934;9.67733549;-2.227986866;24.89728346;13.50707823;19.08309888;8.492423599;-12.88236339;8.383784405;7.780819432;4.36690898;3.93761309
18.55645546;-2.323823784;3.972979173;-26.16891848;-6.309805664;-2.975168976;13.49798199;-2.672139235;5.568603761;-2.648957298;29.52779005;3.96166764;15.15402834;4.605692641;-9.860913633;10.7358988;4.176709141;-2.184084631;2.222236339
17.27847227;-0.298898771;1.160152972;-26.28210902;-6.213638909;-3.18156223;12.6025124;-4.603729981;7.300599626;-3.096634343;34.87573133;0.710394765;6.218441066;1.892541863;3.660058594;9.026697515;0.072203568;-8.982557887;0.380411569
14.75621778;1.311890486;0.074729404;-23.96146067;-5.944174822;-2.149156405;12.74386454;-5.603533103;11.63715317;-4.973289987;36.0316972;2.593274375;-3.130650092;0.895557883;19.20350208;1.055131627;-3.11079711;-13.46587557;-0.918037644
11.22343901;1.775563941;0.234743223;-20.94011284;-5.854766847;-0.395792277;12.81822371;-7.670732022;14.16555083;-8.322295681;30.45973745;5.316257094;-8.120492834;1.264848497;24.81982699;-10.76365432;-4.561650841;-14.18459561;-1.14245641
7.767483553;1.358322552;0.726610029;-19.17723671;-6.087286621;1.148966066;11.67702754;-11.12860067;12.69736732;-11.27235272;20.48919843;5.088437529;-7.105721225;2.010058594;14.43141777;-20.49813986;-4.590656132;-11.82015138;-0.479038154
5.479998094;0.62236804;0.640007324;-19.63898397;-6.472793236;1.626060051;9.561328113;-14.22247182;8.281854984;-11.52822063;11.59905972;1.35366836;-2.345772452;2.125140037;-6.286847272;-22.74846173;-4.397023026;-8.766915098;0.04688133
4.49755616;-0.239430199;-0.593611663;-22.06964796;-6.806181499;0.717083252;8.387056033;-14.85303568;3.420157583;-8.755422827;7.796419927;-3.339295673;2.169207301;1.173519058;-22.79126616;-16.78833959;-5.230664467;-7.52586769;-0.859173751
3.786233499;-1.521565829;-3.036425838;-25.60230353;-7.144138746;-1.155774584;10.29182593;-12.62952081;-0.48788089;-5.59643038;8.26275528;-5.817564894;3.837012703;-0.521740874;-22.04342123;-7.567994239;-7.503072137;-9.057561;-3.815096609
1.965080733;-3.592947758;-6.222546398;-29.34376387;-7.742385552;-3.020437242;15.36025486;-9.309265952;-3.981601577;-5.974110034;8.569859693;-4.819701668;2.915897516;-2.148911904;-2.872699196;-2.450675367;-10.43812884;-12.26112981;-8.123466318
-1.422759176;-6.367651738;-9.257295732;-32.36251855;-8.647257104;-3.846309359;20.44972682;-7.330147859;-8.019141063;-11.69091107;5.656871092;-1.573905363;1.395449763;-2.918297073;21.89479611;-5.775427865;-12.49407174;-14.88098821;-11.98213235
-5.254496158;-9.099640763;-11.07875544;-33.4166193;-9.387199214;-3.081288789;20.52357221;-7.893235906;-11.82960017;-20.12387079;2.001843844;1.689634199;0.613090025;-2.496931445;33.90324916;-15.25523713;-12.28688905;-15.09524882;-13.50673427
-7.452239305;-10.66960203;-10.90233723;-31.24251617;-9.204913616;-0.952832605;12.01812054;-10.31968374;-12.56214586;-25.32717759;4.596039378;3.649175364;-0.09073903;-1.161491147;22.50487623;-23.17051431;-9.433035825;-12.62355773;-11.92437666
-6.536435511;-10.20334719;-8.712990798;-25.66785043;-7.769684233;1.62397186;-4.072738226;-13.0767942;-7.493801227;-22.22493243;18.69754077;4.471403985;-2.515555932;0.353004267;-7.118509895;-21.8340314;-4.793750689;-8.672204842;-8.124068977
-2.932354267;-7.66771594;-5.500039063;-18.69467238;-5.75822815;3.484562846;-21.91;-15.29720592;2.974796418;-10.8631806;41.32926654;4.780501268;-7.457104268;1.204046772;-37.28754217;-9.431314789;0.013565624;-4.952778253;-4.15386687
1.064721526;-4.08867623;-2.951662291;-14.20868578;-4.652517205;3.779528173;-33.96805066;-17.27643385;14.37066438;2.766850708;60.60684873;4.335254695;-13.34032755;0.844869674;-50.29160645;8.219129794;3.518519887;-2.614720458;-1.964529476
2.767195345;-1.200551925;-2.62305528;-15.83594274;-5.708441579;2.388781441;-35.65480995;-19.56025304;20.58382057;10.40708174;62.78140233;1.969093479;-16.95959038;-0.67257264;-40.63084942;21.52600865;5.153176401;-1.810310816;-2.218120994
0.971177433;-0.61359775;-5.000747158;-24.14396317;-8.824847612;-0.013581058;-28.11134951;-21.67626539;18.14057563;7.267129378;42.47222578;-2.967002004;-15.78179268;-2.641961842;-17.87880334;23.85357309;5.406204055;-1.985357844;-3.943700423
-3.18346172;-2.887796294;-9.078165399;-35.39016287;-12.28510117;-2.275007118;-17.1164741;-21.93172325;8.978966123;-4.434756406;8.244770369;-9.033455489;-9.927718887;-3.984254036;1.624063566;16.05234708;5.311697208;-2.450068359;-5.256721166
-7.041533239;-7.060058594;-12.81831567;-43.24347669;-13.75286388;-3.3144565;-8.925087326;-18.66258257;-0.667919882;-16.89997152;-21.46355034;-12.75283553;-2.246315427;-3.802553623;7.350440692;5.339829744;5.635816237;-2.743288075;-4.653795184
-8.330697163;-11.01944836;-14.30788209;-42.70879083;-11.89951054;-2.649079732;-6.185568064;-11.87786059;-4.660593888;-22.20911232;-29.93746173;-10.73483183;3.530009766;-1.94386232;1.476680098;-0.528093606;6.318175673;-2.667641592;-2.025937809
-6.693384558;-12.64736848;-12.89829511;-33.57323292;-7.450198819;-0.64244944;-6.929234003;-3.762579553;-1.352701353;-17.80326719;-13.26396144;-2.437057598;5.109846422;0.796425979;-4.93483123;0.858304095;6.554175638;-2.21039392;1.263085162
-3.728187313;-11.09180103;-9.579697018;-20.74210288;-2.79677467;1.660563012;-7.104643471;2.559602563;5.341867476;-7.971309691;17.0776276;8.697897449;2.825096708;3.046983611;-2.638306723;5.283408199;5.470250714;-1.553696987;3.263955267
-1.602212229;-7.333986957;-6.322049191;-11.00897616;-0.400832834;3.052406506;-4.309304943;5.093082366;8.993003647;-0.391890628;41.98401038;16.93861694;-0.900396115;3.67278062;7.511359647;6.126113071;2.928363102;-1.108153877;2.704471957
-1.396328836;-3.584766819;-4.815821803;-8.50110787;-1.150845293;2.789860391;0.422275242;4.225617645;5.448692082;-0.49575062;47.23344234;17.85248778;-3.113168389;2.548101044;15.6779491;0.465960816;-0.116338829;-1.342460791;-0.181949684
-2.483263542;-1.839098677;-5.451987453;-12.11513798;-3.879078072;1.005172776;4.068274065;2.211209788;-4.204607076;-7.895921735;31.93696981;11.3066507;-1.786178181;0.757932901;12.45477066;-8.076498884;-1.999556333;-2.365927876;-3.769991554
-3.335700587;-2.569075916;-7.203183023;-16.7925635;-6.347379024;-1.335817324;4.74562321;1.380482336;-14.53825506;-17.32663262;7.524387991;1.726264589;3.490738736;0.022716802;-1.64086878;-12.187461;-1.2732086;-3.584410362;-6.001215907
-2.988015668;-4.513477038;-8.440558897;-17.58515116;-6.897934112;-2.935257232;3.56545356;2.543518798;-19.59254023;-22.9922857;-11.08012116;-4.603227505;11.51834436;1.654377634;-14.98369708;-7.055378353;2.401252055;-3.875252149;-5.576293727
-1.896838267;-5.762080627;-8.099858955;-13.39134198;-5.519385593;-2.871243174;3.529885321;4.74456177;-16.67705095;-22.78273777;-15.18327732;-3.338964729;19.85862998;5.689990215;-13.48243159;5.263303494;7.957267513;-2.375514468;-2.657128463
-1.521728681;-5.36;-6.422312899;-7.60342034;-3.618694392;-1.121349548;6.530983934;6.320649169;-7.632020433;-19.26085946;-6.315051952;5.514200445;25.47598417;10.75883901;7.684124224;17.01452755;13.40895405;0.614683084;1.310695571
-3.051777034;-4.21761975;-4.830733309;-5.349169681;-2.828197982;1.406290251;11.28171519;6.211541984;2.81154876;-17.08738758;7.136503438;17.96256015;25.76878127;14.77218905;38.77277271;20.58914736;16.81304329;3.397925096;4.495785837
-6.392875391;-4.583968643;-5.079433332;-9.576769396;-3.859261568;3.369195845;14.19947713;4.481168346;9.911032667;-19.2728064;16.82994903;28.57116175;19.85105508;16.00903138;61.20744823;14.31312583;17.13852421;3.718789459;5.720692929
-10.2468853;-8.406591475;-8.23249115;-18.94688923;-6.234173347;3.73989296;12.58104712;1.881873727;10.98813545;-25.22763165;19.34752428;33.34665394;9.410078125;13.95761623;60.24742514;3.524409767;14.59333736;0.248156866;5.019540216
-13.14389081;-15.75473199;-14.04782134;-28.93653982;-8.922411013;2.37881719;7.25685614;-0.86956117;5.847511195;-31.80295391;16.18170424;31.27328675;-1.675977253;9.479245718;35.10828867;-3.820759658;10.33460807;-6.332678717;3.422083438
-14.48995196;-24.46835448;-21.04239473;-35.0834745;-11.19908314;0.100977371;2.258413325;-3.375594576;-3.896137005;-36.04449005;10.32202132;24.04456938;-9.12087549;4.302448715;-0.839982234;-3.320575372;5.839318053;-13.52441607;2.161230724
-14.74434207;-31.31483196;-27.13662533;-35.85517596;-12.99847691;-1.795616238;1.627847942;-5.32224054;-15.60307292;-37.25970422;3.235848289;14.7189648;-10.50561597;0.211577074;-29.45305842;2.90288849;2.313499245;-18.45330957;1.840904256
-14.66394247;-33.85929662;-30.5379388;-33.18429114;-14.60194169;-2.258770463;6.062228865;-6.263934437;-26.17;-36.93503576;-5.222971093;6.35155526;-6.576777049;-1.640772253;-39.37310559;8.569577248;0.366700383;-19.59051105;2.091174789
-14.39853786;-31.7866169;-30.48007813;-30.61764258;-16.10950918;-1.049176452;12.31394682;-5.911913971;-32.74547063;-36.99990539;-14.64293963;1.153577346;-0.653246548;-1.053799111;-31.43659095;8.602671585;-0.044299259;-17.54245613;1.898348398
-13.3332821;-26.86500062;-27.5239271;-30.6934776;-17.25666574;1.160948016;15.90415776;-4.75477425;-33.85924008;-38.17449845;-22.40188982;0.095175399;3.440773958;1.277279726;-15.06539902;2.86176955;0.493792258;-14.40256731;0.354202267
-10.85472566;-21.71776429;-23.28326264;-33.41711755;-17.71020231;3.183628153;14.80843311;-4.292091086;-30.42071364;-39.74067486;-24.61662748;2.702284465;3.456770837;4.082580037;0.150917225;-4.643729902;1.06334983;-12.2244562;-2.692186613
-7.309936093;-18.31866896;-19.6517994;-36.61889996;-17.46490743;3.959162462;10.91644518;-6.341746345;-25.55320092;-40.61579907;-19.15295434;7.098267182;-0.525197579;5.997022365;10.50974882;-9.87504758;0.739382376;-11.76969166;-6.509202116
-4.16130421;-17.14475535;-17.84628532;-37.59425677;-16.86636797;3.09236935;8.042770408;-11.70118023;-22.8521474;-40.49211083;-8.0711181;10.58987533;-6.8618689;6.101233983;17.78947862;-12.2379776;-1.00113891;-12.35515058;-9.943241892
-2.993837419;-17.31293667;-17.74320926;-34.7752099;-16.18366615;1.017731312;8.343455323;-19.16215815;-24.0231154;-39.95757629;2.839093185;10.86397376;-13.6584722;4.367588692;24.25767205;-14.30588623;-3.941561882;-12.69976446;-12.12754016
-4.078398251;-17.34448168;-17.91855351;-28.50397634;-15.14975836;-1.254000404;10.42746085;-25.78949296;-27.69374547;-39.63459257;7.454227077;7.273957573;-19.48021867;1.782991465;28.59130551;-18.31708841;-7.102587977;-11.9407816;-12.95203921
-5.726619722;-15.94774242;-16.45074199;-20.74375995;-12.98596189;-2.647498281;10.92604275;-28.46954446;-30.51389647;-39.32584083;3.298368338;1.341675699;-23.18892658;-0.025094615;26.65090532;-23.01118976;-9.170702379;-10.02720374;-13.00356606
-5.175392949;-12.44866744;-12.07647822;-14.11223371;-9.012368743;-2.532195421;8.114840748;-25.74074144;-29.82568394;-38.07523599;-6.739100831;-4.044872611;-23.62831592;0.41073737;16.11187286;-24.05417932;-9.229776768;-7.379607367;-13.07753486
-0.545643806;-6.888507484;-5.013370109;-10.73946881;-3.386034218;-0.998977181;4.198322814;-18.66279617;-25.75214789;-35.09903914;-16.15034726;-6.345491246;-19.99227058;3.550646429;0.2286106;-17.92208349;-7.38154443;-4.363378677;-13.65558979
7.525865517;0.026885825;3.077270647;-11.35441275;2.679159658;1.204412861;3.900614887;-10.1720501;-20.90402337;-30.67822317;-18.80285954;-4.848106624;-12.81509138;8.467738745;-13.22944863;-5.750612917;-4.825199367;-1.168440165;-14.72032502
15.88666867;7.065264125;9.975403252;-14.93327098;7.479114531;3.0372164;10.24660683;-3.434583106;-17.91206904;-26.14353518;-12.56416186;-0.860281056;-4.542842912;13.24332202;-17.39227531;6.572413415;-3.267057524;1.858117544;-15.9683955
20.67364776;12.79127582;14.06364091;-19.15080566;9.805929158;3.661776806;21.06035839;-0.308803799;-16.97503204;-22.9517113;-0.39131145;3.48975912;1.330432207;15.97816326;-11.51046334;12.56597876;-3.967765074;3.937735037;-17.14714966
19.75721791;16.10344585;15.02255961;-21.56182607;9.635552342;2.845775209;29.39438688;-0.773201116;-15.74564702;-21.69422206;11.53959276;6.854560719;2.383702385;15.8363089;-1.395036781;10.18667699;-7.000430319;4.146309229;-18.16218727
14.13062571;16.74482294;13.67039265;-20.93858363;8.025800627;1.076687173;27.9913202;-3.390623169;-11.86900507;-21.90615464;17.3391716;9.361645793;-0.872361007;13.47031432;5.46692834;3.335600815;-11.18562707;2.171466501;-18.85483963
7.252025315;15.38493233;11.17303113;-17.90099233;6.342634792;-0.681047273;14.54193087;-6.252456808;-5.990902935;-22.75837526;14.47650904;11.85197527;-5.079171939;10.54768026;6.050728664;-1.655489583;-14.74806757;-1.14262507;-18.71257475
2.776577135;13.08104589;8.263589051;-14.3177192;5.413833027;-1.480872944;-6.266058701;-7.793729169;-2.321593431;-23.89178828;4.816529068;14.37440413;-6.345394261;8.676165336;3.957084072;-1.656798082;-16.28778979;-4.117540195;-16.91547326
2.232725237;10.42516495;5.020531556;-11.84749986;5.188894051;-0.893843312;-25.47841317;-7.242674985;-5.72782561;-25.57417752;-6.754230416;15.36301213;-3.194867505;8.41889407;5.707594772;0.449597074;-15.4774931;-5.367723346;-12.87110268
4.203433524;7.048997887;1.259516128;-10.75352277;5.028625222;0.755823417;-35.3363068;-4.793241362;-17.39484724;-28.08349627;-15.2009778;12.44390667;2.185794429;9.026370026;14.29652742;-1.526764944;-13.09548307;-4.876612791;-6.920464701
5.493845585;1.999024815;-2.891252726;-10.01531717;4.273537003;2.558669591;-33.54282747;-1.579455425;-32.71352742;-31.02948588;-18.03690225;4.458202681;5.532824077;9.034302477;25.55843675;-10.94590808;-10.43203353;-4.054408423;-0.610300463
3.400540473;-5.166310486;-6.757772727;-8.70927662;2.628784285;3.50940414;-23.6283659;0.65908439;-43.61802365;-33.41798665;-16.29045742;-6.871153517;3.794624017;7.30998517;30.67893795;-24.06619992;-8.479323789;-4.580317778;3.874528816
-2.491495601;-13.37080066;-9.417186386;-7.445365712;0.181080337;3.050243178;-11.80470779;0.330418172;-44.07130441;-34.52438489;-13.21646611;-17.16194029;-2.45611537;3.854187515;23.10432982;-31.7257112;-7.4069355;-6.884898539;4.917901637
-10.13545382;-20.00866155;-10.25462511;-8.415668147;-2.781415915;1.366884331;-3.058602385;-3.058595019;-34.61460015;-34.76911641;-11.6687895;-21.69534666;-9.426508236;-0.149841287;4.383924146;-26.21255225;-6.608799974;-9.544980258;2.548958454
-16.4571998;-22.1777833;-9.318191807;-13.69453614;-5.874525614;-0.721476299;0.853649867;-8.343623623;-22.28522709;-35.64194371;-12.02487455;-18.40205028;-12.99086567;-3.046505481;-15.83463264;-8.036155561;-5.243938232;-10.21220547;-1.427688184
-19.32353177;-18.46051836;-7.220360141;-23.02522001;-8.579397487;-2.204861207;0.889310925;-13.08544551;-15.66872052;-38.51603521;-12.25323073;-9.396512759;-11.7050207;-3.705555053;-25.90770357;13.05131325;-2.90805629;-7.452817796;-4.470194207
-18.7250437;-10.04250521;-4.730344384;-33.0445006;-10.24158289;-2.405694545;-0.965935028;-14.85883237;-18.70974433;-43.25559129;-10.13921648;0.15339896;-7.527663997;-2.184093903;-19.93337897;24.14536955;-0.018525624;-2.065961143;-4.885604107
-16.50639677;-0.323616624;-2.427370247;-38.96206101;-10.3024515;-1.305415878;-2.887135319;-12.687371;-28.02304693;-47.87361653;-5.885056953;5.149388999;-3.78715236;0.326458385;-1.485632444;18.15266;2.320217463;3.217802679;-2.886351744
-14.99189465;6.813851668;-0.659601762;-37.74279007;-8.70072667;0.474535435;-3.437161309;-7.625434011;-35.80844636;-49.73977729;-2.754402235;3.538935073;-2.245569644;2.194122979;19.13349503;-1.041766944;2.898415707;5.505576307;-0.356025921
-15.51386716;8.993797532;0.277103433;-30.44102217;-6.113677777;1.997598856;-1.565183071;-2.028069565;-36.10160134;-47.54682972;-4.828514133;-2.903422959;-1.805952672;2.239802067;31.74207033;-21.14543593;1.100986618;3.666473466;0.535850366
-17.76537766;6.352772441;0.039822722;-21.76865204;-3.725190725;2.463950789;2.924366481;1.992366235;-29.45928233;-42.50587011;-13.38688942;-10.41191406;0.093161836;0.319335039;32.10855079;-29.9307398;-2.674839687;-1.020829547;-1.102230319
-20.2317877;1.034728472;-1.585547764;-17.03306083;-2.552848262;1.578937637;8.763645642;3.803273898;-22.41059314;-37.72791069;-24.93135623;-16.15943995;4.727156537;-2.686116289;22.9598872;-23.4241047;-7.133410308;-5.914411822;-4.249570683
-21.24059082;-4.330783387;-4.353522224;-18.64937546;-2.763213641;-0.310680397;13.4850713;4.303777205;-22.14420897;-36.12528057;-32.94553783;-19.99120542;10.48762144;-5.39554021;10.3641723;-7.995727801;-10.68;-8.857547506;-6.703893226
-19.88735983;-8.079790357;-7.415264308;-24.80859622;-3.497603138;-2.358702748;14.94143917;4.84605093;-30.65660828;-38.34290669;-32.55104823;-23.69459468;13.9103148;-6.633946474;-0.971771164;4.819073456;-12.18346278;-9.399327294;-6.628180489
-16.35078157;-10.02347993;-9.60445831;-31.20807219;-3.402210236;-3.584498414;13.05710714;5.960345474;-42.98069414;-42.25852076;-24.56529805;-28.56574365;12.47478521;-5.947339039;-9.788909632;6.672276396;-11.48356063;-8.585468388;-3.803052374
-11.61338212;-10.92202062;-10.04219186;-34.35816602;-1.543412462;-3.323611559;10.12677168;6.93188678;-50.86452408;-44.43764752;-15.45385782;-33.45951602;6.751980505;-3.718006579;-16.82794892;-2.129986827;-9.37379849;-7.727524202;0.265251469
-6.949368874;-11.5399436;-8.649364169;-33.81527152;1.908914994;-1.575626224;9.023857242;6.538302545;-48.98479179;-42.4902835;-12.67764405;-35.15859204;0.037576;-0.900674331;-22.0631372;-13.58529777;-7.096124517;-7.315035921;3.376475961
-3.52228401;-12.05092591;-6.18159054;-31.69357472;5.69798113;0.93019499;10.66646923;4.276242298;-38.84622416;-36.64805999;-18.75092458;-30.98608038;-4.202725567;1.4386608;-23.67287067;-18.12683659;-5.66311701;-6.944549964;4.015573051
-2.173264746;-12.13631062;-3.751944654;-30.11719073;8.186503586;3.031985145;13.09670095;0.99397452;-27.40686686;-29.50034206;-28.77607752;-21.61193081;-4.86601769;2.563409269;-19.82242495;-11.26805825;-5.398255452;-6.136296832;2.135786869
-3.27124606;-11.53426337;-2.196008753;-28.95890755;8.295276541;3.698144238;13.32658262;-1.656266356;-21.61929541;-24.17427706;-33.81688182;-11.5968819;-3.587365886;2.328104032;-11.4476163;3.695930211;-5.919764785;-5.122015589;-1.068057614
-6.533446542;-10.50484279;-1.738496811;-25.88801675;6.10436605;2.585251964;10.52256424;-2.531055931;-23.20232891;-22.29762353;-27.86556677;-6.828423309;-2.76892888;1.191995423;-3.051352169;18.20026237;-6.50864176;-4.800136891;-4.066339095
-10.93461041;-9.83640513;-2.157518409;-18.72676203;2.802076235;0.269784415;7.500188068;-1.974611183;-27.6646438;-23.12361611;-13.01754501;-10.46779566;-3.152304267;-0.006289291;-0.134563643;23.87488427;-6.58947412;-5.913146223;-5.868572089
-14.9470612;-10.42199051;-3.236756412;-8.106790313;0.064757081;-2.023296406;8.634480443;-1.575493615;-28.22205533;-24.29610595;1.474598875;-20.41166071;-3.179120784;-0.436413534;-4.924134793;17.24781594;-6.03794231;-8.281349137;-6.349085398
-17.19725097;-12.7376167;-5.085891301;1.909647849;-0.774680618;-3.085606047;15.49248873;-2.785382583;-21.47900593;-23.60880647;5.917635187;-30.38155253;-0.706627474;0.315797289;-13.90421504;1.123393628;-5.186965502;-10.8951311;-6.024553286
-17.26236738;-16.56682871;-8.058440973;5.978320304;0.626813678;-2.415667432;23.99187504;-5.465160936;-10.47030774;-20.53786951;-2.362510131;-34.13131225;4.55396658;2.004306267;-19.61034382;-17.51063586;-4.598054185;-12.85159931;-5.64819906
-16.07031359;-21.10299258;-12.35960141;0.928275109;3.424707235;-0.51643991;26.18952394;-7.615132255;-2.749977842;-16.5954874;-16.69756744;-29.85294153;10.23208269;3.794079237;-15.88665777;-31.32209792;-4.764575453;-14.28045877;-5.942531226
-15.49290466;-25.32439013;-17.6974268;-11.97119729;5.917269297;1.399257109;16.08540315;-6.725356299;-4.963593934;-14.36973325;-25.93136758;-21.54724506;13.0385445;4.662810821;-2.885406085;-36.07449848;-5.888709849;-16.33529028;-7.486967829
-17.22927438;-28.42388194;-23.27547749;-27.53485612;6.304069163;2.131216277;-4.905825306;-1.903910254;-17.89311717;-15.90677613;-22.88416728;-16.24639696;11.61802706;3.955763849;12.09801813;-32.2362553;-7.791374945;-20.13247379;-10.57120025
-21.62347632;-30.09335531;-28.12210883;-39.55141904;3.596304911;1.204933185;-27.53308572;4.83421486;-35.50987852;-21.41058803;-9.923903335;-19.00382382;7.944071424;1.78718511;18.99699691;-24.34379842;-9.956284402;-25.49905817;-14.93293666
-27.21438434;-30.54692834;-31.47893984;-44.04440835;-1.736198982;-0.858892878;-40.34917122;9.337209611;-48.61353655;-28.98717714;2.72824956;-29.23664037;5.855273019;-0.970273005;11.75013731;-18.52283078;-11.69439014;-30.65506265;-19.58189841
-31.4017041;-30.27381074;-32.96524414;-40.89182879;-7.784005119;-2.871573324;-37.48322229;7.948678434;-50.44550309;-35.55596161;4.75524604;-41.04375525;7.846994362;-3.135317545;-7.250582188;-19.19475029;-12.40026955;-33.22850655;-23.02812159
-31.88104666;-29.63957903;-32.48332581;-33.13450532;-12.01961411;-3.681432251;-22.5959271;0.321130475;-40.50295134;-38.42659273;-6.300541488;-47.23684693;12.88416054;-3.854152057;-28.27925213;-26.46616752;-11.82281547;-31.8816846;-23.9856768
-27.96842675;-28.57373871;-30.08740011;-24.84614636;-12.59994858;-2.81952746;-5.879721877;-9.691772655;-24.27491752;-36.69352875;-22.88038777;-44.16690866;17.25212871;-3.037273899;-40.32094273;-35.71555142;-10.21971068;-27.27735455;-22.1827914
-20.99233848;-26.59560757;-26.05236844;-19.08352766;-9.446181724;-0.716623889;3.533725258;-16.04594346;-9.492399145;-31.69405846;-32.61965864;-33.95913599;17.85738018;-1.335242503;-37.944167;-40.0250642;-8.282331196;-21.61930254;-18.68243011
-13.54412684;-23.25117621;-21.12266423;-16.95498793;-4.404797107;1.590597034;3.742363924;-14.36564808;-1.636965554;-26.27398556;-27.00894971;-22.75758165;15.15664344;0.301947647;-24.36637215;-34.45447846;-6.836382315;-17.14329483;-15.37350316
-8.104617105;-18.71284287;-16.63114794;-17.86979926;-0.284620362;3.042676286;0.093212322;-5.063488743;-1.532070171;-23.26439401;-7.224570481;-16.46273063;13.04488059;1.166871304;-8.800908075;-19.65961518;-6.475282456;-14.74819697;-13.88837121
-5.899429826;-14.06105858;-14.15296681;-20.36822493;0.725623744;3.079001445;-0.49003418;6.647092014;-6.074302527;-24.02337712;16.80052599;-17.06809666;15.57530775;1.087758823;-0.137611151;-2.273924162;-7.341629702;-13.77086463;-14.66614405
-6.583875275;-10.87479539;-14.69080549;-22.90803942;-1.693508986;1.841513199;4.274520937;14.16848852;-10.99403739;-27.8481349;32.98336071;-21.9801337;23.21227205;0.342199569;-1.371545388;8.716865728;-9.168693064;-12.91611484;-16.80937784
-8.764093292;-10.2352486;-17.84933412;-24.3390429;-5.866464463;0.02086908;10.61305407;14.14094819;-13.47555743;-32.52133571;34.49995395;-26.37220342;31.95124511;-0.64562984;-8.380695906;7.633846992;-11.49961889;-11.42855492;-18.79993873
-10.88069418;-11.78836833;-21.65870202;-24.0967623;-9.205711254;-1.511564638;13.0271676;8.910641357;-13.0463332;-35.5671339;23.14476974;-26.54151013;36.37207854;-1.533121678;-13.43544227;-3.91301847;-13.88208691;-9.515740872;-19.50647359
-11.91468113;-13.65736801;-23.40897082;-22.20870409;-9.809039486;-2.086307897;10.1586427;4.821068861;-10.68965601;-35.42314509;7.127596866;-21.89107386;34.29834727;-2.05554304;-10.63048535;-17.67328044;-15.9032252;-7.811978343;-18.74510548
-11.66096971;-13.51138239;-21.18999625;-19.16033114;-7.559349231;-1.487538368;6.612472307;7.35927756;-7.399641737;-31.92188219;-4.393411118;-14.55567053;29.08383008;-1.898173137;0.514141729;-23.9762338;-17.12671266;-6.565904973;-17.07692075
-10.6412419;-10.23657297;-15.24373511;-15.68218704;-4.073073927;-0.014469798;8.812345918;16.74017456;-3.514298147;-26.03095513;-6.187626227;-7.520433413;27.19923506;-0.69761345;15.31364991;-18.20345192;-17.12818371;-5.428754471;-15.1698513
-9.839162861;-5.053394955;-8.187389868;-12.5736277;-1.61189851;1.647708949;18.43705473;27.46969051;0.79003418;-19.26360199;1.323926246;-2.89339695;32.60215727;1.697714771;27.21703215;-4.076716235;-15.74138878;-4.061457653;-13.3634588
-10.34724696;-1.121388963;-3.777255978;-10.63124107;-1.713249073;2.711038146;29.43659845;32.54061739;4.609903771;-13.1955923;13.49777457;-1.366236901;42.29732806;4.874935577;31.50590893;8.67371465;-13.37250639;-2.905124024;-11.79568753
-12.9282005;-1.65382467;-4.809794768;-10.58462307;-4.392946987;2.639694296;31.78798866;29.2111539;6.190941118;-9.18141344;24.33299427;-2.639116648;47.02434241;7.775064407;27.10679896;10.849788;-11.05101984;-3.211905137;-10.84984153
-17.57307398;-7.679656062;-11.39034227;-12.85415856;-8.318976332;1.436163885;19.36909633;21.71931998;4.046551941;-8.058860531;29.05495703;-5.894028667;37.2708598;9.121077932;16.09239733;0.125397;-9.989324601;-6.082533402;-11.32
-23.30431535;-16.9980102;-20.67846819;-17.12608518;-11.71181563;-0.301106284;-4.424677977;18.32507457;-1.405578217;-9.711136197;25.69956879;-9.782223795;10.58531196;8.19576213;2.112980659;-17.202386;-10.80698865;-11.23971565;-13.92967909
-28.48212728;-25.1834027;-28.36082866;-22.08770858;-13.33497289;-1.631395332;-28.12210796;24.46773918;-7.134102588;-12.74507023;15.71503344;-12.28654148;-25.22686398;5.44462826;-10.80371768;-30.33571553;-12.94725317;-16.67510633;-18.48813292
-31.59245313;-28.13067832;-31.02793227;-25.79219577;-13.00507714;-1.752532862;-39.8197245;37.23843477;-8.714141228;-14.7908453;3.570272901;-11.21740534;-55.76073674;2.382181011;-18.75301113;-31.21082052;-14.81954405;-19.70397373;-23.45014706
-32.08817263;-24.53299096;-28.0370833;-26.73450445;-11.44465433;-0.462189612;-35.16418617;45.91653566;-3.077209442;-13.63879266;-4.863938068;-5.529545661;-68.39219113;0.721804083;-18.5284093;-19.91723166;-14.74287885;-18.79606133;-26.47049443
-30.68562906;-16.66815363;-21.73785972;-25.01662306;-9.708606121;1.680203107;-19.62204874;38.98578236;8.962591963;-8.707727671;-5.019779494;3.372434014;-59.79287301;1.241315966;-8.969110492;-4.599491215;-12.13428469;-14.80315473;-25.78144911
-28.82071294;-8.972452859;-15.9501831;-22.60307041;-8.587658645;3.620695018;-3.677882063;12.94640321;22.36432602;-1.794707914;3.687241887;11.60503911;-37.52771879;3.182563994;7.428182794;4.092603474;-8.081482646;-10.54778505;-21.46402343
-27.58389507;-5.341822615;-13.66831131;-22.13815288;-8.291663302;4.379971471;4.840058594;-23.63349529;30.37364705;3.705549771;16.94621066;14.59744454;-14.81862201;4.694972026;24.22376467;0.230924294;-4.768008249;-8.950981974;-15.59373009
-26.90393197;-6.90182597;-15.41305941;-24.92539682;-8.483753673;3.599401771;5.267486906;-54.31227165;28.57860012;4.894152656;27.50889031;9.839200549;-2.246844746;4.121788622;33.32917891;-13.37610694;-4.014115019;-11.00625291;-10.98
-25.62555583;-11.6018825;-19.18608676;-29.558187;-8.546400465;1.739914783;2.547842425;-64.76330433;17.91108312;1.459541393;29.30468211;-1.223989468;-2.031661299;1.287797493;29.30157322;-27.06095226;-5.893898921;-15.05108528;-9.27364478
-22.46373288;-15.73763624;-21.92451585;-32.453475;-7.897367107;-0.18308016;1.870395867;-51.73915579;4.459823096;-3.786302117;21.28399643;-13.57801009;-8.361184744;-2.138067642;13.10791927;-30.75350453;-8.439600331;-17.8362589;-9.776105104
-17.1185583;-16.28785384;-21.4258964;-30.16440068;-6.216769014;-1.166071251;4.476639302;-24.78117317;-4.010195563;-6.518338848;8.392583963;-21.24077489;-12.8318428;-3.555534457;-7.482702848;-20.6498987;-8.751058783;-16.60269549;-9.874076843
-10.67632509;-12.57162604;-17.5157807;-21.86523572;-3.529685651;-0.752088077;7.846217078;0.369574032;-2.69877573;-3.704534647;-1.191297892;-20.48924545;-10.66919539;-1.104181674;-21.78445384;-1.658189252;-4.854050045;-10.73261644;-6.891241375
-4.962844756;-6.341871473;-11.84343231;-10.09848585;-0.160921424;0.759533697;9.202328237;11.81458007;7.410784235;4.301759837;-0.940056152;-11.72992159;-3.37475738;4.984177094;-22.29205604;15.90287775;2.906885969;-1.97202235;-0.112481048
-1.336500635;-0.502162467;-6.639120925;0.856109433;3.38131198;2.513803058;8.490058594;7.971780403;20.34689975;13.87458283;10.08774108;0.999848805;3.512124652;12.27790183;-9.129308397;23.00449416;11.8824203;6.704029568;8.44234658
0.155204113;2.59271446;-3.378555654;7.746225603;6.533005122;3.565334057;8.026251357;-3.504412746;28.9350947;20.38474988;26.70167829;12.35936912;5.216301363;17.42610585;10.14199957;17.46759405;18.55705913;12.66084307;15.08841694
0.638449887;2.247557838;-2.19818031;10.08402967;8.783591144;3.344958198;9.592774436;-12.62346694;29.02147229;21.05708894;40.64664108;18.32046259;1.238064605;18.07048113;25.28365116;4.778338196;20.50123701;14.63411544;16.72692954
1.469269768;-0.503362899;-2.252152485;9.583583821;9.777516227;1.904635205;12.28652738;-14.1083689;21.47821933;16.48740779;45.27287449;17.6691694;-4.823829899;14.20995668;29.55730259;-6.096639149;17.62593013;12.86323613;12.80988198
3.272614931;-3.658022901;-2.536411921;8.008448374;9.429299741;-0.142025079;13.53181123;-9.596242424;11.02944063;9.930078125;39.00386022;11.93766001;-8.487474754;8.17406225;23.27928098;-8.76313301;12.03110428;8.631225501;5.742761756
5.692641543;-5.285939357;-2.506941718;5.494223081;8.029201008;-1.921827753;12.27739985;-4.33418763;3.099185751;5.065592864;25.77039388;4.23683272;-7.796080347;3.230048828;12.64951444;-3.11252588;6.658024712;3.699047596;-0.521402341
7.928124302;-4.350246572;-2.152771082;0.908768039;6.248209916;-2.7;10.921978;-1.992833843;0.943296968;3.895103304;12.47953638;-2.219173157;-4.288433247;1.690630377;5.03484856;5.602092552;3.655782534;-0.160511456;-2.790454606
9.466114468;-1.074741193;-1.694925401;-6.142132862;4.937879723;-2.210519764;13.48808898;-2.079535043;4.67165303;6.061104454;5.169690356;-5.330148572;-1.107006676;3.672933518;4.142987362;11.19877707;3.429052835;-1.635861237;-0.414720016
10.33156775;3.16966605;-1.326187868;-13.70927313;4.72367619;-0.785617133;21.2332135;-1.575909386;12.13952844;9.679030537;5.979617055;-4.811792066;-0.118685155;7.222977924;8.246758822;10.9731526;4.795371999;-0.423048891;4.490822093
10.69650937;6.389678658;-1.224531665;-18.12584441;5.573514388;0.781793747;29.79547587;1.387445353;20.47409326;12.7243275;12.41802465;-2.218057546;-0.518721397;9.658610396;12.22781039;6.877155538;5.97116913;2.416375536;8.41894438
10.33794743;6.770881173;-1.699286705;-16.69214241;6.645199438;1.608967809;31.17325491;5.480602848;27.05931045;13.9176772;19.1664635;-0.13902955;0.040873759;9.247178229;11.58220792;2.979243618;5.687998329;4.735414565;8.535921872
8.595503144;3.505709616;-3.151623053;-10.20554098;6.632337005;1.177082759;19.72544215;7.528063779;29.80196504;12.78466012;21.38462614;-0.707584139;2.924266765;6.174385216;5.499366596;1.639264338;3.805408178;4.37380757;4.217421605
4.99853845;-2.710048828;-5.728890808;-2.954853067;4.527734742;-0.357678176;-2.491827046;5.756040722;27.33844305;9.354659684;17.70456685;-4.102310235;6.838563955;2.254841772;-2.837385805;1.682315119;1.190653724;0.534641052;-2.754381303
0.043553331;-9.823597611;-8.93190287;0.178155093;0.385485683;-2.188733338;-25.77077729;1.747225408;19.69717812;4.100473263;11.15393312;-8.093739381;8.505941181;-0.351232061;-8.510558089;0.012203748;-0.930636408;-5.462365863;-9.313911937
-4.65061277;-15.25133254;-11.60877837;-2.671739785;-4.44816786;-3.252780751;-38.75882636;-0.75099943;9.027808991;-1.810053711;7.265425098;-9.291393762;5.213728078;-0.541109384;-7.929092438;-4.891752289;-1.724502565;-10.73730761;-12.81281244
-7.12883929;-17.04148919;-12.52213514;-9.00516939;-7.905188075;-2.810039063;-36.07272751;0.952815006;-0.624604335;-6.451232228;10.27873676;-5.607690388;-2.778155054;1.107828029;-0.80155623;-10.81727393;-1.208290232;-12.53959168;-12.32320949
-6.345986306;-14.79227943;-11.18069455;-14.05985051;-8.326911302;-0.890147476;-21.67180551;6.205580133;-5.055934215;-7.750593055;19.74457225;1.672981323;-11.92033929;2.844534905;9.849801806;-13.14349927;-0.231391962;-10.02742189;-8.894142624
-2.935152082;-9.8390643;-8.312780525;-14.6362367;-5.491216119;1.670764389;-5.459482883;11.69846829;-2.375836273;-4.629116746;29.96412873;7.935616539;-17.49262033;2.97845673;19.28519619;-8.803621385;-0.026150576;-4.922523418;-4.749426011
1.135781135;-4.612973705;-5.541773867;-11.41212222;-0.854586377;3.650190967;4.029267727;14.43;5.564930474;2.117022722;33.12893322;7.823274673;-16.64871464;0.991199123;23.24066726;0.383296127;-1.560783272;-0.54288164;-1.984230629
3.812066098;-1.516961165;-4.405365034;-7.802420615;3.219858283;4.091867706;5.051200872;14.21303713;14.16916986;9.980759475;24.53536278;-1.084223142;-10.1982042;-2.188018602;19.7149193;8.051212844;-5.007727755;0.17486414;-1.519652508
4.204488352;-1.893547923;-5.387489982;-6.46080039;4.82909617;2.819805235;2.273422057;13.50814345;19.13868977;16.01488021;6.50339317;-16.03494672;-1.905731247;-4.854896119;9.699820179;7.494313721;-9.594513634;-3.633954067;-2.841575461
2.964205594;-5.559703377;-7.663285324;-6.64920686;3.660078125;0.521794638;1.633637957;14.87894867;19.44480055;18.40387309;-11.94034949;-30.12234812;4.087830422;-5.628373441;-3.382293848;-3.280980221;-13.93032661;-10.42203199;-4.556920453
1.594653524;-11.05665242;-9.741465164;-4.974213555;1.166147442;-1.63517024;5.217636484;18.52425291;17.88297193;17.27051569;-19.94683511;-36.18880655;5.831136463;-4.222999177;-15.32223815;-19.62070758;-16.65949306;-17.34990826;-5.34712782
1.306608532;-16.41379733;-10.52027137;1.045738393;-0.342185749;-2.627470861;10.36044298;22.18164346;18.59146407;14.22896931;-11.49195827;-31.15350456;4.386141501;-1.447608732;-23.12556585;-33.12394772;-17.10547347;-22.01603791;-4.733995209
2.280647186;-20.02582098;-9.977652382;9.808740534;0.85622932;-2.087175575;13.0919079;23.41507293;23.33791311;11.13159376;10.45664418;-17.87704538;2.565270689;1.439887498;-26.30073093;-37.3583951;-15.55789234;-23.65267345;-3.25635869
3.775394734;-21.24423795;-9.020398841;15.96712471;4.795724224;-0.44389712;12.23723746;22.04853301;29.54475884;8.980468457;35.09333867;-3.3101037;2.730009766;3.481184736;-26.58271729;-32.10659729;-13.04912876;-23.14310135;-2.039744848
4.825404666;-20.44945087;-8.668390799;14.42161881;9.74538598;1.343827695;10.28813594;20.3832337;31.85179487;7.700580345;49.70745081;5.787555422;5.301593932;4.366705442;-26.16629084;-22.94124017;-10.75869661;-22.06528144;-2.078312324
4.894592421;-18.62028988;-9.23205923;4.805417953;13.19269843;2.295819202;10.52028176;20.94285997;26.27945421;6.705172989;46.79866471;6.673061191;8.887576166;4.282984001;-25.65510124;-16.56165239;-9.390940168;-21.53955028;-3.654694942
4.038136488;-16.66527449;-10.09511528;-7.433491311;13.29165551;1.890466448;13.4713273;23.8608203;13.87729149;5.609746913;28.11346697;1.576829887;11.63106033;3.559156703;-23.35954732;-15.63397817;-8.864847017;-21.62264934;-6.181218844
2.619453136;-14.91516574;-10.21584801;-14.60160101;9.913661334;0.298130259;16.39948279;26.4350595;0.909331264;4.509742092;3.408458195;-4.515725743;12.57597141;2.489393905;-16.7324194;-17.20864383;-8.450241813;-21.49471078;-8.486747071
0.954131241;-13.09921323;-8.927056157;-12.36549144;4.69793963;-1.718816677;16.30813854;25.41423547;-4.871731863;3.763364041;-14.99156911;-7.419947243;12.05748899;1.432103926;-5.050775382;-15.86301798;-7.227122872;-20.15566123;-9.363408598
-0.831750027;-10.82729733;-6.448455642;-2.971090644;0.105738957;-3.179044389;13.48098111;20.02786441;0.648717683;3.660009766;-18.5017807;-6.152894551;11.05716023;0.945525756;8.780368967;-8.883561678;-4.595886616;-17.12415624;-8.114220174
-2.755797834;-8.227315392;-3.79823483;6.502771296;-1.93406984;-3.359547558;11.75313196;12.98860924;15.06003906;4.315798354;-6.087506776;-2.826158819;10.27596755;1.648880056;19.06448018;0.849641556;-0.59061607;-12.75877551;-4.886181302
-4.945174897;-6.206556087;-2.231887265;9.444447272;-0.985980098;-2.163245437;14.76234053;8.442755609;30.83380069;5.751292674;15.95118283;-0.580633418;9.744954128;3.778010857;20.63817876;6.748990749;4.111696734;-8.106044972;-0.666689271
-7.67715132;-6.011646988;-2.598940947;4.348930371;1.857262652;-0.195834968;21.45517322;8.580330146;39.99362121;7.85173543;37.50053798;-1.321329129;9.170204394;6.777849622;12.45938646;3.771241124;8.446147872;-4.413147029;3.074532301
-11.31560072;-8.280740022;-4.954999135;-4.714607439;4.821437215;1.513518689;25.34446891;11.8703855;38.77434387;10.09573426;49.3908864;-4.774783215;8.521481685;9.372343953;-1.277951861;-7.141733642;11.35703055;-2.547305469;4.996202233
-15.95966767;-12.25608483;-8.535184214;-11.78797036;6.60723237;2.041085411;19.032148;14.50241986;29.23126856;11.3685797;47.24320909;-9.143755643;8.228138727;10.23228187;-13.58606092;-19.05519046;12.19566512;-2.572609705;4.51764458
-20.94386101;-15.84953541;-12.01486811;-13.53179539;7.127548775;1.08714266;0.761670098;13.80184192;17.14458238;10.33198949;33.0025011;-12.48265861;8.809726756;8.856604379;-19.09529093;-23.65531653;10.98624468;-3.6835272;2.164882805
-24.67492438;-16.71530182;-13.94921104;-10.89205143;7.398883273;-0.811555078;-22.53708193;10.64255225;8.163687757;6.407701697;13.74024657;-13.68919917;10.35484225;6.024247023;-17.25548939;-17.08792348;8.452224582;-4.568284555;-0.605847975
-25.23246911;-13.72184425;-13.30427864;-7.012235193;8.717237275;-2.53397988;-38.83855245;8.749226482;5.007155747;0.738643493;-1.732701806;-12.65193172;12.40330069;3.419254708;-11.98792916;-2.69025665;5.759531726;-4.071115087;-2.097567928
-21.5983731;-7.812547555;-9.945835126;-3.769891381;11.69681952;-2.989502086;-39.05306039;11.487509;7.235166722;-3.807236017;-7.034284931;-9.881308214;14.36259873;2.625899894;-8.162028477;11.33390425;4.046258023;-1.825830368;-1.254925273
-14.72597261;-1.578846243;-4.854486812;-0.259011649;15.80133073;-1.75795435;-23.49174882;18.89454174;12.92577183;-3.998139598;-1.228904951;-6.199161855;16.02679301;4.170491229;-7.73367722;17.4709369;3.928478425;1.504959613;1.747764959
-7.527730222;2.23835392;0.1547037;5.553637924;19.63692044;0.629750811;-1.737038638;27.44537089;20.34577713;1.692409425;10.93871589;-2.697073655;17.63111379;7.262140445;-8.600555521;13.6102076;5.215700874;4.548364709;5.571067261
-3.50378981;2.306651792;3.199702989;13.857317;21.76602117;2.9603993;14.03719771;32.67634919;28.26294839;11.71479471;21.88996129;-0.693478163;19.33117741;10.36829979;-6.992267991;3.715592419;6.983963863;5.918746147;8.405960556
-4.745446798;-0.755111048;3.230795653;21.79181112;21.49416507;4.015585033;17.208212;32.41733147;35.16458907;21.90067432;25.61439264;-1.34661854;20.62342527;12.16353262;-1.314019344;-5.601342539;7.975047759;4.874786295;8.891489136
-10.62880127;-5.160039063;0.527221516;25.36838838;19.16554749;3.259044349;10.28080266;28.04136529;38.76837656;27.66211952;20.99384277;-4.972811046;20.39543992;12.18007813;5.834810436;-9.768505389;7.126800392;1.568204428;6.72365421
-18.13509092;-9.358169471;-3.540953496;22.8633249;15.87521979;1.125436598;1.665721211;22.97976677;36.850309;26.5784017;11.98322068;-10.55593807;17.77020339;10.80275038;9.250887024;-8.820078125;3.994463927;-3.174944953;2.656284924
-23.6182649;-12.90611907;-7.326153267;16.54380738;12.87062123;-1.25118109;-1.268176544;20.03249452;28.98286473;19.6902265;4.639591545;-15.95075812;13.10838208;8.790157986;5.137330359;-6.410966636;-1.089689247;-8.282816492;-1.995623852
-24.82736021;-16.14049404;-9.723946064;11.02614877;11.02344551;-2.687893479;2.72252039;19.74561172;17.64906247;10.71366744;3.127377848;-18.81862565;8.208589299;6.808200128;-5.670209325;-6.549858584;-7.129969547;-12.7492157;-5.958038972
-21.86602614;-19.05099179;-10.45842748;9.622926835;10.58796005;-2.585181346;9.078412917;20.87;7.459583398;3.815477624;7.432623727;-17.77841886;5.297045538;5.306235693;-17.87573487;-10.6986651;-12.76867391;-15.71314659;-8.35248816
-16.61428252;-20.48615178;-9.750527025;11.89326991;11.22124452;-1.184929655;12.11780032;22.00349721;2.683722833;1.472994227;14.11020782;-13.07834065;5.446335049;4.65105289;-25.20151105;-17.13294047;-16.67136975;-16.46520547;-8.735792996
-11.2571399;-18.58785644;-7.799872509;14.53602998;12.13815501;0.649390271;9.794491744;22.72645968;4.748550936;3.669117027;19.08387306;-6.427260086;7.70297387;5.175999195;-24.47773116;-22.4971506;-17.90967127;-14.60157698;-7.020949859
-7.079404261;-12.28508891;-4.622737895;14.71660516;12.34522266;1.949365859;4.804117859;23.4125736;11.5139072;8.576925246;20.16270715;-0.170191684;9.776912614;6.948777872;-17.25200001;-23.99497511;-16.25256089;-10.33055157;-3.490191898
-4.255354797;-2.654064899;-0.389952441;12.68966366;10.98890261;2.136130073;1.74599707;24.35084034;18.8341768;13.90075113;17.55438117;3.679301137;9.882976458;9.453324673;-7.906266865;-20.64481802;-12.25686122;-4.657395131;1.107323728
-2.441233454;7.129021443;4.14151589;11.24941083;7.798092235;1.24215002;3.222848738;25.34458614;23.22676073;17.88111805;12.58179848;4.110383503;8.251556949;11.60615718;-0.065606388;-13.16957539;-7.071333305;0.865589916;5.595033891
-1.387154381;13.4929956;7.684124024;12.53469662;3.414663631;-0.196075964;8.137319336;26.13769798;23.7411482;19.5819124;6.289646352;1.348995218;6.939493468;12.31297396;5.696203955;-3.202402448;-1.984197438;4.836666839;8.737695228
-0.982224807;14.72539442;9.131074556;15.29222829;-0.700688965;-1.453376109;13.13210273;26.89342613;21.88490671;18.77316939;-0.621511009;-3.271800496;7.932521335;11.26386439;11.13758451;7.320453768;2.093181756;6.750039063;9.845909691
-0.855417305;12.08605284;8.427975477;15.42468127;-2.925092926;-1.954054527;15.44650502;27.85291491;20.00698776;15.87070107;-6.733409079;-7.72634235;11.08500975;9.327171646;17.53731822;16.35240653;4.9280365;7.239011435;9.227989338
-0.156038846;8.841906046;6.812256806;9.660876429;-2.417222178;-1.494204775;14.69874829;28.40295821;19.58130885;11.98591148;-9.305028326;-9.973527847;13.81899787;8.097843832;23.46229017;21.93808056;6.869125896;7.567087155;8.090417459
2.049307372;7.852146478;6.044984331;-0.850997408;0.262683253;-0.296715336;12.52831115;26.83816754;20.6133304;8.729360165;-5.426191698;-8.784444898;13.19089597;8.798222848;25.22018469;22.81484428;8.412501161;8.674813854;7.834767564
6.003277958;9.500454594;7.109084047;-10.47937784;3.382095732;1.089667346;10.9915555;21.72945623;22.25838907;7.517977619;5.55048825;-4.378176462;8.849173208;11.30879381;19.75040724;19.18257853;9.724825033;10.46206979;9.160574992
10.83536088;11.57367208;9.406014176;-13.09338673;5.09347351;2.008714009;11.28443346;14.06420631;23.7597168;8.697278196;20.39511555;1.587368224;4.286419555;14.10996609;7.572602481;12.918137;10.45795789;11.84884963;11.58580613
15.00442029;11.2123967;11.1992992;-6.981879776;4.656584751;1.973387291;13.47586033;7.899589186;24.79430775;11.20975264;33.08780961;6.862121266;4.784058729;15.27741682;-6.726358121;6.753164145;9.98701497;11.58807929;13.74394981
17.35849232;7.427832568;11.07085975;3.493641363;2.947978058;0.907982579;16.73478699;7.944706954;25.12683045;13.28296607;38.38834271;9.914056595;13.04280793;13.86443445;-17.03800628;2.779148647;7.901471721;9.237064618;14.27242173
17.95036451;2.182063336;9.256934247;11.14758123;1.831965423;-0.761091585;19.3614729;15.1878004;24.24599155;13.77751564;35.39986798;10.87352044;25.71994523;10.66692346;-19.46951924;1.325208938;4.398248946;5.573091671;12.67902241
17.8826086;-0.899865664;7.706828447;11.62586469;2.798727115;-2.250498543;18.79943553;24.15378831;21.63345418;13.14720227;28.26888588;11.38131282;34.00951701;7.786788883;-14.51311294;1.084990602;0.298727152;2.155748658;9.593411346
