Channel 1 - P4;Channel 2 - O2;Channel 3 - P8;Channel 4 - T8;Channel 5 - C4;Channel 6 - Cz;Channel 7 - Fz;Channel 8 - F4;Channel 9 - Fp2;Channel 10 - F8;Channel 11 - Fp1;Channel 12 - F7;Channel 13 - F3;Channel 14 - C3;Channel 15 - T7;Channel 16 - P7;Channel 17 - P3;Channel 18 - O1;Channel 19 - Pz
74.85628079;64.49974724;48.98369136;-6.168428401;78.5801744;0.973399276;107.1237628;89.36067038;58.12729434;28.57539263;76.7845905;63.96376682;125.0829968;35.74945047;44.51772987;63.80518116;82.47162697;50.71168994;85.81850422
69.33367773;54.38796794;41.82158949;-2.033677334;66.27520371;1.962159692;82.25425121;59.16912234;53.72963118;28.01156975;74.73160495;35.80335071;105.3440059;22.31917357;24.66638129;49.22489058;64.61889872;36.02587607;66.67946733
36.69515155;23.29431648;17.67157588;-2.393062416;27.87932108;2.31830878;25.26491049;2.709671645;23.19658643;15.9510109;33.14509207;-13.71979029;52.57126465;-3.217484664;-9.217569233;15.33416524;22.4181021;5.295679681;21.78179661
-1.704405102;-11.3838807;-9.768135179;-6.422269611;-12.22315797;1.953944618;-28.39007813;-47.33140639;-11.98790493;0.707303091;-20.19658608;-58.13135374;0.107916618;-27.59952606;-41.64723185;-19.44280551;-21.27188903;-25.75457191;-23.34895482
-22.71430407;-31.36930661;-26.03960125;-11.13854886;-30.87077938;1.453846023;-48.76539958;-64.67543471;-28.85516104;-8.054481642;-51.52;-74.61255955;-22.58157137;-39.48198095;-58.94959191;-39.08603779;-45.10676935;-42.24692912;-45.14838917
-17.00691302;-29.63580829;-25.30240603;-13.12666563;-21.59413988;1.534823215;-31.43460247;-46.45901314;-18.67264764;-5.829014255;-44.07869634;-58.79789627;-9.219586964;-36.47544429;-57.37839594;-39.85826439;-42.71822699;-39.50095271;-37.1292257
6.1570729;-13.81920443;-12.88417584;-10.45710884;2.834520976;2.336088643;2.498816348;-12.71550392;8.475412626;4.32466922;-7.801134037;-26.08098875;21.97920312;-25.5143005;-44.34786036;-30.46976056;-24.76705226;-24.80532587;-12.16535534
27.70363082;1.026078207;0.230029297;-3.757936627;21.7492352;3.179776163;24.88827405;10.31669187;32.8066801;14.93886319;30.19909923;0.856142502;44.65514253;-16.7970098;-32.18793185;-23.4157002;-9.05628545;-10.86987531;8.841774101
33.4518385;4.198687035;6.100460252;4.145147774;22.3318624;3.066312315;21.98959407;9.544912603;39.78649202;20.01900562;45.72786656;8.226349101;44.52107997;-16.24980055;-29.0121403;-24.94847693;-6.994714231;-6.351879646;12.59593255
23.33153565;-3.467977868;4.919850272;9.833618015;7.672347078;1.54455382;2.298771253;-7.662993388;29.32681418;19.00070048;32.94342177;-1.170426494;27.76802725;-22.14223813;-33.18458776;-31.4425827;-16.66400518;-10.58054053;1.543573762
8.923101478;-11.97333386;3.13063181;11.24138536;-8.039770808;-0.75678446;-13.74243671;-22.55159922;13.15080627;16.05905885;5.010097656;-13.50738646;12.57136605;-27.8408084;-35.21481502;-34.11631651;-26.77548314;-15.84309192;-10.64013493
2.667721601;-11.32449497;6.952986218;8.78800801;-12.04552725;-2.422566633;-12.02728338;-21.6657857;3.920019531;15.92272974;-18.15143982;-16.85623025;12.45856582;-27.83625204;-25.62067255;-27.26954535;-27.10330619;-14.59309515;-11.34112941
8.115486556;0.251111882;17.017155;4.988212577;-2.705343875;-2.213224499;4.446363542;-7.130918179;5.61470544;19.93140249;-24.18278228;-10.41874126;25.9370646;-21.98975383;-3.074687897;-12.93821576;-16.53866296;-5.500872269;1.198763584
18.64174403;15.41132676;28.26627023;2.766151395;10.84172607;0.006954266;20.21656896;7.092818094;12.42981828;25.42213668;-14.27673862;-3.114542429;40.12333829;-14.90887896;23.10548317;1.398582935;-2.823385593;6.148830592;17.78756679
24.45769287;24.17830595;34.5907157;3.566909185;17.51517696;3.084323166;21.93753449;8.483256466;15.69137437;28.47343203;1.450423928;-3.980102525;43.56065647;-11.56470571;38.18143886;9.298746842;4.709854278;13.28787194;26.72723876
21.12627782;21.99834982;33.86573306;6.529403089;13.49132598;5.296353187;9.716378819;-3.238423434;11.87351278;27.30315137;13.18472737;-13.4320412;35.98749984;-13.14017374;31.62428255;10.06977613;2.667683302;12.65168701;23.08133772
12.42686343;12.81703244;29.19119918;9.274011283;4.271070174;5.46801581;-4.081504105;-16.71835692;4.841220941;23.41969641;17.24065815;-22.95532552;26.5799373;-16.46427088;4.651038611;7.936160183;-4.696810913;6.613173292;11.35839391
5.952762626;5.140416645;25.7054713;9.718217152;-1.202163491;3.693469141;-6.478933373;-19.59419916;1.231299472;19.86415827;15.24839884;-22.99151989;23.22727377;-17.09130091;-29.62455624;7.109277841;-10.17918001;0.344817049;0.418085478
6.086515617;4.843459578;26.08709725;7.587428165;1.451753871;1.186331229;4.817645631;-9.287173886;3.927601199;18.42050662;9.772486727;-11.70824206;23.59446592;-13.08658285;-53.8443192;7.694609818;-9.951405969;-2.701457506;-4.142735514
10.67096367;10.76453744;28.63603061;4.516291433;8.869398235;-0.573826002;20.15780855;5.350019531;9.684823158;18.32384643;1.650087891;3.077667372;16.81284134;-6.326215875;-56.98472502;6.171565606;-6.001776628;-3.037114008;-3.508092705
13.81721424;16.33693922;29.26058265;2.695569797;13.73124719;-0.758018716;27.08037323;12.33456309;12.62712139;17.39473992;-8.740851535;10.29995409;-5.450058594;-0.550303362;-40.89371329;-0.334161221;-3.169763185;-3.605273937;-2.770425924
11.70143674;15.34574634;25.26041587;3.114946929;11.52342645;0.439910947;21.20456756;6.941039962;9.881318443;14.28585566;-18.74068047;4.635619386;-38.81511935;1.782198481;-18.44804782;-10.33551356;-4.125393169;-6.421530779;-5.140551285
5.878997706;6.772856273;17.49091932;4.740877277;4.140959994;2.12159151;9.305702691;-4.98160013;3.957911375;9.678374152;-23.20634604;-9.588351215;-66.89325795;1.025289362;-4.649189989;-18.57030451;-7.083967384;-10.69301083;-8.852043458
1.337155345;-5.027277099;9.247653116;5.234079879;-2.472577903;3.345525548;2.439037184;-13.12626889;-0.124469849;5.442191318;-18.02284561;-22.55859364;-73.34617807;-0.804365882;-6.789010043;-20.51459088;-8.102182622;-13.99853161;-9.3649821
1.461033864;-14.3618488;3.236303005;2.641200309;-3.995396605;3.628949002;5.833271292;-12.16872874;0.051549718;2.750254625;-4.324540089;-27.22819565;-55.45097824;-2.423822259;-20.39976719;-16.66886834;-5.427790633;-15.10010174;-4.392128661
4.754401752;-18.60444777;-0.457926117;-3.194707599;-1.374903642;3.028167045;14.73570046;-5.866733827;1.961416202;1.05089346;10.85784612;-24.50968501;-27.38205362;-4.498872596;-33.5752029;-12.51349333;-1.590713809;-15.47225041;3.221372196
6.300262164;-19.32173354;-3.668309458;-10.46853881;0.65434306;1.909222003;19.61487875;-2.496387018;0.797949806;-1.127690172;18.84959437;-21.35368291;-9.821245542;-8.551004813;-36.29193248;-13.89192967;-1.198441634;-17.9629506;7.560884269
2.47504017;-19.71383776;-7.639062161;-16.48270418;-1.533577391;0.701514322;15.57706275;-6.392443515;-5.450671411;-4.385523354;15.35281189;-23.96965972;-14.09676885;-14.71079621;-27.83866143;-21.76961458;-6.487059768;-23.80963809;4.791618809
-5.514550788;-21.18245205;-11.28482664;-19.10014938;-6.845554921;-0.193116388;7.20152751;-13.74365721;-13.42523838;-7.485214944;3.325490616;-32.36520838;-33.82860807;-20.60783182;-16.94756003;-31.03771014;-14.79845366;-30.88383594;-3.304587621
-12.53121609;-22.25932562;-11.96934782;-17.64214761;-10.44742907;-0.40855521;4.321583023;-16.52847608;-16.95473143;-8.246441688;-9.605313363;-40.72920518;-50.85816372;-22.66721298;-14.65582667;-34.58444443;-20.42461256;-34.99858968;-10.64038045
-14.00915665;-20.62535637;-8.111246835;-12.89691212;-8.332221378;0.285847129;12.52823404;-10.67489257;-12.59284751;-5.552616857;-16.89404844;-42.79713598;-50.34271535;-18.8684799;-25.31952517;-29.2563817;-19.3148207;-33.32766763;-11.87482487
-9.972726236;-15.98930848;-1.145923163;-6.577733858;-1.243532057;1.762832542;26.97327308;-0.488310273;-3.095270916;-0.609421956;-17.17;-37.14197859;-32.42883127;-10.62368265;-42.56833934;-18.62419725;-12.55670182;-26.98416045;-6.811645632
-4.967185452;-10.88556606;5.110642549;-0.736268152;5.618845267;3.391137355;35.23616842;5.123359785;4.500384024;3.801265909;-13.60573968;-27.86286066;-11.11940964;-2.091761642;-53.32315277;-10.15897667;-5.598063879;-20.41511713;-0.38919424
-3.991659601;-8.531339165;7.316377812;2.708560056;6.863526951;4.220477452;27.16728774;1.296916831;4.740658337;5.539673696;-9.793229145;-20.55106346;-1.883813884;2.626597977;-47.04177344;-9.180365145;-3.876642635;-17.98220382;1.602332255
-8.073334059;-9.744047123;5.259056298;2.514552186;1.407406002;3.52533495;3.592723317;-7.46822627;-1.47925458;4.907455526;-6.27079289;-17.52722829;-8.812664939;2.228580372;-23.5355768;-14.65471997;-8.57404926;-20.54135415;-2.70145762
-13.38694811;-11.89796835;1.989130543;-1.190389657;-6.634949317;1.391622711;-23.33282981;-10.81316802;-7.471831323;4.439082959;-0.833330789;-16.57412767;-21.97074764;-1.19571486;6.219502642;-20.30725242;-15.98381926;-24.87212685;-9.993073451
-14.64880644;-11.09591422;1.252069045;-6.471394561;-11.30149408;-1.119727435;-38.45735777;-2.299366715;-6.296217171;6.804114614;8.047407474;-13.86016217;-26.55443907;-4.007873865;26.79406731;-20.01839148;-20.79955973;-26.41244144;-14.89705802
-9.770402624;-5.781303856;4.358684184;-10.07218403;-9.400631432;-2.473590466;-34.05069523;13.21203097;3.361087248;12.55343487;18.35007813;-7.924207147;-15.52887101;-3.707145142;27.82765491;-12.9564291;-20.35407368;-23.00063645;-14.5149355
-1.727059177;1.41219324;9.104535743;-9.034888418;-2.557631765;-1.594165913;-14.41313421;21.76164345;15.91455862;19.56435166;25.25570266;-0.941435495;4.978506513;-0.406011575;10.00032897;-4.25939399;-16.28066121;-16.55746334;-10.49277356
3.904314247;5.368360346;11.597008;-2.689992832;4.712243014;1.367214348;8.210414481;11.12750282;23.25319811;24.59445589;25.07744257;3.643648683;21.49281834;3.748758583;-16.07503024;-0.857042526;-12.53184191;-11.44702119;-7.105301293
3.533992603;2.50158249;9.411088172;6.409199197;8.881510092;4.984298516;22.48371468;-18.41516483;21.07040618;25.61965473;18.78432481;4.539464162;24.51424151;6.364739259;-36.63701861;-5.943289951;-11.85185483;-11.02497581;-7.376755468
-1.65759065;-6.219069381;3.453688995;13.61373752;9.813209599;7.325239578;24.64491855;-52.63236214;11.95203074;23.0814143;11.71562491;3.678979734;15.46666103;6.231150982;-42.44077385;-16.4777813;-13.87500731;-15.25441031;-10.76141098
-6.983408051;-15.79052423;-2.905354313;14.95711663;9.913624441;7.081355488;18.73157952;-72.95974953;2.89513341;19.19302632;9.440751675;3.997268267;3.911265328;3.494917294;-32.74424471;-25.4449816;-16.2398603;-21.17742998;-14.21552186
-8.291068454;-20.89192501;-6.566065655;9.789535597;11.26464405;4.343337936;11.63574006;-69.84290058;-0.409500232;16.08558582;13.20913808;6.237856715;-1.578338427;-1.043047816;-14.14616883;-26.85217865;-17.26868816;-25.5453218;-15.32143649
-5.263542433;-19.82716554;-6.967417242;1.319760578;13.57935207;0.540003662;7.803832866;-49.27343398;2.27264518;14.39942826;18.90744206;8.031044694;-0.347950036;-6.516793433;3.883988668;-19.65528129;-17.48577553;-27.21457932;-14.39518266
-1.307816653;-15.56691032;-6.120467733;-5.492946545;14.75335062;-2.402289281;7.482322172;-27.5463771;6.299634244;13.33580835;20.47427834;6.23033068;1.416534435;-11.95248089;13.6447336;-8.083618912;-18.59068642;-27.3794475;-13.68596168
-0.392022981;-13.14964831;-6.602974423;-7.281483456;13.2222584;-3.140941531;8.628632803;-18.77332782;6.518836411;11.8303216;14.94192453;0.269995715;-2.047932973;-16.00881674;11.84614574;1.278030852;-21.07686269;-27.76763717;-14.63147968
-3.698109457;-15.6138411;-9.356136007;-4.430613513;9.717790635;-1.593021446;9.665822303;-25.20528643;1.502103921;9.636325699;4.955865384;-6.774398641;-9.92830745;-17.26361308;-0.083947069;3.270690889;-23.03183746;-28.68168117;-15.97208038
-8.861761852;-21.69990835;-13.10306584;-0.47890065;6.742948229;1.141116011;10.46672495;-37.55267507;-5.736025828;7.405531098;-3.195246453;-10.62526547;-15.58636541;-15.18995461;-17.26207295;-3.454941403;-21.52747119;-28.72300349;-14.67975954
-12.1640905;-27.01450266;-15.68566402;0.715869832;6.332260324;3.482490902;11.41595766;-44.00076846;-10.66297004;5.907459162;-4.321763491;-9.613645994;-13.25459416;-11.02415697;-33.38731105;-16.18535573;-15.4858509;-26.35736358;-8.95893633
-11.55417166;-27.56438301;-15.99851712;-2.176515256;8.259318943;4.249402016;12.34032289;-39.81858068;-10.93038129;5.293373944;1.918981499;-6.331175267;-4.10667371;-7.491523698;-43.08285884;-29.46410419;-7.356696953;-21.75767359;-0.537264012
-7.92922476;-22.81526083;-14.84459315;-7.260583201;10.35455265;3.223259603;12.73147356;-29.83739698;-7.745017808;5.116215684;10.92876869;-5.477187256;4.204571731;-7.202810257;-43.97237585;-37.2216055;-1.835520872;-17.12960712;6.032053151
-3.865350422;-15.99871606;-14.11535084;-11.24900035;10.56430823;1.159641135;12.79193487;-22.76442588;-4.18818439;4.959092363;16.37197313;-9.720219621;4.263700102;-10.77149478;-37.55166688;-35.28125524;-2.426638412;-15.12691084;6.725295987
-1.240461181;-11.63901181;-15.15347176;-12.18284082;8.774413466;-0.687044958;13.69114911;-23.18393338;-2.430373894;4.902155861;14.05045257;-17.25311457;-4.318090819;-16.17108544;-28.08227196;-23.68123958;-8.620114341;-16.69199706;1.337849108
0.062379394;-12.32268595;-17.72905165;-10.77977993;6.719138611;-1.240678674;16.31671482;-28.35469702;-2.402255944;5.27900551;3.937517365;-23.25217208;-14.38522152;-20.0108605;-19.851613;-7.595333214;-16.05168945;-20.18032406;-6.071905944
1.422357996;-17.06847461;-20.37545659;-9.426071367;6.154124914;-0.148336884;19.73426099;-31.96201692;-2.774115472;5.98028133;-10.27237023;-23.97796984;-17.61859288;-19.88433981;-14.51348797;4.488457056;-19.58431389;-22.53150285;-10.04087802
3.692765578;-22.24603115;-21.62246321;-9.868420222;7.102768785;2.049207769;21.31239645;-30.63877175;-2.875624982;6.112888839;-23.06782697;-19.92369062;-12.09359864;-16.02467664;-10.51485033;5.307718556;-16.88545824;-21.53997289;-7.62543554
6.160928702;-24.11785788;-21.01598697;-11.71281903;7.867878509;4.191810039;18.98173687;-26.99477729;-3.521423519;4.536461794;-29.23651102;-15.30835859;-4.123972206;-11.00379245;-5.197441937;-6.249086604;-9.766305268;-17.42553758;-0.362475678
7.169047482;-21.14963049;-19.18524257;-13.01836761;6.78437523;5.095395773;13.71626906;-26.59178042;-6.024774784;0.927329409;-25.73137136;-14.46961469;-2.598330196;-7.75;2.047320637;-23.42202117;-2.467231653;-12.56012715;7.080799181
5.67597496;-14.70958524;-17.12857671;-12.33801328;4.015279458;4.187726967;9.54604144;-32.06307109;-10.5412405;-3.58804333;-13.2275897;-18.36822492;-10.7884108;-7.458752761;8.31319846;-35.15522779;1.496540329;-9.71276697;10.28412435
2.226640567;-8.023545659;-15.4676499;-10.23477005;1.635131852;1.855283575;10.36634325;-40.08217318;-15.47612394;-6.911127819;3.236007012;-24.13532139;-22.95188434;-8.969984383;8.981569547;-33.29796316;1.406363396;-10.23246043;7.811673478
-1.523655656;-4.266609217;-14.23368851;-8.781344291;1.846006158;-0.712676512;15.94260856;-44.03745396;-18.55295701;-7.292217322;15.69581551;-27.75916418;-28.85631036;-9.936474549;1.642593428;-18.52596481;-0.985783562;-13.41675377;1.492448756
-4.168355076;-4.913206464;-13.12936752;-9.424031389;4.929250099;-2.139422323;20.84524389;-39.90344819;-18.49547405;-4.465573431;17.16792099;-27.28917995;-22.36140368;-8.695470179;-11.06519271;-0.315333574;-3.405436715;-17.23894303;-5.445119709
-5.46461766;-9.083871297;-11.82636076;-11.18610708;8.816257874;-1.618539596;17.98733705;-29.89724293;-15.74669951;0.294296765;6.284527367;-23.76638258;-6.627499616;-5.342168735;-22.38147974;9.587233951;-4.729847538;-19.63910673;-10.5562809
-6.031697717;-14.07045278;-10.03092247;-11.02932231;10.7086294;0.618122721;4.465853414;-20.61872057;-11.68292073;5.173537953;-10.70458061;-19.45191739;8.506120689;-1.331796357;-25.90122032;5.682795221;-5.148162258;-19.45693981;-13.07481134
-6.31148985;-16.76335126;-7.474322206;-6.3351268;9.333461249;3.410956061;-15.01951689;-17.41828242;-7.277998616;8.991441131;-22.998738;-15.46384175;14.60416285;1.803564809;-20.37711031;-7.206948347;-5.165856814;-16.67262298;-13.37111852
-5.962304383;-15.35221944;-4.117204329;2.505369784;5.867867951;5.312084528;-30.40256334;-20.0646366;-2.628874101;11.61451664;-22.24444144;-11.24385469;11.17593293;3.442590524;-11.04491891;-17.63720122;-4.78366396;-12.21352141;-12.03465489
-4.33664718;-10.44197137;-0.522405864;11.72151785;2.788663949;5.38096359;-32.93148173;-23.46218191;2.253333412;13.45208904;-8.727355814;-6.182564139;5.218960287;3.868889884;-6.160225786;-16.37226115;-3.715528506;-7.650168325;-9.584071454
-1.517510359;-4.832764408;2.055587247;16.61065484;1.757083288;3.66953556;-21.34294338;-22.54609185;6.394799817;14.7025582;8.277151822;-1.394316312;4.521909604;3.568719143;-11.10291204;-3.595896971;-2.231233661;-4.780322969;-6.791582347
1.249961171;-1.861034419;2.251523558;15.01046158;2.443755419;1.131504513;-2.764323552;-16.82550943;7.917347661;15.13286738;17.04149047;0.577771865;10.80174904;2.683598936;-24.33695887;11.12016566;-1.473841742;-4.938287257;-4.815101525
2.337624579;-3.184411875;-0.384740029;8.993648591;3.248575144;-0.950697133;12.34507851;-10.58063404;5.461541454;14.51390535;12.32628235;-1.827911325;18.58544881;1.13569513;-38.16734437;16.08386719;-2.648820758;-8.17125108;-4.587400881
1.105348033;-7.523016118;-4.748218876;3.295819323;3.09382301;-1.651872991;17.27505729;-8.787117668;-0.263457143;13.10104562;-0.261994207;-7.03097089;20.46779766;-0.854224464;-43.69899965;6.319266373;-5.736033166;-12.87607155;-5.888421734
-1.4424434;-11.45784243;-8.670540476;1.6176642;2.517367758;-0.812214085;12.8449975;-12.64345433;-6.409432178;11.5018515;-8.40737896;-10.91372286;13.81101588;-2.567769966;-36.4531401;-12.85115005;-9.042813611;-16.47033002;-7.129044603
-3.450528507;-11.96732908;-10.41297714;3.728550552;3.020029297;1.00512149;5.445000673;-18.72199022;-9.779106532;9.972858421;-2.97433544;-10.21749835;2.970009766;-3.263914975;-18.91236804;-30.0560268;-10.26337323;-16.96112147;-6.376141733
-3.846280771;-8.92186128;-10.05722926;5.724809023;5.317737092;2.896345799;1.500870467;-22.29650641;-9.127309607;7.915819216;14.0355635;-5.872134731;-4.640247859;-2.91929151;1.265633261;-36.37149045;-8.298706787;-14.3987947;-2.953187018
-3.339484075;-5.502099351;-9.54948164;3.283988311;8.221681292;4.071035171;3.00501629;-21.61028949;-6.030349158;4.30133777;30.09322271;-2.96260368;-4.852085964;-2.445255597;15.62980332;-31.36572892;-4.262671887;-11.01746284;1.772995712
-3.796623042;-5.911697838;-11.13460323;-4.6589561;9.319817705;4.148205203;7.280887939;-19.16801303;-3.5518388;-1.129928573;31.35912462;-6.763853931;0.188482953;-3.017088093;18.90109755;-22.29317254;-0.698469472;-9.728042884;5.264725913
-6.449373189;-11.90410567;-15.30049711;-14.73710558;6.967461744;3.220667842;10.32528576;-19.03027106;-3.846322964;-6.948841297;13.56576324;-17.9029386;4.602255103;-5.006132079;10.53520275;-17.66;0.422302375;-11.9525028;5.769508631
-10.51581721;-20.82939277;-19.9449173;-21.41140732;1.846479834;1.747278481;10.32924233;-22.77492785;-6.746866561;-10.46187406;-14.01217513;-30.9123413;4.28881298;-7.471456124;-6.069300987;-20.6491389;-0.761023327;-16.45207663;3.755093253
-13.54589534;-27.00170553;-21.65054689;-20.89934557;-3.33083005;0.364566055;8.48134996;-27.88888163;-10.43884224;-9.46950036;-34.83090103;-37.8740149;0.278241793;-8.756457565;-25.40920565;-27.48432918;-2.237037952;-20.14080388;1.566084714
-13.32762808;-25.69275138;-18.27066015;-13.77263173;-5.794301422;-0.330581104;7.04348946;-29.98672963;-13.40440606;-4.088228051;-36.89669685;-34.53139948;-2.85333819;-7.775645097;-41.65665231;-31.41297663;-1.917452189;-20.33279381;1.528422869
-9.790349958;-16.86516909;-10.8508927;-4.377446897;-4.734357206;-0.002455635;7.095552261;-26.72244138;-15.71724347;2.921070739;-21.08719283;-23.90324671;-1.639971577;-4.929997107;-50.16868492;-28.4688699;0.58169718;-16.69952978;4.062744916
-5.268101514;-5.697107448;-3.280152209;2.261358822;-1.719266199;1.251962584;8.154656746;-19.82109067;-18.49756554;7.799290613;0.226273622;-14.24979306;3.048089678;-1.861882966;-48.88917876;-20.21621839;3.699189081;-11.41880463;7.368780286
-2.837534212;0.761500898;0.228736421;3.59033773;0.734341733;2.880101389;9.584207991;-13.51471298;-22.18948147;8.278165814;12.77894899;-12.8303058;7.07395909;-0.234543771;-39.32235609;-11.70767276;5.36936622;-7.445938104;8.901211615
-4.06151636;-1.497230294;-1.9818466;0.5326066;1.13389305;4.076329059;11.77327705;-10.97135767;-25.51123991;5.012779486;10.50095219;-20.39851524;7.103936669;-0.540166843;-26.21455199;-7.010881868;4.812600345;-6.333724906;7.353519676
-7.956063247;-10.55939165;-7.909219355;-3.938831854;-0.121137573;4.169312942;15.43806006;-11.98547459;-26.28944254;0.853979741;-1.522124318;-30.80724154;3.672633724;-1.884047094;-15.45962761;-6.33084361;3.094924503;-7.322863123;3.510029297
-11.94791242;-19.90768807;-13.34768863;-7.097246414;-1.531039578;3.008225669;19.64146212;-13.81821261;-23.50684224;-1.404269777;-12.71559096;-35.90607964;0.419503673;-2.827674343;-11.03999051;-6.847589429;2.039478983;-8.297441359;-0.613060043
-13.93098379;-22.9778494;-14.75591228;-7.763635963;-2.026164245;1.10842423;20.89069806;-14.08087096;-18.58074696;-0.953393153;-15.93628251;-31.66343705;0.451183554;-2.48772359;-12.89680733;-5.926198348;2.560676199;-7.642596458;-3.429075536
-13.69194183;-17.5978734;-11.39266907;-6.020759546;-1.785176271;-0.573928441;15.01248464;-12.79547429;-14.46843018;0.922572415;-12.24647085;-20.67642524;3.481612624;-0.963240866;-17.2986711;-3.497107534;3.953563182;-5.388638777;-4.750388147
-12.63441238;-7.136031832;-5.287468542;-2.26460015;-1.711343247;-1.147305191;0.843361986;-11.7987529;-13.20696452;2.450949449;-8.267095053;-9.455158941;6.489375892;1.132724502;-19.54891561;-1.594859139;4.721723704;-2.790340112;-5.353842358
-12.24707817;2.251426564;0.629112688;3.119650691;-2.261651179;-0.289765287;-17.40268734;-12.34939588;-14.06663578;3.121284013;-9.266449991;-3.190542374;7.08939606;3.419228946;-17.09458205;-1.895800473;4.080163641;-0.932752289;-5.788447751
-12.78090632;5.986318969;4.56637773;9.171403583;-2.890319278;1.549021437;-31.67543819;-13.50869667;-14.08646273;3.986949492;-14.35624304;-2.449299287;6.129748035;5.966598738;-10.81888911;-3.862928021;2.673271196;0.232725229;-5.722813025
-13.27128572;3.775319633;6.531859106;13.82744052;-2.680586321;3.380344397;-35.03152208;-12.98506494;-10.64472651;6.316425213;-17.72235915;-4.113951711;6.814891739;8.802522727;-3.80657715;-5.26353306;1.838269349;1.537395637;-4.49238256
-12.73381413;-1.052732294;7.408713105;14.59752106;-1.50064421;4.217996783;-26.43286992;-9.591236123;-3.811837207;9.947314836;-14.2321711;-5.025463577;11.15914421;11.31701093;1.123203326;-4.370840218;2.160973976;3.371741075;-2.228780134
-11.29571094;-4.577760838;7.614323259;10.41421013;-0.44440066;3.621899087;-11.60754222;-4.777930347;3.656533093;12.99886325;-4.07385127;-4.682884185;17.36221956;12.35235605;3.049973919;-1.53460449;2.771951881;4.91023142;-0.289335678
-10.14779161;-5.041925622;6.708485644;3.198872675;-0.974753145;1.939968137;0.872404424;-1.545935285;8.717938303;13.36236118;7.632878444;-4.711232883;20.97452281;11.10732773;2.734852838;1.464348793;2.144764312;4.699770772;-0.327828736
-10.3588348;-3.302398757;4.271503084;-2.543909718;-3.466405063;0.120360346;5.381952044;-1.612845146;10.65420187;10.71628159;15.5198839;-6.121916286;19.05227942;8.104494374;1.322887599;3.560927731;-0.290695319;2.192976951;-2.703941841
-11.69846461;-1.123551396;1.070812853;-2.381271982;-6.52914101;-0.796891898;2.553553693;-3.53231942;11.47213902;7.219777648;18.38287843;-7.467320082;13.38016941;5.233815842;-0.462781525;5.757056608;-3.263851878;-1.218390105;-5.733115047
-12.64891936;0.777228868;-0.825182935;4.832379683;-7.894269176;-0.23559748;-2.175658146;-3.723735834;13.69295842;6.096311128;19.28788848;-5.943198686;9.392590252;4.598595608;-1.941747486;10.09528964;-4.482332642;-2.833959383;-6.702277486
-11.71479977;3.084641983;0.595090773;15.66117216;-6.261474962;1.600715229;-3.267973855;0.314377742;17.59709974;9.13401939;21.55923462;-0.42904186;11.37043396;6.966862013;-1.783998439;17.04454915;-2.597686939;-0.681713117;-4.044600226
-8.927109388;6.492785793;5.439332016;23.96639813;-2.570467356;3.811658157;0.837978536;7.466219888;20.59474094;15.12022918;24.75775333;6.626790584;18.22337729;11.09638325;1.58475628;23.85112146;1.361937006;4.636755745;1.082260205
-6.176497938;10.13384085;11.19108483;24.81294234;0.454659451;5.242388132;7.270948681;13.53434389;19.48279431;20.51932244;24.75058433;10.63464588;24.03991296;14.57442616;8.254033886;25.80093001;4.44451813;9.932213745;5.262040477
-5.953630786;11.58736796;13.98662449;17.62138527;0.236285741;5.071464764;11.72078316;14.54101843;13.61782999;21.89358492;18.05631875;8.640920486;23.39740882;15.57824908;15.34379587;19.78283563;3.914390508;11.49731917;5.181416313
-9.421177157;8.744837179;11.18882487;6.292578668;-3.730653945;3.254132011;12.04198744;9.983284293;6.02272349;18.1931828;6.434882194;2.11867757;16.83251724;14.17380786;17.79637929;7.307814784;-0.573180733;7.806340411;0.157333271
-15.34408975;1.992919715;3.430221152;-3.668711347;-9.447529434;0.589462873;9.561834263;3.225394588;1.197003723;11.23422342;-2.900249398;-3.90029535;11.20003906;12.12846255;11.77133159;-5.704024969;-6.519134483;0.790120276;-7.133198561
-20.75576621;-5.31782532;-5.449122141;-8.755907262;-13.77214994;-1.645069619;7.459997852;-1.271374821;1.416163573;4.205315082;-2.361261493;-4.82695641;13.87535255;11.4322822;-1.626143183;-12.52946882;-10.25362389;-5.337255168;-12.34420269
-22.88339396;-8.8378189;-10.66371005;-9.120843579;-14.49227162;-2.32901927;8.018404135;-1.424471739;4.82420609;-0.450619893;9.534603662;-0.273805875;25.38684861;12.76449996;-15.60564509;-10.03223231;-9.46338398;-6.873396262;-12.35502819
-20.90453152;-6.290222375;-9.450980979;-7.349018435;-11.5965997;-1.086154708;11.1050254;1.261283109;7.147040098;-2.17575889;25.81151223;5.688137819;37.05538591;15.12344792;-21.41565777;-0.573173659;-4.680393957;-3.02163761;-7.272243324
-16.29360269;0.719585025;-2.745335011;-5.760644226;-6.988861294;1.494172083;14.79330649;3.587374291;5.601211123;-1.913253116;35.23353416;7.998371019;36.46930738;16.8037184;-14.4302508;9.840456552;1.27220119;3.766323292;-0.178555463
-11.62909372;7.651674167;5.518741649;-4.668756514;-3.110372531;4.141951847;17.12272832;3.709885852;1.476829806;-0.958513971;30.17559088;4.777965203;17.04513245;16.77651899;1.865273428;15.55362524;5.284356382;9.574032977;5.034695765
-8.848101439;10.11798639;10.91341976;-2.935631841;-1.591653446;5.566057923;17.37102386;2.510994401;-1.058730701;-0.190605144;12.21985734;-1.372707253;-15.90132743;15.28532093;17.3743441;14.39830649;5.835815094;11.50815134;6.107115828
-8.21329706;6.837400726;11.11362648;-0.005401123;-2.734146916;5.139632338;16.10071023;2.210097656;1.013089927;-0.101954505;-8.749170503;-5.908686498;-47.76516602;13.27606324;21.78271855;8.040704921;3.499594096;9.166765876;3.489042382
-8.586832726;0.313628919;6.946360679;2.72449283;-5.797696853;3.233463751;14.4840366;3.792574013;6.358872362;-1.080797031;-21.1415937;-6.272642049;-64.30829632;11.36607199;11.44451352;0.014189703;0.043344913;4.33842437;-0.411089656
-8.604060891;-5.143025807;1.415397594;2.664709098;-9.544784445;1.007117789;13.73482034;5.886738072;10.02357459;-3.226468787;-18.94196465;-3.681630592;-61.060484;9.419392399;-8.177483341;-6.533436918;-2.89086325;-0.477797419;-2.989157265
-7.782844191;-6.452264516;-2.43394179;-1.622292006;-12.6353491;-0.230247468;14.80622025;6.208281469;7.735596274;-5.739354265;-4.578785823;-1.348286425;-45.37846286;7.124254374;-26.2013648;-9.790772764;-4.508770201;-3.494674505;-2.914785142
-6.814674863;-3.61043363;-3.327645275;-8.609480624;-13.93032901;0.264173279;17.89439768;4.106169271;0.066538474;-6.747449342;13.9334673;-1.05379575;-29.97939532;4.913848102;-33.3408574;-9.014759372;-4.737635884;-4.158300457;-0.51215748
-6.970699183;0.81300594;-2.184655955;-14.32681521;-12.93431701;2.268043593;21.61859224;1.592042674;-7.422765804;-4.303351779;28.60391756;-1.440993738;-23.43502154;4.151616067;-27.23777452;-4.237928923;-3.762395853;-2.822298301;2.841632272
-9.150460136;3.836061125;-1.108371686;-15.06579524;-10.28211453;4.724939077;22.69810361;1.655116765;-8.522813604;1.855158555;35.47116281;0.358188716;-25.09175709;6.155125806;-12.76467616;3.325605194;-1.829542041;-0.199934948;5.636833382
-13.23150584;4.065660885;-1.806246439;-10.19163882;-7.768260746;6.3239008;17.24125163;5.331268427;-1.62655684;9.281438766;34.85301501;5.425334808;-27.76735266;10.79225362;2.107393154;10.81305512;0.586144819;2.911062087;6.871632265
-18.07999563;2.123409106;-4.517593584;-2.769111137;-7.517486187;6.206888919;3.604327635;10.35080251;8.739864104;13.85560474;29.10263798;11.43858613;-25.07046777;15.96948084;11.31925793;14.44143481;2.65;5.651548164;6.230265536
-22.15223183;-0.48301704;-8.047689786;2.579135737;-10.58608026;4.4257501;-15.05621718;12.86153692;15.66840924;12.60554084;20.69462044;14.53689457;-16.80003906;18.7285613;13.21495947;11.70122763;3.431086777;7.194504364;3.942800652
-24.32332308;-2.808220757;-10.7296597;2.939404632;-15.97854685;1.913744875;-31.07278031;10.86203041;15.81061161;6.283654061;12.14213514;13.08144391;-8.196981718;17.31444881;9.755723642;3.55276362;2.439325243;7.050204059;0.525526124
-24.50980011;-4.966291687;-11.58235967;-1.024144815;-21.01368263;-0.005090578;-36.25855636;6.239077466;12.28510642;-0.589958934;6.745172855;9.702365606;-4.470783799;12.62877029;4.236864283;-5.496093324;-0.059955909;5.336169375;-3.481938226
-23.7661003;-7.438825752;-10.90317435;-5.947688841;-23.03199298;-0.309192389;-27.40854192;3.387327738;11.77236527;-2.7425282;8.117362707;9.373141297;-5.961962747;7.813470978;-0.341262898;-10.16361526;-3.295354964;2.65546441;-7.698743364
-23.77102836;-10.06982766;-9.976131455;-8.525679577;-21.30317499;1.183171153;-9.237678661;5.422732451;18.10205843;1.788599852;17.85781415;14.89894618;-8.259691482;6.128153255;-1.692902186;-8.289849342;-6.601607535;-0.436490944;-11.9024423
-25.92242243;-11.84609418;-10.1658763;-7.870528809;-17.66398761;3.709290441;8.022615208;11.2678722;27.963;9.73663599;33.13967208;23.82605442;-6.821384486;8.658454894;1.531774506;-2.78552621;-9.82205867;-3.942403251;-15.82050865
-30.51062227;-11.75523908;-12.0324195;-5.702302166;-15.28729631;5.94735786;15.24569779;16.28084254;32.86606306;14.65192487;46.86805601;29.84140932;-1.557879201;13.58365622;8.846738807;0.221352718;-13.12607222;-8.396671723;-18.8940211
-36.46854143;-9.943455317;-15.03286043;-4.490691622;-16.42385933;6.698110082;10.60357488;16.06890633;26.215134;11.69879299;51.30547021;27.86707186;2.953133184;17.55605287;16.9953372;-4.094034895;-16.45544836;-14.22698662;-20.33395359
-41.89668261;-8.03084067;-17.9466852;-5.300058594;-20.79697711;5.511620179;0.592452856;10.31834921;9.717541478;1.661082307;43.06529117;18.62901867;1.841614231;18.13447128;20.62902666;-15.50049122;-19.20655823;-21.0118966;-19.62385066
-45.06506436;-8.117071269;-19.67099029;-7.122459899;-25.84539953;2.928852015;-5.104287675;3.372123361;-6.530754868;-9.030659485;25.80806641;8.634966734;-5.100706209;15.44697776;15.27869756;-28.71551938;-20.5376881;-27.31368079;-17.18092984
-45.24455339;-11.15060303;-19.81556237;-8.026328804;-28.57391313;0.205048191;-1.128312551;1.006454586;-10.95875251;-12.5263488;8.378941441;5.28417963;-12.44840341;11.91111964;0.981068578;-37.19911463;-20.05553559;-31.32466639;-14.55373734
-42.82472994;-15.961638;-18.72672964;-6.866460458;-27.55501502;-1.341541273;9.413751069;6.033774145;0.730337928;-5.06153495;-0.518106974;11.04763663;-13.19187456;10.34713603;-16.46663347;-37.72099524;-18.21026374;-31.87832166;-13.72209052
-38.71089454;-19.81970105;-17.0245037;-3.971549932;-23.60913623;-1.006961583;17.37222156;16.2640068;21.91013898;10.26851778;2.578052063;21.59230519;-4.445977206;11.97212335;-28.38115818;-32.12401509;-15.96548323;-29.05655812;-15.76719314
-33.55767898;-20.20380077;-15.09741422;-0.340716181;-18.83682059;0.957755436;14.62059454;26.29155015;39.51683722;25.4548798;14.43518487;29.45657733;9.963375424;15.70868478;-28.70442541;-25.11215909;-14.01278465;-23.96505126;-19.85403204
-27.51166205;-16.50714156;-12.98274278;3.664428328;-14.98309446;3.51488503;0.274103078;31.4195316;43.25183583;32.73623818;27.93903353;30.16859965;22.12337132;19.13323705;-18.16813422;-20.20273064;-12.28642438;-17.94518307;-23.45488105
-20.66619547;-10.41661046;-10.68563555;8.704509321;-12.49832985;5.404611181;-18.63470228;30.50288167;32.3737852;29.21588404;36.74412223;25.61462386;25.62051615;20.17967465;-3.789786342;-17.36657345;-10.28754451;-11.91803827;-23.89231998
-13.75262261;-4.699798497;-8.576429971;15.4470024;-10.87983191;5.782249458;-32.2847401;25.74192;15.02099115;17.82754423;38.43066135;21.85249877;19.60799539;18.32600297;6.067823224;-14.19555245;-7.933339305;-6.340720237;-20.19746206
-8.302364908;-1.321048334;-7.414394545;23.10163252;-9.699745981;4.589049743;-34.83419598;20.17507198;1.090551806;4.439888502;34.4751398;23.38455147;8.474116761;14.59271726;7.298366623;-9.219406102;-6.058880149;-1.623153436;-13.88399987
-5.917878912;-0.27512023;-7.875138546;29.01392905;-9.204685554;2.494447014;-27.73492285;15.34385697;-5.257595302;-6.333082294;27.90055694;28.97521527;-1.986790448;10.64869495;2.078278727;-4.098462435;-5.936443487;1.586436926;-7.966103214
-7.092903422;0.064489697;-9.936967938;29.96448703;-9.919769588;0.495109611;-17.57364703;10.97978144;-7.505424429;-13.48884501;20.83571726;32.73961611;-8.404997503;7.848004694;-3.84178143;-2.503857753;-8.096411983;2.667068291;-4.895182615
-10.54106714;1.448757227;-12.68299295;24.29987327;-11.73621549;-0.579130234;-10.7527994;6.44252925;-12.10481378;-18.88386954;13.59633216;29.6040273;-10.80274743;6.800817425;-5.798466445;-6.576284248;-11.50217844;1.645048156;-4.968859393
-13.73093941;4.303735888;-14.7889012;13.20688703;-13.51161243;-0.402488219;-9.381409473;2.113236379;-21.78427824;-24.64281232;5.284862889;20.3609405;-10.74658847;7.473090841;-2.718568797;-14.17820909;-13.97496721;-0.484139501;-6.412203336
-14.42757709;7.410103022;-15.39897073;0.081281033;-13.75419848;0.784908509;-11.14841461;-0.672222098;-32.83209404;-31.1645175;-5.118207023;11.79156504;-9.101479818;9.421787147;4.237340192;-19.63773684;-13.72147929;-2.208206006;-6.996184425
-12.20705808;8.873324736;-14.72144168;-11.51295365;-11.92070482;2.35355008;-12.41799505;-0.88482929;-38.62238745;-37.2037931;-17.95945128;11.52095031;-5.604447428;11.88927721;14.73688477;-17.73434683;-10.77505472;-2.508657371;-5.835959255
-8.833876824;7.564944576;-13.84226745;-19.69414253;-9.191946641;3.57668297;-11.42388691;1.203832988;-36.07712671;-41.50047621;-32.39565106;21.81250701;-0.236391562;13.85702461;30.25985429;-7.836055463;-7.090733325;-1.629382444;-3.923145227
-7.172185369;3.921127641;-13.8622255;-24.60081792;-7.927628846;3.917289889;-9.006257835;4.330129281;-29.15875568;-44.17518786;-45.89203568;37.50192314;5.540396827;14.32760633;51.44565368;5.185876982;-5.091526474;-0.894933181;-3.055481114
-9.351736615;-0.444816473;-15.0196034;-27.25601028;-10.07651944;3.231066446;-6.912847402;7.404260331;-26.05677393;-46.57664697;-54.06548882;49.85999162;9.34543408;12.86338909;74.29443311;14.11409786;-5.784698742;-1.619108051;-4.176058055
-15.42466879;-3.919746004;-16.49678138;-28.20424969;-15.71364171;1.835929302;-5.772452245;10.17927542;-32.22264419;-49.8427404;-51.76;53.25479704;9.865550908;10.0162585;89.6421262;14.25596647;-7.994732249;-3.931189437;-6.571472823
-23.35938458;-5.901269791;-17.07300584;-27.17253685;-22.82939528;0.410835758;-4.707219056;12.69620269;-45.1157289;-53.6264447;-35.72889226;49.19856245;8.21318309;7.183412905;87.94419283;6.41709292;-9.371263121;-6.483781689;-8.560972041
-30.26170833;-6.908394286;-16.10696916;-23.88885967;-28.54706683;-0.280096436;-2.646854758;14.2512967;-55.29286539;-56.22017518;-7.767642127;44.58105662;7.055895921;5.801890115;66.48895125;-4.013623153;-8.350637539;-7.342383781;-8.989907044
-33.93144156;-7.831901591;-14.06910253;-19.0494154;-30.87902906;0.238041322;0.260936163;13.31648417;-53.32657333;-55.9916406;24.05902558;45.68065521;8.099287877;6.36295977;33.13222729;-10.84536989;-5.446475164;-5.422481739;-8.18731744
-33.78820279;-9.035106292;-12.21106519;-14.33291846;-29.79061699;1.84774572;2.645878175;8.886629782;-37.24489947;-52.86756139;47.8961328;52.89661903;10.27665805;7.976418125;2.62422584;-10.79451366;-2.819109186;-1.396722562;-7.599973875
-30.77451268;-10.05717346;-11.65045619;-11.36495786;-26.93342652;3.8013876;3.24353418;2.029532632;-14.6684176;-48.59192191;53.70101832;60.37850847;10.53385897;8.876689967;-12.59505293;-4.72252076;-2.532412453;2.607089168;-8.52499193
-26.54332985;-10.09638265;-12.59239104;-10.62821408;-24.39674363;5.038635394;2.123025838;-4.188455738;2.067527373;-45.56834067;38.86548572;60.65044101;6.705995991;7.572070052;-10.39993361;3.784517117;-4.985589115;4.296587352;-11.11601183
-22.55594482;-8.775943655;-14.25776868;-11.40272091;-23.42658401;4.744507725;0.572767034;-6.85767876;4.155491173;-45.25811077;10.19694855;50.40394355;-0.111893034;3.845330191;0.508864795;10.82594537;-8.785632601;2.590243796;-14.48007813
-19.55267576;-6.492776777;-15.4990152;-12.79183802;-23.90226779;2.852830088;-0.143838109;-5.721238856;-8.099494821;-47.35970055;-19.28180274;32.98875604;-6.034442076;-1.083172973;8.122105091;13.81333475;-12.0347971;-1.802651155;-17.60590986
-17.49661212;-4.068749905;-15.5680011;-14.75040121;-24.70393115;0.179513619;0.212507102;-3.483548299;-26.09639233;-50.23565625;-36.89794449;16.02003906;-7.506474172;-5.306779247;6.730591813;11.84132556;-13.81222197;-6.854009791;-20.11664936
-15.85836739;-2.074028088;-14.46967949;-17.95570376;-24.53032124;-1.944609846;1.143556184;-3.147892005;-39.0311611;-52.04960017;-36.33881567;6.338480666;-4.367623106;-7.342115043;0.91989171;5.514518937;-14.57725625;-10.31692772;-22.12809621
-14.08267285;-0.487438741;-12.75763227;-22.52526977;-22.60876738;-2.37617134;2.552410021;-4.547815055;-40.57572501;-51.69857406;-19.83658891;6.211156031;-0.026768398;-6.860865683;0.816960863;-3.096839001;-15.30646102;-10.7730786;-23.50431869
-12.09433559;0.971610784;-11.08861756;-26.90754527;-19.00122799;-0.809963815;5.254529963;-3.579021437;-31.69379598;-49.06123787;4.028880938;13.12962949;1.569705382;-4.662445893;12.6608616;-10.62866755;-16.35969448;-8.165031788;-23.50740628
-10.62831579;2.172225353;-9.947491687;-28.38209471;-14.51414863;2.006331366;9.94407968;4.310523706;-18.50812231;-44.76271153;24.88775233;22.50676786;-0.46132892;-2.060149518;32.62444684;-13.4963251;-17.24984234;-3.726506541;-21.47765059
-11.09790686;2.289041337;-9.651693497;-25.18917257;-10.33859331;4.639078642;15.42385126;18.75628766;-7.659929251;-39.89661341;34.82133271;30.65573744;-3.069485585;-0.17041147;49.0903178;-9.929381673;-17.51681773;0.55665024;-18.04138382
-14.86335107;0.356694293;-10.39444867;-18.55335596;-7.534619378;5.72808976;18.0646126;32.08138199;-2.675180326;-35.8226135;30.81762012;35.97115772;-2.071592228;0.499647987;51.56426463;-1.688932476;-17.72509592;2.783535274;-15.54030641
-22.17874356;-3.653209483;-12.0635927;-12.49251425;-6.505837504;4.720087891;13.70970649;33.0528687;-3.202809973;-33.77843229;15.46860333;38.28677027;3.788393969;0.095529671;38.95583318;6.276055662;-19.37714692;2.054328032;-16.81383476
-31.49702785;-8.149728951;-13.90900558;-10.95403817;-6.717458499;2.17013698;1.03081428;15.01970398;-6.507071974;-34.15270437;-3.685832738;37.88577288;11.2383098;-0.746673998;20.55728216;8.709821572;-23.54304942;-0.908141643;-22.92214746
-39.78621239;-10.41539402;-14.47234441;-14.28;-6.920019531;-0.552807855;-16.357523;-17.59920878;-9.401721298;-35.82037896;-16.36136184;35.36711349;15.00814092;-1.114595006;9.0804392;3.766322552;-29.34705433;-3.889637479;-31.61119555
-43.91394534;-8.192387732;-12.13753507;-18.0836524;-5.890308381;-1.992275807;-31.18049028;-50.16915999;-9.451868974;-36.31299661;-13.63907104;32.13708609;12.46397855;-0.075847429;11.45726863;-5.292157371;-33.8382928;-4.263950281;-38.08219792
-42.35442894;-1.340457313;-6.165838388;-16.06946099;-3.292098738;-1.370048828;-36.76200114;-66.48253468;-5.556993631;-33.19886244;6.927727208;30.35404228;6.248669181;2.980809408;24.57958319;-12.08727456;-33.72756366;-0.596607228;-37.92330026
-36.10184143;7.686468347;2.454980093;-5.121555235;-0.041965141;1.012310633;-31.31477856;-59.41699481;1.522519461;-26.02088371;38.03091763;31.70421232;2.363037306;7.995317385;38.79639049;-11.64927591;-27.8254143;6.208946791;-30.21414216
-28.1199962;15.05136912;11.08150758;11.27650088;2.182801159;3.939072791;-19.05201368;-35.76072861;8.813950692;-17.35036222;64.38320372;35.82602217;5.070334534;14.10387019;45.6996115;-4.11606227;-18.22355522;13.14659265;-18.42105744
-21.65926947;17.7274801;16.57951031;24.42448474;2.039457448;5.917855188;-7.257780539;-11.42532362;11.82030589;-11.81847036;70.27594399;39.97589311;12.96274152;19.92265284;43.75331014;5.344782377;-9.112616959;16.81574863;-8.237172466
-18.57557037;15.21580022;16.95618073;26.15954774;-0.542662486;5.953813485;-1.526298046;-0.478295281;6.739540929;-13.37917607;49.32693419;40.70226344;19.79688526;24.18862725;37.79655978;10.46101495;-4.00057657;15.59744861;-3.847762321
-18.74703887;9.639959607;12.42426417;14.9279226;-4.284859563;4.060866097;-2.658176087;-6.082161942;-6.738654297;-22.52937021;10.01631673;36.50327091;19.72404816;26.39915706;33.83421343;8.616147005;-3.433666014;10.79559114;-5.347822943
-20.81997146;4.23075771;5.200846671;-2.538514121;-7.412019152;1.248904929;-7.197037352;-19.79245913;-24.16191945;-35.52183169;-27.77962276;29.34096548;12.62854744;27.02111406;34.0881673;2.713690021;-4.967147237;5.849117526;-9.162164092
-23.51994842;1.335726368;-1.801747557;-15.55656717;-8.791506787;-1.004167717;-10.66444814;-29.09278249;-38.13359667;-46.34727433;-44.28116207;23.59507612;4.862474573;27.09896091;36.26470531;-1.287468407;-5.342712817;4.08378269;-10.99960885
-26.43841955;1.324275641;-6.506646003;-16.8612739;-8.509716569;-1.521043947;-10.67539596;-26.85784712;-42.59686218;-50.29236156;-32.29401901;23.0706845;4.288259501;27.5061877;36.80674003;0.857407889;-3.079920912;6.571903119;-8.975289309
-29.78242074;2.96770734;-8.470909792;-7.57186254;-7.518149008;-0.033758185;-7.709213599;-15.5186187;-36.80175855;-46.69916694;-2.089635892;28.30961866;13.33342707;28.33989042;34.5195912;8.406076335;0.571089678;11.61631056;-4.561404568
-33.52545483;4.730058594;-8.59782652;3.961586434;-6.735511595;2.685956021;-3.592954435;-3.495567421;-25.98158517;-39.09458296;25.21268907;36.26919536;25.73869954;28.85755006;31.23417313;16.33246916;2.952271003;16.16478676;-0.882878296
-36.8896456;5.83123102;-8.1745702;8.496388337;-6.380310403;5.24159042;0.411191967;2.250004883;-17.98823865;-32.7278359;31.63923335;42.55746311;30.06645943;27.97892292;29.41252566;19.23753788;2.359716273;18.02352421;0.01770972
-38.71387493;6.343782228;-8.000561172;2.55385101;-6.021066783;6.348705801;4.148635261;1.110884895;-18.16489438;-31.32836055;14.14817865;44.42582024;17.79059917;25.00762974;29.51132169;15.25302123;-0.552440795;17.20351407;-1.326927375
-38.38422672;6.534309617;-8.122149608;-9.578370144;-5.159787654;5.498743309;7.666726167;-2.346895474;-26.14107375;-35.26636043;-14.01383525;42.25340829;-9.945518561;20.11964862;29.81372661;7.015098895;-3.394759823;15.5054853;-2.596108506
-36.43011227;6.293705086;-8.136606394;-19.70993087;-3.725835106;3.197910778;10.25402252;-3.656099413;-36.80227872;-42.08990501;-33.19582233;38.61243205;-42.05077497;14.3561405;28.68316475;-0.631744341;-4.008328156;14.86762759;-1.822849725
-34.15288616;5.278462369;-7.656969707;-22.12345526;-2.029526656;0.664058282;10.68310394;-2.604526248;-44.49200986;-48.65839511;-31.23007813;35.95139262;-64.12502283;9.172170536;26.6616768;-3.987933452;-2.036008328;15.8987176;1.047134165
-32.5309561;3.559345207;-6.581623185;-17.39003906;-0.307527075;-0.840533729;8.458598023;-2.691275032;-47.08945704;-53.14223948;-11.38893294;34.84784846;-67.41496268;5.813187281;26.04821719;-2.276252432;1.148043473;17.70300456;4.408608231
-31.35163828;1.957743984;-5.124211135;-10.94085558;1.592389129;-0.672029313;4.674820517;-6.940275507;-46.8911816;-55.60152016;10.92014891;34.03887258;-53.9146374;4.820306356;28.28252139;2.991065163;3.8859294;18.91862256;6.610097656
-29.40125688;1.474586086;-3.772468002;-8.089965748;3.995937807;0.888647905;1.409013775;-14.42518125;-47.92058421;-57.14319498;19.72207565;31.85032558;-34.36896781;5.855871411;31.88757423;9.725340394;5.638556553;18.89623674;7.344308062
-25.66290406;2.132912624;-3.270356995;-9.908799674;6.838823085;2.832636168;0.093187071;-20.90790347;-52.14961395;-58.67021273;9.546023141;27.63316337;-21.00014268;7.897229029;33.37530843;16.18207244;7.106648232;17.97545674;7.594330014
-20.56549774;2.324214302;-4.503352565;-13.24421281;9.359395887;3.995882396;0.444888765;-22.87998044;-57.8196134;-60.25449311;-11.80561178;22.11861342;-20.17798955;9.723622271;30.60215673;20.59345277;9.113241594;16.77;8.340842496
-16.18549207;-0.428044812;-8.116669775;-14.3804275;10.4801908;3.689482758;1.06157475;-20.96777467;-61.10861255;-61.3830532;-30.01577218;16.73309115;-29.72237558;10.51477671;25.38022978;20.73307163;11.45125311;15.32913937;9.379670469
-15.08147337;-7.503199105;-13.93948844;-12.71702606;9.667820512;2.056073359;1.088405086;-19.24461841;-59.52032341;-61.55093442;-34.79206298;12.73675681;-41.84922822;10.29786572;22.45517905;14.82850188;12.88419035;13.11219541;9.434238794
-18.5285737;-17.42985397;-20.61787505;-11.04075001;7.539368954;-0.020660599;1.157328348;-20.93324741;-53.99016101;-60.55431662;-26.26786248;10.89756114;-48.91355713;9.985300744;25.23850744;3.623642912;12.3424575;9.845723994;7.471818668
-25.43930133;-25.94364438;-25.91173992;-12.22660061;5.603834978;-1.389468123;2.407870605;-24.58382851;-47.91787175;-58.33186154;-13.17662409;11.63454481;-47.777755;10.90583298;31.99213076;-8.405640838;10.16456148;6.361440882;3.950876358
-32.79359704;-28.28716572;-27.72453189;-15.57499625;5.235727231;-1.233309554;4.403967694;-24.64176816;-44.04176463;-54.72737746;-5.14825627;15.06588419;-40.36331252;14.01369904;36.28416547;-14.65693712;8.111957406;4.394962644;0.73716424
-37.32098433;-22.43738437;-25.34690398;-16.45842692;6.665978832;0.509196495;4.221027383;-16.3780465;-41.93911391;-49.58344885;-5.485847619;20.68267508;-30.99117432;19.20113178;32.01808226;-10.57765891;7.975026111;5.243116783;-0.371685835
-37.31157678;-10.98346814;-20.08501966;-10.04881468;8.816825757;3.110204855;-1.73428674;-0.950567001;-38.39820404;-43.14519089;-9.653320913;27.05030394;-23.09854068;25.14482482;19.12434512;2.454730093;9.912882125;8.337888733;0.733842089
-33.40162952;-0.069157471;-14.72776984;3.866528427;10.13276754;5.414977051;-14.13454532;14.20968377;-30.4405254;-36.33867992;-9.869987426;32.17900107;-17.65795861;29.8312791;4.917524039;16.93105931;12.02249151;11.10808835;2.180204377
-27.93794546;4.20846135;-12.04783308;19.27414852;9.738584202;6.410780976;-28.4457121;20.68709605;-18.46819361;-30.52768686;-1.693196194;34.62845204;-13.79303834;31.49254912;-0.590340423;23.61105107;11.65427641;10.56893804;1.521267603
-23.46312585;-0.313663309;-13.21233487;27.40501488;7.998689533;5.71463219;-36.56409057;16.02154065;-6.803530291;-26.81396801;12.45383204;34.54702877;-10.37176447;29.42492198;7.924573631;17.77255421;7.503643741;5.611596509;-2.231905992
-21.32493671;-10.30548082;-17.09545372;22.95919667;6.079055959;3.739932357;-31.97930964;6.428695969;-0.952111569;-25.38327212;25.02642036;33.63313931;-7.009601877;24.24480479;26.85840539;2.721033898;0.797164157;-1.790029297;-7.620673768
-21.17731533;-18.84976427;-20.93602382;8.290425245;4.954508807;1.469689041;-14.88570513;2.543744813;-3.569172264;-25.39618081;28.62899159;33.82508532;-3.878315114;17.49734259;46.10046686;-12.26716132;-5.414541768;-7.5561563;-11.62791096
-21.49583323;-19.64868272;-21.9434421;-7.840730106;4.724407849;-0.036620554;6.855200307;11.07957791;-12.20421246;-25.49070442;20.94868607;35.72132069;-0.932136945;10.91133173;56.29067395;-18.22851346;-8.324217541;-8.110816629;-11.77219221
-20.65908713;-10.85016112;-18.88904222;-16.13818233;4.754072172;-0.148573846;22.11858783;28.82359625;-20.58746705;-24.50686678;6.305444242;38.15344171;2.422727992;5.73405657;55.18699553;-12.4103492;-7.190128781;-2.764828866;-7.792173148
-17.94884658;3.890581323;-12.77237955;-12.8689123;4.393270895;1.062573318;23.38878947;43.84600641;-22.57456299;-21.95720204;-6.682043266;39.43496762;6.789272022;2.429864302;48.22248981;0.519015898;-3.560323692;5.872201956;-1.691775163
-13.97933237;17.65692753;-6.236551738;-1.708295094;3.543404424;2.898191606;11.20155624;43.33928198;-15.95233497;-18.06848916;-9.599361412;39.27303337;11.89538356;0.753918175;43.15059636;12.56038961;0.129959409;13.7176834;3.749803453
-10.38937606;24.28650011;-2.120600718;9.721275659;2.568975327;4.392176166;-6.927463478;22.47723074;-3.534770882;-13.56934278;1.506562308;39.55054964;16.30601742;0.038084473;43.45111804;18.30535333;2.356196972;17.8763813;6.754230984
-8.959428685;21.66826712;-1.964893704;15.58124869;1.73057724;4.769401809;-21.97942692;-12.025834;8.960182518;-9.464896017;23.949251;43.00619542;18.20402208;-0.46794289;45.94907078;18.04714507;3.292056224;18.18795575;7.303337839
-10.57569503;12.50285245;-5.245957021;15.31618503;0.789986843;3.793243177;-29.03245842;-45.97589726;16.52093828;-6.83339974;49.13825142;50.6891255;16.76688575;-1.268665673;44.36644327;16.03057058;4.151622191;16.68594484;6.549374296
-14.59046145;2.38400709;-9.702366822;12.60510726;-0.751911052;1.863777483;-29.04112083;-66.24836476;17.42490067;-6.511230551;66.11274409;60.3485071;13.04847917;-2.352553998;35.53431803;15.87721935;5.8688209;15.64379337;5.636424973
-19.01254832;-3.419741169;-12.56324843;11.28493073;-2.990569512;-0.158889329;-26.21943072;-67.90909205;13.34299852;-8.654052974;66.73660361;67.39081003;9.523674328;-3.092795649;22.91081987;17.36053494;8.324130894;15.87203045;4.99660826
-21.5510651;-2.60638;-12.05089843;12.0175652;-5.2229065;-1.329029915;-23.90272367;-55.61915626;7.415971633;-12.46285912;50.32395337;67.98011921;8.429746263;-2.469161062;14.45750064;17.203347;10.68325851;16.52126805;4.551563713
-20.98432345;3.363003555;-8.376379222;12.40397488;-6.329051944;-1.043019893;-22.47229965;-39.36800531;2.0080395;-16.46118814;24.98446264;61.94957844;10.0236167;0.369177511;16.62835758;12.87197676;12.35332455;16.28178476;4.349575199
-17.99654182;10.43647812;-3.664375084;9.99899986;-5.706424544;0.650599516;-20.57671551;-28.16867827;-2.32624715;-19.36107822;4.074365864;53.12223896;12.09846393;5.449466423;29.28220639;5.711626047;13.55598067;14.74536125;4.832629262
-14.8421824;14.27276033;-0.778648297;5.163008217;-3.932625384;3.007926623;-17.78755016;-25.83860255;-6.328852487;-20.98011839;-1.117014275;46.6072868;11.31870302;11.67180271;45.4047954;0.45047527;14.97270818;12.71965139;6.404556143
-13.93030782;12.45551233;-1.64420492;1.033271103;-2.461387006;4.877419835;-15.76197365;-30.68949734;-10.80387959;-22.42168069;11.56844331;45.09054337;5.629853311;17.18565195;55.66783843;1.409040229;16.85845134;11.34273689;8.751462346
-16.20316921;5.614413495;-6.024796854;0.669544013;-2.460233451;5.237049266;-16.72851729;-38.09618219;-15.77029276;-25.17196394;33.08105635;47.02736336;-3.896042179;20.35038368;54.3307985;8.730757212;18.55297865;10.94786877;10.68884663
-20.41577425;-2.980797634;-11.53166827;4.083344271;-3.694667874;3.745710239;-20.87234939;-43.58841246;-20.51452394;-29.65886631;48.17999805;48.16758638;-13.1966645;20.72260993;42.44060644;17.98348847;18.95469324;10.8060324;10.86667385
-23.8591157;-9.103271017;-14.93384086;8.021186;-4.428532168;1.007386968;-25.34907282;-44.71861129;-24.23895847;-34.42095709;44.96076806;45.16550749;-17.46652081;19.38923421;26.67824599;23.56455605;17.60101567;10.00997037;8.858780897
-24.06866423;-9.703962788;-14.01262633;8.895761599;-2.536259445;-1.653106254;-26.16196116;-41.38120961;-26.63590243;-36.73609593;22.82468658;38.35241472;-14.14280844;18.33781346;15.26867571;23.0467413;15.37205807;8.66285252;5.730883688
-20.35655156;-4.428786533;-8.813707159;6.339118188;2.962330859;-2.850197775;-21.43094487;-35.18068669;-27.96182578;-34.4668098;-6.628686814;31.46421944;-4.633758787;19.20436811;13.78545399;18.8056638;14.08700475;8.195840659;3.525693349
-14.14150151;4.290186656;-1.515324683;4.094943903;11.10092564;-1.904983376;-13.18856768;-28.47587813;-28.6886359;-27.82938291;-26.69982912;28.62542458;6.429821336;22.19921297;22.92084911;15.64181342;15.19724401;10.37533609;3.949752091
-7.927139347;12.63983367;4.95776907;7.123044422;19.49192902;0.72332939;-6.043865762;-23.39526858;-29.10685531;-19.68914433;-26.06269859;31.10837913;13.95186659;25.92734034;38.62643848;16.5618269;18.59075866;15.73667689;7.194028979
-3.724805963;17.53306274;8.618839496;17.08203872;25.75;3.631532053;-3.76194667;-21.01877814;-29.18095328;-14.00699705;-5.604502947;36.49287305;15.27886398;28.22944223;53.97099268;20.4092919;22.50090025;22.76930236;11.7453022
-2.021974236;18.17110099;9.303561713;29.9775353;28.75209852;5.222923339;-6.581478641;-21.05486297;-28.68709431;-13.45315084;22.78959068;40.80691952;11.34319419;27.49032275;61.95921808;23.3388986;24.66062587;28.64819643;15.32342159
-1.880241448;16.13735491;8.293894517;38.24912322;28.90921793;4.597279392;-11.38976256;-22.26913922;-27.46922545;-17.85376852;44.25252417;41.77943382;5.455221569;23.57659403;58.63905228;22.72438501;23.8620961;31.0760913;16.28813041
-1.875031686;14.05357897;7.144415192;36.05714202;27.47186409;2.057841661;-14.39516484;-23.44226333;-25.63585768;-24.50869899;49.95222152;40.51135211;0.856299194;17.85930629;45.4451079;19.95785029;20.77083076;29.88072803;14.58385392
-1.063756984;13.78177526;6.674902788;23.84423658;25.58991486;-1.067055953;-13.91538745;-24.14231358;-23.60010857;-30.01724384;41.16181713;40.2904144;-1.089637828;12.40667851;29.29479069;19.57638942;17.43500534;27.1559212;11.67514007
0.658926596;15.41594415;6.814778374;8.592639552;23.85386349;-3.177257363;-11.05315223;-24.67863571;-21.93041311;-32.20515558;26.49884728;43.66974643;-0.909713476;8.931486784;19.52692222;25.36734213;15.91954964;25.82609122;9.618883694
2.842767849;17.66829171;7.204610202;-0.631551803;22.45035517;-3.277327322;-8.05812334;-25.33477619;-21.03328198;-30.86702387;15.36428138;50.2788767;0.357964497;8.120658323;22.67601377;36.75857983;17.08794019;27.67876017;9.911489024
4.94123142;19.19058746;7.847674157;1.289596235;21.48878582;-1.470896067;-6.1481973;-25.70910111;-20.79742745;-27.13532466;12.6464977;57.08136852;2.461612361;9.603684321;38.10024971;48.61408739;20.32745317;32.24940951;12.76531095
6.517174337;19.70138979;9.159216833;12.24261386;21.0238269;1.178139546;-4.760551532;-24.94669747;-20.45905032;-22.36847886;17.7617613;60.68591402;5.955009775;12.36824097;57.69668336;54.71425107;24.22430946;37.24788017;17.11100567
7.172764905;20.0314673;11.39470396;24.62849586;20.77393273;3.284902104;-2.63541422;-22.75506349;-18.93421501;-17.60424586;27.22073097;59.69438428;11.06843811;15.24159927;70.53915172;52.15174024;27.51914078;40.08533361;21.19995802
6.51070343;21.14329102;14.06507613;30.74575428;19.98493239;3.884334637;0.593306686;-20.18070109;-15.57716006;-13.81599507;37.5297866;55.24800624;16.70552037;17.19871134;69.70636444;43.18477711;29.62052135;39.37398792;23.43860923
4.354940664;23.04629193;15.99854471;27.8916875;17.81977034;2.87030796;3.916439863;-19.15491401;-10.89333671;-12.27727705;46.06401397;49.62133382;20.74967423;17.52451891;56.63447635;33.26;30.47328332;35.47558518;23.07098874
1.08453663;24.6014864;16.13141119;19.67569978;14.10869449;0.949848729;5.928863614;-20.91778689;-6.54609944;-14.20899091;50.31145835;44.35513937;21.6058496;15.97540195;39.85597563;27.02476379;30.15717053;29.98468035;20.44974549
-2.314527363;24.42962796;14.41462356;12.9224725;9.809139;-0.792963328;6.163567118;-24.63208665;-4.364821746;-19.69747835;47.70355926;39.60154485;19.63153735;12.9626519;29.05823954;25.56879016;28.73097476;24.74724178;16.81179993
-4.698159058;22.16421681;12.03693952;12.65983103;6.625830754;-1.457538099;5.449201935;-27.59151768;-4.866038294;-26.84441124;37.35508656;35.03134714;17.04150328;9.580019531;28.87045621;26.80779471;26.47095883;21.12472642;13.66624091
-5.462008718;18.95491897;10.6845437;18.79980254;5.91703957;-0.741030838;5.073114834;-27.14526755;-6.427985918;-32.23847347;22.41483727;31.11803631;16.15854756;7.265803642;36.84363851;28.15102411;24.16588353;19.78;12.07486627
-4.924489158;16.73184418;11.36116412;26.62018718;7.686346001;0.951857169;5.745547781;-22.86331318;-6.057228685;-32.85458584;10.14198748;29.29339606;17.4219379;7.120955215;46.65;28.8425347;22.99590072;20.77334804;12.17984804
-4.015828303;16.79410078;13.69875386;30.34136275;10.4998731;2.719428242;7.409748147;-17.04978174;-1.573750024;-28.16575275;8.187197474;30.64029226;18.93790316;9.233833885;53.42469626;30.02913664;23.87769439;23.64564753;13.22708265
-3.461124693;18.8959871;16.33247114;27.06329171;12.47704738;3.593936912;9.841678585;-13.00243261;6.246106433;-20.78483929;19.0039303;34.34051537;18.12078397;12.49241653;56.78041163;32.90368312;26.69477982;27.43855446;14.06578544
-3.105578541;21.62710054;18.06634961;18.39618376;12.63269317;3.016259689;12.99776346;-12.37822678;13.40031117;-14.88652618;36.77818813;37.55120835;14.13153345;15.12592774;59.40373309;37.02474066;30.0650354;30.88048886;13.82752931
-1.957851453;23.79591401;18.90464327;8.987384971;11.53930569;1.145786365;16.37112976;-13.90472383;14.99938584;-13.35397683;50.16643796;37.23897059;8.996137013;15.73003906;63.11194029;40.56501014;31.98318394;32.90852496;12.39139267
1.043068218;25.62564207;20.1028208;3.312923583;10.80771052;-1.163749613;17.9833774;-14.59532259;8.971722422;-15.69570602;49.83704585;32.70657599;6.291643526;14.14146867;66.34252305;42.22036566;31.02394452;33.31786872;10.39641751
6.123292259;28.64063529;23.14611878;3.053648214;11.81673628;-2.758119761;14.56898344;-12.45398869;-1.497444326;-18.33445818;35.62167567;26.69617072;8.34351862;11.55381179;65.49015572;42.78070684;27.30674419;33.01971364;8.850829996
12.32766129;34.16971034;28.39950304;6.637842557;14.6846273;-2.785437734;3.737881563;-8.307934216;-8.984665924;-17.15367455;17.61748244;23.88491997;14.22924954;9.738173352;58.78710746;44.58778494;22.50711966;33.52088607;8.600664213
17.97415338;41.60697599;34.44496327;10.84873948;18.22163937;-1.193353314;-13.15499193;-5.133039137;-6.245012929;-10.50748563;9.671114453;27.6287745;20.31170013;9.844474271;48.92612986;49.11751135;18.8318975;35.80622286;9.933864616
21.5359115;47.94635905;38.63807068;13.05012166;20.78766797;1.184536138;-30.0977192;-5.444038519;8.611811398;-0.553951061;19.43573006;37.30166884;22.95111207;11.58230335;41.62912798;54.86870254;17.61356173;39.37099599;12.45883216
22.31599157;49.25946232;38.55971004;12.44547677;21.30741855;3.048478338;-39.16763732;-9.053579303;29.78871348;7.99537574;42.15624844;48.26652612;21.21186181;13.36172183;41.01777811;57.75350337;18.48370413;42.20374032;15.254926
20.54654309;43.29846419;33.4405749;9.770362501;19.70161586;3.348984921;-35.68310243;-13.18952478;46.33478298;10.77867207;63.00901779;54.6008484;17.36800082;13.33987041;45.7062049;54.10905934;19.71481864;41.9210418;17.2328507
17.04244049;31.40788575;24.68521167;6.065213408;16.59029377;1.886433932;-22.00019463;-14.85656412;48.35632188;6.349557895;66.7509835;52.67797128;14.8508691;10.69406031;49.23922285;44.03652417;19.51474321;37.40073481;17.62101209
12.80654921;18.23859364;15.21879903;1.745551287;12.72958967;-0.570619092;-6.594438258;-13.32523346;33.08335049;-3.170371674;48.10318801;43.13952884;15.40635;6.262312654;44.97941326;32.17737291;17.37890103;29.79740933;16.42418795
8.8293636;9.228921676;8.075860073;-3.270410303;8.728566249;-2.724877729;1.487097883;-10.54716053;6.844740584;-13.50482101;15.67388862;30.06418813;17.82569016;2.096410132;31.74806841;24.91673851;14.53845237;22.14959526;14.60095087
5.986801562;7.416578643;5.015433358;-8.65380506;5.154735003;-3.480542967;-1.129545426;-9.209169963;-18.41559906;-20.56644676;-13.25819001;18.18170181;19.19857899;0.196210047;15.67035877;25.89183365;13.15283393;17.71633888;13.72194219
4.814862639;11.69889289;5.842313611;-13.00373913;2.663506598;-2.526758244;-10.05510127;-10.2969283;-31.90604105;-22.30015059;-23.49773364;10.21425108;17.47010654;1.246555893;6.517874556;33.19238805;14.77082502;18.06437751;15.1230772
5.170425617;17.72797628;8.695080631;-14.30078184;1.767210678;-0.447675552;-16.96442433;-12.44991582;-29.79651872;-19.25647794;-11.08275409;6.019216385;13.05105911;4.180849388;11.07062035;40.47211155;19.11515552;22.13161643;18.96441784
6.106177057;20.84182426;11.09280253;-11.37964078;2.311781108;1.661335947;-16.35286349;-13.66568641;-16.61825731;-14.01637396;14.82730097;3.670220013;8.187771435;6.8460335;28.2538744;41.23864155;24.05032643;26.86609936;23.83795322
6.289125096;19.04696269;11.20961304;-5.323982501;3.185069765;2.803315173;-9.772441271;-13.65085462;-1.79880278;-10.02552658;37.91689005;1.261273719;4.832716701;7.319768622;49.39388828;33.1993838;26.79514367;29.01912504;27.35125785
4.868156764;14.06037961;8.757671153;0.496409556;2.738465576;2.557046604;-4.122674428;-14.44618725;6.064709581;-10.29634323;44.24267874;-1.962950312;3.034396896;5.024932063;63.18617917;19.5762481;25.5925378;26.95723599;27.4864155
2.197970131;9.787866399;5.029141626;2.131626517;-0.175467211;1.19863112;-5.506433235;-18.55045008;3.514864853;-16.22327227;29.48870289;-5.650840588;1.274836733;0.962550996;61.8692919;6.653461918;20.74419074;21.41190436;23.91521291
-0.234041444;9.389733887;2.047905301;-2.478265425;-5.268379696;-0.522302007;-13.87725338;-26.1890725;-7.138523416;-26.80073775;0.326886886;-9.030141907;-1.680655887;-3.004190509;44.79878504;-0.429198921;14.36689665;14.82277003;18.35399216
-0.785235226;13.01723422;1.273624678;-12.01520155;-10.77590663;-1.772602657;-23.01266594;-34.34956924;-20.48192456;-38.71495804;-29.88351361;-11.42255998;-5.261474683;-5.275518447;17.87439595;-0.587869156;9.102500252;9.815101806;13.63059416
1.10969495;17.76048846;2.620953794;-22.48914415;-14.48410616;-1.989403275;-25.79275696;-38.74037728;-31.61467807;-47.64648865;-48.00649759;-12.30628664;-7.400458498;-5.319586799;-9.989209817;3.345389573;6.684433639;7.80156147;12.03175869
4.4071668;19.74914892;4.445593695;-29.79356823;-15.15470566;-1.077534913;-20.22526614;-37.17565845;-38.32840145;-50.44521857;-47.0959797;-11.29861063;-6.429122955;-3.738360624;-30.89992228;7.176335093;7.266389892;8.479361224;14.02969108
7.104350224;16.84540173;4.57767945;-32.32958852;-13.31837679;0.577058579;-11.0410434;-31.45859312;-40.98612385;-47.01940751;-29.11318491;-8.482052872;-2.787866995;-1.718156636;-40.65918664;8.121059324;9.793984707;10.33954458;18.22043556
7.626714464;10.02339583;1.771723498;-31.76329085;-10.84635622;2.259154351;-5.525019024;-26.00735558;-40.97574292;-40.58785019;-3.755489183;-4.917802263;1.101337748;-0.345978508;-39.49940392;5.921523142;12.95134072;11.69742051;22.42817899
5.89907852;2.54784713;-3.402471333;-31.33724082;-9.621181669;3.20448964;-7.228081954;-24.27998137;-39.29888643;-35.8108296;15.95899104;-2.654006313;2.780154555;-0.221931118;-31.17509533;2.056822931;15.90603257;11.56417871;25.11319367
3.282254339;-2.328592414;-8.869253789;-33.04682681;-10.28539189;2.935285876;-13.01188195;-26.01857772;-36.2443689;-35.79742426;19.74907398;-3.73524037;1.805874655;-1.453806623;-20.89949934;-1.763041643;18.39371714;9.939804773;26.09056124
1.467445512;-3.416680034;-12.3652244;-35.92872537;-11.94373263;1.519862056;-15.95372013;-27.66514098;-31.95227691;-39.97711643;5.343047688;-8.63;0.056393375;-3.813201765;-12.77336716;-4.483264163;20.30672555;7.546448749;26.18576417
1.246689352;-1.958307287;-12.84232497;-36.87911194;-12.94319704;-0.396430811;-11.53601044;-25.55389556;-27.00636111;-44.42431897;-19.74071015;-15.3102227;-0.004666425;-6.815500655;-7.805391432;-5.607236859;21.33606841;5.313506597;26.28448277
2.126207481;-0.223209204;-10.97461755;-33.40205142;-12.07270583;-1.863338134;-1.702880764;-19.08478112;-22.41519894;-44.56253632;-41.52934356;-20.05717772;2.453607924;-9.721159099;-3.846013378;-4.774571431;21.06056261;3.929969354;26.6042147
2.996080711;0.409606048;-8.473247285;-26.07061086;-9.304975418;-2.106766318;6.757247528;-11.15818485;-19.06513765;-38.42470465;-47.06278701;-19.83668875;5.924654648;-11.6662938;2.072950157;-1.807068897;19.36505956;3.599703655;26.6820988
3.180620636;0.318181536;-6.814174437;-18.6106103;-5.648729634;-0.96844552;8.100714405;-5.614223459;-17.22360717;-28.15866507;-32.1348938;-14.68727498;7.987566638;-12.06735838;10.30870689;2.718133664;16.69892826;3.980461746;25.90136512
2.937526953;0.826378043;-6.379256628;-15.36743733;-2.367571372;0.964768022;2.675894744;-4.045731009;-16.54660979;-18.6818138;-4.46012365;-8.223997289;7.526380174;-11.13152801;16.81171339;7.076481489;13.8153435;4.273755353;23.98271194
3.042580081;2.521547211;-6.591112984;-18.04692244;-0.202835086;2.649440742;-3.264023112;-4.796548125;-16.51763271;-14.43550586;20.35442839;-5.551882172;5.695098124;-10.03802098;15.07739872;8.896610265;11.15287613;3.49667856;21.05203718
3.946371341;4.264102606;-6.755432294;-24.29585125;0.912566082;3.147760871;-2.879698458;-4.871237613;-16.85852655;-16.53462268;28.13707807;-9.826950099;4.756148589;-10.4452365;1.185921429;6.485873622;8.442834141;0.954507008;17.40628294
5.342600587;3.889794154;-6.758673875;-29.30219852;1.615975749;2.143741371;5.285006183;-2.819971162;-17.54340644;-22.25153329;15.05153395;-19.89122418;5.910990549;-13.44589972;-21.70130183;0.084527928;5.015739592;-3.224000795;13.39267141
6.540763625;0.143692946;-6.987182487;-29.21944079;2.660932163;0.116061698;15.69688108;0.133027522;-18.4730401;-27.02798647;-9.85908025;-30.80671729;8.192669444;-18.6029037;-43.48383174;-7.949040702;0.673468162;-7.814510954;9.600933704
7.231636865;-5.786175971;-7.624192305;-23.76580845;4.560492446;-1.924028554;19.9210001;1.686423539;-19.19700938;-27.42793077;-30.42165539;-37.05738034;9.494195688;-23.80992801;-52.93531494;-14.27893567;-3.598769919;-10.81770431;7.087046521
7.842899999;-10.62293543;-8.113592846;-16.0150812;7.423128872;-2.969591773;13.04081005;1.118543901;-19.00686194;-22.94482521;-33.70398948;-36.19948889;8.76737077;-26.25822089;-45.61287923;-16.34978779;-5.824048739;-10.40622406;7.141262994
9.08305066;-11.27216071;-7.451785489;-9.658030631;10.91033998;-2.52987075;-2.709286886;0.320723799;-17.35885695;-15.62554126;-18.09551098;-30.36355456;7.252600436;-24.03207679;-27.87959275;-13.64032328;-4.212427802;-6.071371635;10.47608094
11.08961526;-7.377227197;-5.165427984;-6.034487614;14.27307641;-0.859031181;-19.7346728;2.091349184;-14.27720919;-8.148514308;6.248484874;-24.57659885;7.439984246;-17.3514309;-13.28093878;-7.704167455;1.435040824;0.747605254;16.35812933
13.04538988;-2.04432805;-2.080977649;-3.364420103;16.53716467;1.185588674;-30.5006531;7.257988249;-10.40728207;-1.985537989;24.62439329;-23.20625019;10.60102191;-8.633673277;-13.16129944;-1.135114033;9.180201402;7.099364369;22.50532374
13.74264649;0.139960172;-0.027832447;1.255263257;16.89986124;2.5594611;-32.17248025;13.44265514;-6.681347068;3.072444438;27.44577908;-27.14729212;15.1954493;-1.286002112;-28.19208522;3.787702022;15.81061293;9.952242391;26.12444786
12.67784505;-3.444197119;-0.500770705;8.831151436;15.21398427;2.519607272;-27.22516743;16.85331754;-3.841582962;7.993852838;15.74993987;-33.68970052;17.81886268;2.046219328;-47.37721339;5.99649748;18.63598972;7.859113822;25.54843375
10.68025112;-11.13398696;-3.310019531;17.02459238;12.24647872;0.978258353;-20.35817908;15.64200353;-2.106969377;13.22616313;-0.744519146;-38.90292989;16.08874172;0.728721935;-55.75271245;5.732202226;17.01323299;1.823275569;21.31424474
9.400797794;-17.79400458;-6.448794359;21.56486563;9.438300541;-1.423606128;-14.83019982;11.76746231;-1.100275978;18.1808625;-10.92208602;-40.51417619;10.99161824;-3.787617898;-45.3335942;3.997327598;12.55212831;-5.250432819;15.8039937
9.982616158;-18.47529545;-7.518421946;19.44588213;8.204702867;-3.567940232;-11.11919508;9.513681963;0.019054354;21.7887008;-9.347506667;-39.07382087;6.49597895;-8.972314609;-21.13474782;1.786307014;7.899311968;-10.24729677;11.62121327
12.02480816;-12.36033601;-5.730707079;11.34677691;9.17403988;-4.359469242;-8.240633614;11.82712073;2.288200147;23.48896305;1.559246329;-36.74785543;6.539891636;-12.59049191;2.356439791;-0.47177716;5.010851896;-11.63164996;9.871740615
13.78928024;-3.944729125;-2.866962679;1.327941364;11.86068254;-3.273766479;-5.710486757;17.70230385;6.539986892;23.73033533;14.82479886;-35.03706406;11.84024584;-13.65576555;11.65464207;-2.965782716;4.132740636;-10.18569276;9.626015592
13.56710813;-0.257864249;-2.239791246;-5.966245455;14.99264769;-0.68510772;-4.062884472;23.00661734;12.88728499;23.5769434;24.29247079;-33.49660754;19.23947185;-12.57513809;3.803160892;-6.009737716;4.10460441;-8.233329459;8.926319138
11.09562497;-5.855215184;-6.239078821;-8.407766602;17.26706319;2.238650337;-3.742272621;24.06697005;20.29156831;23.8098609;27.79786125;-30.53506044;24.19242703;-10.62751542;-12.1504851;-9.307395796;3.588891672;-7.903680481;6.491868784
7.819826466;-19.1381224;-14.24372447;-7.425782215;18.03349397;4.086767534;-3.980513633;20.81212971;26.58190003;24.30861538;26.44154941;-25.4930896;24.31209849;-9.202812643;-22.58490242;-11.56441104;2.199516685;-9.635726245;2.755264011
5.751452124;-32.81;-22.5422257;-6.319339654;17.50523086;3.952572743;-3.166982524;16.62748664;29.18479485;24.21481858;21.76371257;-20.03767428;20.9961463;-9.180103194;-19.7137925;-10.97749824;0.7061487;-11.93688992;-0.543630504
5.885587925;-38.39346342;-26.46920037;-7.318619466;16.46242855;1.965474722;-0.468162535;15.07172589;26.38406973;22.72013203;14.08642686;-17.4460488;17.84795362;-10.61598825;-7.002440684;-6.553270832;0.291972843;-12.51534339;-1.782999399
7.52748789;-31.78514234;-23.32;-9.758648416;15.73335111;-0.729848072;3.042293737;16.51505859;18.43332664;19.83929475;3.633484712;-20.15862921;17.39222702;-12.76550399;4.238169707;0.601117595;1.56652563;-9.948353688;-0.683306656
9.091105374;-16.00973898;-14.02773952;-10.73391229;15.79238952;-2.58223802;5.120543824;17.87170191;7.732155986;16.56929314;-7.060991894;-27.55073588;18.9986495;-14.41794814;4.009520618;7.229649502;4.12891175;-4.710243468;1.639292417
9.628513786;0.719169277;-2.513265659;-7.612710284;16.62399612;-2.505421372;4.435508314;15.72891938;-2.235137224;14.30473153;-12.58708657;-35.87309281;19.73741909;-14.48496173;-8.746841083;9.687104419;6.940300458;1.112521695;3.716309166
9.684504865;10.22155485;6.695550687;-0.403825957;17.78950859;-0.503562483;1.971579985;9.925964052;-8.673245455;13.89698607;-7.64987914;-40.67093153;17.21347963;-12.63518585;-25.74781579;6.64372828;9.0972866;5.139795748;4.875591515
10.65752776;9.216919115;10.84617704;7.811618118;18.58084868;2.327706523;0.225476663;4.073106009;-10.8684229;14.97028445;8.055228693;-39.98551145;11.70916376;-9.614444362;-36.0473873;0.731589202;10.3464165;6.078776423;5.493260745
13.20230076;0.627803554;9.848586407;12.65370163;18.23209698;4.430984838;0.815450184;2.290747464;-10.27309359;15.95196976;27.17094205;-35.88201309;5.751641743;-6.933419093;-34.2984773;-2.573837888;10.99250872;4.249868786;6.214422036
16.14280648;-9.197383123;5.462755356;11.12556956;16.21952458;4.673681251;2.833613064;5.116750475;-9.210078125;14.87509058;37.41551698;-32.99745497;1.730905613;-5.952015875;-24.29652046;1.344486932;11.40137754;1.044484999;6.959964282
17.01673677;-14.98365002;-0.181720288;3.411848937;12.59857629;2.971683717;3.754898165;8.616761754;-9.082360379;10.58457024;29.04905785;-35.03326957;0.034137039;-6.863873871;-15.5145078;12.36334112;11.59997205;-2.117009368;6.722958272
13.98493943;-15.44040531;-5.486396324;-7.234680346;8.178692697;0.303154206;2.272111738;7.988309763;-9.336710453;3.707684359;2.363697901;-41.7361635;-0.441474812;-8.305986698;-15.73204831;24.6561098;11.31403129;-4.495301517;4.419641265
7.582513562;-12.81458386;-9.295561145;-16.25337457;4.318358129;-1.86525385;0.321770884;2.659449444;-7.911981543;-3.232793735;-30.40458637;-48.66103222;-0.038901538;-8.017092199;-25.45439179;29.9914536;10.34976494;-5.983813445;0.060554659
0.771135161;-10.01152087;-10.4433887;-20.03077067;2.333890151;-2.387741352;1.95230796;-2.013935085;-2.8593403;-6.818550514;-51.03809322;-50.03519569;3.027594612;-4.265298204;-37.95646956;23.44803976;8.921503902;-6.565450089;-4.856009747
-2.941931324;-7.929384464;-7.839485859;-17.45184909;2.825631266;-1.031054045;9.486530185;1.20366479;6.007867988;-4.483463895;-46.06169944;-42.78324253;11.1530368;2.85098415;-44.34328394;7.495021681;7.59871002;-5.924401798;-8.212016548
-1.970048828;-5.15492189;-1.308070892;-10.12484201;5.362449647;1.446680637;20.21264447;14.40591242;16.61034368;3.922943288;-15.4589432;-28.88223021;23.79104022;11.15370661;-39.5670029;-8.872480907;6.897350975;-3.643519905;-8.804025788
2.194876975;-0.00919291;7.565405457;-1.357990673;8.765176954;3.72966562;26.93358366;30.57621312;25.64113694;15.78223528;26.52274431;-14.34840237;35.24139934;17.4583595;-25.24941063;-15.79702753;6.851787289;0.187117199;-7.328135046
6.055254021;7.060624382;15.61103474;5.540039063;11.81026785;4.633016762;22.70126511;36.91921867;30.49383393;26.98616479;59.3760417;-5.495662931;36.72487549;19.33634837;-7.974111322;-9.193188764;6.919666768;4.569252499;-5.977928023
6.610535694;12.97705961;19.56990545;8.839575531;13.86367905;3.690439167;6.372618938;23.95270379;30.8218404;34.22170295;68.2625383;-4.990449704;22.25547712;16.437558;5.063812477;6.46369947;6.306040856;7.901967663;-6.895917038
3.395337918;14.00460792;18.03852146;9.080762607;15.01340861;1.364791179;-15.51332842;-6.33;28.69884903;36.83225483;52.38329409;-10.34848209;-5.86749398;10.53560999;9.870926965;21.3271113;4.478295804;8.892750912;-10.61951452
-1.44313088;8.667331304;12.4239188;8.4506188;15.66074761;-1.2006333;-32.42065351;-39.95930204;27.25241291;36.94176693;24.66013651;-15.8280528;-36.69527026;4.331530091;6.860767992;27.04051195;1.520525625;7.402289836;-15.66697363
-4.979902602;-0.774826014;6.066576634;9.097943551;15.94175448;-2.757867178;-36.58550468;-59.37126741;28.63043275;37.64851318;3.253688933;-16.37352149;-56.63482185;-0.132232665;-0.469922773;22.1901752;-1.893861895;4.516817693;-19.53773054
-5.767110832;-9.588211201;2.04095632;11.38105399;15.45460167;-2.576102034;-27.88087632;-55.00518537;32.60628771;40.50930627;0.557910093;-10.92960158;-58.03194944;-2.416578672;-7.884900284;12.38361052;-4.876424828;1.715871203;-20.36445847
-4.789641611;-13.7175636;1.183582953;13.31003906;13.49828867;-0.804754337;-13.24981515;-31.6947612;36.74600907;44.17665419;16.54268631;-2.949713061;-44.10490969;-3.500299352;-12.28640161;5.164784415;-6.809945865;-0.25844803;-18.04406526
-4.497560477;-12.4878729;1.771879675;11.82591932;9.622423023;1.608375954;-1.416023077;-5.141312693;38.07255295;45.32010464;40.0882967;2.136163256;-26.40852097;-4.786250887;-12.5535073;3.937476453;-7.668699695;-1.931621984;-14.14127123
-6.77806113;-8.841130389;1.055136496;5.267459711;4.074630724;3.410245007;2.898714122;8.883435755;35.17208845;41.28341978;56.6879117;0.690142449;-16.58636557;-7.092756097;-9.538596011;5.686619952;-7.996362469;-4.55276579;-10.76648718
-11.44370579;-6.95731113;-2.531914595;-4.699530959;-2.148570327;3.694513458;1.025978299;4.678156894;29.33312044;32.53234704;57.16688733;-6.705373798;-18.53521405;-10.26683862;-5.553720626;4.120058594;-8.542025602;-8.843405569;-9.272847831
-16.28670985;-9.055294959;-8.106115614;-13.33341717;-7.633690033;2.364353329;-2.238887776;-10.99723011;23.87115926;22.95729747;42.12062515;-15.76320884;-26.7287121;-13.48743035;-3.464637343;-4.51020796;-9.73571166;-14.00481631;-9.589614425
-18.50959951;-13.72606876;-12.88703743;-15.46871771;-11.02506269;0.155381328;-3.091342807;-25.27797318;21.97565589;17.60923138;20.12635448;-21.52359986;-31.59383257;-15.84273787;-5.484635324;-17.70488836;-11.30178493;-17.81762801;-10.46040236
-16.40167742;-16.95353942;-14.06066147;-8.954207482;-11.40731075;-1.785209232;-1.244099476;-28.85337486;24.47526359;19.37891012;1.846960606;-21.76959071;-27.40060941;-16.71504354;-12.05414881;-28.10762155;-12.28747356;-17.87803361;-10.27099746
-10.14147892;-14.99309711;-10.55451882;3.563727363;-8.516131737;-2.515323294;1.055616257;-21.63011848;29.09875567;27.00085095;-5.793534394;-18.45783515;-16.44661411;-15.83024074;-21.4289917;-28.84698668;-11.58185957;-13.15946898;-7.91894336
-1.40458173;-7.000886503;-3.525743477;15.97627001;-2.812909881;-1.762181231;1.886169836;-10.89601936;31.88354768;35.85969662;-2.106715776;-16.18846975;-6.606724127;-13.16987417;-30.36935286;-18.63406566;-8.682795391;-4.81781663;-3.321831647
7.689382221;4.383617718;4.584592362;22.43301916;4.564666165;0.002667536;1.425705055;-4.507531715;29.89493393;41.0441986;8.700708801;-18.80548653;-4.732583165;-8.989476602;-35.67153265;-2.78583441;-4.228511179;4.323629406;2.557426302
15.48625761;14.74663199;11.55207584;20.92137003;12.03976338;1.872160157;1.186018933;-5.013607298;23.39601161;40.46650615;20.81596154;-26.53758818;-11.46483856;-3.94525414;-35.71439597;10.36226552;0.138500509;11.26102087;8.095497454
21.13199973;20.56496211;16.31206879;14.20545194;18.05843951;2.981616145;1.923133184;-9.028590389;15.8601621;35.87388961;29.62066317;-35.72416009;-21.41311145;0.911135522;-31.17530868;14.75087912;2.617033092;14.29209542;11.6520916
24.45866152;21.00114143;18.86186786;7.529320903;21.64785356;2.890101106;2.660709801;-11.4044764;11.68516998;31.19289706;32.76057979;-41.34408319;-27.97880738;4.475360598;-24.60582895;9.780158745;2.333900563;13.60734165;12.26159097
25.79196106;17.82233247;19.52372187;4.847561037;22.78217793;1.709511616;1.94435995;-9.988661855;13.15659337;29.60051366;29.85695425;-40.54487192;-28.40511867;6.16610727;-19.20059021;-0.398820582;-0.050189483;10.78655685;10.08991996
25.86914775;13.82368429;18.38077174;6.356369041;22.30387885;-0.010373975;-0.014910764;-6.902513884;18.85347641;31.52838946;21.9525894;-34.61065129;-24.92795771;6.327504821;-17.39531132;-10.22744651;-2.690160111;7.719745515;6.388107219
25.74411333;11.04389233;15.3724344;9.002700059;21.41045454;-1.532452995;-0.768331629;-5.758196545;24.71852586;34.92576516;11.31694157;-27.90632793;-21.62699372;6.06765427;-19.82732004;-15.91322449;-3.704620562;5.712175538;2.883428429
26.47484246;9.931926064;10.8415842;9.338579991;21.01478805;-2.209726002;2.315442744;-7.786891492;27.06284742;37.30823147;1.328595616;-24.54816462;-20.30540084;6.520167711;-24.95856659;-16.50351266;-2.389890052;5.200386416;0.891293067
28.61303539;9.730434064;5.892496429;6.376283682;21.36804191;-1.724753582;8.970853841;-10.49402665;25.28855893;37.83199945;-4.211135184;-25.27265542;-19.23374367;7.977817596;-29.52729385;-13.03444869;0.311504178;5.960915807;0.661267196
31.79986456;9.459618122;2.09513557;2.272003054;22.11971268;-0.241553114;14.90007813;-9.929530039;22.26469816;37.79369769;-2.484382482;-26.89432762;-15.64254426;9.517385394;-29.87739339;-7.26672296;2.396640399;7.408253845;1.363737432
34.8107428;8.645882576;0.665176571;0.482060412;22.66294775;1.600927917;14.17450214;-4.398386745;22.03528112;39.31599852;6.883543973;-24.84734041;-9.268525836;9.449145756;-23.87433878;-1.135191763;2.029018929;8.73105578;1.707171915
36.11841313;7.381087022;1.730664323;2.992024011;22.45694305;2.917900825;3.710594745;3.720009766;26.57456789;43.3920171;21.29751483;-16.96276703;-3.32630349;6.372016753;-12.5693868;3.275744163;-1.412216926;8.970222999;0.751209006
34.67835571;5.937397476;4.262046039;8.798513152;21.15020789;2.999661328;-13.69601713;9.603478414;34.05881041;48.84710773;36.07836948;-5.613992718;-1.778211514;0.191166578;-0.467486203;4.117481596;-7.082906306;7.299740141;-1.61759228
30.478464;4.454051189;6.736430558;14.69053572;18.58886683;1.740468775;-30.43917724;9.642769327;39.98690248;52.95314816;46.32773022;3.501483377;-5.360398176;-7.544047878;6.279294997;0.794147009;-13.23871418;3.552192911;-4.780962323
24.54833239;2.988464169;8.053583567;17.55390457;14.90134666;-0.197241436;-38.76674171;4.08807499;40.32019905;53.15611856;48.76973985;5.177291761;-10.17092505;-14.21162109;3.183806064;-5.249704188;-18.10463707;-1.351676359;-7.854334584
18.45347325;1.773517263;8.058159191;16.37286077;10.68574414;-1.663405232;-35.67437135;-3.346862716;34.30056091;48.65396374;42.73934176;-1.644848593;-10.45101535;-17.29513416;-9.592107508;-11.0855806;-20.48204604;-5.54723529;-10.11768303
13.56799783;1.289074345;7.354429506;12.54466319;7.067328295;-1.661308072;-24.48420411;-8.386912281;24.90520457;40.83109976;30.13841293;-13.07292986;-3.409019559;-15.54989897;-26.63885364;-14.21050973;-19.89750272;-7.096324594;-11.17125008
10.48782787;1.943851391;6.641817152;8.540843911;5.354113712;0.00760122;-12.16850071;-9.161601835;16.73177122;32.45090317;14.70964853;-22.91013472;8.050492247;-9.591227292;-39.87340604;-14.36474649;-16.50759126;-5.152773879;-10.90122471
8.842158905;3.583533529;6.128853801;6.138913448;6.323969847;2.520361989;-4.665801565;-7.013590927;13.0072704;26.2741114;1.027100247;-26.77652859;17.18410999;-1.667285976;-43.00278742;-13.56175936;-11.05103442;-0.635530412;-9.485470811
7.583568627;5.294758535;5.470382261;5.543986687;9.595565055;4.431132532;-3.650276085;-4.857002605;13.91545352;23.92242119;-6.649557979;-24.67361943;18.45152989;5.239863709;-35.17374203;-14.07809333;-4.86700816;4.153933023;-7.497710177
5.648383071;5.809158908;4.235404356;5.822942385;13.6520007;4.497631589;-6.685131361;-4.688101326;17.24475281;25.43265156;-5.614937235;-20.21349017;11.60077994;8.589461152;-21.46304078;-16.08474173;0.287511274;6.830213136;-5.89062562
2.697391518;4.33639537;2.49635757;6.031201446;16.69;2.442469222;-9.933251239;-6.229944013;20.52773051;29.48586085;4.226007127;-17.32143763;1.479769025;7.273253299;-9.856997894;-17.15828386;2.837142454;6.328033905;-5.604093216
-0.471240398;1.252714003;1.037256256;6.034946116;17.80387631;-0.829196251;-10.93912047;-7.497471501;22.85134965;34.07123158;20.04923529;-17.11892345;-6.07485806;2.052605245;-6.628093766;-14.36272898;2.220043945;3.485312477;-6.875921652
-2.179154686;-1.914723163;0.958406067;6.469335172;17.63117663;-3.703340133;-9.553054586;-6.49926794;25.04800448;37.33058664;36.98075994;-17.4329645;-8.626810811;-4.733088934;-12.95895075;-7.201473398;-0.613444579;0.427653283;-8.754333034
-0.809433821;-3.313107156;2.897269698;8.0258084;17.87780947;-4.741189752;-6.975127404;-2.63090145;28.42928886;38.31966035;49.92250383;-15.1995812;-8.113187292;-10.09983478;-24.69527969;1.281303733;-3.548985498;-0.809915507;-9.37444161
4.025474904;-1.928717435;6.381003591;10.70475996;19.96053627;-3.450772398;-4.321602723;3.121384445;33.32276927;37.35418391;55.41796648;-9.683372665;-7.888453711;-11.64141599;-35.03068289;6.505040671;-4.468389271;0.493080141;-7.075309261
10.84330633;1.654499499;9.781562964;13.56671684;23.73310934;-0.514804979;-1.992556274;8.980149754;38.58902943;35.6611248;52.55672726;-3.784547776;-8.861538168;-8.525919136;-38.24356034;5.928998789;-2.540246;3.412597799;-1.713520029
16.74531903;5.417671409;10.99020544;15.09430052;27.2888138;2.613155884;0.050274106;13.37346404;42.29434073;34.40428019;42.62363086;-2.245022627;-8.466680206;-1.807246394;-32.35312568;1.077926111;1.242566063;6.029628385;4.81663906
18.86545874;6.927626075;8.485916369;13.91492986;28.07759806;4.474818512;1.857880424;15.49472138;42.7901141;33.66350673;28.13128017;-8.052527793;-3.479436162;6.110019531;-19.60849747;-3.895955856;4.696585306;6.527816487;9.429713443
15.98857756;4.622248355;2.210696636;9.514237602;24.59477407;4.307667639;3.487165368;15.34895315;39.37187038;32.17564236;12.18003906;-19.80473263;6.002409554;12.59914502;-5.082160982;-5.942386182;5.854101975;4.049805308;9.674884228
9.277864222;-1.369306214;-6.257280129;2.628411428;17.45159764;2.347937751;5.189232658;13.54757051;32.33695516;28.23505863;-1.555731804;-32.10439535;15.35879178;15.97188937;5.619198785;-5.764299594;4.193309598;-1.059002322;5.360445061
1.573002408;-9.288933939;-14.3635012;-4.879104807;9.079488138;-0.352485785;7.23719847;11.03536914;22.8464726;21.25996661;-8.908485455;-38.78734467;18.57339441;16.09791019;8.56;-6.848186577;0.881649413;-7.537029287;-1.177261357
-4.313842502;-16.5923996;-19.73733798;-10.68661544;2.305814021;-2.453886898;9.380078125;8.730585572;12.91509767;12.83574995;-6.335959379;-36.71317896;13.24205337;14.20743691;2.98437101;-11.62576586;-2.065713447;-13.71584296;-6.422889806
-7.165177832;-21.08382031;-21.23925392;-13.00675681;-1.190169957;-2.943867006;10.63891706;7.082115988;5.287561687;6.225474362;6.878123741;-27.52269137;3.043890888;12.04361046;-8.290513088;-18.35063687;-3.072232629;-18.02756445;-7.787341157
-7.746616081;-21.79328265;-19.34848828;-11.41927649;-1.540246827;-1.585204187;10.06709996;5.782495462;2.673674075;4.42321708;26.75338844;-16.32778172;-4.793074459;10.86098231;-19.92442873;-21.91296564;-1.862909155;-19.46114082;-5.082505518
-7.834179096;-19.26611144;-15.72003906;-7.018126492;-0.184607804;0.979511051;8.04545709;3.971425048;6.308093699;8.046275315;45.05529822;-8.465578914;-5.181977995;10.81126117;-26.47986331;-18.32213737;0.573117544;-17.93933513;-0.435521731
-8.677106617;-15.22758821;-12.19992342;-1.690228357;1.25987272;3.519259933;6.724367332;0.968486326;14.71111733;14.69528375;52.83634115;-6.59730876;0.746650037;11.01218925;-25.32325899;-8.982735174;2.745613342;-14.44699174;3.205492334
-10.04828873;-11.7973054;-9.861288331;3.070855171;1.916811871;4.800194615;8.593600684;-2.929415655;23.88347715;20.44909057;45.50324381;-9.864197778;6.786807291;10.21265582;-18.36984715;-0.572958106;3.561754085;-10.67360238;3.914590111
-10.51435383;-10.5290322;-8.563357448;7.021104019;1.857207975;4.212242174;13.87466523;-6.266502681;29.3518219;22.54626465;26.15404005;-15.17775371;7.203668807;7.653570405;-11.25309782;0.057399203;2.826302401;-8.1532023;1.804761254
-8.599277501;-11.60784563;-7.202500175;11.0792699;1.714559296;2.11515745;19.00253059;-7.165620497;28.95988248;21.2978441;4.529210562;-19.35903231;1.957632818;3.631783988;-9.94676764;-8.022442716;1.181507136;-7.309837189;-1.287009869
-3.882652352;-13.56357709;-4.44268862;16.37813779;2.178167763;-0.320897974;18.16493284;-4.556469623;24.37306887;19.74711587;-8.279940921;-20.66237939;-3.051167788;-0.560339533;-16.74662855;-18.15117483;-0.330542655;-7.077506147;-3.055497491
2.766968147;-13.7711726;0.497232255;23.20599935;3.713846209;-1.745439716;7.49400596;0.997189788;19.93524936;21.26226164;-6.171167985;-19.07662849;-1.192519216;-3.307459306;-28.36547092;-20.87293874;-0.795854277;-5.524430797;-2.042393579
9.864701916;-9.707086089;7.376369961;30.66266177;6.504921868;-1.400796465;-11.10336633;7.516289197;19.4797057;26.84384801;8.704633016;-15.78691719;8.573878388;-3.59514692;-37.76397564;-11.72266961;0.155079999;-1.227952275;1.71797031
16.23007813;-0.474532682;14.94546306;37.23860695;10.41217536;0.418878234;-29.88561926;12.72780346;23.42206425;34.18219581;27.82370632;-12.5086312;19.87542724;-1.650378328;-38.76752883;4.43783028;2.147860193;5.494705527;6.906327673
21.41487157;12.22953867;21.37415471;41.74783969;14.87993292;2.525448646;-39.7845526;15.2717907;28.43200535;39.18094135;41.80405253;-11.02236295;23.62749162;1.118346698;-30.33697401;16.51946742;4.162306677;12.43743337;11.67428145
25.4292261;24.43119334;24.89311702;43.79958624;18.95979857;3.542852468;-36.52884337;15.1801425;30.04557547;38.79478623;45.64705567;-12.73840756;15.70988901;2.916176986;-17.35233309;15.64196852;4.970516427;16.68258661;14.48067273
28.19237103;31.56832975;24.42329224;43.50389231;21.65168058;2.738670818;-23.71225126;13.45608652;26.2255689;33.072385;40.37026061;-18.07956176;1.203982786;2.673827813;-7.176421896;2.166991312;3.798335987;16.38271663;14.66221895
29.31363273;30.77676043;19.98836198;40.88487671;22.48038719;0.466360651;-10.19080926;11.27635074;19.05168888;24.97271338;30.65416258;-25.89599668;-8.780585734;0.808584943;-4.419148424;-14.51265683;0.87063476;11.92600393;12.59088907
28.42245754;22.48437847;12.75746292;35.75854224;21.89827935;-2.052940347;-3.616265796;9.486443839;13.17990411;18.25052331;21.02090563;-33.48782737;-5.697445735;-0.88603106;-7.807777593;-23.36733771;-2.565107156;5.661044075;9.414500251
25.70319298;10.29731173;4.664761023;28.30964975;21.1;-3.460068359;-5.110527862;8.604701181;12.30516538;15.09404631;13.62837351;-37.60995618;9.070535397;-0.241157141;-11.60664252;-20.24416172;-4.881873334;0.38500187;6.486032838
22.07772298;-0.850531792;-2.284318074;19.76047293;21.24977111;-3.036721705;-9.268634718;8.994442722;16.45687665;15.19609569;8.789576021;-36.12100859;24.13613829;3.942629217;-10.58811134;-10.47988717;-5.049806409;-2.316884147;4.715183815
18.79651871;-7.223248623;-6.740286796;12.22776427;22.63726854;-1.068211098;-9.352568666;10.76625261;22.22469115;16.66522048;6.748042073;-29.30485017;25.85450322;11.01466264;-4.720992181;-3.604496991;-3.285548888;-2.732686859;4.171272983
16.7389202;-7.983060647;-8.431214226;7.520501692;24.42752476;1.385298256;-3.248279012;13.40734133;25.58;17.75698271;8.373185446;-19.93938153;8.268463599;18.62471854;0.233782737;-4.871436814;-0.863973889;-2.336405167;4.193621982
15.98874487;-5.110980281;-8.074157266;5.721648788;25.25895585;3.115556047;4.850801614;15.62184372;24.88473126;17.97111182;13.93384666;-11.96430193;-22.2273455;23.8578298;-2.983790237;-11.01021156;0.824864353;-2.416344895;3.97407558
16.00945017;-1.765788448;-6.849055827;4.876330916;24.27525119;3.393221625;8.403818746;15.84794803;21.68724284;17.84561864;21.40909978;-8.53545304;-51.02727637;24.70791317;-16.96695374;-13.81987089;1.292261644;-3.119616953;3.229441952
16.22640409;-0.272316497;-5.75119104;2.372153339;21.80243625;2.261983119;4.622085327;13.32631787;18.91624037;17.98034422;26.60631661;-10.62910331;-65.12635954;21.04903934;-36.31794311;-8.254080277;1.259569116;-3.56673403;2.46619561
16.50211408;-1.028969877;-5.174149733;-2.859814912;19.13990976;0.411184667;-2.700333419;8.954281277;18.28798687;18.37043725;25.7829174;-16.91007813;-61.3261842;14.5893629;-50.05364767;2.404409919;2.007056181;-2.778024286;2.609010192
17.13772428;-2.831075728;-4.880767492;-9.10377893;17.63074859;-1.224476534;-6.269808252;5.118149637;19.23930191;18.6304237;18.90030315;-24.69491584;-47.06906175;7.912311373;-48.50141795;9.173527664;4.273944103;-0.542466842;4.253615063
18.48928598;-4.066498159;-4.253363583;-12.78464288;17.74198745;-1.897486815;-1.80432406;4.399594653;20.1276801;18.71439401;10.53290403;-31.21951786;-33.92351861;3.214550756;-30.02252361;5.716194013;7.59501601;2.479631302;7.124060663
20.61786332;-3.746794251;-2.587399321;-11.03399517;18.85421579;-1.330140058;7.621293423;7.964505309;20.30217096;19.24663072;7.072202779;-34.4744982;-29.15548483;1.439187744;-2.756684933;-5.035136657;10.61698232;5.396110735;10.17636948
23.30217395;-1.705487133;0.716185139;-3.90409971;19.8684259;0.217871551;13.34873416;14.78446345;20.90996323;21.01729272;12.00320326;-33.4286028;-31.72135007;2.173374471;20.07594454;-12.27693198;12.14161316;7.802299748;12.27985505
26.3408204;1.870253177;6.017997295;5.625284618;20.08980503;2.07674926;7.894554534;22.27596317;23.61622312;24.10867154;22.9643631;-27.97324843;-35.03385572;4.196034336;28.29693321;-6.204753151;12.04524436;9.915210261;12.93962616
29.76075028;6.856157381;13.25093098;13.93926494;19.67658055;3.434163025;-8.705179988;27.89496105;28.52219181;27.58281698;33.17251012;-18.9655054;-33.44496447;6.242237723;20.88205845;12.93132526;11.32500545;12.04911963;12.49757234
33.63951566;13.02713243;21.68762336;19.51075612;19.35860349;3.667309135;-28.19252195;30.53394215;33.45694192;30.18462094;36.34596477;-8.369948187;-26.89126256;7.550371267;6.012369528;33.54372583;11.24132917;13.98541149;11.6925006
37.66212045;19.49805719;29.87679412;23.73829755;19.74848673;2.628607911;-39.75506142;30.78195976;35.58887765;31.50651872;31.32841871;0.872389429;-20.25737314;7.9987603;-4.802153648;40.92104654;12.26680696;14.88533609;10.99332883
40.86907396;24.49523475;35.9888544;29.13424969;20.85750057;0.751915603;-37.68440355;30.02398254;34.03780282;32.48233964;22.73429634;5.590588549;-18.63458847;7.912738531;-4.382905022;28.6608792;13.70044949;13.88679344;10.2819088
41.96329332;26.00443099;38.55665758;36.39623721;22.1763181;-1.109238012;-25.12725528;29.21328935;30.9942551;34.55;17.1070197;3.640331109;-22.85552417;7.761960326;5.847965778;4.079019491;14.24963976;10.88375784;9.12019355
40.06894532;23.04375703;37.22434777;42.95849348;23.15394472;-2.074106429;-11.25513041;28.28027987;29.99081613;38.01564013;17.70326207;-4.94060865;-29.01606352;7.936820296;17.59331888;-16.93701607;13.09190663;6.78908049;7.30321385
35.38569532;16.59361765;32.96207205;44.45620681;23.5887904;-1.676895422;-4.387299217;26.50927288;32.54100486;41.02149957;22.07100159;-17.62352705;-32.04815717;8.670721476;21.77619093;-21.62696497;10.55711872;3.003182357;5.154667309
29.1788394;9.278625984;27.48188295;38.06223769;23.59414411;-0.119634054;-6.526545496;23.40522042;36.07664858;40.22412158;24.22290627;-30.28599303;-30.03270501;10.063507;14.531914;-9.358316516;7.903225153;0.479392628;3.280654877
23.03679519;3.799015181;22.16311961;24.97507399;23.24048906;1.816187958;-13.20715607;19.25479835;35.30167571;32.95857761;19.45345654;-38.99413347;-25.59737114;12.11680164;-0.914122867;8.947018442;6.394007213;-0.886922322;2.015967319
17.92231922;1.163803194;17.23084894;9.937183275;22.28391772;3.161217538;-18.07373908;14.95767136;26.25373106;19.37047238;7.861667742;-41.79840241;-23.45903424;14.71608003;-17.25958681;19.93652862;6.415444483;-2.086747077;1.097771118
13.73892481;0.086103418;11.8347572;-1.908558068;20.28789791;3.242569488;-18.0271667;11.37190683;9.897260785;2.849901091;-6.019590636;-39.58605056;-26.43686681;17.56042633;-28.30103872;17.74003906;7.286687887;-4.204533384;-0.093916162
9.745070656;-1.885140858;5.043707627;-8.311337203;17.0505805;2.005503456;-14.8757493;8.79;-7.826033428;-11.69553593;-16.74032797;-35.47783478;-33.31958499;20.11187014;-32.33053137;6.863352314;7.848161868;-7.607023029;-1.90527744
5.477365524;-6.257177095;-2.954072283;-10.75319416;12.94221477;0.019964491;-12.75798507;6.963139731;-19.81317307;-20.56406523;-21.44454495;-33.01518681;-40.13093079;21.66581772;-31.6150774;-3.382587193;7.334744636;-11.64960984;-3.932460083
1.432267938;-12.10561892;-10.40010801;-12.34817509;8.820924765;-1.806857449;-14.10657269;5.558975732;-22.63184827;-23.06727008;-20.71186678;-34.07756474;-43.39637545;21.59175902;-29.07047091;-7.264049841;5.899446063;-14.99151382;-5.134400851
-1.061983482;-16.42928385;-14.73832267;-14.79088243;5.562020787;-2.654914944;-17.71689841;4.568020463;-18.599315;-21.24382651;-16.74183953;-37.71585626;-42.53750753;19.66363696;-25.34038817;-6.389401403;4.481769609;-16.21268731;-4.478668547
-0.720258463;-16.21;-14.18986155;-17.04394698;3.565200158;-2.158871473;-20.23327939;4.269438762;-13.51091837;-17.91294344;-11.16949516;-40.67769951;-39.6079191;16.27217815;-18.84704632;-6.172848033;4.192047494;-14.3728789;-1.62863341
2.721911447;-10.71443527;-9.057698783;-16.78236777;2.606342478;-0.574776999;-19.31470085;4.80717664;-11.91489209;-14.68531227;-4.64579816;-39.4550567;-37.04954502;12.30936357;-8.61421917;-9.080212954;5.644431027;-9.36749648;2.830872591
8.157542737;-2.314341434;-1.792150218;-13.07729407;2.098459422;1.312892663;-15.55019277;5.804828057;-13.74833608;-11.38802201;1.898182667;-32.6895395;-35.72607193;8.700458733;2.904554668;-11.43407324;8.604415612;-2.0981187;7.740119925
13.6559222;4.86222705;4.333475792;-7.680249313;1.511299536;2.517279262;-11.64153573;6.439626954;-14.91937045;-7.067298368;6.322490838;-22.37775331;-34.89141886;5.842024464;9.97017914;-6.919032019;12.07823211;5.594933168;11.96786057
17.54373744;7.570572286;7.128962806;-3.584008777;0.643365458;2.301134008;-9.895109571;6.017766962;-11.12287726;-1.440184343;6.357524007;-12.92575819;-33.72573662;3.36578717;7.243955899;6.559265064;14.76926784;11.43049458;14.85467446
19.30688274;5.563670316;6.750231417;-2.121080988;-0.354159844;0.575742776;-10.36652332;4.65695307;-1.602005587;4.557315117;2.035054953;-8.473777508;-32.59923885;0.499590362;-5.550813458;23.34794691;15.72298091;13.69077726;16.32497075
19.75858738;1.737826998;5.509267103;-1.366387061;-1.078760128;-1.95925023;-11.12042203;3.529250784;10.17701611;9.521824915;-3.118027305;-10.18663883;-32.65336635;-3.132113391;-21.83814465;33.64408599;14.90908745;12.35379032;16.78928576
20.42231005;0.241836295;6.364383694;2.402237258;-0.966261418;-4.068634229;-10.06191671;4.365888307;19.22646916;12.79771137;-4.081533165;-15.41677355;-34.1270698;-6.844423981;-31.32895501;31.46720385;13.42379874;9.548325503;17.00443647
22.55335289;3.843223962;11.04526168;11.1659905;0.597542248;-4.575373197;-6.56950012;8.410480598;22.6048614;14.91629286;1.440645158;-19.47475391;-35.28276274;-8.98548012;-26.49101239;20.01782348;13.05012762;8.658623956;17.87328765
26.38040949;12.24914871;18.94156885;22.58740366;3.998270266;-3.023818908;-1.666782124;15.41450492;20.85499784;16.78635681;10.15030484;-18.89416717;-33.3743832;-7.94237824;-7.983879851;9.427798024;15.21892247;12.25351822;20.04380354
30.95325919;22.3337179;27.35841189;30.90130999;8.943501412;-0.03217142;3.021661528;23.33748671;16.42372593;18.39024636;14.73561141;-13.89249101;-27.15877371;-3.503767112;14.95522975;8.502567899;19.88193131;20.05216697;23.34429491
34.61748279;29.94981646;32.91313425;30.96304427;14.13964143;2.930425747;6.314370699;29.07679554;10.89526445;18.30084662;9.431184084;-8.192394321;-18.77039335;2.405086315;29.8037709;17.43630039;25.08913422;28.47609312;26.44294325
35.82735271;32.10285372;33.24206741;22.36571175;17.52462479;4.290960467;7.676505175;29.96765746;3.773758279;14.68209517;-4.68424594;-6.265988785;-12.99974133;6.342562402;28.34434113;27.81021001;27.7968381;32.47562633;27.2305864
33.88338845;28.24951515;28.10884862;10.21321101;17.20271047;3.255037172;6.857939076;25.28079954;-6.092602533;7.094927511;-19.3660947;-10.02391035;-14.10447745;5.187298516;11.49495848;29.93325147;25.63682003;28.70349072;24.01218371
29.25096709;20.19659937;19.40873272;1.66563449;12.65387563;0.304652544;3.821448811;16.82864798;-17.97260559;-2.433681695;-24.87498742;-17.45576952;-22.48913592;-1.858710936;-11.76291386;21.18491922;18.56832247;17.92832468;16.86829659
23.32384007;10.92352596;10.15735511;0.75541659;5.388038354;-3.018131751;-0.73249525;8.212451952;-28.29500579;-10.20152891;-17.61414866;-24.27439101;-33.95503027;-12.42679068;-30.38642721;8.109183738;9.197978562;4.867644537;8.140346841
17.76054671;3.112616502;3.027209013;5.439669286;-1.592996765;-4.952729512;-4.939495022;3.021831045;-32.59730595;-13.16167501;-3.618429626;-27.28769944;-42.31364134;-21.98840536;-37.92546177;0.446875229;1.353027615;-4.655623661;1.405428561
13.73985929;-1.889331675;-0.833790285;9.180495144;-5.39541946;-4.509847445;-6.38487378;2.97652365;-29.00056587;-11.15072624;5.289654719;-26.84158428;-43.49741133;-26.22733441;-35.40428322;2.361052788;-2.251949313;-7.367750053;-0.613480001
11.53789089;-4.322578744;-2.133946328;5.862179703;-4.947104488;-2.027499702;-3.750591967;7.106106201;-20.23202103;-7.274103226;0.068168656;-26.37990437;-38.09605929;-23.37161868;-28.9775422;8.615495958;-1.652414378;-4.456062133;2.185914443
10.6576088;-5.513897832;-2.775198108;-5.660967549;-1.660318026;1.03605383;1.78475044;12.46;-12.21481155;-5.980977767;-18.77522359;-29.44492725;-30.50043841;-15.0649435;-24.67017419;9.178057552;0.624484382;-0.382545402;7.19266919
10.40544382;-6.929419063;-4.560250702;-20.69724986;1.491566174;2.946830814;6.899287719;15.88560278;-10.05230296;-10.06432704;-41.42824049;-36.49540642;-25.50059124;-5.27881778;-24.28251064;-1.655389462;1.554266939;0.508754311;10.87596061
10.51190469;-9.230686373;-7.989897452;-31.96148368;1.941270762;2.677952931;8.434999383;15.75399765;-14.46369931;-18.65602867;-55.69771932;-44.09577027;-25.06023037;1.997398742;-25.1873539;-19.55614796;-0.123997698;-2.904267574;11.24167514
11.35370967;-11.79737416;-11.85779857;-34.34175277;-0.754630428;0.464673139;6.036962069;12.61751156;-21.45711843;-27.61615878;-55.06355645;-47.17145018;-27.59807541;4.833147056;-23.5372025;-32.96910454;-3.069708818;-7.927504974;9.147027901
13.61375239;-13.00416483;-13.91366188;-27.7419998;-4.60311033;-2.367463461;2.854288286;8.559938659;-25.4602646;-32.04536557;-41.75032595;-42.61958173;-29.90897355;3.995639649;-17.90693389;-32.23027394;-4.528257299;-10.2560538;7.478066321
17.630531;-11.16062942;-12.21831572;-16.30508533;-6.47795738;-4.174600719;3.354365527;5.856407359;-23.40687288;-29.21444086;-23.14376983;-31.536243;-29.78842123;1.942643943;-10.44449263;-17.36058918;-2.58124556;-7.188837227;8.8231489
22.93106813;-5.601151289;-6.357742333;-5.09298319;-4.165558506;-3.911439876;9.655299492;5.867352182;-16.63365828;-20.01740799;-5.419602968;-18.46119141;-27.18102082;0.994457127;-4.916558198;1.988186021;2.311276498;0.569090019;13.44228204
28.31463097;2.757970321;2.24885578;3.091278835;2.188772377;-1.684680274;19.20107833;8.699598613;-9.329137849;-8.166523155;9.870513328;-8.373901688;-23.28173655;1.912199278;-3.601089918;14.2860299;7.653698887;9.699211419;19.08678427
32.44691042;11.79529417;11.12468669;8.628472099;10.13498008;1.336530011;25.79244535;13.50201594;-5.046776546;2.118026043;23.76870556;-3.796530429;-18.9041151;3.693434384;-5.729995917;14.96172842;10.80950456;16.79259233;22.74813306
34.5513773;19.28547908;18.05602627;13.61931591;16.37128929;3.570942392;23.48711436;18.91938513;-4.166906544;8.30898172;35.26164112;-4.025909;-13.88813432;4.529723433;-8.650641125;8.98943148;10.91018212;20.52874373;22.90059586
34.73590529;24.00081001;22.08671776;19.57600423;18.62831323;3.863415892;10.67085606;23.42437904;-4.165620118;10.36422452;39.33145951;-6.640999618;-8.045681728;3.16064195;-10.46316525;5.431740163;9.301033567;21.94832807;20.47443406
33.79168451;26.08332588;23.60955534;26.04318769;16.82850121;2.063538076;-8.566605036;25.6471439;-2.150166309;9.927377109;30.39878063;-9.664450913;-2.446092979;-0.27806076;-11.66086719;9.065824275;8.280241102;22.94084169;17.8947312
32.68797673;26.50370933;23.664406;30.87680025;12.90026109;-0.940952248;-26.6517603;24.90386827;2.595694756;8.79364574;8.466905784;-12.5382989;0.597905705;-4.384672396;-14.25683368;16.5189701;9.249635975;24.46201773;17.10357105
32.14404507;26.11043369;23.09366359;31.66169611;9.473254599;-3.723775781;-36.73851596;21.75091725;8.041793622;7.775275301;-17.89848655;-15.42971353;-0.790063477;-7.423773551;-19.17328932;20.11964612;11.77378535;25.98697739;18.22912019
32.48964742;25.04996839;22.18965935;27.21573346;8.301795206;-5.066981183;-36.15075419;17.99224094;10.99627507;6.574973367;-35.47360764;-17.98233177;-6.128079973;-8.426688023;-24.33089347;15.72332789;14.18425106;26.43447594;19.89219527
33.72308259;22.97541794;20.95150041;18.39563051;9.334453068;-4.55758601;-27.16074959;15.7273974;9.336555422;4.467108954;-35.03807993;-19.02014701;-12.37759199;-7.783460849;-25.44865176;7.227692065;15.05381594;25.46521367;20.68456121
35.5402854;19.76141779;19.52176446;7.957095429;10.90424889;-2.735946964;-15.15697427;15.82067417;3.154495889;1.106221837;-18.17970444;-17.61348677;-16.06220514;-6.982473423;-19.32230852;3.457653977;14.22507801;23.83578174;20.39540848
37.25880678;16.00555818;18.27524673;-0.427369824;10.85538945;-0.747337117;-5.72459238;16.94414639;-5.728941012;-3.119414252;3.415120058;-14.4288597;-16.13783451;-7.645936121;-7.096927083;9.972310958;12.6043786;22.5061613;19.91080778
37.820147;12.80227793;17.44901932;-3.707944887;7.914010166;0.290170656;-2.29426148;16.2444201;-15.0521792;-7.306682994;15.99715328;-11.84677272;-15.08280625;-10.40627777;5.310591342;23.08619519;11.0939953;21.46325982;20.00489525
36.11890978;10.94839751;16.72937123;-1.015611676;2.503169852;-0.145085111;-5.169006879;11.51351554;-23.00864008;-10.53369752;13.03466224;-12.39559075;-16.94923054;-14.28178598;10.50355344;31.78510473;9.774464518;19.54469329;20.2888548
31.64903512;10.28696802;15.33176447;5.587335359;-3.461478;-1.759156666;-11.86996235;3.349578584;-28.30555242;-12.25054864;-1.290489191;-16.65827415;-23.70026351;-16.97607639;4.586845198;26.51613972;8.123841717;15.61106666;19.4284129
25.07656897;9.820505309;12.67526859;11.89433445;-7.659601392;-3.653575897;-18.40602365;-4.555045303;-29.90414607;-12.38453712;-16.59044826;-22.4651447;-32.84769666;-16.03545311;-9.74045331;7.734522818;6.00418317;10.0692947;16.51954451
18.21955687;8.569369677;9.137886749;13.81682622;-8.671693187;-4.818127951;-21.06154224;-7.608725107;-27.16355377;-11.23202808;-24.53755127;-26.22184887;-38.61217463;-10.28661626;-24.45438896;-13.13694652;4.349651241;5.248889673;12.34070841
13.2431141;6.478970855;6.166278737;9.919025196;-6.699588419;-4.632112659;-18.15049147;-3.589726738;-20.45229387;-9.304418154;-23.99149331;-25.43015784;-36.03636581;-0.739294251;-31.23303368;-21.68501414;4.709727255;4.008904637;9.178869301
11.47029707;4.589681386;5.464107319;2.47049759;-3.271925477;-3.133100001;-10.90548243;5.524184228;-11.5474364;-7.213888917;-19.34885863;-20.40795937;-24.94816408;9.636457022;-26.83411912;-11.43879405;7.867771302;7.507618234;9.143215686
12.59599703;4.280690921;7.767420143;-3.974662629;-0.17383447;-0.958183145;-2.778520309;14.7640311;-3.139488499;-5.56144106;-14.6031873;-13.85085989;-10.56759185;17.23204109;-15.02921215;10.84151917;12.71620811;13.94935315;12.29436507
14.90614428;6.185694543;12.16112412;-5.694735152;1.640665002;0.97441828;2.708899865;19.63768149;2.455584428;-4.765283609;-9.147977387;-8.671777169;-0.09021767;19.53222275;-3.712711046;29.83462456;16.52450948;19.49896768;16.25091462
16.42177045;9.67442027;16.56163445;-2.39108629;2.410187109;1.877930786;4.26453014;19.16812398;4.47573195;-4.861074201;0.716060097;-5.956822927;2.241589314;16.28666256;0.711287629;32.84249264;16.64554324;20.85854044;17.8078779
16.20278759;13.32941293;19.0950372;2.777272418;3.021274517;1.429521792;3.56213526;16.07170836;3.873171385;-5.413389833;16.2618489;-4.681948514;-2.15610085;9.465946922;-2.407156841;19.00358317;12.45793691;17.60755795;15.40610459
14.898538;16.00765152;19.35432178;5.838661401;4.074899701;-0.098631599;3.708568408;14.00400366;2.372680572;-5.677718455;32.50221807;-3.247436328;-7.712005051;2.080973739;-8.074341376;-0.35539519;6.009378995;12.49166366;10.46869372
14.16339784;17.58;18.56003906;5.262658559;5.362899737;-1.954330037;6.55877692;14.31147353;1.243558728;-5.012596674;40.37961435;-1.323048468;-9.091591401;-3.381321405;-9.867841397;-10.29165859;0.74613273;9.38664841;6.427901766
15.3784708;18.72170068;18.48299734;3.123972625;6.174688252;-3.229445923;11.10089076;15.16887112;0.739675115;-3.350415955;33.7535345;-0.3199405;-4.987439923;-5.987769283;-4.935620952;-3.165276922;-0.816547415;10.44942101;6.101919596
18.61240838;19.95179962;19.95858005;3.095549086;6.113296942;-3.2757835;14.37136997;13.84765194;0.446710147;-1.435099938;15.22301483;-2.122594381;1.499887069;-6.371208076;4.015196808;16.10056272;1.213834506;14.57803756;9.451753128
22.54799827;20.78772981;22.14644787;6.846078608;5.62291407;-2.035764077;14.18564055;9.950880816;-0.068902687;-0.617385906;-4.683876425;-7.303615414;5.822689843;-5.941120069;11.08032907;33.86945423;4.283774004;18.27117857;13.5066126
25.37014612;19.81215223;23.097052;11.90530669;5.65644624;-0.113678352;11.24817883;6.406485061;-1.064170553;-2.237422849;-14.91216269;-14.47439365;5.591551929;-5.963204354;11.76913068;37.45283513;5.263550504;18.14843266;14.55566978
25.92374196;15.6939063;21.16508451;13.02445946;6.688985691;1.488723155;8.609322524;6.951401915;-2.976812872;-6.884956815;-12.05496295;-21.3417021;1.884500758;-7.094275372;6.070729957;23.45596612;2.59647963;13.21084057;10.9192604
24.3152141;8.386890269;16.17886688;6.222573703;7.951471448;1.876721293;8.805831241;12.19373764;-6.69207272;-13.94566407;-2.564970725;-26.46749721;-2.479947792;-9.469817053;-2.399447129;-0.727558434;-2.810989248;5.258286272;4.168479515
21.6081638;-0.4665129;9.52159307;-7.625222131;7.69369612;0.755486992;11.29843414;18.06128279;-13.0670998;-21.72665721;2.844141655;-30.11560269;-5.799058268;-12.98163588;-10.17807453;-22.52109156;-8.46892719;-2.62585579;-2.098721788
18.94371726;-8.31380564;3.161277574;-22.64483582;4.46057468;-1.37118668;12.79802863;18.69860401;-21.86965643;-28.14956292;-2.095060136;-33.46219984;-8.759535949;-17.32431333;-17.14247966;-32.3167028;-12.13569731;-8.19698247;-4.908764947
16.77599926;-13.1437223;-1.558685603;-31.63059167;-1.565466669;-3.436835215;10.50918528;11.87286622;-31.11823102;-31.67268831;-14.63462073;-36.99987923;-13.05923288;-21.74181824;-26.09707695;-28.58769903;-13.18236381;-11.18709292;-3.922575291
14.72638364;-14.6066226;-4.489159811;-30.88015054;-8.319519199;-4.375626606;5.397456522;2.158422576;-37.74059509;-31.95160876;-26.15888086;-39.72332633;-18.84843364;-24.82451672;-38.95803543;-17.24935921;-12.58415458;-12.82785718;-1.334800311
12.04252158;-14.06436204;-6.342055668;-22.59878923;-13.09449675;-3.702951751;2.105808384;-1.625856655;-39.39082169;-29.87563244;-29.95081089;-39.93365075;-23.598715;-24.79248402;-52.99093009;-6.720837218;-11.76383307;-14.42863491;0.10347864
8.236894431;-13.60242042;-7.909364515;-13.14376599;-14.4478727;-1.781269396;4.913182411;6.415299182;-36.09608215;-26.96463128;-26.62014806;-36.93073494;-23.71838496;-20.34256076;-60.96263599;-2.564636269;-11.33641839;-16.26747203;-0.713180405
3.461133513;-14.70575142;-9.510345538;-8.547431197;-13.30668136;0.380118412;12.94229778;23.00962714;-30.28873891;-24.47472809;-22.53429642;-31.94976103;-17.67044392;-11.61177811;-55.98965052;-5.015183849;-10.73218192;-17.57126764;-2.511426076
-1.524629692;-17.40822414;-10.96551746;-10.68782883;-12.31239358;1.671438009;19.1864595;36.07403251;-24.99208475;-22.72170889;-22.96076751;-27.32868057;-7.815137906;-0.561702252;-37.65178954;-10.1873354;-8.86758722;-17.35164921;-2.798646842
-5.619320891;-20.30215148;-11.85871349;-16.71981649;-13.78882048;1.463310722;15.1773166;32.56798742;-21.51215059;-20.99055664;-26.3968342;-24.53176305;0.88210268;9.636980387;-14.17199098;-13.36024647;-5.199183921;-15.2210316;0.151166015
-7.658346635;-21.24669224;-11.68016093;-21.71415816;-17.84485058;-0.090028687;-1.78702658;8.560801184;-18.53272577;-18.04924657;-25.48149231;-22.79977063;4.489121979;16.00079118;2.016015379;-11.92336176;-0.277041653;-11.50998002;6.079604159
-6.644289367;-18.3328375;-9.759501041;-22.12483263;-22.10656008;-2.163065631;-24.79541053;-26.25689652;-13.4276518;-12.94394608;-13.90042204;-19.75074264;3.195481905;17.13816975;2.815409858;-6.395401116;4.595675434;-6.750416934;13.12642551
-2.032554488;-10.7174127;-5.307467731;-17.50426064;-23.36593806;-3.696410695;-40.76421337;-53.75149344;-4.737964196;-5.622911272;6.870374308;-13.5515698;1.242826715;13.82728035;-9.135833196;0.580873988;8.253034438;-1.162018168;19.31127373
5.886228946;0.885986829;2.104931073;-9.709001793;-19.95353784;-3.919468364;-39.34938013;-59.08221345;6.278921621;2.925518172;27.27351912;-4.827464284;3.604826829;8.419941922;-21.54936835;6.236671285;10.36957048;5.30206723;23.81416939
15.70085844;14.18430746;11.77606884;-0.938693585;-13.05320396;-2.709680933;-20.71210899;-40.61879788;16.37187618;11.04086242;36.58942685;3.3908019;11.99109627;3.4410491;-21.03795075;9.336276064;11.44858446;12.38958404;27.07011571
25.03567613;25.8576961;21.47203195;7.445703622;-5.955906714;-0.642520715;4.132195447;-10.74618405;22.68456297;17.02379983;31.41717662;7.726576382;23.33792903;0.227651294;-3.278934584;10.58809546;12.15613776;19.03541756;29.76409731
31.32774777;32.66337022;28.0286238;14.56488919;-1.7994606;1.272280846;21.04201492;12.98172256;24.73993065;19.70754193;18.45096444;6.833318127;31.96249766;-1.607486182;22.7781398;11.69114738;12.55683221;23.4679909;31.71253859
32.96678155;32.74799377;28.89579355;19.0437095;-1.463995547;2.05271292;22.74177504;19.66815809;24.2929086;18.74017724;8.997478685;2.128115456;33.64323987;-3.633352688;40.19691199;13.69390495;11.8626966;23.99440793;31.64211749
30.15363891;26.52290895;23.70831658;18.89802957;-3.140708812;1.215534731;13.31832812;11.19703645;23.22415893;14.54166715;9.728186892;-3.625210356;28.43777404;-7.376975184;35.43884796;15.78731161;8.921873472;19.96552644;28.08116372
24.85662129;16.5078608;14.71545414;12.77988771;-3.817931166;-0.949809361;3.839820096;-1.334934426;21.45069459;8.056253274;17.44962566;-8.516077286;20.1923899;-13.19630065;7.8506094;15.46812756;3.143162835;12.27286942;20.65753585
19.75417959;6.082905528;5.590039063;1.560039063;-1.53588685;-3.455258298;2.920943954;-7.312419982;16.89819161;0.46937158;22.30322809;-12.49357148;13.40212582;-19.93246428;-29.46677708;10.17371185;-4.769431434;3.063581788;10.77713818
16.73681516;-2.188676296;-0.686265483;-11.33003906;3.212333171;-5.049834452;10.10438102;-4.476259549;7.766735657;-6.999997628;16.62256198;-16.41038497;10.08074152;-25.53656071;-57.91553721;-0.571578494;-12.81683936;-5.13487819;1.134682965
15.90372091;-7.63920254;-3.422593639;-21.42910801;7.831998814;-4.845605293;17.38134872;0.867866015;-4.836047928;-13.2262473;1.846087334;-20.2443788;9.021810192;-28.27883995;-64.85806948;-14.01724388;-18.55279081;-10.39412201;-5.639574625
15.72381238;-11.29749957;-4.193219361;-25.69076604;9.339795086;-2.822071211;17.15999225;0.596708202;-16.39516918;-17.29567431;-12.43084007;-22.45660586;7.667735404;-27.79394451;-50.4647449;-25.10088917;-20.35778076;-12.03214939;-8.313800391
14.27284073;-14.60673221;-5.2719136;-24.0776673;6.179172729;0.091787742;9.48032607;-7.7313406;-21.48830166;-18.68455722;-16.42373614;-21.35007813;4.678930466;-25.29480292;-25.95756839;-29.12630277;-18.3910872;-10.73265188;-7.548596188
10.71919708;-18.02191044;-7.749392335;-19.20970474;-1.011126238;2.458438127;2.014695799;-18.88609899;-17.59739194;-17.47447478;-8.286440913;-17.24239361;0.968825796;-22.76911854;-5.530350463;-24.59894347;-14.57568896;-8.150612105;-5.311689958
6.03875043;-20.5173767;-10.74320009;-14.48581879;-9.962423214;3.095451183;2.786596149;-24.6783437;-7.230201882;-14.46623748;4.571855275;-13.18967307;-1.441922472;-21.60084862;1.883364686;-14.31179973;-11.50211612;-6.134984219;-3.632133572
2.451784096;-20.33666072;-12.20799398;-12.13868375;-18.07953078;1.741726564;12.07792024;-20.89599855;3.519285663;-11.01365272;12.06575076;-13.05622328;-1.420790822;-21.47230351;-4.114960864;-3.819325919;-10.82729952;-5.80985154;-3.444079695
1.952338174;-16.38733262;-10.6041411;-12.45374652;-23.59;-0.774014248;20.95015493;-10.46413504;9.089001721;-8.512837104;10.17934642;-18.14841575;0.376446022;-20.32239802;-17.69885307;1.833886981;-12.16226463;-6.905220883;-4.147995768
4.933756532;-9.231779806;-6.082507424;-14.26849519;-25.99412217;-2.987716851;18.21101162;-0.467014608;8.197312348;-7.725122154;4.259905501;-25.29173958;2.450029297;-15.54923941;-31.42961308;1.055748139;-13.25067865;-7.782228285;-4.085990715
9.857471493;-0.97018788;-0.331398201;-15.95453859;-25.84105753;-3.630097656;0.237729096;3.940078125;4.380648063;-8.324259185;3.913006368;-28.46430994;4.180747308;-5.85566309;-39.48220975;-3.575335619;-11.46288419;-6.348803623;-1.642424335
14.20036078;5.856394202;4.653726254;-16.10193354;-24.19911082;-2.350243184;-24.75337402;3.267745291;2.93481097;-9.04014451;13.81324714;-23.27886276;6.535976199;7.372845506;-38.4327519;-7.262367347;-5.720849466;-1.506361611;3.639860457
16.04499275;9.557922646;7.818474194;-13.80794942;-22.15098811;0.091367591;-42.03525128;2.061981646;6.64;-8.443776437;28.40876434;-10.98362431;10.96497182;20.12659222;-27.20287345;-6.322098573;2.437810789;5.754958249;10.56442126
15.25220582;9.978117753;9.392803174;-8.947580127;-20.44434961;2.267108813;-41.34622439;3.828317824;13.54770429;-5.947305548;35.41663637;1.451360023;17.48547549;27.45054191;-7.825225548;-0.732516486;9.487682288;12.50356944;16.74800303
13.46289129;8.302307792;10.27459654;-2.549411441;-19.30324952;2.894219306;-24.6925261;7.412775575;18.46956407;-2.326691023;25.70637504;5.811749464;23.86317305;25.93525923;13.53300149;5.759120431;11.96304542;15.44683759;19.86945055
12.98303975;6.322790465;11.1934421;3.201063471;-18.4231185;1.542118871;-4.604950949;8.207851718;16.96744902;0.706840746;1.701892696;-1.297192106;26.90987223;15.6320198;27.63244557;8.092763546;8.639490514;13.09893178;19.0216112
15.33613489;5.695815307;12.43471999;5.899865394;-17.19064489;-1.154296753;5.728414913;3.00786245;8.809642592;1.710271361;-22.68216876;-15.34218206;25.01050431;0.24396859;26.59885738;3.440240825;1.384193882;7.078352884;15.32452995
20.41886459;7.48314726;14.22047198;4.593140213;-15.07126448;-3.864995912;2.403799624;-6.083605487;-1.633705791;0.662584844;-31.02411331;-26.34365835;19.74394365;-14.59459621;9.644205976;-6.383444149;-5.945535089;1.463722753;11.31948454
26.70282982;11.9234944;17.12030399;0.95958583;-11.95376138;-5.28366808;-7.155701242;-12.53276466;-8.253957341;-0.867292914;-15.83106627;-25.5110453;15.05467588;-24.0292265;-14.52066728;-15.32481845;-9.85736117;0.390614359;9.412272261
32.18540392;18.28204018;21.80470089;-1.319006847;-8.217169544;-4.794173686;-11.37254062;-10.62670444;-7.21256092;-0.845982127;15.91699576;-11.43083153;14.42831163;-26.19284304;-31.82994082;-16.41476807;-9.271173955;5.355585283;10.31391483
35.35738436;24.81898525;28.13296908;0.911998338;-4.476236481;-2.746917056;-4.622680631;-0.702442387;0.651271649;1.494489855;47.0002274;8.606896256;18.238824;-22.73577324;-31.92830304;-6.288336393;-5.916256087;14.04302985;12.53493497
35.60556468;29.11536032;34.36558044;7.492983949;-1.227345688;-0.235901075;8.188537325;10.23792214;10.44441895;4.627403412;60.73042263;23.12320129;23.38586811;-17.50613538;-15.9142187;11.85380413;-2.887778737;21.56505704;13.36190465
33.01741544;28.89829132;37.434662;14.22190397;1.297751;1.477000444;16.1429918;13.33957307;16.19466588;5.373984202;50.7013465;23.66624044;25.53501464;-14.26039347;3.569122613;29.06664246;-2.42807005;23.39828924;10.7469371
28.01826788;23.1237648;34.47321576;15.24385889;2.968248174;1.587132626;11.77885023;4.432836049;14.13011387;1.02039619;23.35837231;9.812331369;22.21302033;-14.7493072;10.95680656;35.40244621;-4.466259212;18.14163015;4.861327102
21.27343377;12.72883958;24.74473055;7.197069286;3.500750889;0.11832665;-2.591580614;-12.83379887;4.365960708;-8.481597073;-7.270682036;-11.20187114;14.40060496;-18.16620943;-0.695483976;26.10898524;-6.832106873;8.335981657;-1.774766037
13.87198195;0.507052699;10.61148601;-7.893758265;2.458341849;-2.124134084;-16.85644959;-29.60389192;-9.631415877;-19.89193317;-28.17951475;-29.52411611;5.56540765;-22.04966884;-23.91919678;5.384525071;-6.852517578;-1.107542871;-5.735188824
7.392919518;-9.966185351;-3.296097394;-23.34993595;-0.386016633;-3.978319418;-21.37282866;-37.92959545;-23.08648759;-28.31586873;-33.5633944;-38.65976734;-0.862753163;-23.89222515;-41.61146319;-15.20508644;-3.133346267;-5.765981974;-4.77468981
3.461549295;-15.84741697;-12.33930104;-31.94439146;-4.606152526;-4.509048809;-14.38644016;-35.61501102;-32.1387999;-30.15832465;-25.62473826;-38.43736528;-3.488843768;-22.42;-39.27079769;-23.31158633;3.664728683;-4.012991721;0.81476985
2.876768693;-16.19222009;-14.19404775;-30.51321626;-9.062932075;-3.458654562;-2.558599287;-26.42783208;-35.17863958;-25.40305601;-11.11941168;-33.54573574;-3.050449229;-17.87994905;-15.71109647;-13.53403476;11.42436291;2.52718826;8.443786615
4.923975844;-12.20182613;-9.821616817;-21.72506137;-12.43369268;-1.344602551;5.321402902;-16.24523;-32.91675932;-17.57364211;3.030223934;-29.37;-1.001250735;-11.39003906;15.76903915;8.834547507;17.94238954;10.36830984;14.83232105
7.560762186;-6.495434593;-2.582914987;-11.77471667;-14.02141062;0.833540172;5.652637251;-8.722067294;-27.45693621;-11.33044085;12.38728985;-28.36738678;1.839340237;-3.983299627;36.6086744;30.90546688;22.05623142;16.25570012;17.8639298
8.601801746;-1.82796125;3.821607586;-5.838268934;-14.21545626;2.112229124;2.130428278;-3.832898198;-20.99975757;-9.361348944;15.40602643;-29.28858605;5.356425836;3.935659484;35.63656812;40.41506829;23.86117546;18.61859069;17.49941471
7.216479509;0.139660344;7.268780387;-4.729518253;-14.17870439;2.02911826;1.325937171;0.272266503;-14.86156736;-10.75737991;12.65191397;-29.19775932;9.178308871;12.39883706;15.85038351;33.6027587;24.10550276;17.73060852;15.31115413
4.655866819;-0.492613072;7.937628707;-5.10298119;-14.93864018;0.799582007;6.179047658;4.479172586;-9.276912203;-11.99377863;5.946618351;-26.32456059;12.0323683;21.19941205;-9.152605593;17.26378993;23.39753133;14.88705072;13.17035413
3.551405645;-2.025324462;7.657348909;-2.712967523;-16.56623088;-0.860649602;13.39318943;7.716376428;-4.006295949;-9.738947366;-2.274955013;-21.55209523;12.42787452;29.33459736;-25.58497223;3.504716331;21.84143349;11.4195571;12.10003906
