Channel 1 - P4;Channel 2 - O2;Channel 3 - P8;Channel 4 - T8;Channel 5 - C4;Channel 6 - Cz;Channel 7 - Fz;Channel 8 - F4;Channel 9 - Fp2;Channel 10 - F8;Channel 11 - Fp1;Channel 12 - F7;Channel 13 - F3;Channel 14 - C3;Channel 15 - T7;Channel 16 - P7;Channel 17 - P3;Channel 18 - O1;Channel 19 - Pz
8.508770;10.494370;0.656751;7.519027;0.531027;1.110594;-17.767890;8.178507;16.862700;9.878149;-1.167819;13.095840;-29.649960;-4.907036;-25.623090;-14.899200;0.552397;-0.295169;-1.539728
-17.049420;-16.837800;-22.484720;-8.352359;-22.987500;0.660790;-42.027940;-18.901030;-12.831550;-14.357800;-36.872370;-17.554820;-77.887280;-10.322110;-26.155980;-27.863930;-16.400020;-17.222830;-19.557680
-32.055060;-33.385500;-35.666890;-21.057630;-33.952440;0.244024;-49.818960;-27.350380;-25.140490;-29.225080;-47.625000;-27.463000;-92.938300;-9.325119;-11.833360;-30.676900;-20.243150;-23.617280;-22.084860
-30.807660;-32.999390;-35.086480;-27.601130;-29.510900;0.305875;-35.936400;-17.761240;-16.539320;-32.046880;-26.182530;-11.847220;-69.377770;-3.339052;7.405731;-22.224550;-8.987424;-17.529680;-8.617465
-17.863970;-19.999610;-24.910770;-28.289800;-16.848020;0.977118;-9.052218;-1.063601;2.075330;-27.414330;13.741950;17.902740;-25.586270;2.651743;20.036240;-7.293533;9.452138;-4.794608;10.849580
-3.675199;-5.037941;-13.417800;-25.613940;-6.917525;1.811014;14.796070;10.064280;15.063670;-22.989190;46.643270;42.867740;10.259960;4.004357;21.596650;6.412798;23.376450;5.531110;23.298160
3.418492;2.821993;-6.939436;-22.030250;-6.168511;2.007344;23.671260;9.423944;14.310150;-23.657100;52.557060;49.868050;19.840450;-0.144575;17.057690;12.875440;25.633540;7.627120;21.884170
2.686922;1.877873;-6.059413;-18.452780;-12.592070;1.029752;17.385560;-0.211995;4.260392;-28.358160;30.284930;39.648000;5.480187;-6.419202;15.341560;11.109220;18.002880;2.570731;10.083420
0.165461;-2.431427;-6.447971;-14.373920;-18.622040;-0.859410;5.885547;-10.880440;-3.535261;-31.663550;-2.583397;24.563760;-14.865410;-9.882467;21.022640;5.235556;8.810773;-3.203550;-1.851316
2.747623;-2.824413;-3.092966;-9.085916;-17.919460;-2.627518;0.398168;-15.656730;-0.834772;-28.499380;-22.266860;18.388630;-23.074210;-7.676623;30.378600;1.343765;6.179399;-3.114192;-4.871911
12.273130;3.980420;5.623503;-2.735273;-10.313880;-3.130333;4.859704;-12.684730;11.014750;-18.213800;-14.673830;26.323580;-14.138630;-0.911032;34.964170;3.235883;12.296780;4.751038;2.703651
24.231040;15.244040;16.946120;3.596134;-1.179593;-1.953245;14.311230;-4.955724;23.655380;-5.016640;16.290610;42.320890;2.378462;6.390105;29.341460;9.850054;22.732840;16.605460;15.123050
31.669290;24.931530;26.079870;8.557159;3.655457;0.204940;20.738840;2.836090;29.863130;5.189168;52.668240;54.723570;12.258760;10.210580;16.167200;16.059300;30.568040;26.009330;24.453280
30.730750;28.396490;29.554640;11.146490;2.842834;1.938541;20.636310;7.500805;29.477380;8.889111;74.637600;55.099560;8.748928;9.057678;4.317251;16.306510;31.536530;28.302210;26.471680
23.258130;25.174980;26.972350;10.823290;0.207210;2.079950;17.550810;8.665768;28.083430;6.899361;72.164520;43.586990;-2.909047;4.420014;1.791232;8.598490;26.210400;23.106930;22.671740
14.668170;18.125710;20.232840;7.376841;0.982333;0.517578;17.677020;8.145643;30.497370;3.088984;49.158270;27.627910;-11.181100;-0.738336;9.491083;-3.929700;18.189290;13.509740;17.537270
9.274385;10.334920;11.488150;1.093217;7.111264;-1.700626;22.863690;8.467885;35.837020;1.308696;19.185060;16.221000;-8.360345;-3.982999;20.986590;-15.047780;10.567840;3.197776;14.106000
7.113040;2.773577;1.826707;-6.731496;15.645810;-3.055418;27.691270;11.509440;39.052400;3.008631;-2.947598;14.534110;3.582220;-4.438616;28.146760;-19.705500;3.908509;-5.894635;11.760490
4.731083;-5.430481;-8.376548;-13.571560;21.370150;-2.556493;23.631590;17.565220;37.195340;7.043239;-8.222262;22.292350;15.653790;-2.475847;27.668300;-17.527230;-2.917532;-13.796020;7.739884
-1.092223;-14.801840;-18.221460;-16.435450;21.131830;-0.376753;6.938054;24.970310;33.770410;11.235040;3.964122;35.730570;19.859080;1.183174;23.134670;-12.958210;-10.396840;-20.978850;0.478228
-10.076240;-23.766460;-25.705770;-13.490940;16.116260;2.275684;-16.608160;30.631180;36.059730;14.073680;27.279360;50.413760;15.442670;5.962957;21.336060;-11.860540;-17.068770;-26.879430;-8.490528
-18.371660;-29.120590;-28.593450;-5.454164;10.338060;3.916316;-34.568060;31.708520;47.128330;15.270240;52.045010;62.645570;8.500815;11.250560;26.396870;-16.975430;-20.500980;-29.869930;-15.698120
-21.567500;-28.366800;-26.028940;4.490695;6.979936;3.654360;-36.485810;27.801290;59.998110;15.176710;69.173750;69.440590;6.110920;16.048100;36.677930;-25.588770;-19.492820;-28.572180;-18.694000
-18.091710;-21.844700;-19.408260;12.458500;5.920752;1.648429;-21.565860;21.990420;60.550950;14.036990;73.485030;68.612430;10.483020;19.115610;46.556780;-31.193270;-15.300230;-23.171210;-17.959020
-10.197840;-12.753850;-11.625590;16.141950;4.495822;-1.056373;0.698299;19.280270;38.339540;11.891480;65.641810;59.952890;17.930470;19.664250;50.907440;-28.014090;-10.658090;-15.486310;-16.067900
-1.948821;-4.992000;-5.235087;15.896040;0.540529;-3.129660;17.412410;22.780560;-3.076345;9.057439;51.811410;46.593250;22.855950;17.987130;48.235890;-15.138330;-7.481411;-7.765451;-14.997030
3.870083;-0.574435;-1.011598;13.822720;-5.205796;-3.617817;21.255320;30.206410;-45.486500;6.440590;40.664590;34.613860;22.746990;15.355230;40.319260;2.714205;-5.366519;-1.311640;-14.160460
7.291539;1.302062;1.965870;11.692560;-9.539013;-2.345640;14.715900;33.865870;-67.059190;5.142414;38.799870;30.094950;19.847810;13.135940;29.697330;18.238230;-2.268579;3.883046;-11.034680
10.117390;2.917739;4.900649;9.512993;-9.626059;0.067305;6.820782;25.187680;-57.412120;5.632751;47.087930;35.196460;18.535830;11.817000;18.051190;26.082720;3.273451;8.310151;-3.823378
13.548970;5.664725;7.835369;5.964425;-5.633268;2.519354;5.544650;1.246495;-25.201040;7.299247;60.316400;46.258710;21.193880;10.751870;6.941906;25.618970;10.409530;11.830080;6.281051
16.776000;8.678669;9.437515;0.243426;-0.764319;3.917804;12.098620;-31.475840;7.909122;8.894813;70.533020;55.807840;26.286330;8.842980;-0.619810;20.229820;16.349250;13.386920;15.376450
17.748030;9.566472;8.163607;-6.453341;1.348297;3.665753;21.180310;-59.531320;22.496500;9.552097;71.974100;57.421450;29.986530;5.580320;-0.548464;14.138550;18.552050;11.857080;19.595730
15.297130;6.559589;3.764362;-11.309610;-0.368580;1.954771;26.174310;-70.269500;14.307830;9.454455;64.388170;50.046950;29.499150;1.560523;9.158188;9.495299;16.841850;7.269835;18.082190
10.587840;0.274516;-2.172360;-11.984970;-3.617529;-0.292316;24.563770;-59.880730;-4.671569;9.528951;52.779460;38.596560;25.041900;-1.928494;24.959950;5.845268;13.617600;1.272037;13.719120
6.531631;-6.383236;-7.116011;-8.666193;-4.725624;-1.860231;19.282000;-36.023940;-17.063230;10.423970;44.095720;30.377060;19.056890;-3.881202;37.817940;1.879487;11.982200;-3.658511;10.986450
5.640573;-10.138310;-9.225688;-4.209702;-1.678933;-1.888848;15.535770;-12.989600;-13.758640;11.714650;43.215730;29.993490;13.837500;-4.296874;38.149080;-2.516903;13.368720;-5.697140;12.650390
8.146009;-9.636470;-8.475924;-2.080475;4.355726;-0.384885;16.299950;-2.685966;0.246242;12.093730;50.552240;36.383200;9.937091;-4.105231;22.745950;-5.888561;16.595350;-4.736046;17.860480
11.928350;-6.390327;-6.498030;-3.717085;10.153820;1.734871;20.271340;-7.715371;11.564220;10.407990;62.128840;43.889920;6.605129;-4.431254;-1.730349;-6.710684;19.001300;-2.270359;22.999770
14.223250;-3.679791;-5.368905;-7.537372;13.044010;3.152728;23.530540;-21.139100;10.025920;6.617546;71.539390;46.275760;3.393731;-5.824667;-22.096030;-5.134258;18.587770;-0.274565;24.435540
13.617370;-4.190466;-6.288330;-10.468670;12.705850;2.940031;23.014070;-32.529970;-3.598604;1.817300;72.715310;40.651640;1.063834;-7.998293;-27.068310;-3.118493;15.396430;0.057572;20.980990
10.746960;-8.043557;-9.003111;-10.731640;10.762030;1.139565;18.798370;-35.457910;-19.485230;-2.679884;62.648450;28.777380;0.836732;-10.124750;-14.802390;-2.668239;11.188730;-1.129773;14.369770
7.342208;-12.571160;-12.167870;-9.482204;8.807750;-1.246156;13.683130;-30.982660;-27.643110;-6.335116;43.306640;15.370400;2.829187;-11.324960;6.063701;-3.799213;7.982488;-2.707123;7.757100
4.657720;-14.000460;-14.198730;-9.837837;6.827359;-2.869197;10.933670;-25.231330;-25.766720;-9.529636;21.714200;5.094676;5.373151;-10.986080;22.631490;-4.285738;6.813308;-3.387665;3.680242
2.686892;-9.960519;-14.031350;-14.047030;3.426709;-2.860836;12.179010;-23.742620;-19.713630;-12.761870;7.319252;0.340707;6.056977;-8.865034;26.517630;-1.712206;7.610115;-2.426307;2.971181
0.673956;-1.206156;-11.486280;-21.208990;-2.462980;-1.335978;16.734940;-27.334780;-17.087410;-15.728650;7.112389;0.799118;3.635481;-5.169879;18.711260;3.836872;9.904734;0.118801;5.022496
-1.785018;8.556073;-7.278945;-27.570710;-10.113480;0.729148;22.168210;-32.427450;-20.196340;-17.282910;21.002940;4.392508;-0.906799;-0.707817;7.342925;8.959543;13.395190;3.495051;8.685133
-4.199857;14.691620;-2.791626;-29.287250;-17.196970;2.129594;25.247480;-34.840180;-24.598100;-16.442070;40.877350;8.531494;-5.090645;3.106657;0.765289;9.113522;17.755850;6.547604;12.865530
-5.682207;14.333420;0.383614;-25.413770;-21.500030;2.139118;22.889260;-33.424870;-24.024340;-13.548060;55.010060;11.060200;-6.800996;4.684516;1.671243;2.349289;22.062100;8.126298;16.558200
-5.893856;8.140221;1.135753;-18.615380;-22.582970;0.854967;13.338470;-30.493190;-16.757460;-10.369300;55.651350;10.903250;-5.646471;3.120880;6.563732;-8.392128;24.734180;7.614684;18.770690
-5.430311;0.039704;-0.451785;-12.924340;-21.864720;-0.971346;-2.406453;-29.056590;-7.499450;-8.773196;44.540330;8.560818;-2.761374;-1.028117;10.209710;-16.526310;24.429550;5.441151;18.829860
-5.208985;-4.924085;-2.821170;-10.340910;-21.069110;-2.425854;-19.842170;-29.644090;-3.080771;-8.928393;31.752770;6.214405;0.539773;-5.731886;10.765530;-16.008200;21.274240;3.208729;16.950830
-5.443035;-3.365769;-3.478972;-9.105787;-20.485750;-2.898952;-32.179240;-29.621000;-5.981590;-8.638009;27.954060;6.958579;3.881588;-8.490977;11.173940;-5.466307;17.261600;3.115291;14.425020
-5.233902;4.702107;-0.251184;-5.168840;-18.687530;-2.283182;-33.716410;-25.564500;-11.592640;-4.678524;35.510730;13.101870;7.735237;-7.845183;15.952370;10.769360;15.191570;6.769807;12.966020
-3.263283;16.163600;7.431947;4.232300;-14.026410;-0.892370;-23.564270;-16.540190;-11.823580;4.605121;45.526400;24.360930;12.395400;-4.374794;26.447070;25.485930;16.767070;14.065830;13.527780
0.982370;26.822100;18.078750;17.765710;-6.581358;0.743070;-6.893366;-5.392882;-2.092203;17.410000;43.822040;37.266980;17.190080;-0.437087;38.751800;33.141600;21.301530;22.944870;15.525830
6.578657;33.761600;28.887910;30.346400;1.259156;2.057831;7.805563;3.077922;14.243760;28.969920;21.909360;46.563500;20.769190;1.252614;46.087640;32.908200;26.125480;30.398880;17.196380
11.766890;36.539220;37.267420;36.557540;6.270442;2.581271;13.975600;5.555148;27.838130;34.413170;-15.363110;48.030020;22.185550;-0.742854;43.736490;28.332130;28.459510;34.194410;16.917430
15.334560;36.626740;42.136520;34.628330;6.827834;2.066788;11.045730;2.489020;30.224300;32.100460;-51.740890;41.026880;21.684410;-5.808806;32.675450;24.378720;27.346480;34.207960;14.478690
17.577740;35.801750;44.203150;27.921450;4.317624;0.633745;4.186532;-2.470584;20.150300;25.012090;-70.080970;29.076150;20.420150;-11.799470;19.236360;24.353630;24.197300;32.450260;11.283480
19.969500;34.866590;45.168990;22.714140;2.304792;-1.170537;-0.046462;-5.237553;4.473980;19.031190;-63.712640;18.041850;19.383780;-16.372390;11.185920;28.772340;21.620100;31.742390;9.323955
23.772690;33.646620;46.552800;23.833670;4.030564;-2.518374;1.319747;-3.962581;-6.869694;19.183150;-40.150680;13.045630;18.581500;-18.182460;13.067840;36.305230;21.522200;33.938450;9.753524
28.767860;32.051890;48.968440;31.309050;10.129660;-2.679125;6.084656;0.320496;-7.763809;26.395670;-14.663770;16.002520;17.226090;-17.252050;23.796000;45.282730;23.921710;38.867540;12.151250
33.189560;31.040740;52.187360;40.438580;18.237910;-1.454451;9.748013;5.170370;0.497853;37.004790;0.877528;25.104980;14.700190;-14.534710;37.640060;54.248900;27.197260;44.602750;14.939140
34.937530;32.392350;55.639480;45.165190;24.647690;0.613323;10.068010;8.766577;11.162720;45.288140;5.049910;36.236980;11.329150;-11.212200;47.558550;61.452350;29.333290;48.720950;16.474200
33.050730;37.248090;58.750450;42.290790;26.643720;2.454716;9.071262;10.778870;17.449020;47.193510;4.830198;45.187480;8.251249;-8.239727;48.778600;64.461350;29.086100;49.619380;15.911070
28.240350;44.565930;60.857110;33.559840;23.821330;3.042772;10.612200;11.672310;17.124980;42.682640;7.190442;49.352590;6.592435;-6.236867;40.871220;60.996690;26.329410;47.099870;13.315460
22.124650;50.939630;61.009060;24.275470;17.691060;1.998229;15.719110;11.501880;13.145440;35.222700;12.160620;48.273500;6.790891;-5.481643;27.623740;50.707200;21.681940;42.098090;9.252516
15.930840;52.326330;58.176490;19.602060;10.258500;-0.148999;20.224420;9.566725;10.571990;29.046670;13.416970;43.190810;8.647245;-5.812555;14.997820;36.346180;16.043420;36.027170;4.446957
9.834905;46.734900;51.998500;21.237010;2.875413;-2.225612;17.395940;5.294855;12.611420;26.313260;5.518348;36.200350;11.835080;-6.552309;8.129720;22.961830;10.458450;30.277810;-0.188713
3.455531;35.998830;43.554790;26.686090;-3.887351;-3.065998;3.843278;-0.574001;18.700760;26.170290;-9.103345;29.475410;16.124960;-6.735049;8.736520;15.284350;6.137108;26.031610;-3.446569
-3.086567;25.169870;35.357060;31.404640;-9.655774;-2.167180;-16.276750;-5.816785;25.543520;26.161860;-20.160170;24.708160;20.993900;-5.699826;14.311980;15.107480;4.182569;24.152920;-4.129185
-8.675813;19.623350;30.200230;32.067610;-13.842530;0.032783;-32.789720;-7.988616;29.761900;24.655860;-17.139870;22.765390;25.161850;-3.687467;19.789300;20.626760;4.932465;24.917630;-1.824213
-11.880770;21.605780;29.424740;28.609980;-15.932240;2.402316;-36.218270;-6.200231;30.034700;22.316460;1.671541;23.590400;26.915140;-1.893487;20.918160;28.171850;7.429266;27.684800;2.450447
-12.274220;28.513650;31.793410;23.763360;-16.129510;3.733824;-24.681350;-1.918428;27.458080;21.516980;26.568100;26.407370;25.354290;-1.757096;17.242540;34.839180;9.698206;30.916140;6.485887
-11.151160;34.219930;33.971010;20.701900;-15.564870;3.381423;-5.489802;1.980766;24.350020;24.240220;42.875060;30.153880;21.572570;-3.896543;12.468380;39.878720;9.932294;32.822620;8.136780
-10.804490;32.842530;32.546850;20.695250;-15.627740;1.583646;9.999413;3.255184;22.624460;30.166980;41.632140;33.887380;18.444650;-7.490962;11.672440;43.890930;7.818902;32.403710;6.795432
-12.751630;22.702890;26.376600;22.471310;-16.860200;-0.676671;14.374520;1.867688;22.776470;36.467370;26.084780;36.915190;18.744100;-10.663830;17.247830;46.881840;4.915113;30.181070;3.912734
-16.322230;7.931272;17.624140;23.567690;-18.369160;-2.183182;8.878179;-0.124047;23.862210;39.486460;8.885568;38.652910;22.915310;-11.679710;26.752500;47.227490;3.603549;27.983450;2.009749
-18.890840;-3.511670;10.636170;22.431730;-18.372140;-2.104774;1.404764;-0.235007;24.250610;37.094890;2.330135;38.501170;28.456710;-10.112950;34.603550;42.712350;5.298028;27.764640;2.807179
-17.783520;-4.448678;9.229899;19.560040;-15.546840;-0.422621;-0.272917;2.555047;22.647740;30.018520;9.339385;36.037900;31.711880;-7.132733;36.514520;32.818520;9.260229;30.187490;5.871753
-12.487250;6.952647;14.124380;16.853570;-10.131300;2.039335;5.522280;7.131592;18.870690;21.260310;21.984540;31.485890;30.759560;-4.704390;33.111560;20.147350;12.993270;33.977470;8.847234
-5.411415;25.542980;22.260420;15.855480;-3.869922;4.004830;13.782600;11.213790;13.961720;14.128000;28.163780;26.029660;26.941060;-4.307514;29.518730;9.452460;13.965760;36.576890;9.125040
-0.468445;41.740380;28.563820;16.432970;1.178377;4.384000;17.605950;13.078420;9.520789;10.318770;20.802760;21.524150;23.584530;-6.082289;30.891380;4.778556;11.373320;35.727250;5.692069
-0.406548;46.976460;29.081720;17.041200;4.028533;2.853782;14.071680;12.639950;6.605558;9.332146;2.572984;19.577100;22.955840;-8.920365;37.420380;6.879802;6.626693;30.933770;-0.217879
-4.840030;38.802750;23.465380;16.317500;5.258798;0.073878;6.376182;11.122270;4.954515;9.405754;-16.764020;20.562200;24.188910;-11.284250;43.170350;12.947170;2.269218;23.824580;-6.074904
-10.467090;22.403610;15.155750;14.553780;6.247395;-2.607523;0.810778;9.761702;3.218943;9.067272;-27.467620;23.311280;24.216150;-12.077900;40.256320;18.801200;0.223619;17.168300;-9.780646
-13.362920;7.383423;9.126587;13.625540;7.818527;-3.840192;1.456057;8.739314;0.198092;8.091257;-25.682870;25.807440;20.994020;-11.022220;25.432210;21.712610;0.681851;13.215350;-10.849610
-11.701900;1.742251;8.660826;15.262890;9.416526;-2.999179;7.079647;7.253402;-3.809209;7.285513;-14.330310;26.452460;16.016530;-8.502595;3.820687;21.611230;2.316476;12.448530;-10.295360
-6.956474;6.927052;13.285810;19.081660;9.470477;-0.545232;12.563390;4.599163;-6.724191;7.516200;0.301523;25.019520;13.487020;-5.246204;-13.596610;19.950550;3.418844;13.505100;-9.554766
-2.757477;17.277460;19.218350;22.216150;6.640239;2.207883;13.335440;1.229497;-5.965534;8.905405;12.667640;22.623600;16.500300;-2.139417;-17.289150;17.559180;2.970678;14.231150;-9.443766
-2.304985;24.266530;21.982470;21.216430;0.944050;3.810257;9.023235;-1.214874;-0.497628;10.834080;19.802300;20.786240;23.598880;-0.149469;-5.927961;13.612950;0.944312;13.116210;-9.895222
-6.218119;22.585040;19.402870;14.941830;-6.108240;3.475456;3.537149;-1.018564;7.937763;12.596950;20.750710;20.339380;29.209350;-0.095483;12.558490;6.716649;-2.086477;10.186050;-10.423210
-12.304570;13.739200;12.946190;6.093645;-12.452780;1.499783;1.880343;2.252529;15.539330;13.998650;15.570580;20.975180;28.232720;-2.184436;26.460390;-2.954580;-5.424046;6.854285;-10.669650
-17.283570;4.559543;6.541294;-0.170595;-16.742390;-0.941418;6.435517;7.310510;18.775680;15.315660;5.459214;21.683680;21.083770;-5.618661;28.163170;-12.593140;-8.375304;4.918474;-10.508220
-19.116850;1.732935;3.756037;0.132612;-19.011840;-2.490827;15.453740;12.043860;16.665140;16.707360;-6.469590;21.618400;14.404430;-8.749411;18.608730;-18.049560;-10.157740;5.382320;-9.784854
-18.278300;6.470086;5.324273;6.557607;-20.320910;-2.378518;24.392070;15.056330;11.300860;17.713150;-15.488670;20.661960;15.920140;-9.926328;5.388481;-16.666640;-10.027740;7.821528;-8.199687
-17.175040;13.396670;8.725447;13.978460;-21.749180;-0.814046;28.630870;16.584350;6.251067;17.406820;-17.453580;19.304430;27.068400;-8.584634;-3.502504;-9.381305;-7.798568;10.625850;-5.643442
-18.289560;14.610100;10.042900;15.850970;-23.555220;1.203204;25.605460;18.024650;4.101802;15.151960;-11.566600;18.058160;39.676680;-5.762517;-5.159014;-0.287976;-4.340300;11.917950;-2.705250
-22.435490;5.892257;6.729902;8.792335;-25.102420;2.504967;15.468810;20.468710;4.999174;11.293220;-1.289639;16.987060;40.409370;-3.538442;-2.566782;6.096600;-1.427179;10.584730;-0.715292
-28.284170;-9.658218;-0.668596;-4.875153;-25.511500;2.416129;0.692081;23.506460;7.127770;7.103029;7.774132;15.758710;20.557030;-3.666556;-0.883000;7.740564;-0.752892;6.838554;-1.006650
-33.314360;-23.421490;-8.972129;-18.573550;-24.448720;1.079843;-14.682370;25.374870;8.459077;3.928919;11.638380;14.129490;-16.087500;-6.351061;-2.869526;5.932978;-2.723192;2.027405;-3.840090
-35.369930;-27.225050;-14.555190;-25.915070;-22.404710;-0.700212;-26.003810;24.406120;8.195835;2.209654;10.405330;12.392480;-53.809440;-10.067420;-7.256477;3.550892;-6.010377;-2.154279;-7.914347
-33.753710;-19.068920;-15.659070;-24.906420;-20.261320;-1.957855;-29.484620;20.593790;6.839191;1.193920;7.514632;11.358890;-74.426240;-12.587650;-10.796520;2.370780;-8.373376;-4.580884;-11.051860
-29.303820;-4.415744;-13.266220;-18.898130;-18.514790;-2.091844;-24.011060;15.920760;5.161803;-0.375403;6.527822;11.837950;-69.142340;-12.472430;-11.516170;1.728375;-8.234146;-5.221925;-11.698630
-23.681480;7.743554;-10.126060;-13.768060;-16.787720;-1.141560;-12.226420;13.072960;3.305279;-3.173827;8.221628;13.983330;-44.199280;-9.960378;-10.014430;-0.441553;-5.812699;-5.012826;-10.107980
-18.527750;10.946130;-8.835016;-13.626660;-14.037880;0.294212;0.337828;13.511090;0.917259;-6.720624;10.339570;16.980060;-16.204390;-6.669139;-7.922802;-5.248445;-2.900791;-5.190466;-8.207512
-14.984580;4.968012;-10.379940;-18.252510;-9.342754;1.403516;8.137413;16.449670;-1.927541;-9.788043;9.945987;19.311210;-0.706538;-4.421723;-5.509739;-11.338480;-1.426179;-6.510129;-8.148654
-13.596960;-5.181460;-13.980490;-23.891270;-2.699169;1.570159;8.846086;19.575010;-4.141632;-11.404410;6.137138;19.472590;-2.462893;-4.108875;-1.159671;-15.598870;-1.947444;-8.796867;-10.612360
-14.304060;-13.620320;-17.991670;-26.373540;4.753328;0.651724;4.623682;20.894220;-4.196922;-11.549390;0.783282;16.749520;-14.168240;-5.359806;6.553720;-15.471510;-3.283056;-11.055270;-14.188650
-16.339490;-17.606920;-20.948880;-23.914880;11.276830;-0.976870;0.332637;20.163410;-1.498839;-10.943220;-3.094400;11.654150;-23.708700;-7.098994;16.263350;-10.876040;-3.548595;-12.025910;-16.330090
-18.212050;-18.282100;-22.017320;-17.619180;15.492590;-2.608405;-0.074509;18.724870;2.706533;-10.184650;-3.649609;5.803129;-23.687150;-8.418221;23.566170;-4.111983;-1.727927;-10.846710;-15.152420
-18.104760;-18.218800;-20.838500;-9.847153;17.094830;-3.526154;3.710786;17.986110;5.884750;-9.115520;-1.227900;1.279033;-15.918590;-9.086597;23.993960;2.106098;1.503039;-7.474581;-10.717860
-14.764300;-18.436240;-17.315150;-2.302612;16.828380;-3.329003;8.533356;17.979900;5.943336;-7.091910;2.460231;-0.245133;-8.239967;-9.451519;16.929030;6.702058;4.325374;-2.708107;-4.888281
-8.438909;-17.600040;-11.761540;4.454572;15.764010;-2.122499;10.571150;17.367330;2.746045;-3.969537;5.822802;1.782969;-7.204494;-10.007160;6.907145;10.556150;5.184678;2.127347;0.023853
-1.140235;-13.856650;-5.259712;10.013690;14.419010;-0.485579;8.403921;14.911390;-1.878172;-0.852777;8.026262;6.591525;-12.972050;-11.073620;0.671572;14.836740;3.886666;5.649181;2.698363
4.193776;-7.295437;0.353569;13.095250;12.392880;0.787391;3.954442;11.030510;-5.641793;0.256781;8.522648;12.484890;-20.125380;-12.771840;1.982978;18.921550;1.557033;6.866529;3.298440
5.300438;-0.564128;3.218872;11.918790;8.808966;1.062789;0.799910;7.859860;-7.512614;-2.150149;6.544904;17.616390;-22.873190;-15.122200;8.400542;19.966170;-0.361255;5.497296;2.840639
1.972350;3.021880;2.557013;5.847638;3.236559;0.183696;1.483310;7.559931;-8.167208;-7.709708;1.643971;20.699340;-19.733860;-18.009700;12.956980;14.848960;-1.137130;2.083400;2.174011
-3.753248;2.177823;-0.711174;-3.283315;-3.626197;-1.439925;6.001105;10.299540;-8.874810;-14.008290;-5.026999;21.303940;-13.899000;-21.000920;9.739302;3.148674;-0.971603;-2.153570;1.479217
-8.802703;-1.293476;-4.453431;-11.716180;-10.084420;-3.025848;12.307190;13.834290;-9.933813;-17.917530;-10.216110;19.711200;-9.633108;-23.277380;-0.949135;-11.283970;-0.382601;-5.731956;0.586780
-10.895000;-4.047219;-6.697708;-16.130340;-14.370230;-3.807888;17.858270;15.307980;-10.182290;-17.531340;-10.047430;16.600810;-8.411544;-23.933840;-12.090550;-21.756400;0.517986;-7.505569;-0.380725
-9.757267;-3.978218;-6.900770;-15.995030;-15.722560;-3.418785;20.642870;13.852370;-8.098042;-13.280670;-2.824372;12.871870;-8.238441;-22.551690;-14.798920;-22.563650;2.098913;-7.194118;-0.796175
-6.937838;-1.814818;-6.147070;-13.875100;-14.837200;-2.068929;19.168450;11.606840;-3.501281;-7.443003;9.073449;9.618355;-6.317545;-19.615010;-4.957412;-12.730500;4.564768;-5.556949;-0.025998
-4.458060;-0.223762;-6.145758;-13.287780;-13.346380;-0.432904;12.279610;11.964340;1.754390;-2.527972;20.104380;7.994455;-2.162126;-16.353610;13.400210;2.945799;7.263312;-4.048532;1.815046
-3.370715;-1.352494;-7.856812;-15.818080;-12.697930;0.688843;-0.132504;16.331890;4.879725;0.163415;24.985680;8.748804;1.907266;-14.020350;30.556790;16.405540;8.724611;-4.069159;3.617121
-3.280577;-5.040035;-10.845730;-19.897950;-13.236290;0.755418;-15.760300;22.311760;4.240165;0.808523;22.117190;11.612470;3.212381;-13.095760;37.571670;20.860670;7.577326;-6.184015;3.900192
-3.060866;-9.185066;-13.809510;-22.255640;-14.108970;-0.269433;-29.465200;25.322240;0.727114;0.262360;14.354650;15.111510;1.572978;-13.025590;31.940790;14.496220;3.673299;-9.749498;1.911889
-2.045047;-11.738560;-15.712570;-20.736500;-13.983980;-1.916362;-35.227100;22.744800;-2.749666;-0.830802;6.630986;17.261100;-0.310322;-12.704990;18.464440;1.090082;-1.518235;-13.191750;-1.658640
-0.657532;-12.384660;-16.501790;-16.020630;-11.978830;-3.436854;-29.865550;17.114280;-3.275282;-2.148815;2.507222;16.908410;0.608226;-11.338840;5.096121;-12.642020;-5.660714;-14.829260;-4.963915
0.000072;-12.435910;-16.832940;-10.784530;-8.123445;-4.145314;-15.857660;15.079280;0.112780;-3.116336;2.439808;14.749490;4.665362;-9.020610;-2.757555;-21.098770;-6.969743;-13.821100;-6.141624
-0.834283;-13.265090;-17.191220;-7.175971;-3.133011;-3.728545;-0.568979;22.099130;5.946800;-2.561339;4.781438;13.002450;8.878616;-6.622201;-5.199392;-22.630880;-5.302851;-10.730190;-4.529672
-2.902507;-14.963610;-17.340970;-5.000406;2.160556;-2.394977;8.242250;36.688650;11.494810;0.636297;7.992679;13.644840;9.490060;-5.151401;-6.256943;-19.542190;-2.168327;-7.367795;-1.109887
-5.174812;-16.556800;-16.677830;-2.341539;7.167139;-0.796495;7.611148;49.182180;14.492460;6.206988;11.647850;16.412040;5.405717;-5.126090;-9.558858;-15.594700;0.305549;-5.941098;2.109393
-6.754194;-17.421560;-15.122890;1.965678;11.444420;0.260025;1.217111;47.065990;14.155630;11.729280;15.384760;18.292540;-0.644478;-6.417253;-14.977130;-12.966650;0.696219;-7.890326;3.343450
-7.561769;-18.248080;-13.589240;6.425558;14.410010;0.203173;-3.752371;23.839360;11.033790;13.543840;17.365380;15.361310;-4.385373;-8.549808;-18.810080;-10.842670;-0.949654;-13.001040;2.112122
-8.141798;-20.313710;-13.390450;7.573591;15.326790;-0.986378;-2.375487;-14.934660;6.261296;9.106450;14.570280;5.943546;-3.739793;-11.061770;-17.062590;-6.568391;-3.297083;-19.300230;-0.481248
-8.776152;-23.640740;-14.986790;2.949406;13.739100;-2.708982;4.220969;-53.354950;1.012199;-0.880740;5.410055;-7.267389;-0.668378;-13.556830;-8.971126;1.558590;-4.596930;-23.891780;-2.387313
-8.813188;-26.006960;-17.231780;-6.223780;10.020770;-4.007871;10.166350;-74.261190;-3.607909;-12.401710;-7.602769;-18.119820;0.617428;-15.483210;2.065020;12.004090;-3.663833;-24.393800;-1.776726
-7.006482;-24.256550;-18.004540;-15.264760;5.458918;-4.067805;10.116790;-69.762020;-6.646592;-20.541760;-18.188210;-20.797250;-2.446311;-16.025820;10.761620;20.078980;-0.458210;-20.253250;1.882948
-2.754270;-17.204990;-15.930680;-19.387490;1.614990;-2.699739;3.996310;-45.965290;-7.759969;-22.813930;-20.388940;-14.009100;-8.221823;-14.440990;13.518710;20.605060;3.908681;-13.184190;7.376094
2.799096;-7.609004;-11.814630;-17.582640;-0.658014;-0.522618;-2.871383;-18.641970;-7.785206;-20.917330;-13.547270;-2.439964;-12.003730;-10.715120;10.501740;11.472600;7.653961;-6.393847;12.159300
6.926955;-1.046241;-8.444287;-13.690500;-1.770231;1.308737;-4.374038;-2.964920;-8.677285;-19.489190;-3.786504;5.916034;-9.977031;-6.000030;4.799899;-4.421519;9.071016;-2.946172;13.516200
6.937582;-2.067996;-8.676559;-13.484790;-3.000283;1.721927;1.025347;-4.519260;-12.399620;-22.680050;-0.033269;4.905634;-2.638455;-2.301876;-0.421580;-20.409850;7.287882;-4.161607;9.947636
2.182630;-10.539760;-13.180850;-19.930390;-5.375433;0.354999;8.869628;-17.510470;-19.366330;-31.086960;-7.255185;-5.734992;5.280270;-1.429407;-4.381850;-29.848200;2.743436;-8.984393;2.100688
-5.106629;-21.302710;-19.642430;-30.467580;-8.684959;-2.184668;12.537270;-30.620400;-27.738060;-41.326020;-22.407360;-20.333860;8.403093;-3.837274;-8.837500;-29.975620;-2.883661;-14.685450;-7.331627
-10.965190;-27.737060;-24.169100;-38.674880;-11.448220;-4.614444;9.031377;-35.541030;-34.428750;-48.488930;-36.764960;-31.237050;4.881106;-8.197786;-15.948120;-23.191590;-7.360638;-18.443700;-14.813830
-12.148060;-26.536770;-23.915780;-39.119960;-11.932190;-5.678611;1.660796;-31.866450;-37.277740;-49.537250;-43.024580;-33.838370;-2.240315;-12.091120;-25.706160;-14.891180;-8.922811;-18.811240;-17.699310
-8.173434;-19.863260;-18.958670;-31.553250;-9.466930;-4.855001;-2.800393;-25.436500;-36.672840;-45.085210;-41.235900;-29.069690;-7.482094;-13.426210;-35.098860;-9.492556;-7.083728;-16.196030;-15.520150
-1.496790;-13.152290;-12.041160;-21.076330;-5.039492;-2.645185;-0.058726;-22.419790;-35.140260;-38.429750;-38.255250;-21.785550;-7.131232;-11.676480;-39.777490;-7.612406;-2.747440;-12.200490;-10.060710
4.251471;-10.493590;-6.495767;-14.166800;-0.694317;-0.272603;7.855292;-24.291640;-35.047760;-32.885490;-40.845110;-16.617380;-1.827190;-8.131933;-37.022200;-6.427081;2.434981;-8.421543;-4.176343
6.605063;-11.545850;-4.031877;-13.780990;1.803332;1.029340;14.306540;-27.449490;-36.283710;-29.664410;-48.305090;-14.639270;4.313628;-5.036884;-27.745480;-2.745268;7.016538;-5.593312;-0.126790
5.481289;-12.563680;-4.044242;-17.433060;2.026415;0.712485;13.955710;-27.070820;-36.023910;-27.828170;-51.488640;-13.275330;7.035885;-4.204168;-15.970170;3.833520;10.378370;-3.566868;1.508296
2.572241;-10.459440;-4.736008;-19.649070;0.909603;-0.813891;7.715053;-21.501130;-31.084380;-25.971240;-39.982070;-9.157728;4.966800;-5.977835;-6.122822;10.343530;12.686320;-1.918409;1.711051
-0.334314;-6.108359;-4.863547;-16.639660;-0.180394;-2.474238;2.297285;-13.502210;-21.120170;-23.912280;-12.090980;-1.370598;0.143060;-9.117733;-0.154884;12.968010;14.373940;-0.533888;1.951158
-2.608667;-3.772743;-4.554642;-9.360256;-0.521307;-3.183647;4.486952;-7.689564;-9.969058;-22.893540;20.829600;7.548413;-3.925299;-11.575050;3.335706;10.512930;15.670210;0.333629;3.036207
-4.662304;-7.041427;-4.652258;-2.618747;-0.421405;-2.472305;14.874390;-6.693029;-3.700749;-24.279390;40.255540;13.458460;-4.792704;-11.641720;7.313176;5.792946;16.542250;0.477062;4.702592
-6.813304;-14.945680;-5.429633;-1.177804;-0.718263;-0.726112;26.438940;-9.347929;-6.518336;-28.097560;33.049020;13.620920;-2.304581;-8.845055;13.230250;3.545622;16.968130;0.112112;6.097438
-8.379017;-21.952500;-6.041551;-6.110620;-1.929435;1.062948;29.430780;-12.185440;-17.499320;-32.799450;1.416127;8.445810;1.960843;-4.184257;19.113690;6.436935;17.134580;-0.224456;6.605149
-7.963399;-22.194850;-5.287283;-14.200900;-3.809151;1.862396;18.777050;-12.615800;-30.714580;-36.397770;-37.540030;0.847560;6.059668;0.343211;20.462920;12.495810;17.277030;-0.191856;6.300762
-4.737167;-14.459280;-2.933286;-20.532100;-5.624349;1.153019;-1.877294;-10.961270;-38.808990;-37.864020;-62.746220;-5.911629;8.630575;2.685906;13.522080;16.329590;17.315970;-0.053226;5.747777
0.487193;-3.550586;-0.236077;-21.928170;-6.802152;-0.816209;-22.645270;-9.762434;-37.570970;-37.514470;-62.713220;-10.012800;9.050812;1.744454;-1.373672;13.405320;16.744880;-0.490594;5.463929
5.494903;3.381645;0.991948;-18.583250;-7.314555;-3.175498;-34.298510;-11.240810;-28.336670;-36.168500;-42.003240;-11.326600;7.299197;-2.013418;-18.896900;4.026396;15.047270;-1.887170;5.607704
8.205254;2.621117;0.044226;-13.056260;-7.479558;-4.878504;-34.136200;-15.266180;-16.733010;-34.073690;-16.466110;-10.483300;4.030097;-6.672976;-31.166420;-6.335450;12.382260;-3.703325;6.123811
8.296946;-3.107384;-1.807799;-8.005553;-7.445451;-5.209466;-26.551300;-19.516610;-8.900584;-30.781230;-1.538475;-8.041238;0.677356;-9.773905;-32.109530;-10.861820;9.887757;-4.612606;7.072272
7.521881;-7.031942;-2.163609;-4.707671;-6.926226;-4.113797;-18.537790;-21.500600;-7.931129;-26.135530;-2.556704;-4.558911;-1.016295;-9.616625;-20.994620;-6.485943;9.140795;-3.468547;8.672452
8.330720;-4.181773;0.502704;-3.213641;-5.494314;-2.209859;-14.303750;-20.576030;-12.744610;-21.306460;-13.581740;-1.163117;-0.173592;-6.274320;-2.937092;3.748752;11.011500;-0.411169;10.918090
11.840800;4.244731;5.345825;-3.308066;-3.166415;-0.485474;-13.301260;-18.291060;-19.648970;-18.579750;-24.154100;0.446027;2.166551;-1.658134;13.837140;12.964010;14.773190;2.834349;13.145090
16.779690;11.718010;9.507783;-4.898041;-0.684777;0.180542;-12.565290;-16.943240;-25.019010;-19.729100;-27.620700;-0.981730;3.297937;1.519507;22.217050;15.549250;18.289510;3.876410;14.120750
20.302320;11.746210;10.169490;-7.445250;0.868774;-0.548446;-10.491450;-17.727060;-27.161980;-24.246850;-24.563290;-4.966750;0.695109;1.342663;19.499510;11.041110;19.326800;1.250900;12.824710
20.088300;3.271283;6.699751;-9.397303;0.879234;-2.289220;-8.347706;-19.993120;-26.473100;-29.117900;-19.812020;-9.113824;-5.730240;-2.116616;8.193184;3.804554;17.117870;-4.451493;9.417141
16.095540;-8.398543;1.183653;-8.784019;-0.254138;-4.119236;-8.382336;-22.016690;-24.352960;-30.672430;-16.924880;-10.582990;-12.868450;-6.790488;-5.658724;-0.965384;13.002500;-10.794560;5.555213
10.615200;-15.806800;-3.083425;-4.916939;-1.351655;-5.046517;-10.781180;-22.395130;-21.990820;-27.257640;-15.386610;-8.245310;-16.120490;-9.833101;-15.463010;-1.419910;9.593460;-14.948240;3.598064
6.611929;-15.108830;-3.921039;0.315231;-1.349593;-4.541529;-12.769890;-20.865860;-19.785130;-20.606550;-12.508850;-3.713233;-12.568700;-9.308075;-16.943370;0.063997;9.012564;-15.380300;5.094954
5.651690;-8.634440;-1.602735;3.154277;-0.160264;-2.848038;-10.971030;-18.082590;-17.459860;-14.702620;-7.461744;-0.201123;-3.234679;-5.288218;-9.863523;-0.194930;11.449780;-12.641330;9.597336
6.976117;-2.401527;1.699812;0.671772;1.212236;-0.886777;-4.848050;-14.873020;-14.521830;-12.946150;-3.142590;0.000161;7.416996;0.281538;1.906369;-3.287250;15.058910;-8.805976;14.709920
8.323677;-1.019414;3.715063;-6.521624;1.420624;0.220131;2.173941;-11.801410;-10.750170;-15.834670;-3.940987;-2.643669;14.444230;4.786175;12.068500;-6.472329;17.210450;-6.104019;17.445340
7.743677;-4.391478;3.573099;-13.986260;-0.190578;-0.241514;5.303413;-9.315532;-6.576937;-20.946950;-11.453250;-5.374959;15.598480;6.385455;14.877430;-5.790007;16.162200;-5.746484;16.010560
4.976750;-8.719941;1.938142;-16.279110;-3.067151;-2.170491;2.614239;-8.030272;-3.202608;-25.101450;-22.139800;-5.571682;12.302480;4.828094;8.235160;-0.186515;12.002960;-7.619280;10.846800
1.445674;-10.413260;-0.010513;-10.984680;-5.821593;-4.678696;-2.891947;-8.556591;-2.201681;-26.779820;-29.190950;-3.054580;7.886376;1.278283;-4.809886;6.691444;6.361700;-10.755750;4.285480
-0.961092;-9.132201;-1.620424;-0.801624;-7.172175;-6.548153;-5.500906;-10.846340;-4.562113;-26.792030;-27.194610;-0.218998;4.789378;-2.544437;-17.447840;8.954348;1.281751;-13.989110;-0.866500
-1.270781;-7.375411;-2.928459;8.126300;-6.711704;-6.867069;-1.660511;-13.683670;-9.634174;-26.792300;-15.891440;0.188757;3.151984;-5.276950;-23.061450;3.338124;-1.873126;-16.301730;-2.850462
0.032145;-7.430190;-4.066691;10.502020;-4.984036;-5.497132;6.583295;-15.006360;-14.881830;-27.186250;-0.239386;-2.298422;1.809853;-6.387036;-19.505550;-7.672841;-2.853317;-16.898080;-1.698086
1.534980;-8.937472;-4.798384;5.520669;-2.945137;-3.125560;12.667770;-13.075310;-17.040150;-26.486130;12.878240;-5.258846;0.447140;-6.129959;-10.750960;-17.367210;-2.283087;-15.356790;1.072350
1.926467;-9.525020;-4.828043;-2.910567;-1.340033;-0.891344;10.453480;-7.720517;-14.243470;-22.808150;18.506710;-5.523154;0.612108;-5.220968;-4.383282;-19.984700;-1.152327;-12.020790;3.422021
0.741562;-7.799621;-4.562933;-9.410324;-0.473548;0.196523;-0.915316;-0.706295;-7.662914;-16.172090;15.389330;-2.320737;4.405988;-4.488444;-6.362898;-15.335660;-0.403677;-8.290509;3.798291
-1.559850;-5.534877;-5.339307;-11.120950;-0.400250;-0.262028;-16.174430;5.131979;-1.184307;-9.389157;5.226146;1.397331;11.939360;-4.611220;-16.699880;-8.927806;-0.670605;-6.271135;1.751304
-4.001632;-6.549469;-8.521478;-9.311884;-1.161647;-1.911985;-27.782120;7.434708;1.040588;-6.444806;-8.979596;0.919336;20.025700;-5.915819;-29.322530;-7.355789;-2.052820;-7.639228;-1.950792
-5.574731;-12.990360;-14.042690;-7.566742;-2.725322;-3.869235;-31.292110;5.554924;-2.398836;-9.476448;-23.814150;-6.300273;23.725070;-8.235838;-36.397680;-12.746800;-3.951073;-12.358610;-5.643236
-5.554391;-22.478930;-19.759560;-8.385176;-4.679514;-5.173065;-27.981250;0.793110;-8.892572;-16.807480;-35.470830;-17.921460;19.907260;-10.931820;-33.906180;-20.966960;-5.196187;-18.279890;-7.430398
-3.683398;-29.137450;-22.536220;-11.181820;-6.093873;-5.233057;-22.873030;-4.343272;-13.455130;-23.792970;-40.100760;-27.649570;10.069460;-13.162680;-24.199770;-25.187340;-4.644154;-22.200410;-6.044801
-0.308423;-28.093560;-20.501880;-13.226510;-5.891855;-4.072942;-20.133920;-7.295018;-12.279230;-25.987190;-35.337630;-29.414160;-0.040628;-14.331610;-13.615450;-21.832080;-2.009007;-21.872140;-1.574511
3.608853;-19.712380;-14.710660;-12.406870;-3.611196;-2.287721;-19.824850;-6.432101;-5.579447;-22.224830;-22.193400;-21.715310;-4.027778;-14.438110;-7.223486;-13.781070;1.676255;-17.580860;4.388673
6.790306;-9.694365;-8.667059;-9.176129;0.024818;-0.756126;-18.578650;-1.576755;2.498476;-15.237060;-5.432863;-8.773129;0.863804;-14.059580;-5.139734;-7.915748;4.491037;-12.065610;9.443092
8.258672;-4.626790;-5.841803;-5.955832;3.292670;-0.238840;-13.295990;5.957590;6.920780;-9.390802;8.628761;2.464950;11.935280;-13.924820;-3.474207;-8.921545;4.840271;-8.709347;11.659210
7.938565;-6.633116;-7.048395;-4.689054;4.442546;-1.026065;-4.438386;13.794610;5.467966;-7.414642;15.743470;7.188575;22.989100;-14.359600;1.049375;-14.638450;2.635163;-9.250061;10.689840
6.758511;-11.755420;-9.832730;-4.950321;2.841214;-2.778937;3.977526;19.371200;0.258548;-8.689953;16.051170;5.752473;28.529890;-15.013060;7.067859;-17.213000;-0.504809;-12.676320;7.921923
6.061309;-13.577920;-10.474740;-4.465172;-0.554513;-4.644363;7.607193;21.052400;-4.042342;-10.303340;13.140920;2.648029;27.126910;-15.081400;9.034534;-9.547362;-2.309255;-16.103530;5.486625
6.683410;-8.993029;-7.037251;-1.595594;-3.796382;-5.620932;5.370847;18.965240;-3.869546;-9.784594;10.520920;2.403866;21.699930;-13.870700;2.144030;8.051876;-1.458095;-16.929600;4.790182
8.397888;-1.015110;-0.961414;2.581073;-5.237703;-5.038584;0.324961;14.959590;0.606728;-7.187409;8.445156;5.758801;16.915630;-11.283470;-12.428380;26.660750;1.491728;-14.621960;5.639335
10.177700;3.943809;4.134606;4.733217;-4.619161;-2.934512;-2.869538;11.536870;5.833400;-4.885468;3.883107;9.119589;15.899070;-7.882993;-26.827390;34.453800;4.603373;-10.837910;6.617630
11.070220;2.001105;5.459837;2.146103;-3.187554;-0.117995;-1.674773;10.326540;7.777840;-5.443738;-6.202257;7.632257;18.598100;-4.525774;-31.618670;25.272530;6.111847;-7.925522;6.393788
10.942410;-4.392957;3.318629;-4.423724;-2.785958;2.157771;2.521096;11.136270;4.987921;-9.464018;-21.013800;-0.657553;22.546630;-1.873053;-22.954980;3.493321;5.795479;-7.093475;4.885421
10.451420;-8.394958;0.701838;-10.576430;-4.576812;2.798232;5.903404;12.281770;-0.549225;-15.158250;-34.941280;-12.863870;24.934180;-0.142369;-5.967270;-18.656840;5.057147;-7.690465;3.307912
10.274140;-5.012066;0.539272;-11.298560;-8.277502;1.452258;5.603179;11.963930;-5.221651;-19.826670;-40.648190;-23.033410;24.250950;0.780971;8.673611;-29.400540;5.650260;-8.034772;3.060605
10.309290;3.798507;2.983893;-4.955895;-12.376950;-1.247061;2.041926;9.637325;-6.639604;-21.843570;-34.105360;-26.230610;20.588820;1.057879;12.550010;-25.106660;8.100257;-6.959455;4.393582
9.626875;9.944269;5.123342;4.985452;-15.105970;-3.957873;-1.626922;6.318986;-5.231817;-21.501360;-17.773200;-21.834220;14.971590;0.726476;5.506025;-11.764090;11.130620;-4.745679;6.019102
7.289597;5.718591;3.466140;12.057110;-15.468390;-5.314581;-2.328898;3.657203;-3.518322;-20.224960;0.524356;-13.674070;8.683384;-0.222529;-4.900158;0.457784;12.580800;-2.753262;6.066780
3.364547;-9.248853;-2.850237;11.225970;-13.692100;-4.665746;0.358777;2.598777;-3.908591;-19.114130;12.249080;-7.094870;3.118632;-1.659824;-9.918990;4.978114;11.082210;-2.206528;3.648639
-0.790061;-26.605160;-10.877000;2.318076;-10.916340;-2.445853;4.022528;2.788035;-6.900458;-18.217530;13.006230;-5.261001;-0.148537;-3.262249;-6.651707;2.853579;7.149497;-3.246692;-0.250414
-3.293199;-35.011020;-15.804880;-10.102400;-8.421044;0.053465;5.650743;3.151551;-10.974560;-17.080040;4.393630;-7.372687;0.326105;-4.686842;0.134627;0.390683;2.840622;-5.003553;-3.327866
-2.976159;-28.623660;-14.540140;-20.113280;-6.910436;1.406337;4.295562;3.073120;-13.965020;-15.816970;-7.939917;-9.845151;5.067130;-5.821590;2.652450;2.867538;0.305825;-6.464181;-3.566789
-0.059090;-11.530950;-8.013134;-24.304330;-6.227664;0.864764;1.886720;3.070028;-14.590500;-15.471400;-18.118330;-9.278917;13.019250;-6.848405;-3.007566;9.816395;0.403018;-7.236322;-0.631989
4.294676;5.448254;-0.352207;-23.214520;-5.575066;-1.213771;1.551395;4.362977;-12.976610;-17.147040;-22.936700;-4.905547;21.757240;-8.003087;-13.658840;15.660570;2.416113;-7.513334;4.025607
9.125382;12.988830;4.365492;-19.606180;-4.059802;-3.581094;4.888821;7.731905;-10.064390;-20.668960;-22.308980;1.153721;28.653270;-9.206104;-22.033430;14.851950;4.942579;-7.400368;8.384930
14.462760;9.891153;5.106369;-15.469510;-1.277488;-4.834703;10.481810;12.664600;-6.731837;-24.117370;-17.838870;5.704506;32.239340;-9.904132;-23.118650;6.940713;7.070659;-6.423456;11.358490
20.989670;2.978370;4.215387;-10.514550;2.336352;-4.241989;14.881440;17.510040;-3.478280;-24.920060;-11.236130;6.781279;32.767290;-9.334939;-18.151250;-2.777664;8.832538;-3.871959;13.362150
28.839560;0.746055;4.952827;-3.379094;5.566660;-2.165566;15.292740;20.458460;-0.773274;-21.824830;-3.810947;4.703551;31.600430;-7.087815;-12.894080;-7.579814;10.654900;0.230373;15.550830
36.635660;6.260170;8.409813;5.743327;6.919253;0.156112;11.840860;20.516260;0.540867;-16.197170;3.073932;1.298158;30.019610;-3.553276;-12.016800;-4.976252;12.446480;4.460569;18.446660
41.784160;15.073120;12.423440;13.679140;5.382645;1.332585;7.626988;17.782960;-0.586660;-11.492280;7.601925;-1.852385;28.449760;0.118738;-14.830880;0.994468;13.257440;6.452726;21.173680
42.012170;19.455140;13.363240;15.684190;1.083519;0.615982;6.467086;13.055220;-4.691914;-11.133550;7.915011;-4.620218;26.654310;2.599336;-16.253130;2.770330;11.891540;4.361243;21.973600
37.036830;14.977670;9.240150;8.855836;-4.564489;-1.692929;9.933401;7.340295;-11.132760;-16.269900;3.167118;-8.038881;24.545310;3.149974;-11.996910;-4.793339;7.970048;-1.721925;19.587490
29.020100;3.865201;1.530781;-5.130481;-9.399595;-4.440113;15.834370;1.740350;-18.118110;-24.990770;-5.622386;-12.808010;22.740000;2.071785;-3.073036;-20.221720;2.519999;-9.543126;14.367030
21.349560;-7.321135;-5.759958;-20.312710;-11.523010;-6.271757;19.270420;-2.427884;-23.502840;-33.498280;-15.617850;-17.892760;22.298370;0.527918;4.693819;-36.187520;-2.455770;-15.918440;8.207368
16.584760;-13.169510;-8.981975;-29.846750;-10.239850;-6.354893;15.654370;-3.794767;-25.825880;-38.356270;-23.146210;-20.503320;23.880480;-0.152803;5.808786;-44.560020;-5.131530;-18.548600;3.348780
15.056670;-13.170360;-7.339295;-30.201620;-6.380680;-4.770584;3.785723;-1.609645;-24.939900;-38.299950;-25.079050;-17.728170;27.106970;0.749737;0.185755;-41.830430;-4.875004;-17.123100;0.970552
15.075160;-10.837410;-3.133763;-23.167880;-1.814863;-2.402615;-12.973780;3.527767;-21.940430;-34.573650;-20.025570;-8.807076;30.706920;2.962879;-6.663604;-30.945380;-2.428121;-13.054350;0.603814
14.439310;-9.636002;0.199662;-14.290600;1.533306;-0.433053;-28.203980;9.649965;-18.555510;-29.858870;-8.986967;3.603168;33.317080;5.424713;-8.744769;-18.527080;0.753669;-8.299182;0.697681
12.000310;-9.836850;0.519667;-8.927564;2.565870;0.255016;-35.772810;14.409620;-16.344970;-26.686890;4.698214;14.293350;34.243220;6.907634;-5.430539;-9.952119;3.403630;-4.340947;-0.198115
8.139630;-9.142861;-1.994737;-8.770204;1.313226;-0.535729;-33.097600;16.447960;-15.987570;-26.293790;16.252950;18.228280;33.605400;6.674764;-2.517264;-6.101783;4.948779;-2.022034;-2.524832
4.026958;-6.107543;-5.688344;-11.198110;-1.391534;-2.294093;-22.443630;16.057710;-16.862950;-28.344220;21.180740;13.525760;31.912390;4.816407;-7.085176;-3.953310;5.445571;-1.961438;-5.607926
0.513049;-2.645556;-9.050163;-11.717100;-4.513753;-4.100761;-9.525210;14.588190;-17.183750;-31.376960;17.303620;2.738835;29.618140;2.135062;-20.425530;-0.075247;5.257501;-4.716153;-8.201997
-2.335608;-2.866679;-11.617050;-7.568532;-7.257114;-5.075908;-0.248978;13.156010;-14.894600;-33.597140;6.093044;-8.523788;27.115700;-0.305298;-35.403390;5.992883;4.856120;-10.224210;-9.141212
-4.788534;-9.128284;-13.620400;0.089370;-9.154598;-4.766736;2.470320;11.876060;-9.159706;-33.706160;-7.713401;-14.881380;25.047270;-1.709529;-41.091330;11.094480;4.803758;-17.032860;-7.690323
-6.707873;-19.106410;-15.108450;6.879190;-9.954155;-3.322669;-0.053393;10.324440;-1.620566;-31.539490;-18.348480;-14.300560;24.364690;-1.908500;-31.245850;10.843530;5.665948;-22.369610;-3.615585
-7.352491;-27.007200;-15.651240;8.185777;-9.565119;-1.403482;-3.658093;8.694419;3.696983;-28.246880;-21.979700;-9.026594;25.764670;-1.396083;-9.658692;3.051735;7.665053;-23.570940;2.763920
-5.962856;-28.269560;-14.941290;2.331307;-8.165380;0.131797;-4.358870;8.311285;2.351133;-25.775080;-18.593970;-3.743157;28.820190;-1.043236;12.193010;-10.383630;10.266040;-20.089810;10.438050
-2.534956;-23.676200;-13.519290;-8.155706;-6.305977;0.623863;-1.004922;10.702480;-7.507983;-25.722060;-11.579920;-2.259178;31.663740;-1.621199;23.386410;-24.375850;12.156280;-14.426960;17.698050
2.037903;-18.963980;-12.618830;-17.935070;-4.767126;-0.073749;4.174719;15.892410;-23.081130;-28.142210;-5.338896;-5.026759;31.842220;-3.354770;20.963990;-33.534130;11.882710;-10.840770;22.560500
6.671849;-19.878520;-13.021350;-21.954990;-4.122576;-1.518086;7.435427;21.610060;-37.633910;-31.162000;-2.628232;-9.184656;28.023730;-5.732909;10.621830;-35.030770;8.836633;-12.396000;23.601900
10.994250;-26.822840;-13.969210;-18.307500;-4.285128;-2.889866;6.424310;24.534060;-44.078670;-31.912980;-3.443610;-11.005170;21.348090;-7.702417;0.615690;-29.743320;3.841124;-18.471660;20.727550
15.507510;-33.964580;-13.398340;-9.154671;-4.432523;-3.407420;2.031754;22.867240;-39.341160;-28.386430;-5.988259;-8.894876;15.207430;-8.182585;-5.421142;-21.292350;-1.233150;-24.837680;15.273670
20.725650;-34.008070;-9.657059;0.710021;-3.489700;-2.736883;-2.166773;18.063340;-26.509200;-21.002410;-8.667424;-4.715828;13.283460;-6.650896;-10.391400;-13.874960;-4.665636;-26.592180;9.252911
26.021430;-24.818520;-3.385130;6.687208;-0.912440;-1.178671;-2.503423;13.939980;-13.048410;-12.682830;-11.371010;-2.438351;17.033700;-3.478167;-18.971960;-10.246810;-6.027761;-21.937360;4.212859
29.367910;-12.107470;2.247133;6.862302;2.777077;0.479702;2.025149;13.595120;-6.108115;-7.180231;-15.056420;-5.103996;24.428220;0.196381;-30.908110;-10.794560;-6.350052;-13.855260;0.524498
28.514330;-5.396996;3.574421;2.748207;6.144600;1.372500;8.880974;16.659320;-8.107664;-6.698081;-20.135640;-12.330300;31.015470;3.007030;-38.952000;-13.870780;-7.127736;-8.142647;-2.387823
22.863160;-10.142110;-0.581001;-2.019198;7.662956;1.006458;13.721870;19.437660;-15.655860;-10.452320;-25.164640;-20.218620;32.774320;4.029775;-33.927010;-16.956360;-8.933462;-9.047544;-5.112488
14.506990;-22.446740;-7.389544;-4.108789;6.679479;-0.489379;13.595010;18.128690;-22.426030;-15.224140;-27.069140;-23.809210;28.855250;3.202837;-12.929780;-17.980970;-10.784750;-15.764840;-7.432449
7.333703;-31.093630;-11.493930;-2.516233;3.871853;-2.440951;9.302274;12.478630;-23.721390;-17.534860;-22.912650;-20.408970;22.262630;1.269210;16.431880;-16.199100;-10.853570;-22.611130;-8.354699
4.572994;-25.819340;-8.730173;1.002579;0.858256;-3.977675;5.123380;6.524977;-19.354380;-15.900170;-12.028480;-11.489900;17.897100;-0.702413;39.823190;-12.271790;-8.019260;-22.999960;-7.007114
6.489470;-5.575753;0.579367;3.228275;-0.802222;-4.458035;5.878084;5.405052;-12.953710;-11.594850;2.943743;-1.839478;19.233430;-1.914174;45.420570;-7.581702;-3.030450;-14.396220;-3.662044
9.999492;19.765430;11.340270;1.585777;-0.570546;-3.757691;13.216810;10.737560;-8.649174;-7.493007;16.866830;3.479880;25.933090;-2.198010;31.515040;-3.224887;1.718853;-0.544310;0.026290
10.650780;35.840000;16.840540;-4.274911;0.771015;-2.297540;23.726740;18.695570;-7.969609;-5.954911;24.404590;2.340706;34.106650;-1.955437;6.802940;0.637842;3.737401;10.801590;1.902547
5.650791;33.638950;13.192550;-12.320850;1.663583;-0.825199;30.388270;22.879950;-9.287963;-7.333557;22.655530;-3.174883;39.101000;-1.772751;-16.300520;4.561417;2.199260;13.090860;0.755859
-4.174580;15.464130;1.906815;-19.344510;0.810556;-0.067114;26.744450;19.922140;-9.833927;-10.064690;12.807740;-8.237537;38.849610;-1.998790;-29.596750;8.821817;-1.395435;5.389599;-2.711307
-14.835310;-7.230287;-11.184520;-22.674420;-1.933487;-0.402977;11.256750;12.979140;-8.204795;-12.037020;-0.082799;-8.484774;35.313000;-2.559454;-32.276190;12.406430;-4.174377;-7.139975;-6.135693
-21.640720;-22.108250;-19.756970;-21.359750;-5.354429;-1.689238;-11.005830;9.603103;-5.165974;-12.043990;-9.300428;-2.896382;32.801000;-3.088981;-28.020850;12.944320;-3.786113;-16.909580;-6.856412
-21.896940;-23.927120;-20.762980;-16.291650;-7.466935;-3.301763;-30.656980;15.126860;-2.311174;-10.252380;-9.826218;5.507013;34.219560;-3.231391;-19.987060;7.971753;0.105994;-18.955000;-3.510475
-16.070090;-16.538910;-15.590190;-9.445291;-6.567251;-4.395655;-39.077350;26.891930;-0.159219;-7.569610;-1.217890;11.571650;37.964420;-2.869408;-8.765561;-3.091362;5.726282;-13.772310;3.146161
-6.918467;-8.217890;-8.170470;-2.868922;-2.181984;-4.297493;-33.246270;34.598280;2.312236;-4.700572;11.728050;11.294980;38.007680;-2.131040;5.264096;-17.617840;10.443760;-6.188635;10.641700
2.442582;-4.683239;-1.835731;2.010758;4.583503;-2.868477;-17.314390;27.394920;6.186903;-1.808892;21.324030;4.384511;27.628030;-1.219855;18.536480;-30.283720;12.412930;-1.494633;16.071670
10.047370;-5.406585;2.625468;4.580568;11.481440;-0.649002;0.077389;2.658675;10.665580;0.994545;21.363010;-5.552986;4.549138;-0.252290;24.429490;-35.483200;11.474070;-1.887626;17.449550
15.329650;-5.558329;6.518436;4.894990;16.139500;1.337257;11.000150;-30.523400;12.757870;2.956847;10.974310;-13.321880;-26.114810;0.744842;17.941790;-30.392460;8.840622;-5.681236;14.422700
18.441720;-1.218814;11.213490;3.445595;17.169340;2.076976;12.600900;-56.445860;9.321168;2.638656;-4.631777;-15.451100;-53.592060;1.690165;0.994780;-16.830740;5.996733;-9.400762;8.152783
19.597900;6.850023;16.460730;0.967079;14.814700;1.128034;7.892208;-63.116970;-0.047732;-1.203762;-17.276500;-12.329340;-67.285550;2.325385;-17.062550;-0.677229;3.694923;-10.740890;0.639955
19.061560;13.881310;20.419010;-1.743357;10.792660;-1.071611;2.728507;-50.255240;-11.799110;-8.421477;-20.858270;-7.733497;-63.143650;2.282938;-25.427780;10.943720;1.713590;-10.019360;-6.065086
17.543800;15.269270;21.189100;-4.028350;7.378929;-3.368156;1.365385;-29.011250;-20.268150;-16.990200;-14.903760;-6.072413;-46.296290;1.342038;-20.092300;13.152210;-0.619133;-9.273363;-10.458660
16.281630;10.456260;18.418140;-5.543963;6.195119;-4.490580;3.868096;-13.773210;-21.461580;-23.828250;-4.194321;-9.258559;-27.969070;-0.328423;-7.458228;5.553292;-3.669654;-10.121800;-11.915600
16.387300;3.304689;13.624670;-6.309169;7.350952;-3.769314;7.081038;-12.369140;-15.961030;-26.519650;5.047892;-15.418810;-18.544480;-2.186574;0.301120;-7.894928;-7.112444;-12.344980;-10.791050
17.877430;-1.137125;9.068832;-6.603211;9.435142;-1.551915;8.048485;-21.884210;-8.629575;-24.796140;9.343097;-20.375950;-21.365820;-3.658935;-5.037495;-21.114850;-10.146610;-14.286000;-8.304383
19.289120;-0.605036;6.182161;-6.792776;10.384850;0.956301;6.865526;-32.605320;-5.223168;-20.716310;9.317860;-20.828160;-31.427390;-4.586631;-20.691850;-28.877060;-12.084040;-14.523870;-6.176117
18.441150;2.921064;4.809006;-7.200645;8.745626;2.362037;6.473289;-36.244490;-8.391946;-17.358760;7.570377;-16.876340;-39.670370;-5.405494;-34.473660;-28.939360;-12.847900;-13.242990;-6.043618
13.948240;5.219115;3.715468;-8.047251;4.580082;1.883046;9.524743;-31.707290;-16.002820;-16.880940;5.385389;-11.995380;-39.640590;-6.833251;-34.144280;-22.474180;-13.030580;-12.111540;-8.816549
6.369746;3.375403;1.768031;-9.406722;-0.525150;-0.196066;15.052110;-24.327870;-22.899810;-19.232540;1.541295;-10.446270;-31.683190;-9.209558;-17.243750;-12.922850;-13.476290;-12.834270;-14.234970
-1.954904;-2.089001;-1.237062;-11.135430;-4.363509;-2.684366;18.072830;-20.141170;-24.628010;-22.351600;-5.636006;-14.073870;-21.838140;-11.962040;6.436191;-4.151545;-14.653120;-15.662030;-20.858330
-8.345646;-8.051355;-4.647200;-12.841210;-5.374612;-4.166363;12.988670;-20.579650;-20.314610;-23.655740;-15.056570;-20.919660;-16.646540;-13.672770;21.762230;1.097330;-16.205070;-19.112040;-26.541760
-11.448790;-11.580730;-7.647593;-14.019430;-3.504858;-3.802738;-1.601583;-21.988230;-12.762970;-21.789780;-21.962880;-26.686370;-18.082960;-12.838390;19.176570;1.876554;-16.986220;-21.089040;-29.238610
-11.891440;-12.216300;-9.844334;-14.365710;-0.159758;-1.788529;-20.580150;-19.783290;-6.039494;-17.472620;-20.895910;-27.884960;-22.502040;-8.898040;1.250844;-1.163581;-15.626850;-20.447420;-27.813670
-11.479320;-11.926500;-11.262610;-14.052390;2.680734;0.778455;-34.770930;-13.090400;-2.603705;-12.940540;-10.405060;-24.213630;-24.154620;-2.830226;-19.807880;-6.427875;-11.372350;-17.741290;-22.524590
-11.635040;-13.010810;-11.918840;-13.659780;3.603919;2.520785;-36.816000;-5.638947;-2.065961;-10.429900;4.715332;-18.386310;-20.181190;3.167611;-31.239680;-12.018840;-4.720510;-14.640950;-14.938950
-12.334540;-15.862630;-11.513460;-13.666120;2.463204;2.531419;-26.255050;-2.325183;-2.151793;-10.739030;16.210550;-13.701480;-12.938570;6.814680;-28.187960;-16.141420;2.587698;-12.577110;-7.276662
-12.341560;-18.467400;-9.608772;-13.819030;0.260303;0.841761;-9.934101;-4.760345;-0.762489;-12.793020;18.435070;-11.427440;-7.843175;7.026787;-15.512240;-17.340750;8.341736;-11.717200;-1.436818
-10.462420;-17.966590;-6.132649;-12.975450;-1.626946;-1.621772;2.709711;-9.858419;2.550270;-14.431780;12.776340;-10.126180;-8.660095;4.529187;-2.620243;-14.771970;11.030810;-11.010980;1.829804
-6.736643;-12.948540;-1.704447;-9.778093;-2.321348;-3.541307;6.045573;-12.621860;6.597500;-13.848490;6.454452;-7.339851;-14.240860;1.395135;3.783164;-8.569773;10.704490;-9.153050;3.148624
-2.582275;-4.653079;2.570059;-3.885649;-1.875274;-3.893377;1.598947;-10.504850;9.677356;-10.735570;6.356993;-2.074283;-19.437740;-0.212265;3.401519;-0.113639;8.921914;-5.646404;3.981030
0.195349;3.760905;5.705046;3.131541;-1.048860;-2.469873;-3.997949;-5.455982;10.739430;-6.448890;13.021640;4.092613;-19.404490;0.687673;0.608196;8.164876;7.744913;-1.185775;5.605075
0.701133;9.234312;7.356053;8.116356;-0.676601;0.014518;-4.627224;-1.968988;9.803561;-3.163217;20.113360;8.195492;-13.679340;3.382555;-0.102651;13.612010;8.404787;2.821948;8.256566
-0.484641;10.608170;7.856359;7.994958;-1.098798;2.273234;0.618560;-3.059558;7.637521;-2.606630;20.203760;8.282815;-6.659743;5.996112;2.693940;14.544460;10.563380;5.157832;11.029260
-1.876771;9.030624;7.794774;1.869064;-2.031141;3.087267;7.232335;-7.797792;5.214682;-5.149667;12.047640;4.956156;-4.097777;6.688906;7.515441;11.123140;12.716680;5.471082;12.648540
-2.273844;6.892245;7.527624;-7.924057;-2.903469;1.925684;9.444290;-12.445060;3.369886;-9.719384;2.809702;0.794307;-8.520321;4.780028;12.155460;5.250151;13.460930;4.366745;12.591730
-1.598983;6.179312;7.008585;-16.741890;-3.368730;-0.761600;5.150992;-13.945330;2.648155;-14.466940;2.670410;-1.718253;-17.293860;1.133696;15.242260;-0.601170;12.657730;2.955910;11.699940
-0.779515;7.340523;5.984196;-20.224360;-3.588466;-3.741983;-2.391839;-12.521250;3.128760;-17.711050;15.827950;-1.900457;-24.796250;-2.374656;16.026100;-4.934197;11.550660;2.187556;11.714770
-0.868220;9.234802;4.280248;-16.995480;-4.089696;-5.611675;-7.323167;-11.127370;4.203795;-18.632360;35.482820;-0.833209;-26.780360;-3.960717;13.578180;-8.072495;11.657380;2.296091;13.942710
-2.195813;9.979086;1.889566;-9.701038;-5.312365;-5.517716;-5.942541;-12.455070;4.597004;-17.453570;47.607010;0.132435;-23.340570;-2.952464;7.163685;-11.609910;13.243190;2.588255;17.963130
-4.242248;8.063709;-1.156688;-3.584619;-7.193377;-3.604614;0.450458;-16.330070;2.893262;-15.166900;41.174960;0.703250;-18.232710;-0.157233;-2.153347;-16.778940;14.612990;1.681923;21.394470
-6.255730;3.122342;-4.892337;-3.378129;-9.105712;-0.927619;6.834721;-19.822780;-1.568063;-13.043770;16.950810;1.478421;-15.399890;2.622449;-10.629240;-22.942390;12.947020;-1.814991;21.072680
-8.012097;-3.935554;-9.276957;-10.393700;-10.213190;1.134884;8.642247;-19.826250;-8.020687;-12.141210;-12.290040;2.558189;-15.759730;3.656754;-13.551890;-27.463230;6.271624;-8.404847;15.002540
-10.019990;-11.370500;-13.885840;-21.608180;-9.998333;1.644026;5.374681;-15.672980;-14.395190;-12.922160;-30.510870;2.553376;-16.836960;2.351091;-8.938084;-27.266070;-4.771225;-17.038610;3.828939
-12.983650;-17.359490;-17.760230;-31.301530;-8.589300;0.598809;0.868070;-9.496548;-18.281190;-15.061700;-29.372020;-0.629346;-15.245390;-0.304414;-0.076335;-21.110840;-16.689470;-25.205900;-9.188242
-16.988260;-20.702150;-19.696010;-34.258920;-6.648915;-1.117975;0.219180;-4.224054;-18.138290;-17.522980;-12.972040;-7.586625;-9.651273;-2.196552;6.051665;-10.941330;-24.787190;-29.969020;-19.758620
-21.123560;-21.202920;-18.890900;-28.648650;-4.900583;-2.301558;5.928569;-1.196875;-13.982580;-18.953840;6.839956;-15.787270;-1.678926;-1.257154;4.146116;-1.216614;-25.743020;-29.522150;-24.755550
-23.910840;-19.597210;-15.514720;-16.950490;-3.630910;-2.143436;16.123260;0.451902;-7.199526;-18.305910;20.118210;-20.382270;5.767517;3.301071;-4.295692;3.464122;-19.496340;-24.364840;-23.697850
-24.245410;-17.097320;-10.746070;-4.499397;-2.532514;-0.672273;25.831990;2.356821;0.211277;-15.388060;25.289360;-17.362160;11.000720;10.415490;-10.817440;0.906692;-9.247514;-17.247880;-18.697760
-22.143550;-14.810640;-6.186803;3.429734;-1.007788;1.324109;29.985220;5.048572;6.336889;-11.016470;27.555240;-6.784231;14.556580;17.655020;-5.919391;-7.618810;0.389748;-11.762130;-13.046870
-18.724410;-13.324770;-3.032511;4.318226;1.285534;2.804064;25.944360;7.513432;9.627896;-6.624741;31.568770;6.615380;17.966380;22.506650;12.963580;-18.387260;5.877601;-10.358580;-9.402458
-15.439790;-12.626980;-1.558958;-0.571388;4.055941;3.063265;14.289560;8.465364;8.902512;-3.547670;35.569570;16.197810;21.679850;23.700010;37.782790;-27.445370;6.361993;-13.036530;-8.634552
-13.125090;-12.312780;-1.229560;-7.282459;6.468978;2.060024;-1.873496;7.864079;3.482595;-2.424219;32.505420;17.633140;24.244710;21.756050;54.068860;-32.494900;3.567785;-17.532330;-9.830715
-11.555550;-11.889120;-1.251676;-11.605140;7.673366;0.335050;-18.117680;7.028731;-6.393611;-3.072397;17.107980;11.377150;23.557210;18.444030;50.549770;-33.355440;0.302998;-20.833750;-11.198670
-9.788027;-10.982490;-1.101512;-11.392310;7.402586;-1.347810;-29.872600;7.213236;-19.229220;-4.826571;-7.682201;1.636326;18.968970;15.557490;27.271030;-31.118790;-1.302960;-20.962290;-11.170830
-6.979513;-9.385278;-0.636819;-7.421676;6.217176;-2.378373;-33.718470;8.161176;-32.530770;-6.995247;-31.180200;-7.094140;12.191900;13.862840;-3.899888;-26.998160;-0.737523;-17.859730;-9.098322
-3.049763;-6.998889;0.185918;-2.404074;5.192468;-2.496525;-28.858370;8.245775;-43.824460;-9.080609;-42.549540;-12.954170;6.069337;12.905920;-26.889450;-21.807790;1.138503;-12.942270;-5.335236
1.277740;-3.773919;1.627029;1.102352;5.244628;-1.784946;-18.041350;6.188175;-51.911430;-10.705120;-39.400110;-16.851160;2.305052;11.699410;-31.623380;-16.186440;3.045654;-7.865328;-0.898225
5.022859;0.285597;4.142320;2.439249;6.547280;-0.565320;-6.784959;2.632804;-57.506030;-11.515110;-30.134280;-20.179310;0.248164;9.660491;-19.557530;-10.933050;4.133715;-3.521289;2.986424
7.615961;5.037299;7.978489;3.089282;8.434353;0.699356;-0.601265;-0.178993;-62.748060;-11.342730;-27.896340;-22.668830;-2.144071;7.027660;-1.073333;-6.836331;4.191647;0.052734;5.244151
9.171995;10.058400;12.709930;5.306735;9.851608;1.492202;-1.660784;-0.583032;-69.882220;-10.568880;-40.933700;-22.632750;-6.100822;4.465095;12.566680;-4.074167;3.290813;3.008000;5.180712
10.210790;14.523350;17.149110;10.185930;10.046370;1.384027;-7.351207;0.505087;-80.002480;-10.272600;-67.024930;-19.414910;-10.724880;2.268993;16.373890;-1.895349;1.357011;5.018017;2.612254
11.115440;17.249200;19.817770;16.636140;9.032272;0.247070;-12.203180;-0.096087;-92.660680;-11.783950;-96.049950;-15.483170;-13.881860;-0.060312;13.049140;0.817616;-1.873377;5.288837;-2.087064
11.811680;17.065720;19.757350;22.073510;7.531526;-1.565553;-12.083320;-5.095077;-106.430400;-15.750530;-118.001200;-15.642370;-14.476440;-3.425097;8.768577;4.340831;-6.462515;3.266452;-8.035633
11.937010;13.507960;17.186330;24.345250;6.454518;-3.252905;-7.468107;-13.862960;-119.807800;-21.383980;-129.600100;-23.406110;-13.870310;-8.183099;7.653851;7.285642;-11.804960;-0.581011;-14.000440
11.332080;7.514786;13.567300;23.425590;6.275706;-3.903839;-3.012739;-22.199420;-131.708600;-26.615870;-134.524900;-37.424710;-14.878150;-13.449250;9.470776;7.124453;-16.540490;-4.623460;-18.636970
10.390520;1.573338;10.982910;21.538040;6.712492;-3.014882;-3.526201;-25.348600;-141.341500;-29.274420;-138.116700;-51.328980;-19.044560;-17.328440;11.673870;2.015095;-19.027730;-6.781524;-20.782740
9.901371;-1.118936;11.121840;21.529130;6.900111;-0.876712;-9.578001;-21.929650;-147.872300;-28.525980;-142.001400;-57.737760;-24.687130;-18.045700;13.086070;-7.307162;-18.143520;-5.632204;-19.778430
10.446180;1.693297;14.410950;24.680810;5.939819;1.470751;-16.543490;-15.367450;-150.458900;-25.459220;-143.461700;-53.582070;-27.742730;-15.191190;15.496880;-17.113060;-13.920600;-1.155271;-15.757350
11.830000;9.757659;19.777980;29.642190;3.483295;2.768352;-18.177930;-11.347870;-148.775900;-22.244940;-139.527100;-42.466710;-25.014280;-10.128780;21.792090;-22.346590;-7.615622;5.349107;-9.764989
13.071560;20.003480;25.216700;33.365070;0.015827;2.274508;-11.912270;-13.222220;-143.540800;-20.426910;-131.276300;-31.957050;-17.110060;-5.196643;32.538410;-19.455940;-1.143736;12.048690;-3.528785
13.073020;28.050740;28.897170;33.413600;-3.315202;0.250261;-1.344431;-19.173310;-136.408100;-19.681600;-123.836300;-27.793040;-8.357303;-2.223402;44.285420;-8.535723;3.811961;17.516120;1.186171
11.522350;30.861720;30.224740;29.937770;-5.235639;-2.144548;6.451786;-23.585690;-129.112100;-18.109290;-121.866600;-29.649750;-3.458087;-1.405584;51.234950;6.651551;6.533575;21.259650;3.421915
9.308046;28.831910;30.200830;25.791120;-4.975466;-3.516962;6.780688;-21.538950;-122.468600;-13.917870;-124.788300;-31.885770;-3.569815;-1.335022;48.996640;20.741740;7.471583;23.643330;3.595726
8.015565;25.696910;30.769630;24.610360;-2.685937;-3.072817;1.410598;-12.706870;-116.092200;-7.184472;-126.449800;-28.633220;-5.230475;-0.127856;37.499350;29.500710;7.849158;25.377210;3.328249
8.763376;25.994930;33.435640;28.163160;0.569139;-1.098379;-2.792905;-1.493517;-109.139600;-0.231663;-119.908100;-18.987460;-3.292516;3.173683;21.007280;31.509800;8.912746;26.931140;4.467924
11.215230;31.633480;37.975880;34.817830;3.267447;1.210530;0.203990;6.528108;-101.470100;3.778306;-103.257700;-7.992384;4.415366;7.907001;5.576720;28.024560;11.233750;28.170450;7.826938
13.587650;40.013630;42.159890;40.222770;4.131567;2.465131;10.080780;8.740505;-94.140610;2.990493;-81.378580;-2.652572;14.645420;12.230530;-3.968454;21.554870;14.408680;28.363460;12.471450
13.795350;45.319450;42.855210;39.792180;2.740318;1.903771;19.970210;6.786982;-88.631440;-1.907115;-62.093560;-6.347193;20.781290;14.321070;-5.660655;14.404740;17.281320;26.571440;16.155420
10.998560;42.394400;37.983500;31.435570;-0.280944;-0.176508;22.131690;4.343092;-85.320020;-8.270339;-50.223720;-16.271440;17.930390;13.479050;-0.294164;8.055142;18.543750;22.288650;16.734500
6.406963;30.618070;28.095390;16.880560;-3.620627;-2.615891;14.878340;3.728593;-82.537150;-13.342970;-44.810450;-25.882230;6.957193;10.452740;9.425688;3.352459;17.391970;16.028030;13.650080
2.629008;14.918570;16.409340;0.870002;-6.014096;-4.073236;4.701795;4.471816;-77.266320;-15.836350;-41.702590;-30.097220;-5.900370;6.883631;19.603200;0.837801;13.899400;9.439722;8.417189
1.885945;2.896920;7.088100;-11.222090;-6.931368;-3.781263;1.294987;4.800279;-67.254210;-16.086030;-38.636290;-28.814820;-13.584130;4.331837;25.837780;0.689056;8.927371;4.685420;3.679283
4.301571;-0.193787;2.749074;-15.992830;-6.798589;-1.952044;9.193179;4.161588;-52.987700;-14.952120;-37.595430;-25.979080;-13.231980;3.502750;24.514240;2.375400;3.639911;3.236715;1.410056
7.538332;4.828829;2.853297;-13.467550;-6.607271;0.366465;22.979280;4.028611;-37.812140;-12.708300;-41.887860;-25.358030;-7.587092;4.050881;14.684790;4.561960;-1.095445;4.785529;1.509893
8.166039;11.394060;4.140792;-6.736379;-7.163138;1.874150;30.497680;6.165186;-25.749780;-9.025394;-50.634820;-26.957560;-1.816000;4.942879;-0.667016;5.623604;-5.074671;7.112293;1.833357
3.917821;11.543080;2.913508;-0.050981;-8.481297;1.715404;22.095620;10.272020;-18.448360;-3.956536;-56.337170;-27.211030;1.317269;5.096243;-15.492420;4.532706;-8.677288;7.267937;-0.299155
-4.696306;1.467555;-2.358657;3.558569;-9.752294;-0.071190;-1.229988;13.722070;-13.647430;1.265998;-48.878940;-22.576160;3.573148;3.964727;-23.872550;1.470049;-12.391410;3.497316;-6.114783
-14.555340;-15.598010;-9.933733;3.821573;-9.917986;-2.567373;-27.416350;14.038430;-6.659385;4.710721;-23.544970;-13.117610;8.694516;1.833012;-23.696980;-2.325505;-16.248830;-3.372381;-14.301150
-21.790480;-31.213390;-16.007620;3.008043;-8.466370;-4.439069;-41.365950;11.809480;5.897728;5.314589;13.529930;-2.757326;17.427630;-0.294677;-18.053870;-5.360378;-19.555270;-10.193070;-21.586540
-24.085220;-37.132680;-17.403440;4.035204;-5.888117;-4.620749;-35.476570;10.871870;22.833030;4.090497;47.675550;4.026462;24.722930;-1.194087;-12.890770;-6.754944;-21.137730;-13.446680;-24.611190
-21.866970;-30.616810;-13.816950;8.083346;-3.462623;-2.883456;-14.697170;14.955880;38.307870;3.581935;64.868620;6.014741;22.169180;-0.118590;-12.331190;-6.622351;-20.004280;-11.644980;-21.852730
-17.655000;-16.055100;-7.990738;13.401870;-2.503026;0.005900;7.589023;23.568540;45.485150;5.682622;61.121410;6.071849;4.359818;2.663299;-15.132820;-5.848818;-16.020840;-6.449504;-14.384460
-14.136850;-1.848633;-3.690780;16.357130;-3.558369;2.638503;19.423420;31.225490;41.531720;9.623284;44.911820;8.205802;-25.675010;5.868282;-15.269490;-5.572874;-10.154730;-1.579869;-5.081498
-12.395640;5.222212;-2.974142;14.216000;-6.087330;3.677257;18.180320;31.571220;30.237170;12.150260;30.810210;13.551730;-56.574550;7.864470;-6.631785;-6.689914;-4.078590;-0.175883;3.084513
-11.508390;4.234335;-4.766804;7.688217;-8.783248;2.571044;10.755670;23.394020;19.957410;10.215820;29.267010;19.011910;-74.852610;7.689022;11.443610;-9.461642;0.665743;-2.497379;8.521245
-9.668628;0.106964;-5.805836;1.087187;-10.299090;-0.121093;6.633706;13.130380;18.008940;4.169793;40.265880;19.939030;-73.084180;5.765734;32.093860;-13.174350;3.438936;-5.700344;11.424810
-5.870959;-0.494755;-3.245886;-0.465078;-9.900623;-2.999856;9.966592;10.754260;25.523730;-1.430858;55.131860;14.578720;-54.341460;3.752756;44.333240;-15.976280;4.721321;-5.940882;13.084910
-0.846627;5.680828;3.012228;4.981927;-7.694907;-4.569306;17.096890;21.480040;36.771760;-0.656353;64.239560;6.280280;-29.861860;3.493207;40.025660;-15.289840;5.629918;-1.309681;14.736380
3.427624;15.945770;10.016900;14.117430;-4.408629;-4.051789;21.019870;39.863690;43.775240;9.083919;64.124400;1.315390;-11.826360;5.706846;19.743700;-9.070389;7.046727;6.570459;16.747480
5.224508;23.542830;13.740900;20.216410;-0.962503;-1.809925;18.405340;51.796500;42.891980;24.158700;58.765460;3.957428;-6.420983;9.342351;-6.680194;2.479751;8.929606;13.492730;18.543290
4.406171;22.529510;11.912690;18.060620;1.876918;0.874168;12.865010;43.933780;38.156280;36.379960;55.040740;12.932410;-11.667880;12.129800;-25.627040;15.868300;10.256410;15.482770;19.115680
2.598277;12.165440;5.650343;8.408645;3.654625;2.538173;11.616390;13.924130;38.279820;38.511680;56.896270;22.279480;-20.660640;12.045560;-27.840510;25.102370;9.630584;11.425460;17.667010
2.066441;-2.331014;-1.283635;-1.668098;4.262757;2.365900;18.490490;-26.432200;49.057310;29.695950;63.004310;25.952720;-26.996850;8.716264;-14.045110;24.462370;6.142860;3.620362;14.002700
4.101419;-13.205850;-5.069367;-3.429351;3.957884;0.621168;29.447400;-57.948540;66.898620;16.554320;68.993730;22.353350;-28.250280;3.773738;5.586914;11.914400;-0.064074;-4.035383;8.562715
8.045881;-15.373010;-4.415895;6.952338;3.354263;-1.548540;34.747070;-66.122500;79.048840;8.806456;71.384190;15.101760;-25.611920;-0.123647;17.804060;-9.016416;-7.854082;-8.784228;2.206459
11.618730;-9.767507;-1.340806;24.803940;3.285274;-2.798643;26.399090;-49.878610;71.440070;12.448430;69.581340;9.602915;-21.131040;-0.958982;14.477590;-30.419450;-15.681020;-10.622450;-4.085634
12.297030;-2.546377;0.350220;39.433890;4.470724;-2.346234;5.060328;-20.966300;39.221550;25.528280;64.892230;8.498423;-15.541410;1.408999;-2.459836;-43.829920;-22.282960;-11.720560;-9.494827
8.839259;-0.751805;-2.232688;41.302630;7.107616;-0.368586;-19.212240;4.907439;-7.679171;39.677460;58.595270;9.899886;-8.459668;5.254039;-22.326100;-44.512360;-27.070300;-14.294630;-13.579630
2.006701;-7.477741;-9.054057;28.795380;10.651000;2.151783;-33.240250;18.218220;-48.714370;46.204560;51.604380;9.748744;-0.191127;8.173452;-32.329420;-33.618990;-30.063340;-18.680080;-16.358610
-5.886735;-19.829410;-17.142210;9.548821;14.001830;4.000047;-29.519620;19.822530;-64.604700;42.137860;45.924380;6.032147;7.131772;8.616335;-25.363750;-17.046980;-31.550780;-23.051000;-18.189670
-12.224790;-30.926870;-22.456360;-4.771052;16.063470;4.369117;-11.131990;17.231300;-49.212170;31.788600;45.528640;1.044186;10.562770;6.742628;-4.177100;-1.973117;-31.770550;-24.844970;-19.458350
-15.343820;-34.393760;-22.280700;-6.436278;16.348450;3.223428;10.664300;17.128390;-13.254360;22.984560;54.367960;-0.318188;8.779300;4.135779;20.522450;6.622579;-30.801510;-22.648290;-20.235130
-15.105440;-28.196240;-16.587410;3.481560;15.241350;1.236716;24.204230;20.473460;22.778390;21.188440;72.153280;5.255259;3.691515;2.683161;36.655330;7.509602;-28.640100;-17.074820;-20.141020
-12.595270;-15.392920;-7.667863;16.763800;13.733800;-0.605128;24.877900;23.449790;41.613910;26.063070;91.566280;16.422060;-0.457245;3.426684;37.817500;2.520458;-25.312640;-10.108620;-18.562160
-9.282906;-1.679542;1.452051;24.601660;12.801560;-1.495778;17.189430;22.286600;39.161180;32.763250;100.447500;27.842730;-0.019456;6.084684;26.417090;-5.198084;-20.920700;-3.628502;-15.112530
-6.221978;8.214034;8.600236;23.823150;12.831090;-1.154226;10.448630;17.127800;24.921990;36.357990;88.804630;33.981480;5.394690;9.413160;11.191830;-12.552000;-15.645890;1.628959;-10.038680
-3.734203;12.735550;13.075080;18.144400;13.451190;0.103892;11.593010;11.699350;13.362010;35.523000;56.117060;32.918360;12.682220;12.034240;1.092941;-16.957190;-9.796869;5.941270;-4.268982
-1.645950;13.177770;15.182530;14.002200;13.835200;1.557369;20.283920;9.656308;13.122850;32.692680;13.289030;27.220100;17.618230;13.163000;-0.213700;-16.427970;-3.902816;9.641404;0.952500
0.214438;11.668490;15.367130;14.839440;13.235130;2.421147;29.411680;11.322300;21.970960;31.096290;-22.892190;21.510630;17.895830;12.859460;4.348862;-10.041530;1.266515;12.329920;4.617206
1.681743;9.402322;13.746550;18.652000;11.406030;2.191619;30.247860;13.755950;30.508160;31.662120;-39.376940;19.038200;14.443380;11.800630;8.640503;1.228694;4.891806;13.011100;6.341158
2.345726;6.422773;10.344150;20.549650;8.716831;0.865616;18.508410;13.769690;30.867010;32.552680;-33.971050;20.020220;10.168170;10.832490;8.530734;14.160690;6.493408;11.025810;6.388517
1.999895;2.685450;5.640667;17.735720;5.976935;-1.047235;-2.647041;10.890460;23.157800;31.487180;-15.214150;22.663240;7.434508;10.593570;5.017481;24.244160;6.296606;6.930792;5.402697
1.088857;-0.984762;0.796711;12.361830;4.146765;-2.729072;-24.365740;7.589368;14.787020;28.441810;4.329028;25.367940;6.503147;11.359270;3.062859;27.795670;5.276177;2.512785;4.096352
0.752199;-3.160129;-2.781006;9.724967;4.072195;-3.405206;-37.227750;6.836902;13.762870;26.061610;16.081300;27.877640;6.113028;13.083290;7.286395;23.974190;4.749378;-0.148570;3.097044
2.314341;-3.093919;-4.248554;13.416960;6.272243;-2.703094;-36.479410;9.465425;21.826690;27.310750;19.163480;30.512180;5.378286;15.520290;17.976510;15.281930;5.698053;0.117743;2.934113
6.468677;-1.698715;-3.855710;21.713650;10.756950;-0.855695;-24.328800;13.746240;33.029610;32.492330;18.098800;32.670640;5.015097;18.320760;30.488550;6.151315;8.222999;2.978591;3.997450
12.680310;-1.047495;-2.721233;28.434410;16.908570;1.365215;-8.204213;17.294530;38.658370;38.426810;17.495970;32.500410;6.621462;21.058240;38.390530;0.593751;11.480750;6.968555;6.353875
19.266610;-2.558703;-1.958324;27.673010;23.539130;2.983766;3.730470;19.223150;34.224450;40.700490;18.403820;28.379040;10.645560;23.227870;37.861290;0.466681;14.146390;10.455630;9.520513
24.208580;-5.363282;-1.782011;18.506560;29.213250;3.284054;7.033724;20.439060;22.777830;37.160280;18.781190;20.897130;15.047010;24.300430;30.038730;5.251983;15.107170;12.468570;12.452060
26.247730;-6.444051;-1.281830;5.817415;32.764090;2.179561;2.849684;21.995700;12.073280;29.669670;16.677350;13.289880;16.196450;23.891100;19.764730;12.983710;13.966600;12.899040;13.915880
25.580100;-2.780536;0.925259;-3.378780;33.750540;0.286788;-3.698863;23.402770;8.212893;22.590510;12.675850;9.517988;11.602710;22.002800;11.965250;21.252460;11.105510;12.151510;13.132040
23.671420;6.002256;5.585695;-5.041977;32.574270;-1.362703;-7.304899;22.789430;11.076120;19.253640;9.392242;11.341630;2.291769;19.184410;8.510609;27.607690;7.358386;10.685150;10.281300
22.275670;16.617030;12.008990;-0.598049;30.162410;-1.849181;-5.875643;18.862720;15.074070;19.393090;8.827401;16.795850;-7.311186;16.410880;7.694565;29.651210;3.582243;8.813390;6.488769
22.274520;23.772040;18.148600;4.870580;27.406750;-0.865023;-1.351145;12.670450;14.228190;19.669770;10.291540;21.437000;-12.225250;14.627540;6.248195;25.585160;0.381422;6.766520;3.221874
23.094050;23.519650;21.561250;6.837432;24.717650;1.088084;2.380219;7.220831;7.147029;16.757940;10.848300;21.453670;-10.436300;14.160880;1.979602;15.393070;-1.935445;4.770140;1.470559
23.084580;15.950110;20.688110;4.337742;21.961580;2.937849;2.736906;5.053256;-2.106777;10.313560;7.762974;16.201390;-4.342637;14.397740;-4.929629;1.763434;-3.268817;2.970187;1.269013
20.614560;5.286831;15.718800;-0.393334;18.770140;3.614732;0.366188;5.941642;-7.603238;3.317011;0.684521;8.253693;1.098471;14.066670;-12.485680;-10.499240;-3.649529;1.307066;1.894526
15.161820;-2.695295;8.563003;-4.697589;14.952240;2.659321;-1.660216;6.978077;-6.270388;-0.422609;-8.228154;1.163117;2.144844;12.081130;-18.311890;-16.858620;-3.213408;-0.424496;2.583575
7.700819;-4.126186;1.955092;-7.796875;10.704090;0.518893;-0.597223;5.157242;0.176018;0.585671;-15.986630;-3.053030;-0.980776;8.446126;-20.671190;-15.868240;-2.182155;-2.272408;3.207820
0.162159;0.916498;-1.848075;-10.589440;6.504372;-1.658597;3.597764;0.205046;7.324477;4.367209;-20.481480;-4.685454;-4.537333;4.550458;-18.710120;-10.262800;-0.808721;-3.846242;4.368698
-5.654705;8.896766;-2.147356;-13.564980;2.831492;-2.646239;8.244201;-4.970828;11.910640;7.194620;-20.815620;-5.055327;-4.549401;2.483652;-12.501060;-5.150603;0.677694;-4.432422;6.807813
-9.009150;15.159660;-0.151584;-15.335060;-0.056716;-1.840050;10.269800;-6.749619;13.897510;6.596914;-16.574800;-4.698395;-0.296548;3.685407;-3.420461;-4.373788;2.055357;-3.588895;10.571480
-10.430050;16.395100;1.590966;-13.591640;-2.145906;0.361879;8.886211;-4.053974;15.201320;3.126045;-7.530930;-2.844101;4.811329;7.793358;5.502952;-7.763236;3.022580;-1.816718;14.598310
-11.145700;11.838490;0.470812;-7.748210;-3.547671;2.738754;6.274848;0.536504;16.665860;-0.440480;5.347289;1.354589;5.736111;12.550310;10.264920;-11.550910;3.157178;-0.673409;17.126290
-12.163640;2.996944;-4.758099;-0.569293;-4.395306;3.905962;5.635053;2.883742;16.442480;-1.547397;18.508770;7.130109;-0.210570;14.987440;7.987290;-11.766700;2.063374;-2.004404;16.723460
-13.613840;-7.384954;-13.133570;3.274395;-4.834717;3.093349;8.257538;0.800311;11.510730;0.228040;26.055340;11.738370;-10.982570;13.222280;-0.657877;-7.937637;-0.298719;-6.657334;13.264570
-14.753830;-16.364600;-21.771120;0.993116;-5.047688;0.603706;12.229100;-4.109746;1.038872;3.284456;22.578720;12.035160;-20.852240;7.723413;-10.772770;-3.963862;-3.322974;-13.570790;8.164687
-14.590360;-21.636610;-27.291330;-5.372598;-5.192023;-2.313795;14.053060;-7.874320;-11.586770;5.691724;7.151770;6.825263;-24.130820;1.177076;-15.581510;-5.206724;-5.811461;-20.016160;3.661352
-12.686620;-22.302050;-27.707640;-9.760194;-5.247559;-4.113140;11.924550;-7.537032;-20.233700;6.709683;-14.620920;-1.954239;-18.835250;-3.019019;-10.796740;-13.940810;-6.496051;-23.018840;1.574532
-9.621165;-19.456520;-23.673920;-6.575104;-4.913610;-3.770745;7.800629;-3.507411;-20.155250;6.769047;-32.714680;-10.254520;-7.750215;-2.716431;1.967809;-26.836590;-4.794030;-21.119750;2.319981
-6.788507;-16.027410;-18.218030;4.479478;-3.732953;-1.331065;6.220809;1.094753;-11.555730;6.200783;-38.186780;-14.410550;3.630564;1.772910;15.527060;-36.705400;-1.306819;-15.320970;4.771703
-5.638100;-15.392340;-14.962820;17.239710;-1.447777;2.109650;10.514880;3.324025;0.315657;4.272109;-28.538020;-13.265920;10.569190;7.920552;21.449840;-37.411530;2.345919;-8.563078;7.002977
-6.802167;-19.205420;-15.863080;22.896990;1.649238;4.964053;19.387810;2.809650;8.684546;-0.239897;-9.216861;-8.491653;11.498940;12.464810;15.573520;-28.295970;4.348158;-4.063264;7.387069
-9.656195;-25.856130;-19.940640;16.153010;4.689705;5.957042;26.859180;1.573412;9.674855;-7.322866;9.779376;-3.137073;8.063093;13.195870;0.785971;-14.756290;3.691466;-3.592494;5.376445
-12.621120;-31.013370;-23.949430;-0.891635;6.653138;4.754403;26.023080;1.680153;4.348091;-14.590240;19.789180;0.310008;3.343702;10.015340;-14.978660;-4.568549;0.726551;-6.755143;1.575437
-14.070860;-30.373950;-24.616650;-20.049200;7.003212;2.102011;14.037820;3.146644;-2.858854;-18.198130;17.886550;1.012607;-0.057449;4.765105;-24.076040;-2.762253;-3.086760;-11.595790;-2.778372
-13.310930;-22.905890;-20.955670;-32.518340;6.072679;-0.582687;-5.373839;4.161036;-7.648300;-15.514970;7.272758;-0.374121;-0.831996;0.057797;-23.937310;-8.807229;-6.045702;-15.961800;-6.475560
-11.006180;-12.105660;-15.008970;-34.407130;4.859723;-1.948624;-23.875270;3.310204;-8.417491;-7.507616;-5.766689;-2.532858;1.296992;-2.161005;-17.965740;-17.878300;-7.107296;-18.640810;-8.730291
-8.752432;-3.980405;-10.446130;-28.411320;4.324912;-1.398551;-33.590540;1.470369;-6.172474;1.276770;-15.576500;-4.207327;5.997451;-1.553762;-12.244530;-24.755100;-6.275281;-19.609130;-9.216543
-8.040920;-2.929618;-9.995219;-20.913930;4.684967;0.625094;-31.723680;1.288850;-2.554537;5.468588;-19.037350;-4.550675;12.247280;0.582108;-10.851880;-27.111400;-4.323395;-19.459560;-7.948434
-9.293820;-8.522824;-13.573420;-17.194540;5.249584;2.901623;-21.624390;4.557882;1.819675;2.478115;-15.307480;-3.334493;18.047970;2.134836;-13.345430;-25.881770;-2.165562;-18.641430;-5.245370
-11.635170;-15.740170;-18.492970;-18.425760;4.966619;4.103351;-9.921417;9.989470;7.195979;-5.751041;-4.914315;-1.197395;20.800310;1.391723;-15.986120;-23.068850;-0.357392;-17.149970;-1.809267
-13.568080;-18.687990;-21.568380;-22.184450;3.301676;3.519841;-2.109453;13.754010;13.189010;-14.176330;10.286230;0.327224;18.698430;-1.971898;-15.287300;-19.410770;0.986890;-14.818530;1.289020
-14.077960;-15.048650;-21.503250;-25.233570;0.797565;1.442493;0.277678;12.643240;17.806970;-18.180980;26.374070;-0.575221;12.332140;-6.641284;-10.898040;-14.089870;1.945821;-11.834020;2.918367
-13.348220;-7.818846;-19.719170;-25.873070;-1.130796;-1.004468;-0.628946;7.135504;18.318610;-16.540380;37.399990;-4.812134;5.036572;-10.316270;-5.723668;-6.525680;2.519563;-8.938060;2.436368
-12.538780;-2.924971;-19.003180;-24.183220;-1.056234;-2.494547;-1.550514;1.455810;13.428340;-11.735560;37.472970;-11.417800;1.208725;-10.966940;-3.556136;1.733167;2.575945;-7.084841;0.127689
-12.779350;-4.544112;-21.067400;-20.730650;1.537292;-2.235480;-0.561658;0.272725;4.817224;-7.657741;24.291260;-17.759360;3.436350;-8.011884;-6.299857;7.111172;2.000309;-6.811511;-2.859901
-14.152170;-11.810220;-24.983270;-15.601880;5.904442;-0.393439;2.096757;4.738125;-3.505930;-6.697024;1.693309;-21.065810;10.499580;-2.710418;-12.824220;6.342575;0.849016;-7.834024;-5.160218
-15.487520;-19.506310;-27.766720;-8.901268;10.480910;2.029610;4.916616;11.345250;-7.738667;-8.443041;-21.155790;-20.259640;17.937530;2.525560;-19.925050;-0.833654;-0.657314;-9.211598;-6.035579
-15.192440;-22.159970;-26.676270;-2.010385;13.782170;3.776491;6.535735;14.739210;-6.738286;-10.705760;-34.177640;-16.618750;21.022300;5.529709;-24.321230;-10.977300;-2.271641;-9.977221;-5.820565
-12.519870;-18.239300;-21.403740;2.130192;15.141520;4.020268;6.519894;12.165170;-2.463653;-11.666530;-31.935670;-12.633580;18.061570;5.628711;-24.238560;-19.019450;-3.818493;-9.769408;-5.591409
-8.295690;-11.107980;-14.403480;0.618650;14.848540;2.760187;5.289204;5.753844;1.826369;-11.257860;-16.763200;-9.951696;11.556730;3.936047;-19.894260;-21.594390;-5.135601;-9.001797;-6.256941
-4.493722;-6.074284;-9.084962;-6.960953;13.712740;0.733262;3.701615;0.690643;3.997986;-10.791880;2.674962;-8.175839;6.300016;2.509610;-13.116900;-19.092140;-5.936801;-8.463123;-7.744879
-2.923448;-6.055905;-7.305962;-17.421740;12.458170;-1.052447;2.749924;0.885655;4.086057;-11.467460;16.533270;-5.618215;5.831717;2.963377;-6.599643;-14.949840;-5.805515;-8.673346;-8.948247
-4.000787;-9.459006;-8.168700;-25.528950;11.385180;-1.852871;3.311757;5.891489;3.313870;-13.256410;19.373040;-1.380858;9.940398;5.486797;-2.975419;-12.898240;-4.444719;-9.504167;-8.557428
-6.537997;-11.965670;-9.072040;-27.364890;10.446670;-1.492802;5.689302;11.626400;2.281075;-15.137580;12.730410;3.160068;15.055620;8.900087;-3.718507;-14.376290;-2.060179;-10.368570;-6.212386
-8.716603;-10.637260;-8.145519;-22.993920;9.547279;-0.331301;9.086716;14.057150;0.162687;-16.312610;3.290541;5.001270;17.121770;11.601650;-8.213713;-17.970620;0.441768;-10.844020;-3.097918
-9.488628;-6.807383;-6.057301;-16.325570;8.754286;1.007331;11.668520;12.458840;-4.311971;-17.142320;-1.874634;1.972447;14.664830;12.638120;-13.765100;-20.979390;1.705229;-11.239260;-1.444376
-9.312541;-5.251277;-5.669059;-12.256970;8.262346;1.937675;11.649820;9.446886;-11.096240;-18.853140;0.156000;-5.045811;9.740599;12.124150;-17.055700;-21.590330;0.588439;-12.608720;-3.169662
-9.650933;-10.222820;-9.730248;-13.306360;8.207269;2.110674;8.900918;8.054771;-18.084860;-22.236690;6.612141;-12.217760;6.218725;10.829900;-16.456420;-19.957150;-3.120689;-16.085150;-8.544144
-11.635760;-21.570730;-18.392390;-18.246030;8.545115;1.484982;5.674417;8.821492;-22.300230;-26.520190;11.222600;-15.369310;6.919571;9.431899;-13.500740;-17.615830;-8.391889;-21.901670;-15.793530
-14.971470;-34.134890;-28.518460;-23.519100;9.116897;0.322384;5.343917;9.678277;-22.117620;-29.486610;8.564040;-13.121800;11.833230;8.123280;-12.009530;-16.053090;-13.277100;-28.768340;-21.939570
-17.967810;-41.020050;-35.414540;-26.003750;9.819647;-0.867314;9.600714;8.607215;-18.594310;-28.883100;-2.209105;-7.930329;18.563890;6.862129;-15.049860;-15.684490;-15.726460;-34.132280;-24.357770
-18.711530;-38.292260;-35.784910;-24.837460;10.696050;-1.464198;16.197710;6.291557;-14.652460;-24.083000;-16.534850;-4.053606;24.298130;5.894157;-21.923560;-15.853680;-14.473630;-35.334890;-22.089420
-16.496320;-27.590210;-29.819450;-21.124650;11.833580;-0.986258;19.464250;5.937059;-12.711410;-16.748580;-26.993390;-4.057995;27.555350;5.907803;-27.858050;-15.516710;-9.563661;-31.089320;-16.168620
-12.428690;-14.844100;-21.003670;-16.298350;13.151730;0.620646;13.929860;10.199700;-12.750110;-10.005720;-27.682090;-6.767559;28.484460;7.526566;-27.218790;-13.906160;-2.323182;-22.414900;-8.904892
-8.759924;-6.275066;-13.906430;-10.928440;14.279630;2.825586;-1.234576;18.103290;-12.464990;-6.722373;-17.761990;-8.422552;27.895830;10.513870;-18.112560;-10.827020;5.150659;-12.396510;-2.683524
-7.447733;-4.710427;-11.549290;-5.047888;14.673830;4.659235;-20.423020;25.098620;-9.418337;-8.033531;-2.006553;-6.105681;26.225420;13.448600;-4.671305;-6.730637;10.739550;-4.785043;0.998628
-8.986144;-8.656055;-14.043660;0.594868;13.939410;5.174016;-34.355000;26.601170;-3.365404;-12.948580;11.994850;-0.524484;23.405080;14.340630;5.276800;-2.748151;13.022790;-2.148887;1.867370
-12.273560;-14.232280;-19.090310;3.942359;12.147500;3.997435;-35.923890;21.994270;3.224894;-19.077900;18.241110;4.281940;19.534560;11.891280;5.838667;-0.497976;11.741910;-4.597723;0.644587
-15.480160;-18.024880;-23.630220;2.669340;9.921413;1.634063;-25.058550;15.392180;6.931796;-23.879000;15.570090;4.165814;15.435560;6.498195;-2.267391;-1.328889;7.847779;-9.815062;-1.430013
-17.184130;-18.688070;-25.395940;-3.796214;8.202137;-0.724171;-8.904062;12.250720;5.998471;-25.723500;7.760138;-1.633172;12.378290;0.194733;-11.928050;-5.142005;3.065644;-14.399100;-3.093985
-16.981570;-16.634640;-23.567460;-13.050530;7.800906;-1.825337;3.051895;14.745860;1.678415;-24.401240;0.593938;-9.672037;11.213190;-4.524149;-15.018850;-9.688259;-0.904222;-15.754420;-3.519772
-15.303990;-12.835130;-18.601430;-20.608800;8.973600;-1.073245;5.468652;20.139980;-2.740511;-21.029350;-1.977290;-14.921400;11.807030;-6.194164;-8.991681;-11.367020;-3.205889;-13.456680;-2.711282
-12.806230;-8.155698;-11.784710;-22.541490;11.245680;1.104633;0.505231;23.733760;-4.386305;-17.493100;0.072934;-14.704910;13.375890;-5.148093;0.619268;-7.564034;-4.211512;-9.327711;-1.668177
-9.904000;-3.649974;-4.877847;-17.995460;13.596980;3.477615;-4.414670;23.697190;-2.741096;-15.584350;3.744193;-10.734570;15.342950;-3.060639;4.141367;0.928634;-5.177703;-6.221695;-2.051122
-6.744339;-0.963099;0.253747;-9.740889;14.947680;4.703275;-2.671622;23.062850;0.395924;-16.099530;5.897821;-7.582743;17.749810;-1.684546;-4.526515;9.503753;-7.308436;-6.272925;-5.279713
-3.428160;-1.811376;2.268379;-2.357827;14.735900;4.084624;6.268346;26.539580;2.712178;-18.314410;5.741842;-8.865456;20.702880;-1.743329;-22.329130;12.304390;-10.793480;-9.644797;-11.447530
-0.119553;-6.558339;1.118692;0.601633;13.298290;1.953035;16.309390;34.683390;3.348537;-20.245230;5.029218;-14.267140;23.451070;-2.733755;-38.171700;6.406388;-14.496360;-14.486400;-18.784120
3.094953;-13.135570;-1.618077;-1.474084;11.807010;-0.532093;19.222610;40.956360;3.423056;-19.749570;6.044361;-19.800680;24.305270;-3.630707;-40.333690;-5.421599;-16.588410;-18.066650;-24.238800
6.368486;-17.649130;-3.400754;-6.358145;11.702730;-2.034596;10.725820;35.299870;4.801299;-15.941120;9.246046;-21.032130;21.940540;-3.815488;-24.926940;-15.845150;-15.772130;-18.369380;-25.069030
9.951558;-16.708280;-2.245811;-10.686680;13.844730;-1.768693;-6.336784;12.286660;8.255201;-10.019550;12.616150;-16.633940;17.139450;-3.483857;0.800581;-17.710790;-12.269780;-15.200880;-20.530770
13.723060;-9.903296;1.833735;-11.906910;17.832110;0.089687;-23.851730;-22.614100;12.577260;-4.837313;13.240920;-9.468698;13.174300;-3.317856;22.799060;-9.239397;-7.849503;-10.199540;-12.518780
16.793980;-0.435330;6.597105;-9.314999;21.957400;2.507209;-33.712590;-54.447220;15.352560;-3.305501;9.747199;-4.473582;13.856020;-3.831062;29.133250;4.203856;-4.802802;-5.813854;-4.591230
17.682220;6.810690;8.920085;-3.930374;23.955190;4.138595;-32.631720;-67.858560;14.730220;-6.573230;3.533864;-5.133888;20.351280;-4.993172;17.238210;13.339860;-4.531931;-3.911241;0.100956
15.155810;8.440244;6.891554;2.300630;22.227550;4.026588;-23.354740;-57.521030;10.793710;-13.177130;-2.195834;-11.268110;29.393960;-6.392854;-5.286800;11.111070;-6.702590;-4.845555;0.649689
9.232651;4.605225;1.169813;7.374764;16.860180;2.108083;-12.029630;-31.993250;5.524708;-19.799600;-4.749219;-19.585720;34.883800;-7.670954;-26.362850;-2.591954;-9.529749;-7.474941;-1.237561
1.543785;-1.575017;-5.432077;9.899700;9.770223;-0.723357;-4.117299;-7.863553;1.469570;-23.239290;-3.716606;-26.223210;32.229240;-8.739670;-37.170450;-20.917380;-10.967920;-10.017580;-2.563997
-5.370756;-6.650019;-9.862866;9.515237;3.797517;-3.040290;-1.735697;1.546863;0.132585;-22.380860;-0.904305;-29.103220;22.222910;-9.573632;-36.593590;-34.579020;-9.960500;-11.144940;-1.127932
-9.480687;-9.345769;-10.847920;6.962874;1.201876;-3.598389;-3.704401;-5.483925;1.193622;-18.906980;1.260815;-28.470370;11.088410;-9.835807;-29.934250;-37.522780;-6.917459;-10.632250;3.072047
-10.450000;-10.971730;-9.536111;3.626432;2.436314;-1.997434;-7.411945;-19.636990;2.952559;-16.257570;1.371831;-25.683430;6.124947;-8.817762;-23.724410;-29.826150;-3.202420;-9.235821;8.005707
-9.738446;-13.591110;-8.379496;0.623059;5.936320;1.065038;-10.674410;-28.900100;3.553021;-17.424380;-0.525370;-21.716330;10.059770;-5.906780;-20.874470;-16.364710;-0.131789;-7.993734;11.092540
-9.532117;-17.703190;-9.190054;-1.994290;9.058793;4.114333;-12.426670;-27.739910;2.131204;-22.910550;-3.673529;-16.749550;18.689880;-1.269132;-19.492890;-3.032106;1.730850;-7.495161;10.845260
-11.262790;-21.522480;-11.872690;-5.193602;9.607609;5.658775;-12.425600;-20.054770;-0.766157;-30.142770;-7.422417;-10.974930;24.105120;3.861297;-15.595530;6.283375;2.543787;-7.612713;7.543560
-14.748770;-22.467980;-14.693720;-9.891670;7.046455;4.991948;-10.848980;-14.341440;-3.619479;-34.813260;-11.174260;-5.532486;21.279510;7.671575;-7.121592;10.120080;2.624928;-7.802763;2.649924
-18.482830;-19.491520;-15.681600;-15.616920;2.726214;2.581778;-8.292986;-15.824090;-4.880314;-33.482580;-13.650360;-2.414979;12.722970;8.811065;3.897589;8.077267;1.972272;-7.647416;-2.362628
-20.722320;-14.106710;-13.924980;-20.161180;-0.930538;-0.196370;-5.856969;-22.290830;-3.873193;-25.926520;-12.622890;-3.201826;6.987652;7.267848;12.460510;-0.045225;0.332831;-7.158489;-6.778178
-20.498650;-9.106656;-9.779743;-20.854670;-1.752278;-1.845994;-4.732673;-26.725650;-1.181385;-15.691780;-5.993839;-7.636088;11.601530;4.409391;13.991070;-13.287230;-2.262913;-6.596780;-10.507810
-17.859070;-6.015284;-4.040869;-16.692710;1.104135;-1.599623;-5.286474;-23.907000;1.700564;-8.266036;6.224975;-13.306370;25.780790;2.101823;7.540389;-27.813550;-5.044874;-5.991160;-13.404160
-13.366850;-3.522560;2.962204;-9.544523;6.841473;0.171353;-6.402196;-15.022220;3.307636;-7.740947;20.650770;-16.851820;39.059580;1.505867;-3.337113;-36.901440;-6.640242;-4.824561;-14.809130
-7.484794;1.570705;11.404300;-3.137429;13.523280;2.225393;-5.937950;-6.438858;3.246118;-13.983840;31.445630;-15.915200;37.774790;2.399714;-12.536230;-33.969640;-5.819271;-2.247345;-13.831970
-0.452628;11.470860;21.083320;-0.290864;19.031470;3.219185;-2.302190;-3.991598;2.679782;-22.291360;33.331950;-10.502610;15.189700;3.499711;-14.922350;-17.161690;-2.320657;2.253242;-10.124610
7.303395;24.872930;30.513390;-0.550653;21.979040;2.496766;3.927522;-7.902816;3.817527;-26.072720;24.920500;-2.863830;-22.240130;3.522945;-9.275000;8.028254;2.896379;8.220378;-4.417828
14.767820;36.988360;37.029050;-0.381423;22.188340;0.428646;9.717434;-12.666320;8.547128;-21.064020;10.098840;3.947442;-57.570690;2.204315;1.118480;30.786960;8.208929;14.180950;1.747846
20.513960;42.365250;38.111880;3.859423;20.585790;-1.869390;11.124870;-11.811100;17.001740;-8.302519;-3.575378;7.848119;-73.686370;0.529710;10.618990;41.042910;12.304910;18.338660;6.966498
23.475450;38.518880;33.044730;12.362560;18.607760;-3.222423;5.779495;-3.349239;27.057030;6.329506;-8.591092;8.760227;-64.174970;0.024025;14.886610;35.644410;14.856300;19.588760;10.843050
23.676590;27.660720;23.570870;20.738160;17.395230;-3.051197;-5.398709;8.654428;35.262390;15.902080;-1.185880;8.393802;-37.152440;1.606925;13.731320;20.246550;16.411210;18.132840;14.066080
22.178540;15.188300;12.900640;22.634320;17.147120;-1.625740;-18.467300;17.482430;38.747360;17.018340;16.857830;9.008467;-9.489419;4.822609;11.152830;5.397576;17.638530;15.208680;17.581760
20.107110;6.019644;3.674786;14.395980;16.963980;0.172627;-28.556610;19.052320;36.879400;11.850430;38.930690;11.875280;4.254607;7.978076;12.233650;-0.506130;18.557270;12.090190;21.517920
17.479940;1.454059;-3.644715;-1.822689;15.312050;1.379591;-32.416370;14.662820;31.505060;6.027891;56.182800;16.255060;0.359281;9.103447;18.757220;3.533414;18.373870;9.087953;24.739430
12.893720;-1.189850;-10.737600;-19.116290;10.916500;1.439185;-29.861700;9.182172;25.542860;3.900065;60.833310;19.469630;-13.608570;7.113484;26.688860;11.211990;16.056800;5.335989;25.439900
4.574237;-5.999563;-19.723640;-30.469810;3.612422;0.413838;-23.444480;6.567951;20.889020;4.862557;49.186130;18.164780;-25.845380;2.445678;27.829700;13.974090;11.200560;-0.399382;22.372840
-7.810249;-14.941620;-31.022380;-33.481960;-5.359330;-1.133248;-16.839230;6.654718;17.160120;3.816487;23.517900;10.255920;-29.059320;-3.187595;15.217020;7.165617;4.519891;-8.428602;15.830580
-21.950550;-25.983650;-42.352980;-31.490460;-13.841780;-2.458374;-13.040690;5.779650;12.252970;-4.332672;-7.983850;-3.461115;-24.566980;-7.733383;-11.082600;-7.034019;-2.387746;-17.332060;7.664098
-33.449560;-34.184560;-49.660830;-30.241970;-19.798200;-2.976305;-13.261990;0.432434;4.384868;-19.580610;-33.806890;-19.100730;-19.506060;-9.825376;-42.037520;-21.568940;-7.829634;-24.334490;0.330973
-38.072430;-34.921160;-49.416900;-32.841390;-22.301050;-2.479803;-16.791820;-9.330237;-5.874439;-35.392860;-43.826280;-31.300840;-20.219280;-9.313289;-63.654900;-29.454930;-10.809890;-26.752510;-4.382940
-34.342630;-26.981010;-40.808920;-37.130420;-21.894380;-1.186979;-21.578980;-19.540560;-15.186720;-42.587890;-34.277640;-35.959470;-27.270490;-7.065131;-64.968080;-28.020990;-11.347580;-23.627830;-6.166987
-24.723010;-13.472170;-26.444660;-37.669760;-20.144890;0.368531;-25.190580;-25.180640;-19.189810;-35.999290;-10.255960;-32.505930;-35.601240;-4.275463;-44.955760;-19.788320;-10.230010;-16.467640;-6.106927
-14.470680;-0.080482;-11.176530;-30.706370;-18.705290;1.553522;-25.845970;-23.807270;-15.404710;-18.897170;16.190520;-24.200830;-39.004050;-1.777336;-13.618140;-10.053060;-8.482465;-8.560805;-5.904080
-8.797525;8.057787;0.188868;-18.000600;-18.484970;1.886146;-23.211250;-17.107290;-5.360083;-1.504734;31.878410;-16.146000;-34.942400;0.227268;13.818450;-3.410664;-6.921590;-3.254751;-6.927509
-10.105500;8.871682;4.959050;-6.246678;-19.382900;1.236222;-18.575010;-9.421659;5.664120;5.691359;29.173450;-12.240320;-26.028870;1.946830;25.901690;-1.624460;-5.965312;-2.238356;-9.588075
-16.987130;3.883613;3.345787;-2.371383;-20.618190;-0.107292;-14.171990;-4.668643;11.395280;-0.925925;9.716348;-13.092380;-17.520040;3.565946;21.235920;-3.706918;-5.629996;-4.846050;-13.230370
-25.465020;-3.249095;-2.239434;-8.354449;-21.319730;-1.544579;-11.896120;-4.076417;8.281147;-15.817970;-16.887400;-16.238560;-13.295150;4.982151;8.019938;-7.372025;-5.576145;-8.724850;-16.468940
-31.484330;-9.025429;-8.782327;-19.656440;-20.964370;-2.419336;-12.162460;-6.153340;-2.153407;-28.585160;-38.364610;-18.344990;-13.556160;5.906355;-2.468092;-10.446310;-5.179622;-11.361220;-17.784800
-32.992980;-11.808240;-14.202010;-28.519390;-19.480620;-2.316339;-13.734350;-8.449427;-13.920710;-31.613400;-45.731660;-17.654180;-15.660920;6.191207;-3.630732;-11.494460;-3.723376;-11.498500;-16.185120
-30.447390;-12.144330;-18.079630;-29.609310;-17.125700;-1.267521;-14.713010;-9.477406;-19.983260;-25.329940;-36.697310;-14.875160;-16.874560;6.055288;2.809533;-9.883067;-0.751718;-9.644095;-11.704090
-25.788220;-11.837680;-21.368960;-23.715660;-14.350330;0.236480;-13.986050;-9.420967;-16.501080;-17.234490;-15.434940;-12.045990;-16.558980;5.967571;9.383706;-5.823583;3.570099;-7.493903;-5.494305
-20.909990;-12.571000;-25.412590;-16.824420;-11.739550;1.449890;-12.002530;-9.452826;-5.302131;-15.697600;10.050710;-10.529200;-16.189500;6.266938;9.204336;-0.496634;8.383066;-6.748685;0.645603
-16.741240;-14.929990;-30.873910;-15.461290;-9.932413;1.714431;-10.238010;-10.507140;7.051272;-23.466250;30.981010;-9.906994;-17.570760;6.850740;1.141682;4.150388;12.518690;-8.074701;5.171845
-13.337150;-18.257760;-37.155210;-21.910640;-9.396396;0.794370;-9.798230;-12.497740;13.142660;-35.829580;40.215530;-8.660538;-20.986100;7.238516;-9.768702;6.245923;15.169530;-10.768160;7.647844
-10.536750;-21.212570;-42.572800;-32.753120;-10.109160;-0.957838;-10.375370;-14.395540;9.171625;-44.580740;34.151090;-5.932323;-24.792840;7.001741;-16.504250;5.128977;16.385670;-13.215230;8.971169
-8.429033;-22.558260;-45.161540;-41.481550;-11.403500;-2.712671;-10.504930;-14.918300;-2.801081;-44.389730;14.332010;-2.740859;-26.615300;6.204284;-15.319900;1.900068;16.981800;-13.809850;10.723790
-7.252513;-21.720710;-43.669030;-42.988250;-12.224230;-3.541083;-8.938436;-13.315560;-16.278390;-36.550330;-12.002560;-1.515166;-25.046150;5.432618;-8.155124;-1.241803;17.846290;-11.817470;13.996160
-6.982852;-18.903040;-38.220740;-36.680310;-11.764720;-2.904886;-5.916185;-9.842716;-24.488000;-27.436450;-33.858630;-4.283067;-20.570510;5.305961;-0.721269;-2.574866;19.123070;-7.778118;18.477830
-7.146433;-14.850940;-30.323110;-26.369560;-10.096340;-1.008257;-3.139465;-5.738166;-24.525850;-23.300690;-41.298550;-11.004910;-15.207080;5.816361;1.902562;-2.206293;19.895680;-3.301594;22.501270
-7.111672;-10.504210;-22.215670;-17.522610;-8.290903;1.218234;-2.360362;-2.689534;-18.743010;-25.748170;-31.102620;-19.412240;-11.314890;6.069481;-1.264119;-2.097572;18.676210;-0.371246;24.077860
-6.570680;-6.711709;-15.897480;-14.024210;-7.821790;2.558485;-3.778201;-1.956905;-12.541270;-31.282550;-9.540927;-26.439060;-10.412260;4.752360;-6.933450;-4.615941;14.409840;-0.446792;22.230820
-5.678296;-4.029140;-12.279480;-16.400510;-9.548475;2.182860;-5.701160;-3.559618;-10.246870;-34.771320;10.495730;-30.043630;-12.593730;1.093422;-10.390370;-10.597120;7.301641;-3.720636;17.679000
-4.627680;-2.535045;-10.823020;-22.067300;-12.958390;0.175120;-5.883629;-6.062809;-12.054220;-33.582950;17.110220;-30.007990;-16.633340;-4.363593;-8.955566;-18.311830;-1.120966;-8.841044;12.379850
-3.041021;-1.675650;-9.802199;-26.912980;-16.246490;-2.433242;-3.452041;-7.266640;-14.195320;-28.993290;7.086586;-27.292740;-20.561680;-9.797779;-3.565479;-24.102990;-8.752776;-13.274070;8.271400
0.135344;-0.302482;-7.093126;-27.188220;-17.279440;-4.203725;0.279762;-5.507105;-12.083940;-24.120890;-11.769180;-22.790910;-22.466660;-13.036410;2.357287;-24.314470;-13.939900;-14.246340;6.123766
5.880573;2.900951;-1.210474;-21.037150;-14.878580;-4.127867;2.912766;-0.732935;-3.987553;-20.670300;-25.692400;-16.740740;-21.287750;-12.793200;5.557648;-17.327770;-16.114140;-9.948324;5.285307
13.918790;8.625347;7.808076;-9.360637;-9.604915;-2.259229;3.103313;5.449122;7.554935;-17.553930;-24.210130;-9.295545;-17.316120;-9.395670;5.066376;-4.564626;-15.701050;-0.492413;4.404087
22.093940;16.166650;18.098080;4.279396;-3.529803;0.273614;1.857919;10.854480;17.572620;-12.509440;-7.156999;-1.548115;-12.100050;-4.527229;2.416958;9.981655;-13.522070;11.865890;2.493049
27.074600;23.287730;26.534030;14.985390;0.874293;1.916585;1.732303;14.133020;22.245230;-5.011841;15.487840;4.210019;-7.686179;-0.195708;0.112501;21.343870;-10.224550;23.466190;-0.461059
26.224490;27.089980;30.089440;18.847400;2.036732;1.621270;4.498603;15.422520;21.416130;2.374951;30.690410;5.558060;-5.559767;2.354020;-0.341985;25.565920;-6.133112;30.716690;-3.684436
19.483680;25.629580;27.430120;15.166410;0.009792;-0.516928;9.288582;15.766540;18.147490;5.595010;31.126120;1.656074;-5.943399;3.100802;0.566465;21.335380;-1.487611;31.662970;-6.277126
9.873263;19.356270;19.862750;7.049671;-3.760362;-3.312027;12.970720;15.871330;15.825100;2.332762;19.365480;-5.811579;-7.932941;2.905073;0.902119;10.690570;3.291720;26.871320;-7.723411
2.048948;11.323370;10.931920;-0.410651;-7.379816;-5.194332;12.671820;15.351680;15.264810;-5.937625;4.897450;-13.378470;-10.340590;2.745875;-1.149202;-1.566642;7.629448;19.119150;-7.892510
-0.327431;5.758603;4.671251;-3.477574;-9.543219;-5.126078;8.425800;13.175570;14.210090;-14.898650;-3.214469;-17.823720;-12.550910;3.115938;-5.795391;-9.768784;11.094780;11.986160;-6.709209
3.271256;5.671696;3.403383;-2.344684;-10.068900;-3.169053;3.611590;8.917632;9.605127;-20.552090;-2.330840;-18.038290;-14.687180;3.905471;-11.208570;-10.005340;13.667090;8.062561;-3.972610
10.010840;10.962290;6.431214;-0.888512;-9.723561;-0.390405;2.525441;3.648130;0.719211;-21.933510;3.228983;-15.387680;-16.991380;4.684146;-14.431370;-2.260105;15.679730;7.758548;0.404035
15.545620;18.343260;10.542080;-3.507998;-9.567170;1.787777;6.815395;-0.452507;-9.533166;-21.164450;6.710872;-12.394850;-19.039850;5.055967;-13.105230;9.258715;17.464340;9.397655;5.951299
16.706470;23.289990;12.116250;-11.286140;-10.272080;2.374069;13.616210;-1.549829;-16.288070;-20.970990;4.393973;-10.832110;-19.605570;4.848262;-7.025610;18.138400;19.017000;10.530150;11.508580
13.254930;22.862140;9.520044;-20.484890;-11.789690;1.280156;17.065940;0.506680;-16.206860;-21.957890;-2.223449;-10.666470;-17.431820;4.135926;1.412410;19.269570;20.005720;9.643639;15.690860
7.635424;17.577580;4.189222;-24.787990;-13.468700;-0.731133;12.305550;4.115092;-10.022270;-22.044890;-8.579327;-10.524210;-12.351260;3.225795;8.242519;11.853700;20.126660;7.173872;17.702860
3.070920;11.073020;-0.353022;-19.827350;-14.469090;-2.518056;-0.908966;7.215766;-2.135600;-18.505930;-11.053840;-9.120658;-5.799725;2.636451;9.981918;-0.005899;19.476660;5.151339;17.862120
1.438961;7.735491;-0.883327;-6.619366;-14.204700;-3.152848;-17.645070;8.882305;2.470938;-10.762760;-9.295052;-6.429284;-0.197531;2.961946;5.634255;-9.628817;18.566530;5.717546;17.352430
2.376797;9.854924;3.376971;8.791425;-12.598600;-2.339165;-30.715560;9.895849;1.689920;-1.454289;-5.324989;-3.703910;2.433051;4.530466;-2.507670;-11.614090;17.912490;9.522168;17.335180
4.056179;16.180480;10.332680;19.345550;-10.071080;-0.500626;-35.004750;11.870990;-2.428221;5.182279;-0.870899;-2.443306;1.629418;6.998133;-9.816569;-4.820848;17.542860;15.121370;18.091280
4.839950;22.825070;16.547410;21.690150;-7.310731;1.448276;-30.229010;15.730300;-5.389810;6.295925;4.304115;-3.174021;-1.379378;9.231760;-11.632150;7.332070;16.878560;19.828480;18.870130
4.492118;25.894690;19.598240;18.109920;-4.953575;2.527669;-20.463210;20.832500;-3.551026;2.363337;11.579270;-4.959650;-4.578092;9.755844;-5.701628;19.240450;15.154480;21.460640;18.558930
4.098116;24.088090;19.579070;14.335970;-3.311427;2.144089;-11.130440;25.438240;3.461866;-3.353625;21.174840;-5.918885;-6.371398;7.633448;6.588073;26.437960;12.081700;19.784340;16.620130
4.913875;19.562300;18.762300;15.067220;-2.260852;0.389063;-5.754554;28.035500;12.789450;-7.196109;30.773740;-4.323113;-6.254635;3.218123;20.898770;27.719540;8.211651;16.657050;13.537080
7.156724;16.519790;19.781000;20.693700;-1.340636;-1.961874;-4.554087;28.372250;20.481340;-7.335414;36.572300;0.437985;-4.660808;-1.840028;32.196170;24.977470;4.678011;14.767670;10.431660
9.702878;18.445990;23.700880;27.590090;-0.019715;-3.793682;-5.344498;27.398050;23.957810;-4.254725;36.006880;7.510298;-2.353181;-5.487372;37.323150;21.309680;2.492957;15.854060;8.207002
10.875880;25.755400;29.309740;31.434420;1.985194;-4.216054;-5.607171;26.309590;23.086500;0.432525;29.851430;14.910390;0.054983;-6.534200;36.437210;18.960900;1.940204;19.619400;6.939222
9.656696;35.306960;33.984410;30.690460;4.503039;-3.067584;-4.122734;25.611970;19.485500;5.410832;21.876350;20.308080;2.190521;-5.418033;32.482090;18.411310;2.523904;24.044790;5.991710
6.378734;42.075310;35.386890;27.492460;6.937839;-1.055179;-1.309419;24.961150;15.014300;10.051310;16.295590;21.943260;3.804652;-3.883727;29.002400;18.837140;3.469944;26.799740;4.691127
2.440951;41.977110;32.798180;25.476870;8.547925;0.604519;1.500207;23.772110;10.751030;13.777110;15.009320;19.377080;4.759388;-3.770968;27.644110;19.191810;4.330920;26.720100;2.943645
-0.651147;34.211360;27.333170;26.622650;8.849679;0.877601;3.057747;21.927970;7.008767;15.535080;16.705230;13.785050;5.163336;-5.758565;26.985190;18.976250;5.197299;24.364950;1.269296
-2.152687;21.800020;21.135980;29.816860;7.928929;-0.460961;2.870345;19.960030;3.936335;14.326660;18.289490;7.569736;5.412285;-8.944401;23.626520;18.309850;6.394299;21.398820;0.276930
-2.274269;10.058290;16.247030;32.214680;6.463464;-2.663938;1.400740;18.648940;1.880281;10.484810;17.307690;3.324024;5.931875;-11.512770;15.031510;17.556750;8.002889;19.382170;0.092569
-1.726408;3.865579;13.811280;32.007300;5.401806;-4.436739;-0.122736;18.502500;1.151196;6.321586;13.455410;2.566900;6.771402;-11.950510;2.265343;16.967490;9.673683;18.872820;0.259640
-1.126832;5.226646;13.855720;30.056560;5.442450;-4.702851;-0.249321;19.543510;1.561236;5.058545;8.262440;4.932542;7.460970;-9.932224;-9.492731;16.548580;10.895710;19.365880;0.169602
-0.778522;12.402850;15.467140;28.938660;6.601151;-3.238573;1.863045;21.420590;2.346103;8.463071;3.577341;8.339504;7.371544;-6.335863;-13.568490;16.068360;11.429900;19.900210;-0.406590
-0.887794;21.001600;17.137950;30.270550;8.140659;-0.789479;5.690215;23.551850;2.655898;15.004960;0.278085;10.106020;6.314726;-2.549483;-6.286954;15.080510;11.447830;19.715350;-1.183592
-1.845208;26.339690;17.213810;32.744810;8.948817;1.383683;9.296486;25.141120;2.171974;20.262330;-1.830499;8.371991;4.790997;0.297797;9.602292;13.031470;11.201530;18.465600;-1.719325
-4.141717;25.738730;14.465580;32.737600;8.180952;2.225731;10.397490;25.255280;1.230547;19.642670;-3.129238;2.991865;3.548418;1.652687;25.336650;9.581606;10.534240;16.001250;-1.880579
-7.874858;19.532210;8.664752;27.160230;5.795977;1.431002;8.081302;23.229460;0.296403;11.568980;-3.320477;-4.563759;2.795843;1.388905;30.854730;5.036867;8.764907;12.128650;-1.935008
-12.263460;10.379830;0.835125;16.258460;2.647457;-0.480303;3.915895;19.290340;-0.714261;-1.248917;-1.473343;-12.102280;1.879239;-0.402704;21.191790;0.487195;5.192617;6.712799;-2.173789
-15.704180;1.494112;-7.111947;3.990729;0.045485;-2.529241;1.255475;14.834600;-2.558878;-13.460330;2.981889;-17.758180;-0.068172;-3.336134;0.282311;-2.702742;-0.113251;0.070074;-2.471486
-16.532960;-5.042409;-13.283010;-4.481742;-0.966264;-3.812937;2.801385;11.851420;-6.013723;-20.435090;9.104796;-20.616120;-2.909600;-6.457100;-20.821960;-3.881505;-5.930984;-6.771204;-2.310747
-14.078910;-8.900887;-16.734390;-6.338526;-0.186619;-3.894166;8.046709;11.662250;-10.952880;-20.891380;14.149350;-20.753660;-4.859805;-8.232922;-30.636320;-3.820223;-10.379310;-12.326010;-1.381665
-9.284923;-10.921130;-17.814990;-2.973388;1.658240;-2.890854;12.761300;13.896660;-16.001830;-17.029830;14.622430;-18.935500;-3.308961;-7.149292;-24.565450;-4.360703;-12.065730;-15.376340;-0.264583
-4.393813;-12.001320;-17.697670;1.207792;3.354941;-1.314876;11.428920;16.648380;-19.193210;-12.408890;8.316871;-16.251230;3.176229;-2.707806;-7.829950;-6.979588;-11.077120;-15.673940;-0.489781
-1.815970;-12.402660;-17.483360;2.087242;3.877618;0.185761;1.263345;17.865170;-19.227340;-9.429879;-3.802841;-13.790500;13.161260;3.889292;8.156442;-11.266230;-9.019711;-14.082300;-3.700662
-2.854321;-11.935020;-17.575320;-1.304909;2.888726;1.056625;-15.104850;16.924910;-16.403360;-8.302838;-17.161890;-12.299070;22.535930;10.044930;13.493010;-14.671470;-7.988213;-12.025810;-10.413980
-7.058474;-10.691180;-17.758670;-6.453825;0.813910;0.999336;-30.547080;15.069800;-12.498860;-7.898581;-25.291280;-11.846430;26.862890;13.095420;6.152902;-14.080590;-9.162139;-10.644500;-19.317740
-12.557590;-9.526465;-17.796280;-9.596749;-1.463303;0.070590;-37.684200;14.283830;-9.666038;-7.322205;-23.189220;-11.733020;24.398140;11.900820;-7.427727;-8.278495;-12.036460;-10.261090;-27.744380
-17.100850;-9.720762;-17.910830;-8.636742;-3.028136;-1.303582;-33.601210;15.568330;-9.138046;-6.691211;-10.565380;-10.867420;17.538850;7.634366;-17.659070;0.588485;-14.833080;-10.487740;-33.094220
-19.150300;-12.009550;-18.659510;-4.482713;-3.235240;-2.451447;-21.641240;18.143240;-10.635650;-6.616168;7.206959;-8.524860;11.445880;3.178611;-18.791340;7.947397;-15.763270;-10.779840;-34.245340
-18.446240;-15.794820;-20.305320;0.024532;-1.819375;-2.733148;-8.967054;20.278570;-12.800480;-7.202218;21.569410;-4.998124;10.669420;1.465602;-12.338920;9.754134;-14.205650;-10.929370;-31.981630
-15.877030;-19.296680;-22.304900;2.492685;1.081089;-1.879040;-1.715997;20.936470;-14.241950;-7.772976;25.653790;-1.586581;16.155860;3.810800;-4.707636;5.391040;-10.989120;-11.124380;-28.216850
-12.897520;-20.680140;-23.480160;2.643607;4.885830;-0.199354;-1.315823;20.607910;-14.434540;-7.673548;18.574440;0.193526;24.765150;9.271761;-1.422140;-1.761815;-7.691104;-11.631180;-24.684520
-10.888490;-19.363330;-22.837940;2.011432;8.563319;1.504165;-4.503775;20.483310;-13.932120;-7.314217;6.047337;-0.342458;31.545610;15.351250;-2.849085;-6.699562;-5.579976;-12.475750;-22.080730
-10.717010;-16.477660;-20.378210;2.135007;10.811130;2.334276;-6.649678;20.767080;-13.903600;-8.258173;-3.501501;-2.539384;32.986630;19.495550;-4.740238;-6.425856;-4.989105;-13.433960;-20.161150
-12.539340;-14.048420;-17.165620;2.920618;10.512930;1.804869;-5.511891;19.930140;-15.396820;-12.012360;-4.879388;-4.853833;28.898120;20.416320;-2.706480;-2.053683;-5.445427;-14.280870;-18.455140
-15.785350;-13.459500;-14.534730;2.607479;7.314719;0.155947;-2.499524;15.925800;-18.773490;-18.465070;0.193099;-5.921187;21.828160;18.514200;3.530522;2.331431;-6.237803;-14.968120;-16.802690
-19.309300;-14.371850;-13.060720;-0.655977;1.953502;-1.737756;-0.787310;8.454370;-23.532120;-25.408850;4.645919;-5.396882;14.899970;15.336870;9.854182;3.206726;-6.849006;-15.486170;-15.219330
-21.752350;-14.973020;-12.180800;-6.999677;-3.978997;-2.840425;-2.235308;0.079608;-28.505670;-29.770870;1.948414;-3.949735;9.980121;12.566260;11.547270;0.702058;-6.962115;-15.546410;-13.345140
-22.096390;-13.433670;-10.836430;-14.362060;-8.815994;-2.547595;-5.832245;-5.228355;-32.325390;-29.718800;-8.175645;-2.537720;7.427465;11.165800;7.629421;-1.382340;-6.256956;-14.502860;-10.221960
-20.204230;-9.497004;-8.630235;-19.830050;-11.711720;-1.050452;-8.798962;-5.201306;-34.017870;-25.995250;-18.952600;-1.701964;7.060943;11.062140;1.745798;1.143996;-4.426947;-11.793190;-4.887193
-17.011770;-4.971372;-6.501253;-21.762770;-13.076320;0.747328;-9.076883;-1.302361;-33.532750;-21.399650;-21.759170;-1.511113;8.947530;11.365790;-1.253645;8.810254;-1.561452;-7.673181;2.533706
-14.140420;-2.676385;-6.262224;-21.013640;-14.231820;1.720954;-6.840436;2.443555;-31.907870;-18.818440;-13.468020;-2.072115;13.060570;10.908660;0.043086;17.060210;1.460890;-3.594073;10.186250
-13.036830;-4.533938;-9.261512;-20.256380;-16.486220;1.152419;-3.791610;3.142020;-30.832630;-19.341940;0.081693;-3.891827;18.274880;8.841601;2.060865;19.007830;3.117160;-1.677056;15.081610
-14.106010;-10.144770;-15.176850;-21.893760;-20.225760;-0.850957;-1.184889;1.987638;-31.678650;-21.849470;7.829668;-7.482163;22.099550;5.083378;-0.575274;10.665620;2.099304;-3.401727;14.787600
-16.396200;-16.866710;-21.894970;-26.117230;-24.615790;-3.376264;1.285427;3.409684;-34.489890;-24.175810;2.070774;-12.413120;21.994180;0.451321;-9.767164;-5.223438;-1.610399;-8.355340;9.115571
-18.097580;-21.357840;-26.613690;-30.561860;-28.083260;-5.157440;4.535834;10.522580;-37.621280;-24.716290;-14.766130;-16.773670;17.494600;-3.637994;-21.340110;-19.907770;-6.319145;-14.051490;0.524316
-17.594540;-21.537620;-27.382680;-31.799430;-29.233400;-5.229351;8.047706;20.636420;-38.426070;-23.144170;-30.865410;-17.891670;11.229960;-5.850346;-27.778530;-23.860320;-9.393516;-17.178650;-7.205026
-14.421240;-17.667220;-24.010640;-27.583140;-27.602070;-3.447250;9.007203;25.290550;-34.721020;-19.872160;-33.340800;-14.127730;7.496869;-5.704278;-24.344530;-13.116660;-8.880366;-15.593760;-11.214850
-9.504781;-11.900730;-17.809300;-18.289150;-23.816920;-0.597696;4.020177;15.929360;-26.158580;-15.059890;-18.049370;-6.438469;9.093282;-3.973153;-13.438410;7.689311;-4.896221;-9.726853;-11.213900
-4.541539;-6.715096;-10.539990;-6.672462;-19.169450;1.972944;-7.640739;-8.608101;-14.589110;-8.289371;6.734272;1.729583;14.890620;-2.375061;-3.208869;27.826450;0.273577;-2.363506;-9.388259
-0.932510;-3.340199;-3.443481;3.725078;-14.954840;3.040238;-22.079850;-38.937460;-3.106837;0.736343;25.938510;6.498142;20.421080;-2.615474;-1.130090;36.930950;3.568132;3.128593;-8.679150
1.003689;-1.222246;2.998059;10.344500;-11.986530;2.147911;-32.293040;-59.763230;5.650319;11.200280;28.598700;6.237889;21.448440;-5.312553;-7.630832;31.156920;3.150385;4.948673;-10.672220
2.026252;1.216239;8.624440;12.486690;-10.471460;-0.132216;-32.578320;-59.744710;10.860260;20.977350;15.834900;2.834197;17.839210;-9.506185;-15.124970;15.045050;-0.369560;3.912460;-14.566980
3.222390;5.141907;13.084670;11.037640;-10.163080;-2.491765;-22.660890;-39.512730;13.672270;27.629860;-0.146421;0.416758;14.360290;-13.145820;-13.571500;-1.841482;-4.367416;2.690908;-17.866860
5.076990;10.231760;15.790070;7.586612;-10.600560;-3.597534;-8.210089;-11.621630;16.110820;29.870770;-5.212168;2.360738;17.168010;-14.328610;1.609985;-10.965740;-6.016899;3.801449;-18.199620
7.036031;14.682880;16.343000;3.682240;-11.313230;-2.842185;2.921935;7.860160;19.512230;28.290220;6.360221;8.781404;28.254190;-12.536040;25.445150;-9.475554;-4.231221;7.774712;-14.946970
7.867145;16.287720;14.970450;0.554383;-11.980160;-0.703330;6.030572;10.011910;23.556180;24.749650;28.036450;16.447450;42.187260;-9.070680;46.338650;-0.746320;-0.401155;12.755560;-9.604373
6.543098;13.854610;12.497680;-0.910864;-12.551190;1.515785;2.429900;-1.867374;26.509430;21.002180;46.170030;21.196240;48.248770;-6.379663;53.736740;8.885703;2.550023;15.760660;-4.743959
3.007773;8.052549;9.851557;-0.304961;-13.266720;2.434550;-2.258968;-16.213110;26.467790;17.744360;49.849500;20.992790;37.179080;-6.650196;44.678120;14.451720;2.115047;14.676790;-2.381090
-1.713211;1.151876;7.536126;2.016922;-14.488980;1.403042;-2.899867;-22.597610;22.735700;14.850100;38.040470;17.293710;8.068303;-10.515110;24.601440;14.762740;-2.169139;9.643354;-2.826937
-6.111825;-4.159692;5.545437;4.845927;-16.370570;-1.110388;1.181907;-19.034140;16.429530;12.399040;19.269070;13.740170;-29.639860;-16.628100;2.542944;11.776880;-8.452890;2.967488;-4.658132
-9.059823;-6.141076;3.755702;6.578548;-18.568070;-3.788736;6.142915;-11.816330;9.923905;11.342870;4.982861;13.298200;-60.884360;-22.333640;-14.884440;8.111154;-13.751590;-2.261019;-5.671807
-10.331030;-4.725220;2.374746;6.121628;-20.270750;-5.233882;7.298526;-8.861551;5.505266;12.983110;2.041979;16.104150;-73.604120;-25.022330;-26.021320;4.940302;-15.729880;-3.894259;-4.161110
-10.468650;-1.241396;1.961789;3.633067;-20.633820;-4.770633;3.304752;-12.665960;4.080974;17.589370;9.485593;19.590920;-65.585910;-23.410860;-32.064810;1.744768;-13.959400;-1.751914;0.191860
-10.179210;2.575784;2.935785;0.452286;-19.375300;-2.809154;-2.674882;-18.760900;4.735887;23.421070;20.732200;20.604160;-45.090580;-18.087740;-33.341350;-2.360476;-9.969865;2.516260;6.169276
-9.759125;5.571445;4.999471;-1.853936;-17.087550;-0.565478;-5.700719;-20.457830;5.393438;27.242360;28.398870;17.725390;-25.112670;-11.109160;-28.024640;-7.187629;-6.221288;6.455775;11.569280
-8.978737;7.519264;7.048918;-2.654718;-14.948650;0.667931;-3.270370;-15.242090;4.161447;26.222720;28.014020;12.057710;-15.392720;-4.931836;-14.627900;-11.217740;-4.727365;8.033552;14.148570
-7.447921;8.729686;7.765855;-2.682332;-13.950000;0.251587;2.593506;-7.054530;0.532291;19.901610;19.022980;6.129047;-17.492560;-1.266236;4.325354;-12.603860;-6.126110;6.456220;12.570070
-5.098755;9.379277;6.511103;-3.298538;-14.164390;-1.492281;7.120639;-2.627884;-4.292667;10.720830;4.058657;2.059462;-25.693960;-0.406061;21.516070;-10.423870;-9.590686;2.341153;6.999879
-2.352958;9.197458;3.847936;-5.125834;-14.616950;-3.532672;6.878242;-5.381713;-8.133940;2.675700;-11.948890;0.502763;-32.263550;-1.299415;28.615780;-5.097052;-13.443300;-2.658020;-0.899975
0.164061;7.794036;1.275307;-7.172007;-13.911560;-4.747381;2.675719;-12.407810;-9.138223;-0.951242;-22.629030;0.952398;-32.879310;-2.242596;22.171460;2.235038;-16.012920;-6.528753;-8.634524
2.098833;5.313781;0.337836;-7.275438;-11.197590;-4.522297;-1.164154;-17.144360;-6.823434;0.811743;-22.052110;2.748849;-28.544800;-1.791643;6.863434;10.599140;-16.286260;-7.648199;-13.950660
3.601707;2.760238;1.726541;-3.664933;-6.780149;-3.009512;-0.532285;-15.202130;-2.226461;6.646228;-7.993233;5.670815;-23.377840;0.573996;-6.865575;19.427290;-14.136400;-5.399802;-15.821330
5.089064;1.554525;4.951186;3.528179;-1.923206;-0.957274;4.906071;-8.082082;2.868058;14.236150;15.220750;9.635461;-20.715990;4.324641;-9.457128;27.965130;-10.173990;-0.452063;-14.813290
6.723059;2.539151;8.717090;12.038200;2.004827;0.729978;11.345070;-1.555403;7.023185;21.632900;37.235960;14.042700;-20.777860;8.273117;1.582873;34.605110;-5.408218;5.462636;-12.617170
8.065441;5.179952;11.659450;18.808540;4.402116;1.432540;14.027210;-0.326392;9.793803;27.731710;46.780180;17.661890;-21.356060;11.207490;20.362740;37.109740;-0.902062;10.255660;-11.007790
8.249521;7.678006;12.935390;21.969350;5.684358;1.046416;11.372020;-3.871419;11.528130;31.887240;38.790400;19.349970;-20.384370;12.408210;36.803060;33.933100;2.480008;12.398140;-10.856220
6.596169;8.049667;12.396670;21.967180;6.772868;-0.053984;6.589836;-7.160209;12.595480;33.473520;18.434860;18.952330;-17.889170;11.827370;42.995030;25.755550;4.220639;11.591210;-11.774180
3.212594;5.457216;10.412020;20.985390;8.266065;-1.242995;5.301345;-5.482220;12.742960;32.068980;-1.656575;17.441300;-15.709000;9.939961;37.204270;15.895280;4.221089;8.816544;-12.549040
-0.918813;0.809082;7.583710;21.112550;9.959661;-1.928278;10.880790;1.089931;11.157550;28.117640;-9.704851;16.034150;-15.486850;7.445313;23.340970;8.928687;2.805388;5.726543;-12.021340
-4.486471;-3.849774;4.528597;22.687170;11.069370;-1.782281;21.124820;7.666462;7.225306;23.244680;-2.768489;15.065220;-16.923110;5.005790;7.321874;8.177420;0.629992;3.716899;-9.820092
-6.669924;-6.734131;1.728077;24.089600;10.934660;-0.858627;28.959550;8.939431;1.394703;19.592340;11.715030;13.737090;-17.921410;3.097952;-6.374954;13.661600;-1.535006;3.200315;-6.544274
-7.653568;-7.483490;-0.606395;23.092410;9.610533;0.431465;26.938050;4.006953;-4.575352;18.460370;22.168120;11.119860;-16.489540;1.943308;-15.727940;21.907690;-3.130363;3.455927;-3.389696
-8.472531;-7.267833;-2.620180;18.655550;7.872967;1.481373;12.485330;-2.735572;-8.276300;19.326390;22.045230;7.538447;-12.667420;1.476382;-20.141030;27.770690;-4.113693;3.077077;-1.545662
-10.314750;-7.826159;-4.737629;11.748140;6.652564;1.751077;-9.752629;-5.418602;-7.865076;20.188670;14.618450;4.946422;-8.714959;1.375004;-19.386720;27.112100;-5.053029;0.724277;-1.717153
-13.775020;-10.215120;-7.365866;4.617788;6.362576;1.036819;-30.145840;-1.780850;-3.091245;19.135500;9.542670;5.642544;-7.307215;1.213544;-13.907210;18.731520;-6.864243;-4.206352;-3.923211
-18.540030;-14.176420;-10.516520;-0.803245;6.644218;-0.381053;-39.529950;5.025642;4.479500;15.965240;14.108930;10.183020;-9.229475;0.726617;-5.882411;4.618234;-10.240040;-11.265030;-7.513479
-23.624030;-18.451040;-13.614900;-4.020195;6.695744;-1.816540;-34.426200;9.445475;12.157840;12.525160;26.537530;16.265550;-12.541390;0.035499;0.706972;-11.249580;-15.054650;-19.043970;-11.309200
-27.885430;-21.610800;-15.682140;-5.779586;5.892385;-2.485275;-18.808940;8.556574;17.345910;11.408520;37.026350;19.795350;-13.977730;-0.365340;1.950970;-24.587280;-20.135940;-25.608520;-13.877360
-30.440970;-22.690240;-15.810720;-6.880122;4.211141;-1.908769;-1.433647;4.594565;18.669350;13.977030;35.819490;17.630170;-11.486330;0.063237;-3.294857;-32.107210;-23.648770;-29.131500;-13.999250
-30.801600;-21.271210;-13.626350;-7.155472;2.174153;-0.201708;9.511890;2.775739;16.535240;19.254030;21.644180;10.026960;-5.840261;1.436653;-12.195510;-32.213920;-23.972070;-28.564100;-11.266840
-28.847420;-17.279210;-9.439157;-5.586319;0.421130;1.934572;11.099850;6.493576;12.905630;24.563900;3.449909;0.855556;-0.008842;3.186363;-19.558140;-25.311980;-20.596840;-24.116140;-6.514229
