Channel 1 - P4;Channel 2 - O2;Channel 3 - P8;Channel 4 - T8;Channel 5 - C4;Channel 6 - Cz;Channel 7 - Fz;Channel 8 - F4;Channel 9 - Fp2;Channel 10 - F8;Channel 11 - Fp1;Channel 12 - F7;Channel 13 - F3;Channel 14 - C3;Channel 15 - T7;Channel 16 - P7;Channel 17 - P3;Channel 18 - O1;Channel 19 - Pz
-45.11255806;-28.32165163;-22.35809195;4.867222887;-53.37040196;-4.102727796;-59.07233376;-71.61578715;-58.11551385;3.848564483;-44.62414977;-29.05496733;-57.17878667;-15.77578487;-9.202436715;-23.08283382;-30.2049611;-23.64533427;-37.92531254
-45.91534884;-30.29049571;-21.02170287;5.27386868;-61.61936758;-3.697907168;-62.92420361;-82.89254541;-65.05733699;2.132729106;-61.50156714;-41.39729567;-86.469369;-23.11926417;-32.50019555;-44.73218627;-38.19376057;-30.58204634;-46.59444728
-33.46533102;-24.08835245;-13.22981282;4.826932316;-50.53915633;-2.788130604;-42.59350863;-67.3554847;-47.25301319;2.278147927;-52.23271038;-34.93550302;-91.146744;-18.61994299;-39.45282813;-50.82349166;-29.96185566;-27.04033345;-36.33442945
-14.04091852;-11.60276095;-3.248226947;4.370216467;-25.45229277;-1.834020895;-8.223561363;-33.04125576;-15.9595428;4.738516648;-24.90766316;-15.2848567;-71.22165545;-6.161258214;-27.09769769;-39.64228043;-10.56670027;-16.47661829;-12.54424243
2.125653596;2.002213485;3.655466171;4.328041761;0.743794577;-0.876678852;21.63953233;1.56576565;11.02570881;8.383015473;4.335169857;4.998560005;-41.03054405;5.776963157;-5.735520967;-19.94892561;8.670814444;-5.705880701;12.33855681
7.608096658;10.98457053;4.929898864;4.62615163;16.07729611;0.296162425;32.35768795;19.74382232;20.43085944;10.93821412;20.97881034;14.58914789;-19.5631861;10.01103283;8.247256359;-4.64130735;17.72290613;-0.244799009;26.86890878
2.3807617;12.24347476;2.17637753;5.071670066;16.81273606;1.725537703;22.80982323;16.82859782;10.50460141;10.37819247;19.28355311;10.11074387;-17.8693069;5.292552105;4.549545464;-1.839786346;14.07585371;-0.976319815;27.3412143
-7.025739969;6.935276556;-0.645256957;5.679872124;8.524356819;3.019040798;5.182379479;1.606265884;-10.27490534;6.256971389;2.979491304;-3.075226693;-32.5623473;-3.538317353;-13.29657913;-9.971520668;3.300118016;-4.398317932;18.71202147
-12.87332346;-0.560444647;-0.588700252;6.553296832;0.734030842;3.521228914;-4.786909081;-11.43484017;-30.71288682;-0.034078043;-19.43960222;-15.90307546;-49.81605294;-9.665626469;-30.7994231;-20.14036471;-5.955259803;-5.91867225;9.683144832
-11.74936823;-5.467768857;2.174966708;7.476880867;-0.346242576;2.809309414;0.364424255;-12.68168055;-44.46336092;-6.244660975;-40.42643127;-22.17672545;-56.3657536;-9.322751064;-33.81709866;-23.40839519;-8.352783733;-3.401385469;6.169357932
-6.098781695;-5.152164304;5.186614456;7.802988765;4.550723386;1.116530815;14.80299793;-3.015833968;-52.42186079;-10.65643522;-56.26903973;-21.81211079;-48.98493494;-3.954731151;-19.35389618;-17.12190569;-4.795079653;1.777955415;8.076024321
-1.023731491;0.271809433;6.57449747;6.985201469;9.934245102;-0.682975105;24.63986303;8.911653765;-59.41091489;-12.81273206;-66.59447331;-19.02869646;-35.53856599;1.77345748;2.653337022;-5.702021044;-0.17566299;6.680957224;11.18177604
0.527670731;9.203367647;7.31744437;5.41966242;11.0357347;-1.568689243;18.99562134;14.5948517;-68.97801439;-13.19311968;-72.67268897;-17.8595814;-27.54793432;4.117502448;17.70639754;3.953879995;1.5571515;9.775784615;11.73587603
-0.010072441;20.1521546;10.75376865;4.747047022;7.75573391;-1.024875884;-1.732716549;12.09427378;-80.79905916;-12.39885755;-76.71471203;-19.04494634;-30.71781028;3.059378208;18.22152193;8.158605206;0.676745211;12.24525596;9.57744627
1.121696621;32.14647933;19.58561179;7.042957103;4.03456951;0.599638754;-26.43704299;6.238940798;-92.17549242;-10.76390637;-82.20238724;-20.5681149;-40.99104895;1.682056796;8.761161893;8.587853134;0.77410558;16.55985272;7.411731991
5.77977136;43.85664929;32.88656178;13.26450976;3.702820951;2.27326429;-41.69870489;3.323556273;-101.4104756;-8.740598098;-93.50936612;-20.65296586;-48.80114643;2.973610002;1.09744926;9.695815633;4.900068359;23.71089121;7.488545223
11.50291292;52.79574204;45.80822905;22.12706186;6.744675741;2.889982992;-41.22110161;5.332419095;-109.6182991;-7.501272445;-113.6158422;-20.03283971;-47.48901025;6.962579484;3.698161238;14.20683893;12.40950242;31.69037213;9.104600428
13.22291491;56.01845284;52.56750559;30.46165031;9.260058594;1.91960305;-29.28454395;8.557404239;-119.4578071;-8.857360712;-141.0569067;-21.31883527;-38.78186535;10.61487162;14.68543068;20.74869372;19.31586653;36.71126688;9.314547776
7.731531806;52.24984751;50.57984936;35.0182182;7.014265651;-0.287562245;-16.3355645;7.350282463;-132.29633;-14.20588338;-168.9253347;-26.19884029;-31.05353459;10.47476928;24.08333751;25.41182618;21.74624259;36.24992171;6.093159805
-2.972077928;43.69047663;42.52868798;34.48033343;-0.651394291;-2.693982565;-10.8835726;-0.625212486;-146.6228686;-23.23299669;-187.7940159;-33.268416;-32.18687282;5.729092758;23.12733458;25.46704201;19.36401955;31.3474254;0.849373073
-12.48263691;35.53294098;34.65831033;30.18336725;-9.978165674;-4.124160333;-14.12637876;-12.25221828;-159.146374;-33.55403948;-191.3124262;-38.69612191;-43.12231985;-0.901306431;12.43571774;21.79051118;15.7181972;26.14576415;-2.25164663
-14.49591131;32.9216607;32.4828117;24.98897077;-15.71020257;-3.856837095;-20.82048952;-21.55786047;-167.43368;-41.84120636;-180.6190277;-39.28567236;-57.26069445;-5.1648935;1.945782891;17.99968466;15.20372335;24.9062882;0.216732174
-7.444301162;37.36697648;37.09886134;21.21662662;-15.24589356;-1.968059888;-24.67773689;-24.5315379;-171.6012352;-45.76094342;-164.0732894;-35.25436656;-65.85255061;-4.520946723;2.630614171;17.35386572;19.2530737;28.84810904;7.651312979
4.46115085;45.46285024;44.79285413;19.2643715;-10.53476746;0.711534169;-23.36852643;-21.93716726;-173.6053213;-45.28889353;-152.1495521;-30.22818519;-64.69502705;-0.036998036;17.01593936;20.31710888;25.00710557;35.31;15.34155865
14.56307521;51.21553817;50.07104308;17.93874318;-6.250772159;2.979668769;-19.31442677;-17.9155542;-174.9816774;-42.40154048;-151.0320756;-28.38037483;-56.75588781;4.456556024;36.50461274;24.79965324;27.56894833;39.86787071;17.92172227
18.71448836;50.45595564;49.6740462;16.06967837;-5.922537585;3.808860092;-16.43322024;-15.95519117;-175.282868;-39.43898781;-159.4554605;-31.13471101;-49.03130687;5.153886625;47.77646549;28.49680777;23.93339713;39.70070578;13.62077544
17.92017894;43.99495852;44.56315478;13.93451554;-9.286135721;2.824108364;-16.27721296;-15.97467799;-172.71377;-37.49016596;-170.7859405;-36.21066711;-46.69766387;0.810165134;43.0158866;30.90227512;15.36831321;35.59481395;5.818223
16.77;36.99602806;38.62731997;13.24035711;-12.90968903;0.500267032;-16.98928512;-15.01655998;-166.3469039;-36.05546721;-178.323304;-39.72324302;-49.48894226;-6.735542878;25.72446771;33.11439018;6.426385896;31.16221711;0.599435136
19.2370548;34.95803209;35.4411155;15.69494476;-13.30988857;-2.033579405;-15.60920464;-10.6718345;-157.794378;-34.08642917;-179.5847493;-39.41916668;-52.93359337;-14.10174512;7.718346624;35.83876369;1.577833734;30.06338125;2.2677732
25.39058678;39.40733726;35.73750055;21.41011099;-9.806033346;-3.527681724;-11.25968661;-3.922055523;-150.6742196;-31.31596385;-176.5987889;-36.24598687;-52.85575826;-18.52983472;0.137935446;37.79996572;2.264797795;33.44882093;10.36172665
31.54227046;46.67597287;37.40897286;28.49399259;-4.82269181;-3.246545599;-6.192985234;1.278750688;-148.1746473;-28.62183412;-172.7402153;-33.03552254;-49.02956412;-19.09324089;5.822026089;36.40141627;6.566092113;39.43053559;20.37188491
33.35869364;50.72617894;37.68535807;34.14923232;-1.676432361;-1.37447103;-3.817769037;1.331538527;-150.7083168;-27.13596145;-169.3518011;-31.67214916;-44.99517756;-16.46043369;18.70022301;30.27787688;11.33348368;44.67429884;27.29546514
29.14208631;47.80708778;35.49625728;36.35229063;-1.957723662;1.057567494;-5.577393972;-3.768853712;-155.5910178;-27.01714978;-165.141566;-31.3960219;-44.54810695;-11.92999116;29.77945391;21.42789525;14.70738402;46.66642389;29.014886
20.66926288;39.34344693;32.15754765;34.81928578;-4.713222513;2.722762547;-9.494222452;-10.19368069;-158.9875663;-27.13249533;-158.5629919;-29.76322978;-48.17459211;-6.756088284;34.17091683;14.74299468;16.93632744;45.01318445;26.95413236
11.29891096;30.92450811;30.11471363;30.71343332;-7.843474031;2.738048194;-11.6449927;-13.26828562;-158.545932;-26.03882511;-150.6320202;-25.31214839;-52.49153803;-2.109707691;33.53706275;14.91885386;19.18618378;41.19291578;23.96468148
3.35190583;28.32577406;31.06111178;25.65592659;-10.16794882;1.164093133;-9.276058513;-11.08347861;-154.7060361;-23.40614036;-145.285226;-19.40839452;-53.00144046;0.799980563;32.86471764;23.04650344;21.82408402;37.41264039;21.66193007
-2.915143988;33.66913887;35.02316457;21.03590999;-12.20085358;-1.041040443;-2.934551496;-5.653107253;-149.8667931;-20.54310345;-146.6306371;-15.4689002;-47.70228278;1.039220143;35.30136734;35.59988463;23.91273146;35.59629648;19.57173947
-8.168078686;44.45912065;40.907188;18.04281948;-15.06200411;-2.595593073;4.076725673;-0.782705737;-146.305155;-19.4434209;-155.2532522;-16.13631096;-38.59366296;-1.350039063;39.7986893;46.67922382;24.27860175;36.95898911;16.52534634
-12.18598923;55.80762582;47.65117159;17.91915908;-18.75038226;-2.649438918;8.339446219;1.293342294;-144.5515715;-21.10840715;-166.6958585;-20.86540564;-30.078543;-4.982965943;43.07087561;51.8175303;22.92010672;41.87721497;12.62
-13.39170381;63.76639767;54.74191567;21.64138214;-21.57234647;-1.263015757;8.821779308;1.488214557;-143.326884;-24.60378336;-173.5919095;-26.1041319;-25.81043825;-7.744576741;43.23676451;50.53402979;21.21444115;49.63948403;9.657554989
-10.29380215;67.20348103;61.68944075;28.92454003;-21.3818451;0.669803945;7.280841136;2.393411248;-140.8191146;-27.71677588;-170.1093198;-28.03513469;-26.53646413;-8.183967655;41.31088581;45.95941839;20.60636875;58.18510381;9.554369973
-3.449927013;67.23741123;67.21715362;37.44087218;-17.55228839;1.984232707;6.435163726;5.318483319;-136.1607092;-28.69414298;-155.6493327;-25.62324844;-30.33131154;-6.648123671;39.28315489;42.1783415;21.01395283;64.41256306;12.2460113
4.074963807;65.33580879;69.28532438;43.37050668;-11.86399751;1.930520989;7.577453502;8.699860818;-130.054139;-27.58965823;-135.3566521;-21.419448;-34.55060056;-5.126287513;37.15573189;41.47847856;20.57;65.40173586;15.18699945
8.491520654;62.00509298;66.26925338;43.44202183;-7.414369642;0.571898672;9.634460893;9.396476498;-124.2830006;-26.08366153;-117.2592845;-19.44990158;-37.6668083;-5.751837747;32.40545707;43.35175046;17.14199439;60.04408346;15.14019652
7.997679245;57.04391576;58.41058205;37.20093294;-6.391902697;-1.310804281;10.39132509;5.679024605;-120.5928368;-25.96633988;-107.9693953;-21.94852849;-39.67053;-9.055340978;22.85797331;45.43718755;10.4016175;49.92615151;10.84298336
4.156088059;50.68601935;48.19466059;27.67344451;-8.54802037;-2.703618978;8.797433349;-0.863806516;-119.6565807;-27.62302972;-109.4574168;-27.61175886;-41.17597109;-13.36803964;10.31219157;45.19497126;2.596284092;38.61089332;4.246996108
0.696194621;44.18212419;39.06910391;19.57504392;-11.59365549;-2.91803773;6.380478004;-6.303178645;-120.6274444;-29.81593088;-118.4244867;-32.73373879;-42.36612787;-15.91700092;1.019829558;41.0343475;-2.796758237;29.61523486;-0.82494109
0.623648629;39.08278496;33.29287353;16.11501926;-13.1098638;-1.911275026;6.455880453;-7.413491079;-121.4557188;-30.88320393;-128.236423;-34.19410805;-42.71702134;-14.81240597;1.67144725;32.59648137;-3.545571387;24.45474589;-1.57235954
3.920206653;35.88468242;30.50795289;16.72670304;-12.33925917;-0.235861334;11.5009023;-4.100269093;-119.8705031;-30.2364981;-132.2487281;-31.83322831;-41.50218674;-10.41627277;13.70101448;20.73398509;-0.285540186;22.15219396;1.691970569
7.619384806;33.41059145;28.14433414;17.54554604;-10.44233638;1.294157586;20.53976567;0.886454229;-114.6434472;-28.82944436;-126.9748004;-28.38535377;-38.40915463;-5.086541619;30.72321918;7.610626053;4.011230535;20.48845246;5.92715957
8.111444042;29.65369435;23.38033219;14.42626912;-9.191099905;2.007837845;28.61042513;4.580735523;-106.464325;-28.24074608;-113.727143;-27.19468536;-33.73648464;-1.572518477;41.79322089;-3.407856511;6.254232525;17.92146602;7.83381081
3.811132604;23.46598352;15.21804747;6.297946104;-9.370556058;1.655052066;29.14855233;6.310130322;-97.73298471;-29.25423302;-97.91;-29.64310168;-28.22780473;-1.326769027;38.5675321;-8.742743129;5.347776564;14.65183839;6.350337059
-3.808368766;15.68334967;5.217593104;-3.686965905;-10.26494582;0.46589966;18.1625237;7.821394199;-91.09994705;-31.20442335;-86.09063422;-34.23986917;-22.90486011;-3.918390007;21.19036529;-6.471672565;2.609727651;12.13341684;3.226709994
-11.3775955;8.763564297;-3.487374204;-10.12341283;-10.5264964;-0.987085771;-2.378073896;11.03333552;-87.52422162;-32.58451473;-82.19588561;-37.83146542;-19.00092958;-7.741795962;-1.451042389;2.050884477;0.384601137;11.67094056;1.416765648
-15.85448709;5.281075991;-8.021827365;-9.011989332;-9.495717962;-2.03973719;-24.42720311;15.66293969;-85.26201851;-32.24839628;-85.0305908;-37.76056154;-17.69910319;-11.21603206;-17.26847828;12.31820529;0.170446417;13.43132848;2.786211877
-16.09397171;6.500986788;-7.138434603;-0.438490451;-7.750058594;-2.203840857;-37.70074953;19.0863641;-80.82060912;-30.07531537;-88.90603604;-33.34127297;-19.45059016;-13.48556891;-18.33548702;18.98937748;1.773299324;16.65784611;6.99072354
-12.87941467;12.00220675;-1.405985714;11.58647046;-6.47677696;-1.366445925;-35.56343953;18.67288813;-71.51570702;-26.60118141;-87.31139297;-25.8766389;-23.22865481;-14.30452641;-5.166203846;19.08266436;3.92471852;20.67011528;12.17521156
-7.868828312;20.28715413;7.50864059;21.83734908;-6.367991035;0.147691275;-19.34527657;14.43498898;-57.84723977;-22.19099384;-77.30541938;-17.66374475;-26.52437394;-13.59781811;14.34875195;13.77896035;5.510986704;25.50404165;16.56480128
-2.564388309;29.54549001;17.66348192;27.04689736;-7.101082491;1.689427862;2.001688915;9.425550194;-43.72714274;-16.7602267;-61.45115137;-10.93733452;-26.55130287;-11.37644982;29.84032126;7.429555549;6.211967299;31.47091837;19.4555705
2.014879125;37.92694995;27.23490618;27.34103758;-7.818901497;2.555365837;17.19182975;7.332350601;-34.05851424;-10.41148967;-45.69445432;-7.271466346;-22.09381091;-8.128055259;33.71637927;4.466320207;6.133901224;38.07309772;20.93575701
5.165481506;43.50764037;34.58960786;25.23499674;-8.036155382;2.318195602;19.69449082;9.353414531;-31.27120993;-4.275101744;-34.69893034;-7.278483314;-14.61499581;-5.123726917;24.09419687;6.533666181;5.089604249;43.47584043;20.9731064
6.454190125;44.63378543;38.46957836;23.3173769;-8.023846877;1.064241755;11.85229891;13.23016608;-33.4360709;-0.443554613;-28.35745516;-10.30311044;-7.536828651;-4.009125888;4.884139391;11.90254097;2.480944454;45.32251742;19.03167616
6.018217037;40.88591734;38.44674658;22.49855289;-8.295206487;-0.600975598;2.927792383;15.44014052;-35.51904679;-0.668186694;-22.46368204;-14.27122287;-3.977475718;-5.712755236;-16.05457763;17.29407485;-1.979977114;42.41678912;14.69466042
4.780602392;33.94311317;35.28322781;21.95521865;-8.755119353;-1.818264491;2.134890871;14.63434084;-32.91520621;-4.777663087;-13.12333544;-16.23841257;-4.581505251;-9.49290304;-29.76182933;20.31204523;-7.459061656;35.84478901;8.613137492
4.032844844;27.22023769;30.68276373;20.43935218;-8.457291602;-1.904822217;11.50326663;13.11877568;-24.57135923;-10.32027326;-1.112518095;-13.84509826;-7.170721486;-13.06189549;-29.58728572;20.43161949;-12.08563806;28.41706716;2.64652807
4.456282911;23.9511966;26.37293357;17.65143126;-6.3508647;-0.732822629;23.89847088;14.81596609;-13.32673859;-14.06119728;7.935586392;-6.971742817;-8.555858468;-13.95305631;-14.47;18.07441807;-14.13108443;22.69985763;-1.219224669
5.390270045;24.85858895;23.11655558;14.55883162;-2.406988318;1.158646342;27.97892759;21.35343964;-3.359106187;-14.32847562;8.260503118;1.703023649;-7.082030263;-11.23815615;9.509508038;13.20020053;-13.37878982;19.18522042;-2.368611066
5.180669628;27.32359212;20.45261967;12.54688922;1.960592775;2.806433998;16.703248;29.83606109;3.060339965;-12.26562921;-0.112313928;8.028852716;-3.849991369;-6.286643489;31.05680405;5.249938546;-11.44175924;16.15071699;-2.118223875
2.577451963;27.1103387;17.43506027;12.22651342;4.736480138;3.316245264;-6.892957316;34.61683475;6.876878283;-10.78561131;-9.685677028;8.970855295;-1.647761212;-1.906940656;39.14028532;-5.237114639;-10.59178633;11.40058882;-2.697477422
-1.881919035;21.68248093;13.78518831;12.9;4.853471493;2.349711838;-31.13714776;31.90397903;10.78885896;-11.93924857;-10.44989462;4.667675486;-2.535076413;-0.444436225;29.339066;-15.01803911;-11.95007813;4.488714079;-5.368929038
-5.771669644;12.62253566;10.46260991;13.09904831;3.193105719;0.333282044;-43.519595;23.3361716;16.56834329;-14.88075533;1.695837263;-1.63596577;-6.111312216;-2.229667321;6.899768222;-18.73791988;-14.50726981;-2.42748585;-9.216389766
-6.286770971;5.064850289;9.106333944;11.79281501;2.131669213;-1.744175312;-39.13386656;15.2225879;23.62131044;-16.26626355;19.83929714;-5.81429437;-9.844262785;-5.497691079;-16.05954714;-12.17926623;-15.8091278;-5.849393535;-11.63445178
-2.327639865;4.272932267;10.76229163;9.404366017;3.877124691;-2.853015286;-23.5;13.70572331;29.91834703;-12.92270572;29.25509545;-5.568494224;-11.05121251;-7.758832809;-27.76594716;3.960039063;-13.7849981;-3.330078125;-10.16681719
4.475727848;11.81556957;14.96466427;7.896256732;8.831789561;-2.485931164;-7.827065118;19.7071308;34.17043491;-4.630709323;17.62003906;-1.556237493;-8.788588056;-7.520899863;-23.62314115;22.99716363;-8.276074487;4.880844902;-4.258793611
10.69143845;24.27096208;19.98138293;9.746223281;15.21630499;-0.94842423;-0.593293794;27.99042878;37.04318884;5.364128431;-14.97981019;3.794329127;-4.152717751;-5.093197846;-7.993947346;35.50443813;-1.116748215;16.1360324;4.377371153
13.32898615;35.50492102;24.05515052;16.29844446;20.21182956;0.795937773;-2.02991737;31.41072123;40.26705947;12.66370792;-54.10011121;8.584101908;0.997608224;-2.017322819;9.942968439;35.15088354;5.160660856;27.19919325;12.90634951
11.71491035;40.78432155;26.60332775;26.42999523;21.73629655;1.652737028;-5.526510348;27.02053364;44.64422403;15.01317304;-79.26664753;12.77906532;5.54509754;0.252912769;22.69261009;23.10046999;8.866321585;35.9796926;18.98089754
7.628185514;39.56804001;28.34853545;36.47067582;19.57753099;1.011970968;-4.264608523;18.89052595;49.07918857;13.84825208;-77.0475361;17.47786326;9.511226746;1.333344943;28.28157609;7.605854614;9.784649231;41.89320586;21.60701197
3.722454655;34.94699866;30.25921202;41.74544084;15.2077171;-0.889275011;2.767638465;14.97039363;51.74258466;12.79775178;-49.53233788;22.97331457;13.25712933;1.904157755;29.1040028;-1.196631587;8.677722557;44.92774527;20.9044302
1.573670205;30.45541517;32.22423725;39.13194255;10.62967385;-3.063482869;10.41689082;20.19900701;52.27203315;14.4266763;-12.16407645;27.65359506;16.58675825;2.942471514;27.83295348;2.224506368;6.410813065;44.66656853;17.40555072
0.849067697;27.06194788;32.66531719;29.16459281;7.209846815;-4.285032198;12.6764478;31.39443606;52.69527587;18.02022442;17.20599555;29.05778706;18.82127289;4.955007293;24.66152137;15.46874279;3.580524697;40.41625973;11.75342379
0.044105991;22.84704761;29.53802775;16.15534323;5.237972833;-3.747032651;8.740058594;38.37895616;55.83944718;20.31902881;29.76328831;26.3356534;19.74950957;7.786210887;18.31149811;30.13158948;0.790377253;32.34382863;4.978197449
-2.061908967;15.47425697;21.99749907;5.865654562;4.241098195;-1.511748148;4.230571875;31.01506935;62.46718283;18.55343843;29.45868455;21.81520364;20.29589211;10.95007813;9.244605211;37.3153993;-1.073909093;22.34941991;-1.278282339
-5.52473011;5.128348215;11.38976456;1.961963492;3.542429611;1.487219849;6.264904856;7.082291682;69.88358969;13.09777729;27.11957904;19.86189094;21.93412153;13.99505926;1.19407088;32.753609;-1.231347077;13.45938314;-5.280850324
-9.527680586;-4.803609722;0.704072677;3.628588728;2.590945263;3.896908313;16.50659985;-24.99551993;73.67267661;7.357366201;30.45753381;23.48576354;25.19763486;16.53244054;-1.224717205;18.33957016;0.082761108;7.851895357;-6.355987541
-13.33296135;-10.06395258;-7.184207201;6.23188355;1.014718494;4.62084868;28.36994925;-50.85748379;71.34449744;4.899704599;38.15092667;31.32683352;28.76888876;18.04099856;3.027383832;-0.20821939;1.113422583;5.048078828;-5.710441264
-16.86600642;-8.981809458;-11.19848817;4.860326119;-1.335286488;3.373442625;31.25500321;-59.14;64.64878469;6.285789948;42.25082817;37.75;30.31665195;17.86644876;9.31176588;-17.15235754;-0.671375294;1.964398242;-5.941927075
-20.39872561;-4.113893347;-12.44529811;-1.710977364;-4.188513169;0.828868434;18.79322698;-48.35998778;58.21800051;8.405528055;36.14283588;36.49676584;28.61804554;15.63569327;10.32291936;-29.19623339;-6.800952093;-4.864153932;-9.29142324
-23.75172102;-0.569630727;-13.07479321;-9.730553818;-6.691757147;-1.715208962;-5.470745731;-27.09241172;55.48221362;7.018971927;21.00452448;25.41333716;25.06256002;11.79651582;2.280545002;-35.5318732;-16.29170601;-16.4203169;-15.87348382
-25.92196682;-2.257349755;-14.54289713;-13.17555581;-7.621788521;-2.993493305;-29.70090303;-7.73821711;55.52998262;0.429646504;5.422689157;8.630898816;22.89953362;7.705481976;-11.05500268;-36.55431401;-25.78345157;-29.94365496;-23.35308733
-25.61657134;-9.023051193;-16.59667325;-8.674764919;-6.04518304;-2.417051723;-41.66517907;1.370327062;54.06948119;-8.834383318;-1.20077624;-5.704649776;24.54413014;4.965657408;-20.61205248;-33.0184093;-31.51027047;-40.40518921;-28.47505914
-22.26813015;-16.94062717;-17.67598538;1.160605784;-2.028087557;-0.372029194;-36.90778453;0.061560528;48.00051618;-15.83458745;4.243135533;-10.70716896;29.19998638;4.369527744;-19.26141153;-26.33255901;-31.7622302;-43.74377913;-29.32264007
-16.59911797;-21.45377186;-16.30712904;8.958689267;3.192622095;1.990759993;-21.08289281;-5.596665065;39.47579048;-17.08639536;16.72032533;-5.232325812;33.08947973;5.250632979;-8.140970207;-19.11007813;-27.94667968;-39.48466657;-26.50777624
-10.17914668;-20.78784176;-12.34079747;7.939438616;7.826964777;3.375706695;-5.057237195;-8.953296248;35.19491737;-13.26303024;27.57158755;5.687458058;32.43508419;5.843022393;3.645677464;-14.634486;-23.3611176;-30.81058602;-22.32670598
-4.328742347;-16.90673333;-7.083923396;-2.446184931;10.56427682;3.047601031;3.011050079;-7.574796579;40.62321877;-8.468763818;31.26624704;14.66676868;26.79947063;4.498475436;6.213034739;-14.97760655;-20.59383326;-22.10969618;-18.60535967
0.682705764;-13.35936417;-2.283002475;-15.10242998;11.27770104;1.237627748;2.464366397;-3.916335217;53.67956328;-6.687032067;28.80437339;17.09630284;19.81388637;0.914019265;-2.871287149;-19.07439375;-19.59115502;-15.91806825;-15.080664
5.468916779;-11.91056896;1.197165015;-19.71546607;10.890442;-0.983713958;-1.304965305;-2.127774805;63.79064025;-8.394244918;25.44663212;13.79134063;16.43012882;-3.540068359;-16.42193991;-22.56681912;-17.91032424;-11.5258564;-9.730481955
10.59365774;-10.80552104;3.954262541;-10.18999631;10.54950261;-2.308402026;-2.455292442;-4.105343515;58.35364779;-10.20693627;25.36270639;9.446088891;18.89942819;-6.65736678;-23.69265886;-20.09065219;-12.91657863;-6.122405614;-0.811044221
15.75317236;-6.147233552;7.434509584;10.30718;10.77822108;-1.935108189;0.614761026;-8.005222899;32.40224569;-7.895935579;28.09970062;8.438877388;24.95393657;-6.814425714;-19.65540761;-8.775101263;-4.12961689;2.599143433;11.11821407
19.81297626;4.667776049;12.57279068;30.64698966;11.23575043;-0.031469076;5.062727271;-10.07251066;-6.111524432;-0.280106871;29.72331051;11.40295349;29.84670221;-3.992311456;-9.436996733;9.36866291;6.14674404;14.42560154;22.93954436
21.63142095;20.16580499;18.68466769;38.7740996;11.16414416;2.354894312;7.207014572;-7.926764598;-40.27213313;9.245891581;27.14792742;15.09866353;30.47760509;0.248985627;-3.806981289;27.86934149;14.33972;26.57570677;30.79882427
20.89155962;34.88143427;23.43810641;29.60698534;10.0492849;3.886942651;6.127942378;-2.510919282;-55.16813685;14.88013468;21.44714292;15.36388918;27.8750526;3.734278034;-9.408464462;38.87203578;17.97480956;35.38839057;32.59691087
18.19952193;42.35134043;24.00079837;8.226514943;7.933464715;3.687234282;4.025878584;2.741447631;-47.86166163;12.62594087;17.09616352;10.56497697;25.72800149;4.873066123;-22.29727328;37.04100951;17.02181308;38.31578405;29.20460962
14.43174042;38.92651968;18.68270092;-13.79568078;5.222888478;1.813776126;3.50441632;4.645455195;-28.75251931;3.288458589;17.91447667;2.822764544;26.34116299;3.36068288;-30.82311294;22.1166591;13.32149653;34.86358687;23.52554432
10.02257295;25.81810234;8.074571316;-26.12056103;2.314676439;-0.798955748;4.851793881;2.644475992;-13.28045549;-7.990078125;23.46407126;-3.726264203;27.98259567;0.095536478;-25.83822467;-1.024865753;8.821614924;26.19805536;18.27841754
4.90330161;8.173184058;-5.006357027;-25.85884623;-0.53063851;-2.875981936;6.134236455;-0.93931346;-10.44525213;-15.18427321;29.20792475;-6.005727634;26.53102169;-3.452802452;-9.525363477;-24.49983202;4.227522273;14.17879199;14.31992635
-0.87644666;-7.93129248;-16.73861461;-18.15116773;-2.988449974;-3.487657239;5.896370014;-2.768256569;-17.03067358;-15.16756329;30.35048516;-3.931464617;20.2862776;-5.965458318;5.207132736;-40.51610651;-0.883973749;0.738149774;10.7302992
-6.530400955;-18.45098003;-23.99225582;-11.31571613;-4.472881988;-2.498661868;5.483856542;-0.887606322;-21.71187488;-9.166909175;26.02074519;0.101530368;13.36700379;-6.74673268;5.009346935;-44.17973236;-6.842526645;-12.14567444;6.321412357
-10.65373716;-22.5460353;-25.5689703;-10.60964887;-4.319810186;-0.562142926;8.205273419;4.114277997;-15.2617632;-1.226859523;20.16903117;3.422980597;13.68879875;-5.853610613;-12.18137925;-35.16881942;-12.87542333;-22.37083265;1.077487285
-12.11656497;-21.71077711;-22.37219289;-15.18326749;-2.331849329;1.285662483;15.64173284;9.820386633;1.633911254;4.751208846;18.40899537;5.030970567;26.10351099;-3.938310511;-34.00939319;-17.83814177;-17.33447645;-28.09338888;-3.745313359
-10.97925737;-17.99402218;-16.54586861;-19.92565287;0.787827299;2.170190716;24.5114466;13.77836761;19.13054348;7.111152643;23.49544583;5.839552971;46.1262165;-1.885051638;-42.47540718;0.376125345;-18.9530512;-28.53222334;-6.822510333
-8.552024179;-12.76171326;-10.20617959;-20.09921454;3.625554537;1.772824067;27.56624006;14.95724535;26.48424144;6.520058594;33.20786834;7.38466271;60.30440221;-0.343306768;-28.04994313;11.91671468;-17.92738931;-24.53770728;-8.035404736
-6.430749709;-6.674811772;-4.553172714;-14.89712645;4.902295175;0.413105169;18.68489839;13.97197517;20.68755496;4.621941662;42.27739919;10.36156887;54.50446896;0.652727311;2.198047088;12.3938038;-15.76;-18.27872169;-8.564007288
-5.269004278;-0.447952917;0.194660143;-7.430915128;4.397858325;-1.162639928;-1.584578814;12.25057456;8.409948538;2.745416295;46.58660331;14.24871777;24.7223051;1.728974525;29.26997764;2.649678048;-13.94781584;-12.0905092;-9.684586545
-4.342132531;4.601764057;4.200832441;-1.735279239;3.203498621;-2.144414947;-24.77032697;11.0257202;0.048465428;1.592583394;46.10984844;18.09582229;-17.95207132;3.754624113;36.28839307;-11.65601363;-12.68900555;-7.268608277;-11.39856766
-2.317834763;6.877840833;7.340058594;0.418748013;3.018748762;-2.006502739;-39.18167645;10.90039865;1.249918097;1.626610435;44.32583701;21.47884718;-52.91561493;7.150058594;20.93582899;-22.9404333;-10.81419572;-3.698255329;-12.23171021
1.393918567;5.518981162;9.018608844;0.373353152;4.961026006;-0.71775824;-37.4991611;12.03989385;9.008090778;3.248151253;44.87780832;24.60428649;-62.99860378;11.38499224;-3.41813486;-25.55028703;-7.069136175;-0.548365427;-10.52011798
5.865364704;1.273646625;8.593757168;0.76432018;8.7656813;1.245335736;-21.67174184;14.47625649;15.16172226;6.323118017;48.42837477;27.50415921;-45.65352217;15.0967958;-18.52604643;-18.38096871;-1.639086726;2.605632619;-6.139470904
9.138645916;-3.568120775;5.988937181;2.857026394;12.96270611;3.085678873;-1.43662176;18.05870921;13.74822724;9.589638851;52.22872883;29.23810785;-14.18090825;16.85190917;-15.22348111;-4.859025996;3.482769675;5.190984209;-1.14215453
9.6028017;-6.325800431;1.941343933;5.300182835;15.85838353;4.017838542;12.39986236;22.11919277;5.710682966;10.86068588;52.48146145;28.07857801;11.88875573;16.06961941;0.401156642;9.370803744;5.737290792;6.054167986;1.396566741
7.144377805;-5.502808011;-2.363554188;5.176124879;16.55359081;3.627218542;14.89336715;25.37113685;-2.771039592;8.289343653;47.33560498;22.74470078;20.04877031;13.44383348;12.97429493;19.31361854;3.927149088;4.493244587;-0.456697644
3.167057018;-1.760144079;-5.990705756;0.352596477;15.27535998;2.095054801;9.170504299;26.4402191;-6.268023937;1.870138391;38.1367501;13.71653817;11.98846321;10.5264941;10.55976417;22.29559546;-0.727021169;1.006431591;-5.978532241
-0.46668438;2.401228182;-8.72083691;-8.72231373;12.90979513;0.154212963;2.817490136;24.80323197;-4.738032577;-6.109753436;28.2896136;3.464482443;-0.054779224;8.750753564;-6.199233394;17.95674722;-5.298820342;-2.883267122;-12.12710134
-2.66035309;4.117340795;-10.91708107;-19.01700095;10.25566712;-1.24347651;1.731760802;21.36162322;-2.740357708;-12.25435437;21.06049429;-4.727956671;-4.101829018;8.588648539;-25.35760767;7.463842391;-7.128432829;-5.593803817;-15.51596691
-3.528446391;1.894028603;-12.94650825;-26.55730183;7.641139603;-1.406891486;6.221602155;17.98268895;-4.309934479;-14.14699806;18.15599486;-8.518463268;2.40290572;9.417626606;-33.57357874;-6.875535026;-5.562464298;-6.482748789;-14.57341312
-3.876468558;-3.507098208;-14.69521484;-28.54946473;5.108854062;-0.282579409;11.86790377;16.14018855;-8.528560353;-11.82509345;19.76776596;-7.55612335;11.87611911;10.1131319;-26.29285762;-21.39223555;-2.193820382;-6.141756587;-10.35910811
-4.36312268;-9.601904881;-15.62317297;-24.75866049;2.819659085;1.491865776;13.76694832;15.6563253;-10.07878836;-7.573281702;25.28529108;-3.177384732;13.99552606;9.850855901;-10.39813623;-31.20725663;0.459913287;-5.843147753;-5.588430679
-5.152485337;-13.78044251;-15.30919646;-17.55630947;1.168551541;2.91010077;10.44705069;14.68564945;-4.390950703;-4.281673219;33.51263059;2.765216477;4.566437725;8.519613684;1.916668388;-31.8253043;0.728046049;-6.634380146;-2.742432108
-6.261418057;-14.90724297;-13.97616331;-10.77455278;0.465694166;3.132113623;4.578407194;11.21095487;7.316808112;-3.679048709;42.20248275;8.825768158;-11.32007813;6.545387955;2.448003138;-21.92375866;-1.319372241;-8.756528615;-2.684616407
-8.059276657;-13.87877807;-12.48240749;-7.933296913;0.536519325;1.94083002;0.478268125;5.029721448;17.85549236;-5.692270302;47.89208368;13.94396084;-23.78375401;4.430895696;-7.843297815;-5.458741458;-4.356291295;-11.70942353;-4.633799805
-11.21591406;-12.82558427;-11.73648155;-10.5582547;0.733436966;-0.130828475;0.804887876;-1.429837638;19.23921579;-9.132439766;47.05918989;16.83464004;-25.95730603;2.481649348;-20.94493583;9.11511448;-7.053487659;-14.75868978;-7.223638735
-15.97928033;-13.58381536;-12.02451404;-17.32022456;0.472118891;-2.069453082;4.982354898;-4.4249657;8.964315579;-12.83780297;38.34201629;15.81329415;-18.5759143;0.906386932;-28.39899986;13.03848868;-9.005407123;-17.41737636;-9.639796497
-21.43249214;-16.52570038;-12.84466238;-24.53468033;-0.144250363;-2.89873698;10.12353535;-1.641006671;-7.898317032;-16.22807808;24.18489594;9.696235283;-8.173026992;0.050075836;-26.78888323;2.725490374;-10.68752934;-19.58507169;-11.97628692
-25.5714001;-20.50214481;-13.40571809;-28.0012773;-0.233085542;-2.173180324;13.28328185;5.703280591;-22.52301247;-18.99386319;10.2284832;-0.735567736;-1.257537996;0.368078691;-18.51401639;-17.15450449;-12.69628919;-21.37743217;-14.73572006
-26.41330018;-23.7924778;-13.34581088;-25.34086734;1.211851308;-0.202664121;13.27413675;13.27609704;-28.77784937;-20.55071151;2.344805194;-12.07852674;0.22005188;2.030250179;-8.62398642;-35.61876628;-15.06869564;-22.89961813;-18.09336822
-23.41517166;-25.24950471;-13.01065765;-17.44048447;4.376788167;2.091904652;11.07867621;16.65306758;-26.94100925;-20.05683815;3.180170331;-19.49575832;-1.320154696;4.485471423;-1.205028866;-41.72423092;-17.26777523;-24.16223862;-21.60988965
-18.0792859;-24.8041045;-13.01895066;-7.943159299;8.201225209;3.613843036;9.035190362;14.8363293;-21.89947441;-17.10659028;10.69069637;-19.38423318;-2.865839535;6.481517856;1.994941294;-31.49782268;-18.73364818;-25.13164922;-24.56250536
-13.15796202;-23.1152021;-13.50696691;-0.94621687;10.93703985;3.612094122;9.489968962;11.41186544;-17.89515045;-12.39157536;19.77641677;-11.76774798;-4.049142461;6.722633884;0.842625561;-10.82419729;-19.39165498;-25.77511583;-26.48897536
-10.937362;-20.8568335;-13.78223907;1.592276065;11.37403591;2.05178066;13.46748508;11.99309014;-14.71644108;-7.520627842;25.78761994;-0.541618332;-6.780597242;4.795079461;-4.039498874;7.900375714;-19.60632902;-26.0107127;-27.4
-11.81179368;-18.32795948;-12.79036565;0.883637159;9.813987154;-0.339621589;19.72685845;19.45427277;-8.653128443;-3.957183394;27.29157557;8.882233176;-12.03915955;1.676287527;-11.01760239;13.43351414;-19.63151468;-25.61440249;-27.47998165
-14.15574393;-15.63626626;-10.06494075;-0.006445474;7.98761852;-2.389893218;24.69291858;30.50180847;2.91244387;-1.947728266;26.18350826;13.0160749;-17.41789358;-0.635053964;-16.87105331;2.788496398;-19.0989301;-24.21319323;-26.59691536
-15.53363891;-13.09514204;-6.336248181;1.189641432;7.884706763;-3.040539545;23.78348618;36.59478819;17.69626691;-0.460065918;25.40028922;12.35954267;-18.25766225;-0.218753134;-17.60384221;-16.85502026;-17.07874737;-21.43618644;-24.13742259
-14.33696078;-11.27759759;-3.191894795;4.052185827;10.310809;-1.893133353;14.01280605;29.2198771;29.15917711;1.701728933;26.33176734;10.54281914;-11.6469697;3.616633023;-11.01121653;-32.70739175;-12.76499495;-17.17256479;-19.41854973
-10.72641509;-10.5738263;-1.968589709;5.887891237;14.22786029;0.538339666;-3.434122473;6.152092198;31.25909335;4.557245487;28.04305655;11.19243834;0.372142158;9.857050898;0.865212448;-34.46934129;-6.307422541;-11.80544381;-12.44012694
-6.369479604;-10.69311384;-2.7446394;4.141262179;17.37913084;3.036163055;-22.64176393;-25.80710805;23.28495334;6.666995729;28.71129101;14.94061887;11.58264275;16.25085373;11.95132827;-20.79725155;0.841085012;-6.292728994;-4.418488574
-3.341919065;-10.72013783;-4.280347909;-1.156723706;17.76553696;4.285243722;-35.54043826;-53.95541377;10.64793344;6.333779183;27.7679301;18.93326992;16.04903953;20.40279015;15.6895581;-0.079348516;6.373157752;-2.014623541;2.373739897
-3.021346542;-9.854579169;-4.999630288;-6.948653108;14.93702527;3.579261152;-36.52755016;-66.95307889;0.979572158;3.354815021;26.73829454;19.25584426;12.59666019;20.86330691;9.628968112;14.84590796;8.160396671;-0.369568389;5.510977923
-5.593481564;-8.249472226;-4.241501864;-9.175676832;10.22636201;1.235044092;-26.11992635;-61.47696786;-1.185566801;-0.260768615;28.02226957;14.36509554;5.512522529;17.69302401;-2.535056536;14.59309045;5.304815709;-2.19524144;3.626441652
-10.23092455;-7.121877623;-2.772153615;-5.74855576;5.828883046;-1.544881436;-10.81398794;-43.82154367;3.117013537;-1.468682049;32.70317084;6.742137953;0.885145273;12.33713497;-13.31186084;-1.19770205;-1.354772169;-7.234781296;-2.745671251
-15.60283954;-7.860246036;-2.15138216;1.801002772;3.424733078;-3.315474451;1.095820317;-25.47691459;9.254098346;1.465132565;39.30665035;1.322037041;1.726282486;6.960078125;-16.53691155;-23.94838325;-9.546868878;-13.98317467;-11.23465677
-20.37438629;-10.77471612;-3.487171745;9.193270185;3.285654021;-3.186368554;4.87203384;-15.84026155;13.21618447;7.296780471;44.59989234;1.81077446;5.966144413;3.531501587;-11.40822658;-41.6042104;-16.55398933;-20.17641092;-18.68022061
-23.5834428;-14.58903316;-6.595498223;12.0562018;4.385146311;-1.312066715;1.925627649;-17.0060045;14.30778553;12.30454731;45.80937085;7.759854714;8.810078125;2.981056467;-2.491179073;-45.89520343;-20.43832675;-23.84398999;-22.68337663
-24.91260484;-17.25601619;-10.20923788;8.396353426;5.304995673;1.215523524;-2.214460323;-23.8245208;14.36387929;12.80861875;42.52068076;14.78626734;7.163104474;4.746742808;4.007620182;-36.87371912;-20.92439748;-24.38958841;-22.83166623
-24.7928057;-17.54791949;-12.98652627;-0.681149113;5.238886369;3.008652594;-2.731483416;-28.55788812;14.90923751;7.929904927;36.88222417;17.90442054;2.208675536;6.993508285;4.589877479;-22.08363337;-19.45701888;-22.95603305;-20.85547487
-24.17360992;-16.10003906;-14.42804107;-12.05238924;4.438235177;3.177428134;0.901552139;-26.40453238;15.40802162;0.514429443;32.14626517;15.44717163;-1.910866442;7.550643409;0.234169726;-11.16658021;-18.31434861;-21.65790069;-19.52564968
-23.92;-14.92052071;-14.95943177;-22.25534292;3.914485639;1.810937025;5.463504302;-18.04415295;14.35746021;-4.533662553;30.79159714;10.48466882;-1.83288223;5.198357172;-5.189030412;-9.542556102;-19.17987375;-22.03126781;-20.86470806
-24.12870206;-15.6379762;-15.20931059;-28.57589502;4.719476262;-0.119014171;7.847453944;-7.974649477;11.92585694;-3.36290773;33.52973309;8.52167164;2.346169456;0.570798758;-7.972807678;-15.25599926;-21.99114929;-23.73399769;-24.75259934
-23.88346253;-17.90647855;-15.21742858;-29.34061191;7.324212495;-1.34761109;8.469225135;-0.571316784;11.1095553;4.433675401;39.53215777;13.15573911;7.702668753;-4.005887167;-6.573555723;-20.9069619;-24.85461818;-24.53870262;-28.86928854
-21.77993479;-19.39371551;-14.33063245;-24.06447286;11.43399902;-1.038830758;10.84660802;2.884633844;15.69010764;15.69569244;47.21455642;23.04068572;11.51838321;-5.823813484;-1.591673714;-19.21191681;-25.22404566;-21.83884088;-30.11653298
-16.99230019;-17.5427826;-11.8923507;-13.93412976;16.21843702;0.768564404;17.51844913;4.224568045;26.43973723;25.70690779;54.7526001;32.57775553;13.68166683;-3.5141379;5.270304997;-8.36147278;-21.67831667;-14.74704222;-26.66710244
-10.15504059;-11.79793015;-8.102710662;-2.194124168;20.68569473;3.210503466;26.07327312;6.022419848;39.06977366;30.79056133;60.17096928;35.91922576;16.24032333;1.983569721;11.83208249;6.470311727;-15.10180946;-5.26864546;-19.28970655
-3.352418086;-4.48995718;-4.264844401;6.53721489;23.94347445;5.075187439;29.39794735;9.123645253;46.29742297;29.80205722;61.53487538;31.30376403;20.74877537;7.964176724;15.43324457;16.47492435;-8.346883452;2.466026998;-11.01017162
0.894940283;0.440354434;-2.160670789;8.354413462;25.29310652;5.428128767;20.77675855;12.05866146;42.92967045;23.89762653;57.71223893;22.4512394;26.1871128;11.73010289;13.37615228;15.10984618;-4.468761201;4.58888185;-5.279255193
1.019020839;0.005788745;-3.030902145;2.472703224;24.29;4.064784769;0.031340867;12.52893459;30.04103125;15.23447591;49.40154868;15.96365465;29.61993256;12.37434344;4.59066552;2.504621738;-4.690654315;-0.04602571;-3.865655544
-2.75164843;-5.878185248;-6.930743251;-7.947853883;20.90517327;1.591846821;-24.58370222;9.481226308;14.7166424;5.749851445;39.45194658;16.68863847;29.02433092;11.2756364;-8.421680675;-14.6280379;-7.558912204;-9.04314199;-5.907073163
-8.623875836;-14.47435759;-12.87258173;-17.65655755;15.73908557;-0.871398742;-40.97045898;4.026843058;5.264190558;-3.32495014;31.74087416;24.47990726;25.49893569;10.92593536;-19.5545691;-27.4608507;-9.969501716;-17.91692019;-8.741731675
-14.31888234;-22.16456537;-19.51398541;-22.88353475;10.05300864;-2.216973659;-41.25944759;-1.394786137;5.448734783;-11.39044661;28.99135201;34.63426725;22.53976359;12.96353868;-22.21336901;-30.76958311;-9.396123617;-22.86626844;-9.879751877
-18.23651686;-26.70413933;-25.79022696;-24.0391023;5.385231536;-1.861527438;-27.2784877;-4.77669912;12.12452676;-18.38413034;30.98201873;41.4602565;22.85206971;16.90103441;-14.04110115;-25.96613197;-5.727631733;-23.00167343;-8.685462354
-20.00975533;-28.16889382;-31.09311488;-25.30497979;2.791785914;-0.025292098;-9.127308958;-5.831292087;17.95047824;-24.87586534;34.60034004;42.16613003;25.64362923;20.5081146;0.436931713;-19.46921641;-1.359988907;-20.56269148;-6.60693936
-20.28749032;-28.16501946;-35.09543127;-31.19256989;2.114246196;2.353561603;2.091546922;-5.979913661;16.92096157;-32.03133347;35.93444593;38.25179778;27.10037834;21.52865929;12.0987691;-17.73233228;0.549400603;-19.08783318;-5.889991285
-20.10234434;-28.25143599;-37.60500768;-42.64412;1.837893188;4.049004563;1.786255348;-7.273431549;8.438724619;-41.042263;33.0146115;33.71490239;23.87207544;19.38384885;13.57555969;-22.5327837;-1.595978802;-20.88857655;-7.806736047
-20.30320862;-28.94242217;-38.65847802;-55.82425109;-0.154382234;4.140413063;-5.992905156;-11.11620388;-2.904500684;-52.14809259;27.20534697;31.8422208;16.4941646;15.55199528;5.10976113;-29.80820135;-6.61355585;-25.55272572;-11.70377547
-21.2815088;-29.88577274;-38.67178527;-64.75091746;-5.220170111;2.48715692;-12.96906241;-17.55003906;-11.16851182;-63.98478498;22.19340153;33.20659078;9.493796814;12.38159946;-4.948105669;-32.71599976;-11.28072006;-30.3680026;-15.47702474
-22.92779465;-30.67098876;-38.313089;-65.84719421;-12.81549492;-0.168752505;-13.56851267;-25.30763975;-13.22546239;-74.00476836;21.33131879;36.19125194;7.795765461;11.32359541;-6.044963194;-26.61753575;-12.45035403;-32.19926399;-17.00027215
-24.69703618;-31.28094826;-38.04950673;-60.84855179;-20.43950233;-2.55298062;-8.676063892;-32.41068039;-10.17115635;-79.95375108;25.34740375;39.14867063;12.44828082;11.97937284;6.386987171;-12.45951985;-9.010878602;-29.46032941;-15.41062651
-25.79507476;-31.78540494;-37.75349665;-55.69204139;-24.91908149;-3.501150943;-3.606567573;-36.99401468;-5.490494417;-81.4488798;32.10760721;42.06204681;19.50225035;12.64995477;26.81146121;3.694528162;-2.37438455;-22.94240058;-11.40554894
-25.55910654;-31.81024981;-36.84275265;-56.15642662;-24.35776373;-2.557006414;-2.685075496;-38.10141829;-2.040752764;-80.42892753;38.46858741;46.26901602;23.22434401;11.84819831;43.07294547;14.48916669;4.674042442;-15.16684883;-6.54090609
-23.93430068;-30.61424118;-34.98440781;-63.6001226;-19.48486167;-0.198960959;-5.444636703;-36.18414329;-0.407710348;-79.98824449;42.62766867;52.69624922;20.97254776;9.503723904;45.15249325;15.75945051;9.773319671;-8.889974058;-2.227079889
-21.70689948;-27.93809854;-32.78682214;-74.07019759;-13.39970612;2.42940301;-7.604107067;-32.98307079;0.465412296;-82.3404595;45.07653855;60.42263385;15.4665647;6.917735793;32.59788644;8.760571302;12.12810731;-5.765870763;0.82396811
-20.16915413;-24.82754263;-31.74356329;-81.39482231;-9.738898329;4.127707038;-5.53022872;-30.65070332;1.550297228;-87.38720713;47.52098614;67.04611821;12.37292101;5.595951106;14.89193842;-1.038265393;12.37149597;-5.855274597;2.482297023
-20.28650776;-23.39809662;-33.24758557;-81.77957724;-10.4178773;4.241532834;0.150062256;-30.46030293;2.739609395;-92.95400592;50.87221794;70.62516492;15.24701356;5.994169868;4.433971137;-7.482888226;11.55794286;-8.023896536;2.789203354
-21.92662334;-25.37202264;-37.35128217;-76.36879777;-14.47576698;2.936474138;5.123872925;-31.92546656;3.323687816;-96.48759124;54.17713389;71.45083415;22.27830604;7.220517639;7.500603632;-7.188969402;10.24948613;-10.78626872;1.771078121
-23.81158277;-30.45767016;-42.33455588;-69.97160219;-18.83722746;1.028505233;5.509953806;-33.09342411;3.097103997;-96.89198318;55.48957884;71.95360061;27.76545565;7.888618158;20.0188188;-0.931642465;8.372498422;-13.05805437;-0.365667652
-24.36120239;-36.06348356;-45.61508258;-67.19102265;-20.46051137;-0.489580386;1.596594352;-32.01197449;2.741760618;-95.11556822;53.92122607;74.64851741;27.0769857;7.348506978;31.14196588;7.465891791;5.747448549;-14.49485241;-2.973781217
-22.84712801;-38.89468346;-45.44598833;-69.07646231;-18.34618505;-0.942373985;-2.337482198;-28.39596382;3.055603511;-93.13616952;50.96251022;79.78428875;20.71772287;6.239825485;31.61595925;13.66085381;2.631850226;-15.38650046;-5.071064751
-19.9283385;-37.36673386;-42.10984206;-72.7530423;-13.99821099;-0.240153792;-2.003219391;-24.16985585;3.907890727;-92.27555493;49.66612522;84.73093937;13.85951704;5.915675022;20.49699813;15.08468418;-0.291114545;-16.27591997;-5.899406489
-17.07363543;-32.89559874;-37.62587795;-73.99123014;-10.092875;1.162625037;2.792471722;-22.27950172;4.14545995;-92.26317024;52.09902818;85.75427938;11.71972464;7.239271392;5.428226531;11.84718863;-2.454760825;-17.5442743;-5.540324567
-15.30333932;-28.86927822;-34.16031465;-70.47384159;-8.443678831;2.535850853;7.784405721;-24.50416211;2.709509213;-91.78097644;57.10609515;80.83911576;14.92218994;9.762971638;-3.202284364;6.099081937;-3.933536031;-19.17396377;-5.026830961
-14.31676606;-27.96531693;-32.40838302;-63.28113802;-8.82821768;3.209851683;8.116329856;-29.89705865;-0.076949449;-89.94841834;60.45156789;71.32249351;19.05964897;11.96761788;0.515763521;0.521052544;-5.404139065;-20.78562675;-5.72389853
-12.80996482;-29.9179234;-31.26413887;-55.79820448;-9.504613796;2.842234412;3.002907421;-35.13313962;-2.410058594;-87.41289728;57.64022679;61.05017189;18.9309122;12.3755936;14.60406807;-3.119675218;-7.500996946;-21.87557292;-8.322617115
-9.78202305;-31.58577543;-29.02718451;-51.284687;-8.888006696;1.543308361;-3.126850925;-36.63248572;-2.419225335;-86.05152211;47.49017723;53.76777519;13.64729067;10.66828811;31.3943466;-4.636275942;-10.07412844;-22.04743936;-12.14092099
-5.720107821;-29.35718264;-25.09935968;-51.08977697;-6.967147742;-0.162259173;-4.272422142;-32.95190878;0.032202445;-87.47514294;33.65500011;50.82236215;7.865036561;7.962290495;42.92936607;-5.095132344;-11.98098136;-21.05452792;-15.26185602
-2.568010663;-22.02977636;-20.7118135;-54.57136197;-5.316629815;-1.532368327;1.761278001;-25.71327425;2.783917702;-91.56860507;22.62878424;50.86829249;7.776135341;6.062796861;45.39090397;-5.789196417;-11.64523719;-18.66879325;-15.48756213
-2.377566416;-11.90564231;-18.06183994;-60.22609842;-5.749853472;-1.920847484;11.03579238;-18.45766435;2.706524519;-96.33113838;19.42676685;51.53434663;15.27701449;6.264383657;39.93887018;-7.161064553;-8.029645272;-14.61343294;-11.55126191
-5.697848835;-3.285898006;-18.60988855;-66.74659529;-8.770772311;-1.101516651;16.4833521;-14.36963442;-2.036513863;-99.2549361;24.08050037;51.44;25.63787359;8.543878013;30.43042321;-8.370078125;-1.360399918;-8.801763265;-3.877450814
-11.05573479;0.383874214;-21.99499286;-73.20556684;-13.10931709;0.557260946;13.88495432;-14.55638644;-10.5725599;-99.21720964;31.69398596;50.86403881;31.13756512;11.6428736;20.46875265;-7.848340964;6.876432299;-1.829478622;5.523452172
-16.00821152;-1.501417131;-26.45047528;-78.64270428;-16.68743528;2.205332424;5.719802184;-17.95489813;-19.83824309;-97.381911;36.2;50.7466856;27.83554445;13.89681026;11.892109;-4.556337799;14.64303921;4.714392787;13.93438572
-18.9127627;-6.924509684;-30.25602484;-81.89316991;-18.16610208;2.916787661;-0.592715349;-22.57484769;-26.53530079;-96.31804306;35.04016789;51.25218594;19.55185316;14.2192871;5.045414424;0.909299717;20.30066688;8.631038242;19.10406688
-19.92480652;-13.108237;-32.85552278;-82.07948643;-17.77448697;2.20916598;1.16395129;-26.84368736;-28.93139943;-97.91088234;31.06521484;51.4305503;15.13326292;12.65569574;-0.210581542;6.25249787;23.25064338;8.267881007;20.14307055
-20.38401268;-18.23450801;-34.62923498;-79.32497988;-16.78;0.379458833;10.49572281;-30.02570591;-27.21679653;-101.6170333;29.91829746;50.35307349;20.74276823;10.27507601;-3.813305554;8.733034232;23.96870007;3.81865611;17.7605795
-21.16762615;-21.67838243;-35.62207223;-74.86953959;-16.14103238;-1.580370564;19.97763178;-31.72;-22.47402665;-104.4339509;34.68284755;48.56105084;33.47560799;8.565475257;-5.337880542;7.057614688;23.51125849;-2.24903027;13.77671345
-21.53909853;-23.01684152;-34.59737751;-70.27611589;-15.57390302;-2.49519079;20.69753268;-31.29509957;-15.46178846;-102.7330569;41.99608709;48.22175796;42.03623957;8.696637308;-3.994885152;2.612969061;22.82542463;-6.263817878;10.15452166
-19.63478855;-21.28095919;-29.58699383;-66.30798639;-13.87867374;-1.682313315;9.115712033;-28.0359145;-6.370289256;-94.73923481;43.11818431;51.50454646;34.69143283;10.98461312;1.337423781;-0.983596189;22.22725576;-5.505252298;8.003609951
-14.28967153;-15.59118149;-19.7430866;-62.44624226;-10.2436623;0.603919075;-10.04915679;-21.9240477;4.38771396;-81.93186191;29.88413874;58.40589725;8.656825551;14.74931036;11.67116781;0.034462784;21.27909236;-0.084572588;7.044606635
-6.63618629;-6.760801646;-6.951203529;-57.50094309;-5.361467696;3.24401805;-27.07263352;-14.21775397;15.35052744;-68.36421885;1.571074134;65.99195943;-26.48570602;18.60212478;26.79856705;7.092445155;19.10112785;6.849271887;5.839586301
0.045357698;1.828653673;4.410048828;-50.81203134;-1.30478065;4.830816662;-33.92908422;-7.085983782;24.1895828;-58.32864785;-32.51933494;70.01973649;-54.3567193;21.05862434;44.08986587;18.00973604;14.96728087;10.93154426;2.71544472
2.353680345;5.470829289;9.787791354;-43.02;-0.141819669;4.438508155;-29.26123186;-2.399405752;28.95896585;-53.91688262;-57.34585005;67.9106988;-62.43344129;21.23453007;58.44778228;27.89396622;8.900442965;9.334198375;-3.101051309
-0.803879503;1.10767398;7.325256786;-35.77857574;-2.351156989;2.148363715;-18.15673137;-0.587279746;29.40458047;-54.06169955;-61.04717272;60.77568466;-49.95733205;19.29931822;64.21384737;31.75624092;1.944531735;2.593932617;-10.80281216
-7.301400684;-10.09493445;-0.864743915;-30.70204173;-6.315299414;-0.968130044;-7.561904454;-0.474631257;27.176687;-55.60160275;-42.68086136;52.78992243;-27.43291144;16.42309041;58.31033357;27.30546546;-4.096281529;-5.761818959;-18.23097745
-13.1935571;-22.77990933;-10.06536195;-28.45377393;-9.344319234;-3.400737303;-1.37145945;-0.213021627;24.69800253;-55.53994389;-13.35106078;48.28365032;-8.531737099;14.19266579;42.56267392;16.28246954;-7.401092815;-11.52683218;-22.93311272
-15.40252413;-30.4228085;-16.0095651;-28.65100076;-9.48575067;-3.98364916;1.110255015;1.45844825;23.57893681;-52.92594746;10.40015157;48.76383799;-0.815949074;13.78289997;23.31112404;3.622003129;-7.016544846;-12.43865016;-23.44205207
-13.66621089;-29.39471325;-17.40141653;-30.47889464;-6.783031801;-2.49038762;2.879311148;4.566090156;23.82548742;-49.14827834;16.76;52.16341114;-2.097804097;15.34257791;8.213643367;-4.991231662;-3.401624235;-9.329946034;-20.00823162
-10.34086777;-21.1908575;-16.16170417;-33.32124541;-3.104963565;0.266013469;5.802147862;8.195133747;24.36524425;-46.59779402;5.65355435;54.82814541;-4.417591984;17.94643871;2.221110662;-5.808225427;1.705329917;-5.176089931;-14.36184549
-8.36416156;-11.25190943;-15.46452215;-36.85292056;-0.772114918;2.866523207;9.179387715;11.25707949;24.29239938;-46.77943798;-12.02891045;54.55873925;-1.647239731;20.12737801;5.358417202;1.34521333;6.065259441;-2.942342171;-8.699929171
-9.072462365;-5.316080319;-17.27498064;-40.68803583;-1.054674078;4.019376336;11.13965451;13.01908915;23.69642844;-49.25654625;-22.2973614;52.22975421;5.636203757;20.66092659;13.59749023;13.05080606;7.954209116;-3.871820097;-4.559587929
-11.52409706;-5.968790209;-21.26798786;-44.14614158;-3.579067551;3.216116954;10.99281681;13.12546896;23.41494333;-52.12396182;-17.53704224;50.74505008;11.53514896;19.15637431;21.86053547;23.69448934;6.871693499;-7.293799901;-2.241136751
-13.62916995;-11.68452177;-25.67277059;-46.51501285;-6.880654956;0.980600124;10.02565763;11.43518911;24.05311401;-53.562064;-1.180696537;52.30783911;10.64314747;16.17245055;26.86434842;27.63464755;3.59126835;-11.72659961;-1.01886929
-13.9213065;-18.60495519;-28.96779953;-47.57016994;-9.486822097;-1.412609701;10.03474047;8.110776145;25.22877417;-53.25719981;15.31856227;56.33703558;3.045515315;12.87582696;28.06843032;21.42484757;-0.404449496;-16.10712847;0.141159992
-12.44375517;-23.30888157;-30.82671692;-47.7367438;-10.67252333;-2.608460019;11.26748189;3.940801948;25.72775123;-52.62;20.73198223;59.76061163;-5.611925302;10.48484014;26.7402462;5.429638972;-3.727521315;-20.11947823;1.884219671
-10.17135283;-24.45390692;-31.63795788;-47.58915811;-10.48309639;-1.88864976;12.05833808;0.405134695;24.40318031;-53.65360532;11.6141086;59.41486364;-8.737623445;9.7767397;24.48991367;-15.77645832;-5.671161673;-23.578213;4.177234263
-7.731295605;-22.49807163;-31.35412646;-47.10483455;-9.277249067;0.439507552;10.72371689;-0.910549131;21.02081585;-57.32470524;-5.895829368;54.56759737;-4.024004766;10.83170593;22.51409328;-34.65678589;-6.312597291;-25.7155693;6.463426055
-4.724809858;-18.4112872;-29.03203995;-45.47100528;-7.330231279;3.198047965;7.892190523;0.71033343;16.37342014;-62.64151948;-20.8228231;47.55317303;4.992585183;13.06137432;21.63512989;-43.5104535;-6.172668169;-25.2426655;8.033018125
-0.272067623;-12.86602231;-23.66990777;-41.81193823;-4.793569234;4.9675876;6.740058594;4.566538048;11.68196793;-67.10433459;-24.9136707;42.10554284;12.05036582;15.49076343;22.35429759;-37.89404236;-5.704553807;-21.24253327;8.356537564
5.808408528;-6.509294241;-15.57624181;-36.28261677;-1.868362731;4.856774557;10.38653362;9.03;7.897841873;-68.19139906;-17.65133216;40.81199255;13.13528583;17.20583058;24.42472058;-19.06565984;-4.93281043;-14.094084;7.26983525
12.38544635;-0.587269548;-6.8380498;-30.45100611;1.129684085;2.986404092;18.44901639;12.79153232;5.497091294;-64.82323636;-5.593446476;43.67508957;9.239642096;17.8034435;26.44153585;6.061318681;-3.441513948;-5.523808441;5.027342449
17.63065749;3.21806247;-0.176199338;-26.37712351;3.920136351;0.411899478;25.93713173;15.79416522;4.799635071;-57.82884139;2.908496231;48.69433331;4.958320655;17.61871;26.38785609;27.86721076;-0.704663668;2.367700219;2.250720092
20.36239332;3.972621917;3.021083662;-24.97770277;6.405831215;-1.474345309;26.02376545;18.94801702;6.316125404;-49.21752527;3.492745012;53.67636949;4.45199588;17.55234421;23.2648891;38.6389146;3.436571798;8.338370117;-0.247658247
20.90592125;2.630313663;3.784394246;-25.08749728;8.555749584;-1.716523022;15.00523046;22.80724896;10.61671056;-40.92106043;-1.938931787;57.61630156;8.221428379;18.52513821;18.5677234;36.40905178;8.437835049;12.48007813;-1.77033235
20.66279522;1.749827974;4.656924672;-24.23526328;10.06711125;-0.299358036;-4.328928394;26.45379023;17.7119397;-33.96126873;-7.585869643;60.61211553;13.11577036;20.8491495;15.94261815;25.74258931;13.09428824;15.57363938;-2.06165525
20.74345903;3.549770352;7.3637693;-20.7322422;10.19125344;1.896258632;-23.76621147;27.81037099;26.46126826;-28.53687041;-8.524257081;62.7159357;15.17243433;23.92290027;18.65426604;14.82937133;16.00787622;17.9404588;-1.450833337
20.88164877;7.715703048;10.96465772;-15.40445878;8.079345364;3.63326185;-34.6936236;25.36899425;34.60212809;-24.72248937;-4.243662708;63.06494255;12.71850893;26.4930107;26.58872972;10.47566001;16.26991714;18.84646356;-0.661410926
19.62600187;10.9675348;12.17527314;-11.3722655;3.547212152;4.014878875;-33.49642504;19.91158867;39.56052231;-22.99357257;1.411913766;60.27171781;7.306153306;27.35379073;35.4597823;14.01388699;13.97663263;17.02221687;-0.354029269
15.6785974;9.186495493;7.833778537;-11.79019099;-2.337017192;2.933033078;-23.42652038;14.55686504;39.6307038;-24.01007813;3.460243139;53.78462607;2.099226471;26.04373818;39.47411348;20.74232687;10.24007813;11.87433971;-0.686777916
9.220617235;0.745066778;-2.333138551;-17.22284794;-7.470156299;1.045899484;-11.73848001;12.77208777;34.84280385;-27.80476445;-0.448258929;44.94111217;-0.618588355;23.09084546;35.82258001;23.36405287;6.635573936;4.341828619;-1.200489503
2.052372485;-11.59131471;-14.88717546;-24.82570928;-9.799643526;-0.644007903;-4.459511203;15.79690023;27.03220271;-33.11965999;-8.408259293;36.6281085;-0.736680815;19.6733892;27.43447934;17.28807904;4.382586849;-3.369623873;-1.119366136
-3.601252728;-21.9788536;-24.61083148;-30.182309;-8.599558018;-1.327453487;-2.768888426;21.6141415;19.08761967;-37.6061366;-15.70968807;31.6556218;0.338778706;16.95803591;21.37393319;4.283171405;3.746605056;-9.016176289;0.137545726
-6.608549766;-25.35644368;-27.85880728;-30.50827631;-4.983364409;-0.745271683;-3.432917161;26.43347118;13.7631386;-38.95262002;-18.08688881;31.07500274;1.326078672;15.55090587;23.62675437;-8.143136014;4.016825483;-11.5760147;2.575661709
-7.486766824;-21.04805578;-24.84863363;-26.72499053;-1.193986956;0.773883215;-2.432160124;27.54023886;12.59972813;-36.24702909;-14.43003906;33.74135556;2.105512858;15.34141627;34.15223723;-11.53978468;4.037358528;-11.62895099;5.594300248
-7.56417249;-13.29452831;-19.20176758;-22.6962289;0.866719754;2.537150014;1.464554463;25.1492222;15.41544474;-30.62633113;-7.253998844;37.38523418;3.38604953;15.70150871;46.22967619;-2.500348461;2.913037088;-10.68809824;8.263873316
-7.543505833;-8.162883841;-15.14433331;-22.14606546;0.79831912;3.808958408;6.053765854;21.73295894;20.57472133;-24.72582709;-0.882880858;40.23865354;5.584385808;15.80511555;50.93460063;14.22313645;0.439098206;-10.11503694;9.693146989
-6.780058594;-9.084768563;-14.51833664;-25.65685958;-0.292638885;4.084557203;8.202990548;19.51213644;25.90755129;-21.26543834;1.241101647;41.90400481;8.134608014;14.88854913;43.50532614;27.94042918;-2.941606896;-10.44211717;9.301890653
-3.939946234;-14.39149926;-15.79395888;-30.13848672;-0.880499754;3.248652456;7.079443528;18.44441695;29.81061392;-21.67478327;-1.618489999;42.9241585;9.901776021;12.45771394;26.76;28.60041271;-6.487599598;-11.43202389;6.96990057
1.541321421;-18.71390512;-15.64780879;-31.23643606;-0.283344425;1.609353486;5.173799705;16.5979566;31.90197007;-25.56169387;-7.47554572;43.68119787;10.26895878;8.522423266;8.99921187;13.67867319;-9.475521088;-12.54628682;3.120990375
8.525009376;-17.1520513;-11.71838417;-26.83370204;0.921918305;-0.194291581;6.157034333;12.57590287;32.80972404;-31.19288904;-13.11278021;43.7758362;9.845458342;3.803729662;-1.832331865;-9.240039063;-11.28829513;-13.27387464;-1.269698642
14.67015205;-9.015155883;-4.38950648;-18.93860768;1.618867441;-1.41341928;11.34375842;7.65256269;33.24200208;-36.49880075;-15.95248497;42.48774189;10.11333221;-0.321721223;-3.108588775;-26.27764452;-11.37536585;-13.11687957;-4.872893458
18.04709596;1.678090338;3.61843915;-12.50107359;1.327524368;-1.499829798;17.78476725;5.383442723;33.06605391;-39.91508892;-15.1823568;39.83053641;12.28295193;-2.339900844;2.040166489;-25.45038358;-9.338038619;-11.51496253;-6.498989536
18.55437528;9.208995865;9.302883338;-12.04226451;0.772088923;-0.388335543;19.78119394;8.700019531;31.22136764;-40.69714588;-11.68365281;37.10021085;16.29369351;-1.445247339;8.582548935;-4.184859989;-5.237722549;-8.079063407;-5.736433793
17.94237305;10.28062008;11.36104389;-18.57507261;1.293186114;1.411552961;12.90860295;16.93522826;26.69007813;-38.83561424;-7.111746628;36.23430771;20.73569295;1.808037428;14.03284131;28.68293357;0.100303541;-3.094995921;-3.322471164
18.37973103;6.123612486;10.64761513;-28.96178928;3.553102416;3.017255201;-2.395817642;25.57942156;19.81957101;-34.92280287;-2.903247177;38.37534864;23.70048808;5.621112401;19.6357551;57.84102936;5.179930861;2.213057097;-0.852086696
20.70367254;1.14842336;9.001606369;-37.97866688;6.627890493;3.60949235;-20.41992761;29.34616904;12.80749046;-30.13262167;0.160100262;42.79923553;23.88712533;7.948761503;27.60044556;70.3241167;8.499132267;6.151274668;0.167773156
23.76504195;-0.600472139;7.595631707;-41.46329498;8.329347586;2.879772951;-33.39588675;26.18040886;8.655565688;-26.13561133;1.726286095;47.13684576;21.21987398;7.81334708;37.31965294;62.6774852;9.479264855;7.645617675;-0.62557072
25.38932076;1.635022345;6.163260015;-38.40600085;6.638521767;1.222157894;-36.19234155;18.81528139;9.121933222;-24.66634801;1.392666385;48.77847938;16.71598645;6.005608901;44.39631365;42.07046821;9.000230649;7.157288663;-2.054327496
24.1628128;5.158068775;3.574118997;-30.90574872;1.225761037;-0.466005363;-29.28862072;12.44188154;13.18602851;-26.74376507;-1.474936183;46.4036695;11.88496849;4.57711051;43.69932255;20.99466735;9.016185305;6.545478866;-2.07854206
20.59129271;6.254108521;-0.914007667;-22.52330522;-6.094932966;-1.27563019;-18.09524565;10.41582306;17.36852824;-31.97353746;-7.365084635;40.52750535;8.114643629;5.388449204;33.91444273;9.318945444;11.32934935;7.723033294;0.790554214
16.69183677;3.11128662;-6.853542621;-16.445725;-12.36987599;-0.787528899;-9.249301906;11.73300011;17.89879884;-38.50877714;-15.93924878;32.81048741;6.290019531;8.724026887;19.49685538;8.922076063;16.25330986;10.96482732;6.2810845
14.33604898;-3.065026955;-12.87492665;-14.52827106;-15.29730725;0.706543887;-6.521086126;12.54235046;13.2147512;-43.89068616;-25.63759111;24.87157977;6.618737977;13.00306136;7.996604635;14.01774259;22.08640699;14.17789459;12.24124034
13.6548663;-9.40062854;-17.69479906;-17.26724647;-14.57268963;2.38256835;-9.044199625;10.36574002;4.896975058;-46.35047928;-34.04548791;17.61848364;8.58128511;15.8361807;4.669692316;16.25723006;25.84311863;13.86688931;15.77164097
12.77521329;-13.81660597;-20.9644834;-24.07114451;-11.89341046;3.345605776;-12.78557602;7.10252701;-3.689666128;-45.7345742;-38.96637552;11.47962778;11.05563187;15.67044553;8.700986212;10.63689197;24.86025285;7.298800965;14.88825666
9.14887876;-16.50330894;-23.28182871;-33.34682579;-9.688910379;3.106041707;-13.87751073;7.732408408;-9.935937658;-43.39991018;-39.58070552;7.015357789;12.72680552;12.81630135;14.14130901;-1.808125479;18.2972605;-5.571300152;9.618738702
1.548199044;-19.29486427;-25.43592906;-42.55430438;-9.505072995;1.818592898;-11.28355624;15.38210962;-13.62819353;-41.13435367;-36.90946646;5.054934541;12.71813209;9.120650274;14.8059359;-15.80756167;7.618707755;-21.75069419;1.852648311
-8.681386348;-23.65481426;-27.56541325;-48.73470001;-11.13740593;0.181820089;-7.000849695;26.92314982;-16.37872994;-39.87167624;-33.21438484;6.051917935;11.10381252;6.577879222;9.142451501;-26.13048738;-4.174551244;-36.68277326;-5.847368056
-17.99937278;-29.09256534;-28.91506184;-49.66090093;-13.01593302;-0.924963601;-3.964797231;33.35830679;-19.45044555;-39.13228519;-30.68945645;9.246924519;8.894248718;5.95037045;1.158747301;-30.85877538;-14.0068955;-46.53959867;-11.58950705
-22.46804031;-33.36556864;-28.34035483;-45.03012177;-13.46648939;-0.878775569;-3.512233757;25.56995056;-22.00355707;-37.57851839;-30.29830891;12.59887546;7.389446569;6.40292686;-3.207705651;-31.46833371;-19.96989929;-49.85013612;-14.78962163
-19.86672614;-34.25183325;-25.11914781;-36.7662354;-11.92654183;0.37511339;-4.439138486;1.4518582;-21.45368031;-34.22468484;-31.49664554;13.87612421;7.282916093;6.327022273;-1.182222985;-30.28705955;-21.71497419;-47.57959834;-15.87844662
-10.88400713;-31.35116246;-19.44703367;-27.9791044;-9.306154244;2.269148937;-4.293709278;-31.14559981;-15.76408042;-29.33933769;-32.92120567;12.23674378;8.159505026;4.62485402;4.476177255;-27.88276035;-20.01096593;-41.91917095;-15.55802967
1.234890491;-26.38102458;-12.30175296;-21.13315323;-7.312171662;3.847361199;-1.707066523;-58.34906862;-5.703490797;-24.31927459;-33.43124131;9.02389685;8.798313697;1.451653467;7.678423662;-22.67384614;-15.98691669;-34.83848235;-14.29463142
12.30347725;-21.72523132;-4.858899897;-16.67772302;-7.239613747;4.205809202;2.261979712;-68.5847225;5.010699055;-20.62511412;-32.70038612;6.973078511;8.102390798;-2.057551923;3.924746268;-12.9479347;-10.6185357;-27.36369205;-12.35157108
19.14411284;-18.4656714;2.070541911;-13.14575417;-9.043909353;2.960179439;4.950944667;-59.43163808;12.02110566;-18.62014669;-31.01401366;8.273168551;5.983785846;-4.709887933;-5.971060301;0.65050273;-4.65356365;-19.78229561;-10.0940892
20.860362;-15.55654031;8.205417026;-8.655794857;-11.2899958;0.513729378;4.434418893;-38.27914997;13.30077645;-17.25296678;-28.63472897;12.92871311;3.537375232;-6.007253576;-16.14298346;14.50616619;1.236115859;-12.24218197;-8.068243009
18.85648701;-10.84910697;13.5296805;-2.673604986;-12.00736686;-2.0496442;1.393740069;-16.74366804;10.35228847;-14.87652025;-25.44849259;18.74800347;2.353277121;-6.17762499;-19.54552662;24.04907136;6.407990928;-5.076849897;-6.652404771
15.71103636;-3.143629653;17.87039339;3.334187246;-9.922062143;-3.45605423;-1.17469105;-3.277252884;6.660137726;-10.5948396;-21.29026478;23.0431697;3.454263442;-5.623475189;-12.48632671;26.92656216;10.4286901;1.355471099;-5.595244996
13.59418522;6.406125062;20.6604825;6.886525993;-5.308782371;-2.904843108;-0.341338291;0.772146886;4.752545544;-5.081305604;-16.64339671;24.73324407;6.617631281;-4.414499439;3.244277485;24.80979505;13.29812742;6.984681478;-3.977737919
13.12732141;14.69645859;21.06569556;6.381315462;0.070543027;-0.548959805;4.177760778;-0.425665009;4.399934273;-0.189805589;-12.94701884;25.1389272;10.55281249;-2.331916003;21.63590313;22.29248459;15.43652358;12.03062872;-0.823205196
13.30881468;18.60268323;18.40914715;2.442365552;3.93159114;2.51247473;9.47819985;-2.011105881;3.436646817;2.385627978;-11.98479248;26.74116787;13.78514261;0.609321375;35.75759299;23.56588911;17.34680379;16.59352797;4.02086173
12.49237597;16.95717749;12.65295197;-2.346345636;4.77271257;4.779240782;11.64633743;-2.217333559;0.335459706;2.375472084;-14.62230571;30.81887382;15.60515931;3.72968247;40.87764967;29.28150758;19.174056;20.20442918;9.455112553
9.744937073;11.1079279;4.665329494;-5.17500264;2.726334459;5.157870654;9.072707676;-2.469159886;-3.918332959;1.108942958;-19.8481121;35.88212038;16.4250777;5.87203123;36.01821707;35.91281865;20.52409715;21.82622237;13.62482733
5.643124126;3.753829981;-3.901041346;-4.946173782;-0.58345176;3.571323247;4.175652631;-4.652060085;-6.473925305;0.409478945;-25.01822098;38.32680826;17.32728194;6.184066137;23.89981593;38.09718211;20.73118713;20.43881374;15.1017784
1.916610563;-2.904419574;-11.12068686;-2.971277485;-3.105559522;1.001390861;1.869797999;-8.615471428;-5.278188545;1.049074041;-27.35329688;35.05697442;19.16249044;4.899090679;9.852038971;32.2811341;19.40192806;15.81999767;13.90904067
0.142466057;-8.230442825;-15.51195056;-1.887008212;-3.679063943;-1.073860166;5.670843289;-12.21444423;-1.304320331;2.016237532;-25.72115666;26.21039462;21.85949239;3.424586544;0.032880789;19.10811277;16.80141696;8.904686462;11.56217403
0.414172054;-12.75642661;-16.6444997;-3.583334257;-2.747307573;-1.518640189;14.3827135;-13.50695896;1.868977306;1.28511043;-21.38763271;15.84579788;24.44837632;3.539175764;-0.940960381;2.973964609;13.72053917;1.378954624;9.978261333
1.011537067;-16.93406945;-15.32413563;-7.695690486;-1.993124921;-0.159435067;22.13212833;-12.72165203;1.032115858;-2.397683091;-17.09062223;9.798796976;25.79373106;6.191354726;7.606949433;-10.76849534;10.84996043;-5.265188197;9.96105294
-0.55958122;-20.31152748;-13.20540008;-11.81990644;-3.135469502;2.16629528;22.08415214;-12.03263959;-3.613662645;-8.078406457;-15.03229894;11.95830204;25.5241179;10.73978415;21.3441797;-18.8852123;8.112645522;-10.56487734;10.3593174
-5.785039427;-21.91064266;-11.96;-13.32175796;-6.697259651;4.13278795;11.30853131;-13.4185232;-8.138387058;-12.75366424;-15.25044363;21.4705865;24.47301284;15.20248632;32.56077664;-21.53162499;4.534954335;-15.20605948;8.599471823
-13.85705311;-21.37437776;-12.38518305;-11.37593614;-11.57248614;4.686176302;-6.768446127;-16.71921862;-7.890210676;-13.22457967;-15.62038878;32.89276211;24.24714239;17.394944;34.4230455;-21.09565171;-1.082794082;-20.30248109;2.366410839
-21.86144788;-19.65233357;-13.91703512;-7.628110806;-15.66434454;3.597373744;-24.21112574;-19.73938481;-1.534643378;-8.416205257;-13.56198343;39.37597272;26.13837147;16.23596112;25.62535785;-19.77488917;-9.028389432;-26.28777635;-8.612318035
-26.41427592;-18.35662767;-14.85033955;-4.869635704;-17.12923809;1.521743295;-33.45577003;-20.23996954;7.263087211;-0.424099711;-8.242773369;36.89;30.10254762;12.39674929;12.16793155;-17.84748644;-17.86215577;-32.1659809;-21.8669928
-25.69598214;-18.18149523;-13.21708886;-4.657706177;-15.37418098;-0.416237649;-31.76769634;-17.8832062;12.15385248;6.656167014;-1.646643684;26.74165544;34.56796729;7.903033825;4.343313967;-13.8965692;-24.66012127;-35.68593284;-33.12076357
-20.52991315;-17.82147102;-7.920856;-5.742740497;-11.187829;-1.241692029;-22.25351781;-14.32245626;8.827427447;9.465833478;2.349693617;14.72431516;37.31700144;4.95492206;10.22468184;-6.658022243;-26.42878277;-34.46140409;-38.40103534
-13.80950328;-14.63182693;0.45238555;-4.698540395;-6.042782975;-0.611218537;-11.06692943;-11.46783952;-1.499488919;7.797225469;0.338697123;7.446769374;36.91646144;4.683921026;29.75580597;3.099368869;-21.96467619;-27.46286031;-36.12958416
-8.716301791;-6.863552861;9.615065088;1.47378006;-1.180257834;1.063548679;-3.192326987;-9.701409455;-12.60875121;4.888019295;-8.393308839;8.228887661;33.70311271;6.571287266;53.65919658;12.26370509;-12.95512605;-15.99937188;-27.97629821
-6.959570339;4.203681409;16.45267543;12.61336653;2.847529444;2.867018189;0.086344804;-7.78972411;-17.49179185;5.24511395;-21.25801519;15.21019148;29.56348872;8.844043332;68.39413126;17.03269188;-3.419428905;-3.493767483;-17.9669175
-8.154930416;14.16739482;18.43530097;24.71533666;5.95973696;3.849156464;0.617453676;-4.505588731;-13.08151599;11.44663556;-33.73451148;22.82931362;26.59435833;9.597971634;64.27870338;15.41180446;2.409486146;6.012419233;-10.33711747
-10.57591556;17.98618512;14.88323677;32.12204866;8.018446353;3.4843221;0.853517319;-0.237684048;-2.032939748;22.1901015;-41.76101666;25.61124252;25.60023664;7.980322101;41.59155238;8.746929073;2.571398894;9.911908545;-7.337777091
-12.548765;13.50426789;7.40363084;31.27375753;8.579967775;1.918912103;1.789151894;3.151762194;9.54010653;33.03227698;-43.60413341;21.71773139;25.58354531;4.718477089;10.69292682;1.110998395;-1.369030364;8.468471111;-8.212567544
-13.42191975;3.391189895;-0.809385816;23.36253227;7.214677025;-0.095178356;2.90816323;4.212273045;16.39758575;39.34619993;-40.15401059;13.93803735;24.67378178;1.643654356;-13.89102963;-3.137941669;-5.246125105;4.675714566;-9.885119124
-13.51698487;-6.215091592;-6.521390793;13.81537448;4.12405414;-1.554506582;3.628031871;3.69144954;17.27771263;39.39655824;-33.74094125;7.546336871;21.80665923;0.459781447;-21.63043266;-2.022176679;-4.9415425;2.454424438;-8.906404505
-13.3244092;-9.698524585;-8.059892329;8.74982016;0.449668485;-1.693011372;4.426804503;4.289684141;14.77250232;35.32520389;-26.51710504;6.54668789;17.79694381;1.515377384;-11.40860421;2.930536761;0.905572065;4.177012798;-3.499976116
-12.76177306;-5.858580294;-6.092503738;10.8123859;-2.140508832;-0.377574742;6.398202912;8.301843994;12.61803613;31.3585881;-19.55806286;10.87105707;14.85230374;3.413430482;8.7450467;7.793349163;9.933277909;9.062604882;5.47284559
-11.16881363;1.136285882;-3.133183729;17.38950491;-2.423373477;1.79688717;9.752016766;15.17075174;12.82894772;30.58964777;-13.12396629;16.40886078;14.81395644;3.818032639;26.86862858;8.743918192;17.52802177;13.55206393;15.1136916
-8.039948963;4.543342784;-2.061203659;22.5371598;-0.479919479;3.786298994;12.99244084;21.30542116;14.76841881;32.7287001;-7.578764558;17.80839876;17.51519941;1.024574928;33.70538772;4.24143939;19.76451797;13.5218582;22.17044068
-3.854090277;-0.315251047;-4.524129657;21.26829905;2.234906579;4.627647152;13.94379846;22.62057628;16.37658571;34.47644461;-4.005936985;12.11863216;20.67108775;-4.732572188;26.94463008;-4.491811161;15.81034894;6.931963625;24.69133543
-0.251822445;-12.82458556;-10.14696171;13.09506292;3.760364302;3.94554652;11.92734593;17.77900526;16.11513701;32.20232762;-3.883746602;0.799293852;21.5365981;-11.1909972;11.20382863;-14.76059934;8.159252184;-4.858353257;22.65610912
0.704457966;-27.48398223;-16.93628904;2.289144092;2.900809047;2.153261961;8.998759671;9.350180933;14.00982396;24.89664794;-7.999055794;-11.22628467;19.0954644;-15.37088474;-5.466973081;-24.28405893;0.610024414;-17.99326144;17.36078489
-2.242132852;-37.54080015;-22.50585164;-5.216995499;0.037741376;0.227109986;8.682340495;1.84231678;11.31565528;15.19069855;-15.44724886;-18.76714699;14.9987106;-15.47576512;-16.09660149;-32.21323675;-4.465663194;-28.57372749;10.20648941
-8.641389454;-39.19231431;-25.27964619;-5.895507214;-3.092289609;-0.824711955;12.81523951;-1.678596637;9.542210233;7.715786172;-23.58085506;-19.58636284;12.39289976;-12.08728625;-17.84623355;-38.64784443;-7.529915266;-34.8870755;1.892158013
-16.38163502;-33.46746177;-24.9605874;-0.667709785;-4.524942443;-0.501242824;19.07697729;-1.408241997;9.799158918;6.05792206;-29.1184116;-15.47169358;13.48272566;-7.788750561;-12.3966304;-43.29746295;-10.95084093;-37.83114799;-7.409881776
-22.69261703;-24.75584873;-22.15374909;6.376283956;-3.347969949;0.942379284;21.66077575;0.455064286;12.70808571;10.55426515;-29.78388588;-10.53394461;17.76414924;-5.444882599;-4.054918258;-44.64109844;-16.52521989;-39.34075167;-17.17528229
-25.51586671;-17.39907321;-17.63242501;11.30959059;-0.277064648;2.660691759;15.18112341;2.650145742;18.41396239;18.45615279;-25.42980279;-8.064363583;22.38449002;-6.333702266;2.961827103;-40.52854888;-23.44131678;-40.17414609;-25.84710737
-24.45246186;-12.96388972;-11.89120264;13.04891498;2.846004984;3.68612368;-0.867267978;6.39346008;26.29479543;26.15871801;-17.91543422;-8.247972656;24.36809204;-9.433933125;6.46551822;-29.9601568;-28.35794062;-38.92448249;-31.13347549
-20.79204651;-10.00834609;-5.270402437;13.44947906;4.277178152;3.432032787;-20.62250935;13.67190979;34.64379068;31.694993;-9.850286732;-8.337851577;22.90067012;-12.31676391;6.573652526;-14.71852855;-27.66233255;-33.15523257;-31.27019018
-16.68974696;-6.124085457;1.604391063;15.09931597;3.48477609;1.970004883;-34.87829901;23.62680727;41.00999187;35.63618649;-3.080785887;-5.069495464;19.81386852;-12.91639749;4.57161056;0.558802642;-20.27415697;-21.83641102;-26.38135253
-14.02522932;-0.411205299;7.591826579;18.8889979;1.416609748;-0.034797234;-36.77333085;30.63;43.42259754;39.89473131;2.05593804;2.530790401;17.9342532;-10.85812355;1.49930563;10.28327207;-8.879884496;-7.120934831;-18.84727922
-13.58802824;5.536519195;11.33282267;23.37707328;-0.235877179;-1.66481501;-26.17897387;26.72031439;41.75031928;45.5738192;6.274316684;12.04062148;18.77243054;-7.448870564;-2.337997131;10.83826163;1.409936755;6.1245281;-12.21959528
-14.96659953;8.724052194;11.92076875;26.25660034;-0.259354626;-2.183441087;-9.670078125;7.416018226;37.98166229;51.65969461;10.14151011;19.05551278;21.55037598;-4.514468589;-6.613764921;2.772762458;6.116007348;12.96340149;-9.269707215
-17.0766639;6.926735656;9.451879206;26.41537793;1.205321235;-1.36232689;3.830487716;-23.43210655;34.90222035;55.56665366;13.15102315;20.08755015;24.31529793;-3.120853627;-9.879216819;-9.148800849;4.056511702;11.44147;-10.4370974
-18.92193316;0.287192529;5.037545146;24.72061394;2.721834108;0.426149341;8.563854696;-54.09682628;34.02331752;55.02240552;13.86197005;14.85648405;25.95952599;-3.174837932;-9.562597818;-18.2248921;-2.175279588;3.856581131;-13.72826112
-20.1183329;-8.714861644;0.260075073;22.95993046;2.512650232;2.376544307;4.812991321;-71.3606436;34.43365122;49.760202;11.05028337;6.369898949;27.11593015;-4.05148522;-3.730475798;-19.26503102;-8.140551912;-4.735764658;-16.1388054
-20.92798898;-16.74218657;-3.560180805;22.08470624;-0.325342614;3.605853621;-2.465236878;-68.78322861;33.62940738;41.73026521;4.975359142;-1.17510529;28.97901819;-5.494626177;6.422895977;-11.38198327;-10.44599192;-9.794140701;-15.63216985
-21.87862469;-21.44426643;-5.83759848;21.46984101;-5.148848171;3.553829575;-7.719414751;-50.96484896;29.7312319;33.77396037;-2.311085369;-5.085782362;31.20782055;-7.858721186;15.60841068;1.36538313;-8.606462055;-10.08210083;-12.35392567
-23.27871407;-22.52690867;-6.726453683;19.85325378;-10.0841584;2.256911209;-8.38661397;-30.57065441;23.23674979;27.87805208;-8.013856736;-5.545623949;31.23569561;-11.43803314;16.66807424;11.87826087;-4.781926725;-8.082385635;-8.328740176
-24.95263197;-21.54630119;-6.780381502;16.96257088;-13.12553628;0.3582201;-5.656878438;-20.09928175;16.76602814;24.32291424;-10.34757106;-4.821468512;26.26564368;-15.54764473;5.309560684;13.59396585;-1.868792243;-7.854428542;-5.948617588
-26.33637618;-20.71093976;-6.552422204;14.13655319;-13.30278094;-1.180183037;-2.536259182;-24.16593886;12.95831464;22.18886516;-9.712397998;-5.090978037;16.65394813;-18.35034205;-15.79063805;3.984619637;-1.496458488;-11.95531906;-6.354904827
-26.83363013;-21.44979183;-6.356404645;13.18266939;-11.17403259;-1.551223573;-1.232073812;-37.53806798;12.31509474;20.56697884;-8.338702999;-6.627558575;7.534316232;-17.84024634;-37.02379113;-13.83189011;-3.324714277;-19.62916296;-8.809423665
-26.18840627;-23.53887067;-6.243062018;14.4410457;-8.359880376;-0.534752775;-1.882823772;-49.81633637;12.88666855;19.36543244;-8.55377752;-7.686090812;6.341297572;-13.37037609;-46.9882977;-32.35315814;-5.900645841;-27.46220799;-11.39829535
-24.65281354;-25.26394785;-6.130308212;15.93652459;-6.469102202;1.350330054;-3.108888533;-52.91229676;12.120938;19.11715005;-10.90377994;-6.060261856;17.13345554;-6.522245894;-39.79578599;-43.38244084;-8.153142605;-31.88815931;-12.48036937
-22.87087229;-24.57248562;-6.000588929;14.67500987;-6.143989482;3.084569536;-3.33551103;-45.88692934;9.292348152;20.15230113;-13.57017091;-1.011748894;35.80137952;-0.497514419;-19.38722935;-42.31994929;-10.25094585;-31.64322106;-11.82512784
-21.55562663;-20.59374332;-6.068414318;9.224887734;-6.826215118;3.677910036;-1.611060249;-34.20645209;6.386871203;22.03797931;-13.62508779;5.94802679;50.51223072;1.699421063;2.71093149;-30.68101422;-13.19562295;-28.40840117;-10.66311064
-21.12418881;-14.55179531;-6.789469991;1.409967361;-7.318944513;2.716253003;2.381354067;-24.80821909;6.634945977;23.8642437;-9.289646704;12.00168362;48.329512;-0.921119872;15.11095001;-15.26071825;-17.57936452;-25.27296478;-10.65816431
-21.45783256;-9.288184953;-8.601917476;-4.526005787;-6.678844134;0.619175147;8.439752723;-21.13486143;11.91097591;25.10673586;-1.528481401;14.94069984;24.13439988;-6.769577586;14.36964882;-4.253836897;-22.5812134;-24.25244855;-12.55348919
-21.90111498;-7.443184035;-11.45490399;-4.882653492;-4.79300813;-1.551206038;15.46529308;-21.63421752;21.17428883;26.2110989;6.291101813;14.59551751;-14.47126749;-12.73125596;7.014063429;-2.56808198;-26.06358193;-24.74398772;-15.45819865
-21.53082821;-9.400870457;-14.43598835;0.656903836;-2.285889198;-2.644014047;20.93121955;-22.10439913;31.18855831;28.25973338;10.55669589;12.74852489;-50.40580173;-16.0758421;4.046148357;-9.23135898;-25.78540748;-24.06936504;-17.30808858
-19.61741076;-12.57815276;-15.92182617;8.607560406;0.078479359;-2.042444825;21.26016048;-19.39650109;38.78960547;31.91096809;9.89024354;11.66869665;-67.01771389;-15.93373786;11.94631262;-18.55953669;-20.92037479;-19.70493327;-16.24470038
-16.08474431;-12.93847683;-14.42204585;14.10972704;1.979121789;-0.014307139;13.67506398;-13.49422419;42.73566531;36.50558249;6.140641351;12.41220335;-58.23341684;-13.46543578;27.09123831;-24.2808548;-12.83532279;-11.55149668;-12.01579604
-11.71102386;-7.997042519;-9.730710526;14.34990433;3.649914197;2.408859835;-1.37486615;-6.83058569;43.72806405;40.17493211;3.110913302;14.13775175;-32.02656234;-10.81438926;38.05744296;-23.76910231;-4.565074225;-2.539155546;-6.422508346
-7.886729167;0.798176606;-3.558020366;10.32804637;5.47347943;3.968274383;-19.18422234;-2.028116066;42.94638172;40.9796367;3.883821503;14.86677891;-4.853234206;-9.697067159;34.21178193;-19.44319407;0.743670259;2.973138841;-2.401948954
-5.975438029;8.342172573;1.045876194;5.673474303;7.43106144;3.846314328;-32.57598978;-0.154208014;40.73773348;38.23068012;8.645801293;13.03670299;8.971379408;-10.54586354;14.01949832;-16.43132136;1.503945766;1.976568186;-2.219583461
-6.598776587;9.053618124;1.374047363;3.574566556;8.889148752;2.106940957;-35.87993749;-0.643842122;36.7511994;32.94746408;14.55184938;8.65842552;5.563452118;-12.57135739;-13.36115537;-18.34460786;-1.508440768;-5.127024278;-5.899949095
-9.287327637;0.910276309;-3.170138718;4.318797391;8.925922385;-0.333653475;-28.53321551;-2.408857938;31.20983312;27.07676046;17.67969654;3.251868862;-7.963283177;-14.46296181;-34.39502388;-24.40229628;-5.686662581;-14.63547654;-10.98460226
-12.76386567;-12.68443018;-10.52740329;5.312177575;6.967189921;-2.196862543;-15.60840414;-4.825699952;25.75443167;22.08998496;15.61070024;-1.326394758;-20.24772668;-15.16652599;-40.41178657;-30.09171041;-8.142244697;-21.81157282;-13.91738707
-15.71998358;-24.87137884;-17.22618162;3.368568568;3.252239928;-2.531816555;-4.63074427;-7.795667305;22.64711095;18.07407375;8.783244949;-4.245359227;-24.19045029;-14.33715729;-32.63308115;-30.80228119;-7.359591691;-23.80296547;-12.27169215
-17.58429267;-29.94763158;-20.66169288;-2.701857955;-1.228937376;-1.231490802;-0.799746744;-11.17103735;22.80587278;14.02175969;-0.229766769;-6.232075372;-20.96348003;-12.39072133;-19.44500425;-25.56071799;-3.978078811;-21.25225539;-6.376288423
-18.75077723;-27.24662326;-20.76640216;-11.2184914;-5.296162314;0.910738712;-3.992949391;-14.40645868;24.53501788;9.047322038;-8.762205272;-8.88830221;-17.25257492;-10.26929371;-8.741688109;-17.93238159;-0.239643584;-17.52991416;0.815778622
-20.10513044;-21.27403905;-19.76856792;-18.92141878;-8.246416676;2.640309079;-9.617576922;-16.88219272;24.47430124;3.505645552;-15.70837187;-13.29356712;-18.78245663;-9.03693252;-2.020947;-13.3962778;1.54694282;-16.17114964;5.63522149
-22.20441565;-17.9049429;-20.16782666;-23.14261621;-10.16776995;2.937273556;-12.46712166;-18.50723905;20.35279596;-0.921933258;-21.52122783;-18.91563481;-25.64469516;-9.391057444;4.922006269;-15.26381644;0.546931921;-18.34284334;6.150379559
-24.73332109;-19.58952774;-22.50280571;-23.10719231;-11.69700996;1.583087778;-10.52712595;-19.85211431;13.30594619;-2.276374233;-26.74064049;-23.65664246;-32.88944009;-11.24410283;15.77906637;-22.29617869;-2.060762836;-22.11912433;3.471016107
-26.65055962;-23.41996185;-24.745523;-19.6479703;-13.4052025;-0.71765093;-5.900123565;-21.53575053;7.557911901;0.293902881;-30.51424766;-25.10071732;-35.25856927;-13.62898576;27.99964836;-29.75090251;-3.917253297;-24.02826547;0.937108148
-26.89952064;-23.70787561;-23.91806599;-14.06442832;-15.24109851;-2.72690291;-2.444122644;-23.39676102;7.352255901;5.859958411;-30.61162434;-22.20021833;-31.69515873;-15.11450839;33.21471501;-32.86123159;-3.144764718;-21.69334592;1.705469043
-25.1155382;-17.06801781;-18.70912841;-7.389279185;-16.41384908;-3.353504847;-2.328688221;-24.2931662;13.43296841;12.23251382;-25.16116043;-16.27818115;-25.87007813;-14.61097897;24.0599835;-29.95391903;0.297652686;-15.61789579;6.423816932
-21.78190477;-5.845709785;-10.94705267;-0.579662134;-15.80618403;-2.244498372;-4.398374138;-22.86062724;21.99837055;17.25588675;-14.77083418;-10.57852587;-22.62210102;-12.09828059;1.733811307;-22.94535035;4.515611906;-8.83075824;12.66491343
-17.75677407;3.090029297;-4.58898085;5.007259404;-12.67419101;0.033252325;-5.52824557;-18.67930244;27.19852058;19.9363581;-3.140764339;-8.476033492;-23.66380533;-8.744699251;-22.60461969;-15.253209;6.925629098;-4.705699465;16.54404389
-13.62048301;3.480443719;-2.851779765;7.849891546;-7.212225901;2.306022757;-3.579522755;-12.86588134;25.3817215;20.68825799;4.711505625;-11.34788527;-26.29287083;-6.247834531;-34.72289797;-9.212270721;5.980621725;-4.611164503;15.35873245
-9.426232206;-5.220365227;-5.677950405;7.382312892;-0.63288201;3.414869962;0.700737328;-7.527887887;17.81045827;20.6972675;5.616614116;-17.44668093;-26.03587671;-5.792017183;-27.64309407;-5.181033081;2.164583966;-7.121821403;9.35456923
-5.055802915;-16.87758775;-9.587312995;5.001330136;5.318188185;2.807356727;4.44098405;-4.436133872;9.735258245;21.00457025;0.540380463;-22.62762969;-20.71777415;-7.332447175;-7.239177136;-2.718132554;-2.416933284;-9.297279589;1.397809958
-0.813545174;-22.78824625;-10.15411245;3.687133049;9.173228308;0.799156739;5.293505313;-3.906211167;6.581733655;21.96527724;-5.859591386;-22.68549656;-12.35565421;-9.697665846;11.7350851;-2.208350012;-5.493516761;-8.961263539;-5.091298964
2.358903005;-17.84591889;-5.281916225;6.026682239;10.44038528;-1.605471836;3.571580429;-4.714931244;10.20263075;23.28909973;-8.339398889;-15.98725407;-5.342831957;-11.39649102;16.51271724;-4.965822456;-6.029748595;-6.207803182;-8.330666021
3.354748708;-4.115631928;3.212547393;11.97304223;9.785659587;-3.220459671;1.983952329;-5.080267421;17.91658205;24.3817368;-4.743148053;-4.752907683;-2.688212826;-11.50707373;5.757174056;-11.45464314;-4.571132126;-3.042293065;-8.894603793
1.744552066;10.79790391;10.89805031;18.25861682;8.567802766;-3.252139776;3.220846736;-3.963583095;24.7184879;24.58821098;2.404801199;5.945322908;-3.694615209;-10.02776056;-9.815898686;-19.34597711;-2.40668408;-1.566263765;-8.599730692
-1.723428284;19.18830072;13.87149246;20.29786236;7.972717765;-1.669832535;7.533241028;-1.78498395;26.6424298;23.22128827;7.613823239;10.98568041;-5.050806528;-7.562849693;-16.1517724;-23.69;-0.351797951;-2.236764292;-8.652747295
-5.472260276;18.29029027;11.3224521;15.41942682;8.260097656;0.789807932;12.43557054;-0.127052495;22.72918269;19.59536259;6.259982849;8.106533123;-4.208420105;-4.761442679;-7.044813568;-19.84342465;1.793738786;-3.602311229;-8.656960662
-8.12826341;11.29123687;5.64430991;5.015345077;8.60435974;2.978377184;14.78436053;-0.70668689;14.60135563;13.31432738;-2.238504809;-0.934356233;-1.894683632;-2.051508565;10.98521744;-7.267070854;4.681892365;-3.677727682;-7.255767809
-9.476833003;3.999984024;0.208126705;-6.162509838;7.663332506;3.885435394;13.40122626;-4.311255091;4.708838487;4.745334856;-14.20702117;-11.71270067;-1.439940739;0.170343558;23.85311294;8.88502802;8.293246603;-1.789227543;-3.761188958
-10.58218584;0.175201984;-3.282258354;-13.18611401;4.536391565;3.126536395;9.948061448;-10.31846798;-4.951416152;-4.72674233;-24.54458915;-20.08746622;-5.503381217;1.241085652;20.87648104;20.11934458;11.31581874;0.637470208;0.729280001
-12.93441818;-0.785102542;-5.751009513;-14.28630333;-0.510322015;1.132608262;7.326418987;-17.00719243;-12.85404829;-13.05243283;-30.38715288;-24.730385;-13.16737616;0.312882462;2.866740469;19.66922761;11.70040566;1.002338687;3.788807
-17.24679394;-2.351373575;-9.425681113;-11.84241963;-6.052468146;-1.064085069;7.082241495;-22.42446972;-17.46512519;-18.43599687;-32.79386153;-27.51349188;-20.11890819;-3.078255104;-18.83101836;6.817521363;8.083449002;-2.54448989;3.410039063
-22.80966915;-7.293014421;-15.51449756;-10.32601148;-10.27593856;-2.353451688;8.191218782;-25.32086511;-17.49471183;-20.2710265;-35.2249047;-31.56969928;-21.95230796;-8.401936017;-31.23205421;-12.61932056;0.992446592;-9.663529057;-0.357969469
-27.88429946;-15.20828082;-22.89717927;-12.83791049;-12.01731766;-2.116275105;8.357562881;-25.6653979;-13.07646011;-19.41992045;-40.12386722;-38.53075062;-17.85360084;-14.11283984;-29.30520841;-29.99838697;-7.170960111;-17.94834578;-5.257961615
-30.82916487;-23.05431109;-28.87763528;-18.90179993;-11.39960789;-0.533623842;6.641856222;-24.47327283;-6.671942624;-17.58319827;-46.43439731;-47.03613846;-11.49160439;-18.43869323;-18.89062163;-39.09827945;-13.47771397;-24.47407606;-8.363253028
-31.11812497;-27.88061596;-31.27974114;-25.10155385;-9.664474235;1.535460008;4.896518077;-23.0465163;-2.300290911;-16.17224657;-50.15133127;-53.62924001;-8.246849283;-20.49475623;-11.22387486;-39.29803682;-16.23825937;-27.59916213;-8.160186771
-29.53301752;-29.21091935;-30.09072434;-27.88383501;-8.349270654;3.03792756;6.39564373;-22.08689895;-3.088149184;-15.48311425;-47.56882213;-55.32916912;-10.99026287;-20.86691536;-13.98542015;-34.80319142;-15.93906892;-27.75675425;-5.584733044
-27.45961816;-29.06978296;-27.31442081;-26.22010162;-8.377288843;3.292413384;12.52923388;-21.26915409;-8.880415844;-14.74351577;-38.65340919;-51.87930395;-17.85039104;-21.13085744;-26.06790055;-30.97975277;-14.69628233;-26.80887075;-3.237234205
-25.85852902;-29.83457237;-25.22621603;-22.08375138;-9.630230533;2.314612461;20.38338389;-19.60115724;-16.00695817;-12.93388469;-27.73686191;-45.92876349;-23.74961857;-22.589251;-39.65436187;-30.71866236;-14.64641305;-26.5801096;-3.404055842
-24.64738399;-31.92818546;-24.51194682;-18.54487805;-11.18488976;0.736309085;23.66769497;-16.34169297;-19.71227231;-9.698297588;-20.74437065;-41.01742255;-24.37638183;-25.16089694;-47.0665945;-33.26481766;-16.43115152;-27.6520974;-6.396940574
-22.85909173;-33.34647035;-23.79313898;-17.17381632;-11.94024231;-0.596969166;16.88135997;-11.77689954;-17.50015788;-5.630395827;-20.91282833;-38.95364599;-19.32762422;-27.29370576;-46.34323988;-35.774862;-18.81256003;-29.14517999;-10.41843299
-19.38063637;-31.32806539;-20.86038169;-16.8840776;-11.17620137;-1.085717804;-0.168534464;-7.18798481;-10.74805252;-1.760538043;-26.2604319;-38.64341653;-11.9834591;-27.01640667;-41.27208196;-35.89060258;-19.61582925;-29.44544659;-12.96568098
-13.75106443;-24.68951877;-14.58419371;-15.07490529;-8.761112941;-0.63358097;-21.05598907;-3.945332454;-3.318854598;1.266535431;-30.86343695;-37.2729941;-6.474834725;-23.3797041;-36.70770036;-33.28311812;-17.28595018;-27.27577101;-12.65685963
-6.565853817;-14.94691168;-6.02358494;-10.05380554;-5.052939488;0.39512692;-36.04672776;-2.411289209;1.575435057;3.596358084;-29.14727776;-32.87805194;-4.454109837;-17.24368059;-33.88595848;-29.37140175;-11.99670991;-22.47477537;-10.14495746
0.664623196;-5.486905702;2.0373527;-2.738067206;-0.718178991;1.424408773;-38.02452829;-1.590473878;3.543866581;5.804357982;-20.07983734;-26.23561776;-4.331477135;-10.86176761;-29.91161968;-25.95169439;-5.63504953;-16.17873093;-7.554778658
6.08736431;0.401398281;6.699912069;3.737601435;3.397480696;1.944177657;-26.96209951;0.067307723;4.442639073;8.099084422;-8.161677106;-20.56073004;-3.360664195;-6.587237911;-21.46232949;-24.02710435;-0.751052866;-10.43373355;-6.97291501
8.277484616;1.167936207;6.557595119;6.219791466;6.418293574;1.690120328;-9.797549008;3.266665668;5.801744378;9.819751763;-0.460262416;-19.2324969;-0.497915893;-5.607182901;-8.900396485;-23.52;0.830580273;-7.409099979;-9.107232479
6.939820505;-2.572423838;2.335271052;3.882914552;7.739079055;0.707253638;4.154045362;7.017680605;6.828359643;9.740284422;-1.849829796;-23.31662514;2.568620413;-7.490705558;3.186148327;-23.62703065;-1.064900201;-8.434330508;-12.96468796
3.237452158;-8.665061066;-3.626416443;-1.012339707;7.425244752;-0.664210088;8.97968459;9.151498817;5.007082001;7.01957353;-11.89041878;-30.77563026;3.05806643;-10.69049294;9.516833828;-23.24959649;-4.95182057;-13.19868048;-16.59909311
-0.532770088;-14.38329543;-8.542497866;-4.498706448;6.41074812;-1.868081113;5.182611837;7.941901627;-1.165452931;2.060073242;-25.48143121;-37.90354122;-0.176575344;-13.50627207;8.4063602;-21.31086031;-8.516594864;-19.57910173;-18.29982632
-1.966445056;-17.27332566;-10.3401596;-3.460304154;6.174091854;-2.307628394;-1.822776249;3.618956645;-9.921269243;-3.460810921;-36.59931003;-41.8106385;-5.352838962;-14.85501215;2.81712601;-17.19282907;-9.823318341;-24.44095523;-17.45991881
0.11397783;-15.8878977;-8.374504985;2.349790121;7.902544042;-1.620993423;-6.174367164;-1.459710952;-16.82378034;-7.516540938;-42.24540374;-42.08056042;-9.095504954;-14.51007813;-2.767864915;-11.38356269;-8.28668906;-25.23957044;-14.72579456
4.788726785;-10.46487334;-3.574102723;10.1133621;11.61494957;0.047888743;-5.510800162;-4.225563837;-18.10612455;-9.000368171;-43.7930441;-40.52090366;-9.252617341;-12.91054404;-6.671700977;-5.858242121;-4.934533592;-21.59092604;-11.51552921
9.331775152;-3.203421244;1.974171781;15.62320405;15.8997072;1.978313346;-1.727755733;-2.919598024;-14.02158169;-8.426685369;-45.06365224;-39.4864475;-6.730517744;-10.83319032;-11.39357199;-3.488402313;-1.810876856;-15.73138618;-9.265905758
10.70467687;2.426282368;5.911298106;15.72504279;18.59830305;3.147736719;1.463507512;1.749728158;-9.195097563;-7.546840748;-48.94160036;-40.26052678;-4.742128187;-9.102586016;-20.56431469;-6.397194975;-0.795224271;-11.33306005;-8.770327146
7.423463013;3.399743179;6.682279176;10.03961539;18.10111846;2.787124639;1.822908326;7.128231257;-9.386822661;-8.149202819;-55.25548072;-42.67154288;-6.091275449;-8.321027767;-34.19303169;-14.25249218;-2.46165363;-11.25195667;-9.843701066
0.55460982;-1.017409753;4.284362016;1.019335023;14.41552792;0.910473977;0.073445871;10.38756467;-17.17144806;-10.89690159;-61.41699333;-45.89130423;-10.77213046;-8.585061076;-46.74031552;-23.95157364;-5.657733561;-15.66487656;-11.42575853
-6.924276241;-8.673332899;0.184551538;-7.56141615;9.244318809;-1.556602381;-1.264543162;10.26;-30.0754995;-15.00012422;-65.02050395;-49.3589328;-15.85708739;-9.31611711;-50.28052161;-31.3105262;-8.129380409;-21.93461046;-12.10779402
-12.02847773;-15.86502801;-3.641934737;-12.68485947;4.969998714;-3.218516941;-0.333990684;7.601321786;-42.71154914;-18.8832997;-66.11420875;-52.86648119;-17.71146881;-9.435749462;-40.53377545;-33.7276559;-7.887087734;-26.38035622;-10.88894734
-13.6020224;-19.79031628;-5.944912698;-13.48955911;3.210078125;-3.015524216;2.526523316;4.58435618;-51.08571392;-21.28852657;-67.27149765;-55.8611335;-14.70039885;-7.953715675;-20.79537336;-31.75863892;-4.485189599;-26.73235571;-7.789149114
-12.75521504;-20.2616048;-6.79790313;-11.2448928;3.91239683;-0.903277053;5.350925351;3.253342359;-55.44788197;-21.99478188;-71.47287946;-56.94251935;-8.283827769;-4.680433898;-0.278237662;-28.21020815;0.633288194;-23.50516537;-3.932908475
-11.61816878;-19.28900158;-7.088102543;-8.078994795;5.566440698;2.051935695;6.479903041;4.420362222;-59.38572343;-21.69510021;-79.58809385;-54.43942049;-1.829349852;-0.54470856;12.05542052;-25.37916151;4.999434791;-19.31373749;-0.982065389
-11.43297897;-18.88419218;-7.338807598;-5.413322714;6.316895575;4.262700195;6.028986296;7.439135043;-66.16564002;-21.24519089;-89.52577056;-47.8762824;1.712779902;2.829732417;13.34690456;-22.76836286;6.648787084;-16.71078993;-0.218747967
-11.5291387;-19.01124329;-6.940122164;-3.186070097;5.171934053;4.546046278;5.624216905;10.74978471;-75.68900216;-20.94521119;-97.74554078;-39.07913112;1.442803383;4.114729762;7.841737819;-17.40763279;5.306124675;-16.23466721;-1.850482132
-10.00463845;-17.56425662;-4.584745583;-0.334544267;2.518759871;2.808702165;6.76;12.74677591;-84.78182153;-20.41604679;-101.9513996;-31.68203616;-1.526846471;3.182763232;2.583592552;-6.760466046;2.446887716;-16.14456628;-4.978219502
-5.524921571;-12.49017175;0.357023523;3.937588916;-0.278131975;0.071064086;9.343195844;12.5563907;-90.46937204;-19.10341771;-102.8839236;-29.01684828;-5.302632869;1.251523163;1.699034956;8.163101703;0.246632909;-13.9608433;-8.198599354
1.293283996;-4.176725748;6.747182136;9.179084137;-1.783806729;-2.162167923;11.75447303;10.46157223;-93.15439849;-16.93376636;-103.8538749;-31.82083518;-8.397564278;0.09898388;4.064961149;22.34100617;0.191104582;-8.520679225;-10.36882304
8.123022496;4.189951193;12.03731066;13.8435356;-1.251279349;-2.771796434;12.34678185;7.789034183;-96.6728119;-14.55628495;-108.3861959;-37.5899376;-10.0851428;0.855797458;5.902496967;29.7520818;2.290622766;-0.925182827;-11.01060519
12.65103919;8.91615705;14.06703518;16.5063229;1.164152161;-1.606426096;10.99148785;6.179573796;-105.0090188;-12.9763636;-117.7259544;-42.27547671;-10.13166725;3.210122077;5.392594722;27.73896509;5.326416517;6.280762295;-10.2009638
14.37780613;8.95623028;12.95065494;17.16079188;4.668180217;0.526756713;9.236143331;6.487157725;-118.5102426;-12.88669489;-129.989606;-43.19764844;-8.621497782;5.580970201;4.724442664;19.21337532;7.790019531;10.92588907;-8.24610757
14.98095424;7.15812725;11.38569482;17.45019987;8.234444438;2.385919497;8.889710565;7.985985523;-132.9993307;-14.21994784;-141.4821194;-41.01099433;-6.179017771;6.13719619;7.548124081;10.71936001;8.762221962;12.54342667;-5.544712085
16.89884203;8.255369346;12.85541375;19.49;10.90365015;2.97915374;10.29547956;8.64544492;-142.7135277;-16.22666041;-149.1395379;-39.2048576;-4.142071173;3.966274312;14.27915542;7.680796066;8.187333841;12.26601941;-2.726649594
21.27400549;15.01437697;18.94601647;24.10361701;11.97353044;2.031460057;11.90330256;6.602911393;-144.6577439;-17.94077585;-152.3343057;-41.49154424;-4.066126369;-0.365484634;20.0022957;10.53120514;6.575723769;11.58856055;-0.739309596
26.94615934;25.66541376;27.88645109;29.87989102;11.19548416;0.043276408;11.66;1.910585605;-140.7037648;-18.62052123;-152.8474785;-49.04948156;-6.611587757;-5.167806124;17.6291327;14.79921225;4.579875252;11.17815226;-0.50228969
31.32347297;34.85541868;35.59193711;33.92;8.965646463;-2.01338527;9.101584961;-2.938977069;-135.7059994;-17.86388431;-153.1748539;-59.66470357;-10.71264418;-8.600623728;4.175847461;15.02246603;2.81604092;10.700893;-2.183714113
32.39920611;37.50304235;38.52189242;33.83185743;6.304166086;-3.169922566;6.260675485;-4.528500697;-133.3321047;-15.46261442;-154.4876959;-69.31441964;-13.98456444;-9.640739804;-15.23678193;9.221777554;1.894969213;9.610449718;-4.68667082
30.23057595;32.4992375;36.14813302;29.49048096;4.433231834;-2.895836208;6.332014742;-1.220459697;-133.2133188;-11.31646819;-155.7332404;-74.88599253;-14.35468668;-8.520885217;-29.72261698;0.244102626;2.33889376;7.968496091;-6.004455577
26.66467588;23.28494813;31.07714005;23.19331131;4.065652165;-1.33448509;10.87535399;5.136179348;-131.7606066;-5.622957374;-154.4871284;-75.98460475;-11.71301795;-6.504572267;-30.26734845;-7.02528963;4.206906937;6.423944709;-4.499567239
23.59280791;14.92345574;26.75101299;18.06366332;4.860799889;0.746996503;17.72022442;10.29509971;-125.729583;0.82223595;-148.91;-74.6583067;-8.13116367;-5.218425985;-16.93716408;-10.03871791;6.68446396;5.374624108;-0.306753043
21.27365758;10.18660234;24.6413227;15.94024039;5.537984876;2.294996723;21.48576978;11.11102178;-115.2551238;6.65650441;-139.3818264;-73.54674883;-6.278610901;-5.903489504;0.283278445;-10.6513635;8.148722707;4.209545371;4.287581185
18.21303284;7.917313304;23.27777963;16.39394519;4.729533019;2.480901524;16.81195936;8.715152683;-103.6709128;10.60191375;-128.5992465;-74.04866095;-7.222770283;-8.883762532;8.258635811;-13.01360041;6.96135716;1.542601091;6.04583704
12.75465981;4.894497322;19.9229687;17.58717179;2.070926558;1.158065034;2.316992183;8.299474205;-94.379849;12.48423516;-119.9727858;-75.81084536;-9.443505924;-13.41335352;0.323330677;-19.14583441;2.610722065;-3.54939752;2.928006356
5.041548831;-0.610814598;13.4666474;18.17930496;-1.261318784;-0.996480111;-17.48524517;14.87859265;-87.67410064;13.87150415;-115.3465446;-77.57779707;-9.960504767;-17.94123825;-18.46;-26.23299091;-3.628003698;-10.28141537;-4.304097559
-2.381553734;-6.805172488;6.042476994;18.63308121;-3.051441873;-2.79067053;-33.90511547;27.9589073;-80.38768731;17.62484857;-113.5938877;-78.37;-6.696430311;-20.71709886;-34.50620228;-28.34706651;-9.153270516;-16.08787132;-12.28929854
-5.987720307;-9.668350504;1.886882549;20.80046144;-1.351483795;-3.157060749;-38.67011261;39.7211534;-68.68;26.33722089;-111.1285003;-77.94539608;-0.120567065;-20.52629549;-35.17294759;-21.48528435;-11.47571331;-18.02613623;-17.08383382
-3.716116738;-6.413330745;4.239591616;26.13333203;4.252880438;-1.772048919;-28.68538936;39.23865787;-51.4630466;40.52128896;-104.1103826;-76.39371362;7.184221999;-17.23493754;-17.6591677;-7.726277977;-9.714472485;-14.72526925;-16.64209521
3.430504481;1.948012526;12.73816475;34.05153989;12.28531144;0.728838094;-8.056628117;20.55101357;-31.48200988;57.79802785;-90.94202305;-73.58271287;12.6077698;-11.85739803;8.957520174;5.311815692;-5.106865713;-7.411167448;-12.01725893
11.90628121;11.18270623;23.41117917;41.91331466;20.18588024;3.096735558;13.86943005;-11.27949566;-13.21709374;73.8256902;-73.37237502;-69.20382059;15.42893537;-6.080776771;29.73186403;9.807658667;-0.165856693;0.812522342;-6.453356489
17.91129353;17.04535217;31.31662186;46.73459958;25.73566099;4.179646078;27.28529482;-41.37551237;0.430256503;84.55814095;-55.41530239;-63.40285739;16.96063005;-1.490352249;33.4237526;3.888826167;2.90596933;6.916862283;-3.0797887
19.7720634;18.34594222;33.80012507;47.36095894;28.1505295;3.561000329;26.75650209;-53.73346577;9.786059601;88.43750211;-40.79118547;-57.243954;18.95300192;1.07624969;19.05404759;-6.391651587;3.429705993;9.689703417;-2.898270415
18.72556825;17.31714928;31.93585602;45.38826145;28.17538316;1.739527441;13.47844168;-41.77805713;17.20447686;87.07269671;-30.66906991;-52.31513718;21.83587033;1.711545262;-4.479107168;-11.19537413;2.321966302;10.04166843;-4.435446114
17.6760595;17.15755343;29.23137473;44.07899359;27.23745958;-0.230614439;-6.010700843;-13.17822124;24.47081826;83.94792604;-23.31019766;-49.61848407;24.44128397;1.136613963;-24.64050284;-4.300365049;1.153433224;9.817166151;-5.118498617
18.98492379;19.08141841;28.81878487;46.0537361;26.34336745;-1.375563325;-23.5720293;14.90354438;31.35857684;82.0671021;-15.84893822;-48.68929908;25.37976431;0.194552426;-32.6901206;11.81845633;1.033165523;10.19572113;-3.181599531
22.93452685;21.5059518;31.37507579;51.44040161;25.49307272;-1.305153198;-33.38036871;27.01760257;36.5147066;82.1768168;-6.855036276;-47.83507866;24.63680726;-0.518209771;-27.68816077;27.2364502;2.137903481;10.97316197;1.318565524
27.82881767;21.95007813;35.19087817;57.77575934;23.92780775;-0.313326386;-33.98640162;19.15816763;39.42706454;82.75997396;2.299187859;-45.44199022;23.73900307;-0.732737744;-15.41984669;31.43510929;4.045281261;11.16847948;6.92744353
31.40494025;19.71839226;37.96615712;61.64873776;20.91350362;0.903726546;-27.85705402;0.19302295;41.18297433;81.67681552;8.370179243;-41.29505308;24.24218473;-0.406657512;-3.915760399;20.81343461;6.345023325;10.26669408;12.03372357
32.36866293;16.77729974;38.63926209;60.88767142;16.43945443;1.668486318;-19.2147675;-15.59063291;43.11165113;78.13286119;8.822787234;-36.7482151;25.9964933;0.360542763;1.254731585;1.401054144;8.88021666;8.935213904;15.80028913
31.00430318;15.97864629;37.82;55.85769881;11.3638793;1.623937113;-11.72155353;-18.86914339;44.83786358;73.4725134;4.104506915;-33.53657458;26.98524359;1.32410999;-0.557554985;-15.12359947;11.46206353;8.591011001;18.15132349
28.66955332;18.31413928;36.79016166;49.17696485;6.980341589;0.811191079;-7.224564533;-10.85650793;44.22690302;70.25057026;-2.161626305;-32.23433362;25.1;2.112980986;-5.584756892;-19.16;13.50069759;10.23307542;19.12964737
26.78553452;21.84776745;36.23862617;44.20793939;4.356287296;-0.418818672;-5.813472246;-0.517619445;39.96469522;70.36589406;-5.286835454;-31.73224858;20.2969911;2.407215914;-8.332694707;-9.199344164;14.11613856;13.58307077;18.46149972
26.09007813;23.4521854;35.90500006;43.29168073;3.867297373;-1.553363918;-6.591017641;3.511632707;34.55204146;73.71661455;-2.414526269;-30.25305428;15.03280094;2.231550761;-4.978585037;7.805620046;12.81068278;17.2804637;15.83469957
26.48650746;21.83681535;35.25543633;46.61775438;5.141432769;-2.079167767;-8.367359911;-0.504415571;34.24591943;78.35543968;5.870882847;-27.0577209;12.35777708;2.116919182;4.127468223;21.47514201;10.14833571;19.94700776;11.58287067
27.30442752;19.02835017;34.2924084;52.14191744;7.346352493;-1.66797258;-9.933155673;-7.234292641;44.62489519;81.91077661;16.26615546;-23.33095085;13.28601709;2.886066772;14.18308158;24.60079538;7.71958872;21.18764596;6.974173679
27.63998076;18.73499088;33.56229906;56.49162954;9.595340422;-0.366636446;-10.14325804;-9.800441434;64.55497718;83.08595798;25.06529333;-21.39909917;15.94328643;5.092300727;18.35993464;16.91487557;7.190607992;21.66640439;3.613422636
26.65015192;22.83586346;33.34539688;56.50292984;11.26656947;1.316118719;-8.210924873;-5.770960124;83.78357903;82.10406168;30.24177597;-22.88186953;17.51098923;8.475541931;11.95655155;4.135417691;9.039294211;22.21048559;2.309731118
23.88519503;29.08418729;32.94412789;50.82707021;12.14;2.55969271;-4.244570088;1.399563162;87.52541188;79.93236553;31.89489512;-27.34212577;17.31726523;11.88901463;-4.120605089;-6.2555538;11.96801489;22.75065374;2.357531897
19.66690723;32.27208748;30.98652036;40.88620641;12.35558429;2.632891634;0.450922833;6.157127094;66.10139994;77.152583;31.14807805;-32.60240599;18.02797091;13.86201246;-23.1060353;-9.302075284;13.56813624;22.07511244;1.946702352
15.25887213;28.19872876;26.69445595;30.52637229;12.24812632;1.356112667;3.868112224;6.025764878;23.04704529;73.56449709;28.82209797;-36.45934161;23.28307797;13.48810641;-36.12919473;-4.484109779;11.87568354;18.71101903;-0.490385147
12.49296064;17.28856473;21.0361279;24.24265651;12.13937576;-0.686437729;4.581724666;3.500078125;-24.80149825;68.85494273;25.14934203;-38.30403165;33.35984903;11.03851615;-37.87400561;5.057632341;6.737876272;12.29448911;-5.004734471
12.83758971;4.812432629;16.59629239;24.73377178;12.18174986;-2.392971097;3.009629676;3.261497386;-56.38591224;63.61389664;20.5880575;-39.24137236;42.71986978;7.849014652;-30.21327741;14.62499009;-0.002887422;4.323745505;-9.950539187
16.41314279;-2.644191356;16.01739142;31.21535431;12.33003906;-2.763414886;1.526423767;7.588172289;-59.01306601;59.58130389;16.61104151;-40.64328612;42.34567266;5.525550809;-20.88142647;19.90361098;-5.654052408;-2.403444993;-13.08399395
21.69122071;-1.775420426;20.12632097;39.72823298;12.44598064;-1.52374734;2.951637536;14.25882842;-35.84144592;58.65127101;15.31881923;-42.49237705;25.99660928;4.989287075;-17.76860407;18.20463883;-8.335224468;-5.390737883;-13.12037334
26.24585618;5.336695505;27.23774627;45.5;12.4452327;0.66030388;8.20734749;18.74268114;-3.064205047;61.31749791;17.91589553;-43.09713152;-4.096607288;5.982214521;-22.92692109;9.269334502;-8.004967673;-4.001944395;-10.57495455
28.16297176;13.12619539;34.23702771;45.96;12.35983296;2.547156523;14.86347476;18.46476273;21.06434156;65.89818959;23.37921324;-40.55122889;-36.84653284;7.320393843;-30.95677729;-4.216299361;-6.207981925;0.12689694;-7.288680348
27.16221408;16.79926714;38.62014214;42.3714501;12.25713088;3.046398812;17.97907567;15.11118516;27.47707494;69.39193616;28.75894158;-34.70956784;-58.3064623;7.679530619;-33.28;-16.90588132;-4.834425449;4.14881332;-5.058412612
24.63480788;15.55680007;39.91072784;38.86124657;12.09453365;1.851761287;13.10631442;12.86871977;20.13666827;69.5095118;31.23181446;-27.88586587;-60.21299934;6.390577199;-25.16623983;-22.55772566;-4.831422402;5.8483705;-4.431198322
22.58328003;12.45390365;39.42260667;39.42853515;11.66903901;-0.408507958;-0.404491923;14.31030411;10.61199931;66.36219275;30.37101795;-23.49042819;-45.02099161;3.788623988;-9.971026153;-17.09141052;-5.727020587;5.033466344;-4.507639682
22.25656608;11.38183727;38.71056343;45.00092394;10.7522887;-2.56858381;-18.20239863;17.81072698;8.337378385;62.4010183;28.6338241;-23.58751465;-23.78810616;0.984675774;2.983467088;-1.401883926;-6.160078125;3.551842916;-3.767873333
23.45965357;13.84218812;38.08515574;52.62541045;9.321635151;-3.590916557;-32.9922702;18.94024478;14.1101603;60.49803675;29.38271019;-27.34326375;-8.538069677;-0.745522448;5.472714948;18.14382447;-4.908274014;3.937515718;-1.18870483
24.94167661;18.04059381;36.41523701;57.35920599;7.664728629;-3.091714011;-38.73304251;14.59287722;21.11601747;61.55370651;33.86219624;-31.67300223;-4.753137144;-0.623632734;-3.098996001;32.51674632;-1.668836434;7.605123674;3.174339973
25.41917444;20.7;32.28993739;55.49295448;6.196169816;-1.457397777;-34.22245819;6.057218552;21.60876834;63.4950216;39.64901539;-33.60976759;-9.277690124;1.203840573;-14.95634857;34.92430136;2.844285356;13.79636135;8.427120615
24.36971125;19.80553126;25.47355832;46.84512903;5.067280084;0.439722585;-23.61481217;-1.837079932;13.31417923;62.55092873;42.10245224;-32.50547496;-14.54129237;3.63971392;-19.78971613;24.8438923;7.394116226;19.96535094;13.52971219
22.04797475;16.01;17.40640448;34.64705448;3.882281943;1.708036676;-13.53720552;-4.805449533;0.615487231;55.96801878;37.93081758;-30.33048321;-15.19753503;5.057401424;-12.76084497;8.444458186;10.87578454;23.32789179;17.83263313
18.90759201;11.81821497;10.3654356;23.32865311;1.832516978;1.834947057;-8.865211749;-2.777357496;-9.682401678;44.19286221;28.11477081;-29.91446949;-11.82352839;4.067747686;1.496117685;-5.109242812;12.73723771;22.53873407;21.13480348
15.09918743;9.536024632;6.010625678;15.92;-1.728807779;0.872612922;-10.08908133;0.170634425;-13.8766228;30.89683657;17.72582594;-32.63171369;-9.18244967;0.334661113;11.96016543;-9.184868399;13.03644047;18.40410983;23.41457112
10.55047603;9.740078125;4.471638361;12.8054685;-6.630120492;-0.608689926;-13.90068129;-0.399318895;-13.54154122;20.80020888;12.54125324;-37.39721503;-11.15351856;-5.008110946;9.022049731;-3.445400209;12.24449118;13.21118566;24.60713576
5.506913383;11.26287362;4.592187311;12.3535951;-11.66314251;-1.755699098;-16.19713323;-5.144870503;-13.04275756;16.8529207;14.93130108;-41.65852273;-16.94751111;-9.712252924;-8.855003689;6.562974816;10.96758;9.195547962;24.63413844
0.920412156;12.32391523;4.990526006;12.56786988;-15.08679215;-1.792081975;-15.03084262;-10.16154494;-15.09724823;18.73746677;22.16987329;-43.4019395;-21.75102425;-11.52756524;-34.32079461;13.52163527;9.697464636;7.225810805;23.57007813
-1.820151239;11.71992748;5.040799041;12.4104894;-15.6310943;-0.403185897;-11.37777436;-10.3121131;-18.40552293;23.60628139;28.4869791;-42.46017915;-20.97233052;-9.528105367;-56.24741527;13.16502457;8.64086867;6.579026444;21.6956071
-1.711043848;9.341882812;5.112326678;12.04290806;-13.36440092;2.016648383;-7.543989064;-3.777508209;-19.17421922;28.30976618;29.28065364;-40.16461367;-14.25869531;-4.819248287;-66.54807678;6.515937284;7.678235177;5.867483472;19.34841974
1.155262875;6.085715449;6.094502322;12.21711256;-9.796223334;4.432416163;-4.913337981;6.151998198;-14.82152325;31.38711598;24.26770527;-37.88155013;-5.861061964;-0.052633091;-63.82711863;-1.727613297;6.501672564;4.348269538;16.73888207
5.634521061;3.572108314;8.731388427;13.57148677;-7.057914769;5.617028237;-3.032062684;13.62013163;-6.430765795;33.46713505;17.28045173;-35.86850598;-1.17999269;2.085520977;-52.07771891;-7.073452832;4.905070257;2.605822351;13.95898951
10.36393439;3.778692515;13.23334144;16.34186784;-6.628105816;4.815685187;-0.612660811;14.89763019;2.099360866;36.06180293;13.11601908;-33.44401481;-2.527514836;0.507731352;-36.61258057;-8.300924499;3.069703227;2.113456762;11.20873431
14.73144086;8.315914216;19.226771;20.42148574;-8.410955387;2.260417643;2.745037811;11.22804662;7.22676416;39.93034307;14.09539117;-30.16295209;-7.608131884;-3.600542671;-20.97845465;-7.522544691;1.627434901;4.052008168;8.998991188
19.16911867;17.30073781;25.82681591;25.42390869;-10.78022404;-0.826208225;5.884981326;7.498204357;8.35274893;44.35100584;18.99517123;-26.74796056;-11.75166449;-7.55819188;-6.848871292;-7.552915546;1.388751783;8.321474127;8.049810293
24.48855572;28.49398467;31.7146567;30.62104576;-11.5895068;-2.831050486;7.148615233;8.017246293;7.674599791;47.75289507;24.87579347;-24.78901641;-11.79170612;-8.928259511;4.209646112;-9.0027248;2.852339521;13.50166487;8.857543773
30.77066926;37.72351507;35.36041654;34.9796908;-9.526433907;-2.658199647;6.116226908;13.06468037;7.722502741;49.03440158;29.90830623;-25.41237245;-8.338470453;-7.058478862;9.744511037;-9.597035315;5.797486088;17.75874172;11.23282029
36.72658965;40.92761287;35.56011464;37.527585;-4.968049445;-0.405085203;4.286106061;19.01666998;8.98947436;48.43306218;34.62347401;-28.12573038;-4.822652105;-3.400782783;7.623223509;-6.276254978;9.24384977;19.97064954;14.2045499
40.12092031;36.75182317;32.13306532;37.89375844;0.187162908;2.636146719;3.900722604;21.66823284;9.767663474;47.29523083;40.56405452;-30.94493548;-4.474287176;-0.447965198;-1.701490439;1.717258401;11.84133586;20.2299183;16.43676372
39.04723029;27.75809331;26.27457911;36.53133653;3.595788137;4.691960375;5.897974269;19.70740109;8.146585414;47.02597861;47.70572395;-31.79255925;-7.910331475;-0.074842089;-14.35273191;11.42137589;12.48400883;19.44263457;16.91598434
33.19566401;18.99358711;20.12007813;34.29884436;3.791839784;4.52294443;8.898530118;15.42175976;4.153934266;48.09161297;53.15549295;-30.03779759;-13.12244785;-2.423248133;-24.92989519;17.73398948;10.81545902;18.48562033;15.46377696
24.2438061;14.64284378;15.63100787;31.6835146;0.968911824;2.131466471;10.30836941;12.33123773;-0.010349368;49.78564313;52.57159716;-26.91874921;-17.41837719;-6.005308921;-29.89696057;16.89437063;7.378899499;17.68003906;12.77145965
15.1117717;15.18574927;13.52418108;28.40442511;-3.210663298;-1.256608569;8.694502283;12.09764341;-1.851293077;50.79739434;43.3996781;-24.54819937;-19.35579591;-8.811445288;-29.68330307;9.212334795;3.375423153;16.95925406;10.00099676
8.570998913;17.33493535;13.0499765;23.88792648;-6.621015198;-3.903172966;5.311020623;13.44445475;-0.801169226;50.04988891;27.38110907;-24.38209208;-19.12130973;-9.571349808;-27.70321288;-1.046710324;0.1767936;16.41783648;8.251520825
6.050921329;16.92159966;12.81356549;18.27168038;-7.867632681;-4.518143909;3.253621558;13.7788595;1.284110612;47.22187546;10.23218753;-26.39311956;-17.50665847;-8.350078125;-27.1395396;-8.503597545;-1.192574229;16.56606344;8.177249557
7.262831029;12.46944898;11.99478774;12.9341627;-6.972554665;-2.910287501;4.787598991;11.74948408;1.83117948;42.75678659;-1.45572577;-29.47158712;-14.89457096;-6.245599419;-28.2664555;-10.05593824;-0.417477603;17.91964683;9.843306765
10.69893934;6.518970949;10.98265291;9.79981563;-5.189096963;0.002430143;9.135910686;8.327150632;-0.078785102;37.56481737;-3.940873524;-32.47838811;-11.36063645;-4.579983146;-28.57906895;-6.362746404;2.026407481;20.25672302;12.74986043
14.5865841;3.543846011;10.93003906;9.77094821;-4.118587047;2.759734935;12.81168125;5.593866456;-2.821412293;32.70863712;1.876678152;-34.90623488;-7.592871797;-4.19082131;-25.51375555;-0.616882058;5.117427388;22.31472722;15.97085803
17.74572308;6.145313347;12.65538341;11.64110926;-4.706605519;4.134430143;12.46449349;4.62803788;-3.651813456;29.16581376;11.6291517;-36.64418856;-5.330760793;-5.175697534;-19.28685122;4.063005045;7.789868643;22.42423606;18.44732356
19.98039113;12.72271667;15.86906909;12.71914326;-6.735579395;3.692677054;7.937758217;4.601953348;-1.206731521;27.58368943;20.49941946;-37.31433105;-6.461600978;-7.034819647;-13.31099061;6.43362381;9.475886502;19.7644735;19.45274792
21.92482262;18.64671511;19.39155283;11.02495355;-9.090058594;1.895641973;2.821754294;3.883340235;3.116051552;28.00137664;25.84688514;-36.09533132;-11.35015725;-8.953047211;-11.7674227;6.965868518;10.38204303;15.2705669;19.05585635
24.49213126;20.02407249;22.12953106;7.378956089;-10.56927547;-0.232676298;1.736750767;1.932274979;6.141218059;29.71328843;27.83654671;-32.42743078;-17.96536266;-10.054123;-16.32750154;6.443974695;11.28547911;11.34355961;18.23
28.19975124;16.91382692;23.89905667;5.423893984;-10.67877114;-1.648659416;6.354512034;0.049181;5.462826196;31.50215328;28.13756019;-27.00828822;-22.85987234;-9.645710589;-24.66953423;5.039222579;12.91965455;10.39242561;18.35741578
32.69581415;13.26333033;25.3462042;9.084668131;-9.872107351;-1.769417423;13.42069224;0.210764409;1.409304454;32.23011664;28.07124005;-22.01046909;-23.44640098;-7.506887003;-31.88878016;2.814252785;15.33428994;13.19040556;20.29107535
36.76516775;13.57755581;27.07286697;19.15508935;-9.106179409;-0.69225745;16.61640171;3.125414421;-3.229684061;31.43131873;27.64519572;-20.00238636;-19.78064549;-4.117893757;-33.59728356;0.896522987;17.70389959;18.26111661;23.57859684
38.89562825;19.09976678;28.83675731;31.76588221;-9.055197659;0.90930848;11.06271018;7.400361493;-5.491473549;29.45875935;25.92635639;-22.19728163;-14.38331515;-0.599960795;-28.40292353;1.611862165;18.79305326;22.78994744;26.49796049
38.15675543;26.70443383;29.64267965;40.34214083;-9.562767407;2.142016277;-2.912405337;10.63223386;-4.654288619;27.06454654;22.14319504;-27.36549795;-10.26914758;1.76442014;-18.2769019;6.748162258;17.81060942;24.42862029;27.05555154
34.86709084;31.41296173;28.70070506;39.99907966;-9.732289212;2.335749092;-19.64579129;11.39018329;-2.807917864;24.78849411;16.56802779;-32.3432446;-8.840019531;2.242775155;-7.092852304;15.14213698;15.05325644;22.71234155;24.3582445
30.5493664;30.39095632;26.36352854;31.22388101;-8.587993011;1.373188287;-31.76673689;10.24390504;-3.133449684;22.7276003;10.65307274;-33.85322932;-9.314329275;1.142575083;1.268879923;22.02666468;11.83932457;19.14012217;19.3815505
27.08413988;25.07376638;24.09160434;19.94455618;-5.820166848;-0.249414555;-34.85174597;8.956920531;-7.275146461;20.91409816;6.514289043;-30.34657344;-9.930732923;-0.310061035;4.155467246;21.60083711;9.732571854;15.9897145;14.49360216
25.54681738;19.70967344;23.34106487;13.67331707;-2.066169724;-1.667699897;-29.7325309;8.736894536;-13.85705794;19.90411666;6.144476707;-22.62829398;-9.624336329;-0.691614707;0.652777848;11.57593044;9.58646185;14.82587401;11.97621935
25.52371357;17.67211483;24.28893345;16.39374477;1.47871699;-2.0881933;-21.0630193;9.2711351;-19.24930956;20.85684782;10.64931887;-13.05596532;-8.621603223;0.751394976;-8.144682853;-3.765228736;11.08227198;15.74658889;12.55456434
25.44766628;18.74079937;25.56;25.88638157;3.833086498;-1.201344993;-13.64916141;9.389830831;-19.9672744;24.74566201;19.66397384;-4.178460297;-7.599999018;3.664898185;-19.04537787;-15.03020207;13.06286123;17.71459293;14.98686417
23.78453663;19.62968051;25.31178365;35.40133608;4.819720342;0.64764906;-9.510262857;8.518810432;-14.95519112;31.16229819;31.1498422;2.109355464;-6.504037854;6.847308561;-27.46014947;-13.55470922;14.36598191;19.47840974;17.00665673
20.24107454;17.18953983;22.83173021;38.35950132;5.055323386;2.623950788;-7.640019531;7.317285387;-6.238138701;37.74648526;41.84297314;4.566632808;-4.399306481;8.978994274;-29.33680181;2.160439883;14.51326015;20.27951345;16.91801962
16.08135373;11.41620333;19.27142843;32.60606506;5.373550783;3.81969464;-6.025853406;6.822399794;2.315007073;41.00463307;48.41828015;2.341914479;-0.614669222;9.302372314;-23.62576183;24.27190774;13.78487274;19.92760866;14.68272077
13.25567041;5.615074044;16.79936429;21.28024406;6.132008617;3.705071194;-3.785914681;7.085645849;7.130019531;38.26099783;48.92378754;-4.8059267;4.002011571;7.854886632;-13.49963698;39.85722241;12.74299557;18.4634949;11.75765246
12.93668047;3.576131753;16.79193291;10.06435447;6.92425735;2.383914798;-1.61680664;6.930803518;6.602445621;29.49071986;43.64292926;-15.77193177;7.168804039;5.245799771;-4.871355933;39.13230621;11.7010313;15.92435627;9.898083725
14.54609692;6.212680226;18.55748591;3.224933116;6.899644051;0.532256358;-0.568080806;5.32170971;1.506289882;17.67257161;34.74991267;-27.6820863;6.83110442;2.274869283;-2.632878742;22.00545952;10.60951129;12.47067091;9.882791347
16.0380243;10.58099018;19.72031472;1.42085347;5.43724913;-0.938557527;-0.691981503;2.988129448;-5.76398445;7.264621092;24.94271338;-36.66347303;3.035490205;-0.31917983;-7.069088638;-1.713663668;9.389881857;8.650937226;11.08580297
15.28725495;12.16110387;18.04360712;2.487917117;2.668545897;-1.322972242;-0.998744228;2.368766883;-12.44858323;1.756623918;16.04993761;-39.73844541;-1.767334756;-1.943849751;-13.24185892;-18.67848895;8.303412359;5.378180949;12.09359258
11.59291603;8.511552858;13.25618434;3.951324663;-0.528749749;-0.457260639;-0.645174116;5.432988875;-16.5013914;1.93506129;8.655699998;-36.62391771;-4.496590953;-2.237299161;-14.19030819;-20.49962652;7.902629878;3.469347253;11.76301623
6.191194882;1.263417576;7.393108334;4.909342477;-3.050078125;1.200667744;0.051186731;11.25210176;-17.15060647;5.956506581;2.913082697;-29.97685383;-3.90786758;-1.259027249;-5.917713787;-8.533197171;8.519314343;3.069558383;9.866696487
1.381125395;-5.178753686;3.331663237;5.910209963;-4.222504741;2.781189172;0.013778999;15.96038038;-14.90642928;10.98272066;-0.378371419;-23.67602228;-1.602723103;0.349217914;9.370603543;8.012511873;9.729172349;3.470909079;6.919689656
-1.115282349;-7.139274932;2.647981553;7.433968892;-4.154946642;3.410353206;-1.049016683;15.85224601;-11.12044066;15.04882882;0.336593071;-20.28610662;-0.585111482;1.508347374;24.1579976;18.79117609;10.34458464;3.538679458;3.495814219
-1.368347325;-4.528095574;4.459889119;8.763229301;-3.571325115;2.634771916;-1.595892104;11.24444048;-7.264792974;17.84425551;6.144737337;-19.58850941;-2.49789422;1.257606022;30.05144796;18.84423911;9.089158427;2.443632657;-0.282124627
-1.143158168;-0.807777933;6.134469129;8.433180729;-3.273296967;0.667411549;0.873675523;7.334808898;-4.198792021;20.10314718;16.09401651;-19.27670644;-5.899627046;-0.556265177;22.71871421;10.64247803;5.519706051;0.143764842;-4.632520825
-2.55089556;-0.199799456;5.282318572;5.785117095;-3.602357337;-1.67433853;7.353164651;10.35998146;-1.774692895;22.42731745;26.85701478;-17.18819764;-7.132775799;-2.980019531;4.172998305;1.024124976;0.488531734;-2.707922565;-9.539026455
