Channel 1 - P4;Channel 2 - O2;Channel 3 - P8;Channel 4 - T8;Channel 5 - C4;Channel 6 - Cz;Channel 7 - Fz;Channel 8 - F4;Channel 9 - Fp2;Channel 10 - F8;Channel 11 - Fp1;Channel 12 - F7;Channel 13 - F3;Channel 14 - C3;Channel 15 - T7;Channel 16 - P7;Channel 17 - P3;Channel 18 - O1;Channel 19 - Pz
7.140484446;10.17926051;25.71730619;-4.52649824;28.75238985;-0.304304856;63.26516892;18.71484983;29.80399186;13.29035205;27.75502116;19.6552681;22.7259825;2.869496693;8.947210689;34.3455763;0.684375021;86.20216975;-2.511069999
14.00597902;12.24280987;31.7076326;-2.66381365;28.01850248;2.344403109;95.42427777;15.45777917;21.37191703;9.137229519;11.79800314;6.68752883;12.77482466;0.679052982;0.343528482;34.85768584;6.439510835;45.33796864;2.106909302
17.44163977;9.830875987;28.22672713;5.484465095;8.514370341;3.933531677;87.18406676;8.475754687;12.55796386;5.117480324;-4.498770902;-13.37975566;-4.085228571;-1.552274542;-9.129992103;26.65095061;11.16601439;-14.80828219;6.420485727
16.24831611;3.902452436;17.29751559;16.26353697;-11.13478406;3.546877603;44.60672897;1.612344732;8.219978246;3.170550107;-14.84054365;-31.59020202;-19.28805263;-3.01393865;-15.20419168;14.98769431;13.24117369;-62.61036087;8.02855802
12.4649293;-2.340926733;6.099936393;24.64910646;-15.21553823;1.6722352;-6.409783349;-1.265888904;10.78556412;4.260745096;-15.44007813;-39.08927231;-25.07168695;-2.825961891;-15.06805022;7.698104166;13.15776224;-75.59227686;6.56320076
9.783628212;-5.066276796;2.004033224;27.39249832;-2.207894964;-0.238255926;-39.16712794;1.222036292;18.36417823;7.770932049;-7.704392006;-33.15888164;-19.53428813;-0.606932354;-9.121185147;9.682804291;13.01201452;-54.87876179;3.733103677
10.8128607;-2.079239759;7.400701933;24.78500111;15.99643299;-0.895867342;-43.58837886;7.192549591;26.00367633;11.97720958;2.603955834;-18.965464;-7.507276606;3.064871078;-0.682961401;19.58003906;14.71800304;-22.44364762;1.888475805
15.27397648;5.734011265;18.23102434;19.9781016;25.14271255;-0.094356435;-29.43851818;13.06517903;29.22870442;15.29450594;9.308738328;-5.708664289;3.234422622;6.740019531;6.14277916;31.01281766;18.34667045;-3.941666955;2.255725556
20.43654556;14.86173338;27.24772427;16.58390892;20.14405359;1.265688125;-14.7926046;16.24109538;27.18467171;17.3626219;9.959621697;-0.167098016;7.414293457;8.812314465;8.95268349;37.31815577;21.92744497;-10.50257984;4.183609482
23.32710584;21.30662033;29.37731905;16.38815239;7.861126636;1.993393202;-10.65287439;16.78742604;23.00882124;19.12568338;7.012339193;-2.544245637;5.277911262;8.429163668;8.17786458;36.0768511;22.89687309;-32.86695219;5.886919203
22.91491231;22.97747768;25.02932914;18.68802455;-0.111518924;1.557449076;-14.30284441;16.86621486;21.22050707;21.82400353;5.192232638;-7.538837691;1.236634196;5.951768937;6.191237632;30.11188892;20.05873968;-51.09635748;5.984784592
20.61941603;20.69383797;18.99661417;21.40907933;2.381276993;0.412409527;-15.33747951;18.50673967;24.21444942;25.68985558;7.233459929;-9.376770303;-0.34961936;2.611326938;5.187573848;24.53764305;14.51224097;-51.12727496;4.564416524
18.91035016;17.18205245;16.17166563;22.88439498;11.66102993;-0.496212009;-7.340732;21.65163065;30.5398536;29.42126238;11.49686117;-6.555992206;1.318429004;-0.389942437;5.463814391;22.51187315;8.841320879;-34.98336519;2.972600051
19.27362147;14.9219046;17.7216647;22.91622842;18.61910918;-0.568017579;5.749069269;24.11720932;36.14827407;30.94072754;13.42419471;-2.597525264;3.345079472;-2.651210613;5.330268062;23.13112217;5.247203755;-17.45582046;2.606998611
21.19184368;14.49884176;20.71807832;22.52154817;17.22677249;-0.007501167;13.73019965;23.46494565;37.46934752;28.93751031;9.612153368;-2.552430621;2.113606734;-4.638215767;2.614687499;22.91500394;4.110135619;-13.11122416;3.751604205
22.81920599;14.61593765;21.18279207;22.8311566;9.43929623;0.441687354;10.07542825;19.17356345;33.8826642;24.02392911;1.086800674;-8.448576158;-3.37341393;-7.031163766;-3.442619754;19.31201298;4.050336758;-24.62531512;5.377316521
22.60545968;13.55047273;17.70543967;24.12036792;2.617221086;0.206201749;-1.801149083;13.26437501;27.82060153;18.55500817;-7.037461389;-17.50275468;-10.59117339;-9.927457145;-11.32445134;13.1275723;3.305312818;-41.43184442;5.979296011
20.44148808;10.72476763;12.51555759;25.63307497;2.421315295;-0.599504568;-11.56363901;8.835026317;22.6826498;15.13582411;-9.385779138;-24.42007813;-15.61021294;-12.5849716;-18.00902693;7.882743148;1.208378958;-48.85861416;4.695189801
17.45682753;7.089112567;9.251898774;26.14188546;7.83301813;-1.282240012;-11.18169098;7.689109298;20.34896192;14.84448137;-4.625537214;-25.68012972;-16.29059766;-13.93649687;-20.79753222;6.794990395;-1.425819471;-39.77508288;1.812023678
14.82667664;4.111023935;9.546206063;24.70407792;12.54706837;-1.18507945;-1.818747763;8.975701648;20.15447062;16.45962211;3.225091758;-22.2113347;-13.85986322;-13.45397699;-18.927514;10.03028594;-3.205735023;-19.58640503;-1.632343714
12.75242355;2.3695674;11.47405261;21.12267912;11.03325905;-0.263901357;7.693320474;9.908425511;19.85230315;17.28339011;7.601154905;-18.38055206;-11.69040935;-11.63364942;-13.94261708;14.53148311;-3.465943265;-1.423323304;-4.68391946
10.51136135;1.045130545;11.20805565;15.99245095;3.541573279;0.862843418;9.058923266;7.956849099;17.55781574;15.00534734;4.177225768;-18.33127097;-12.45299757;-9.67118658;-8.687309795;16.4908902;-2.813862746;3.825240477;-6.998498198
7.438909225;-1.243091172;6.404114463;10.48844252;-4.3583594;1.416172029;1.77539869;2.777611454;13.1190118;9.309854131;-6.022635572;-22.75842473;-16.04114612;-8.559427232;-5.664661306;14.35516747;-2.499116243;-5.346724637;-8.702689486
3.861600605;-5.011984252;-1.61167711;6.04699185;-6.966445008;1.074711524;-6.96016095;-3.553031792;8.055764304;2.129521666;-17.47271943;-28.61997789;-19.83826681;-8.324567516;-5.772534184;9.919590818;-3.23329269;-21.55703651;-9.876882906
1.07610446;-9.186960873;-8.710616725;3.952523759;-3.456984633;0.199386793;-9.176364008;-8.053178817;4.398347303;-3.57938594;-24.12765402;-31.74193483;-20.88645538;-8.019576147;-8.04763472;6.747834207;-4.535126906;-35.07952623;-10.25113482
0.360180602;-11.74789058;-11.12328565;4.841251542;1.764589741;-0.49310423;-3.250785111;-8.833900519;3.442867744;-5.648837776;-23.40076321;-29.99808017;-18.06336835;-6.492374942;-10.37432954;7.341207143;-5.166553751;-40.62138087;-9.429395224
1.887269851;-11.22592125;-8.24797753;8.309819061;3.404373546;-0.506868032;5.217215579;-6.106873826;5.226380173;-3.876115715;-17.25522799;-24.55130225;-12.6036211;-3.329429609;-10.62898775;11.36163662;-4.245163749;-39.40228255;-7.40164757
4.512651813;-7.791374612;-2.855904475;12.94301476;0.151646327;0.086793796;9.184476856;-1.655688961;8.802440354;0.120608553;-9.982158479;-18.47570942;-6.835243521;0.760135171;-7.658792271;16.17500134;-2.040162986;-36.09839954;-4.80332864
6.638660949;-3.033210218;1.311213396;16.90955235;-4.354850417;0.785285294;6.855014074;2.566902578;12.86462342;4.108030414;-4.798731086;-14.23112436;-2.424397482;4.408509363;-1.735818232;19.03303717;0.231643186;-34.19216604;-2.61027878
7.433168195;1.338625915;2.433777799;18.86755168;-5.16474059;1.110393087;2.971350485;5.551057072;16.26786763;6.591614759;-2.022741212;-12.14404345;0.425851125;6.530629453;5.571766376;19.01545243;1.401401843;-33.68947401;-1.488815223
7.383746362;4.728539297;1.643122654;18.61659872;-0.759926872;0.978879465;3.730648643;7.37183156;18.32226149;7.459209827;0.053832659;-10.88506767;2.443482616;7.026434593;11.98339326;17.29568055;1.251918097;-32.36683859;-1.353717648
7.753786126;7.787860131;1.555988262;17.05215135;5.462546052;0.698577173;10.45277957;8.591184497;18.94791626;7.672287675;2.819381168;-9.127789851;4.243042202;6.748951476;15.34576961;15.82243561;0.565829391;-28.5860166;-1.514641154
9.438643439;11.40373829;3.789944202;15.47981951;8.237661066;0.643865755;18.23423799;9.655875871;18.70759594;8.416721534;5.814785098;-6.731631434;5.855954238;6.824439857;14.48575899;15.73824011;0.330120988;-22.89430304;-1.276056112
12.19393339;15.51215814;7.630078125;14.82182704;5.1553294;0.925517386;20.93103008;10.77931181;18.58814268;10.35825043;7.317623975;-4.503719764;7.145170649;7.87473705;9.782209207;16.81413041;0.835641458;-17.32540501;-0.469544567
14.84423974;18.83690762;10.83024713;15.27810313;-1.207378609;1.336367053;17.58721278;12.1644841;19.47784358;13.39653281;6.303323426;-3.039839643;8.444442713;9.692703044;3.172608874;18.08772795;1.457603115;-13.55741723;0.515778671
16.23072916;19.81441582;11.62643163;16.5636481;-5.557723644;1.583854921;13.81741498;14.07932655;21.58656429;16.87964722;3.815735445;-1.945292506;10.5562463;11.51098402;-2.52531424;18.84018263;1.263607923;-11.80421293;1.173182577
16.06656077;17.90416081;10.10479424;18.34217107;-4.406370274;1.568875089;16.32240026;16.5486278;24.25384527;19.98895216;2.37638047;-0.231803983;13.96181458;12.55367017;-4.786273449;18.95048615;-0.135049057;-11.19223619;1.347506155
15.01944437;14.14177337;7.823902915;20.38321718;1.204733197;1.454309843;25.41053766;18.96733096;26.38725343;22.05227088;3.879614658;2.541347432;17.99971658;12.42770186;-2.547046609;18.47151245;-2.248148513;-10.82322255;1.307871123
14.04845603;10.45397849;6.236930213;22.36068869;7.019697016;1.479311971;32.80958048;20.17117411;27.25925196;22.73048508;7.81739232;5.562206921;20.94248858;11.14828161;3.218778234;17.10722225;-4.142060596;-10.306742;1.40369117
13.63951273;8.318534222;5.471116297;23.67485543;9.497363375;1.710058594;27.66750461;19.13827373;27.022839;22.11880817;11.43517614;7.259988199;21.13215148;8.938325802;9.881064044;14.31684585;-5.202368181;-9.462293316;1.683722428
13.58770644;7.877067013;4.545147967;23.71169284;8.706900961;1.964004859;6.185334604;15.85652014;26.48182629;20.74611125;11.77922378;6.607773535;18.31835138;6.080283977;14.3722598;10.03141942;-5.523961411;-7.958442268;1.872293607
13.41439662;8.15557386;2.673190634;22.46555606;7.709319986;1.9740228;-23.47476628;11.60079239;26.28583229;19.38316487;7.990529627;4.054184201;14.03466137;2.942055745;14.66034433;5.218491059;-5.623101489;-5.661305391;1.719337095
12.92551507;8.058070086;0.283858961;20.91154509;9.261718762;1.637350065;-45.8444435;8.256080358;26.26313863;18.64538115;1.994314424;1.211626232;10.58365215;0.043935699;10.70918914;1.551945106;-5.817633458;-3.431836204;1.343909305
12.34127826;7.177657643;-1.298482951;20.52843815;13.0567535;1.122653737;-49.18375767;7.104790861;25.52880005;18.58064799;-2.937894368;-0.457655838;9.370492178;-2.044882756;4.402241696;0.260705399;-5.915300792;-3.245774595;1.17207563
11.89561306;5.755662872;-1.239300824;22.07377591;16.04328339;0.742687016;-34.11259028;7.989005314;23.32176046;18.56206584;-4.567247903;-0.818495352;9.909258906;-3.008486928;-1.535384759;1.080737748;-5.519499513;-6.906455648;1.468270758
11.35376146;4.004205809;-0.302516826;24.53800159;15.41288323;0.709678532;-12.82780904;9.50315646;19.82543472;17.66603603;-3.147254323;-1.088277654;10.30143095;-3.052868787;-5.013821655;2.285251264;-4.63048545;-14.06563727;1.902956282
10.00280562;1.631006463;-0.52447118;25.34149149;11.37757512;0.986454937;0.385676645;10.05763127;16.17198548;15.35028624;-0.951418944;-2.715627463;8.787348147;-2.847242378;-5.616643635;1.903728703;-3.895882358;-21.35346705;1.645003446
7.226490851;-1.835737917;-3.587000834;21.98243516;7.13324611;1.350671043;-0.440299419;8.964328512;13.53;11.94363414;-0.434882542;-6.10784291;5.112629971;-3.081037914;-4.622499091;-0.800845701;-4.170861784;-23.89668487;0.023030824
3.191037958;-6.203039345;-9.252555371;14.08510376;6.058451288;1.598384963;-9.875302565;6.716901172;12.03823017;8.518980251;-2.577546415;-10.29509706;0.645005079;-3.927578762;-4.048921198;-4.809061727;-5.716848861;-18.57923283;-2.759570627
-1.008545546;-10.18534843;-15.26833994;4.215337702;8.736124714;1.7004616;-17.16899425;4.343293184;10.58126588;6.164407104;-6.608985983;-13.76516184;-2.768901228;-4.847936168;-5.351894106;-8.224931768;-7.774772873;-6.688611339;-5.522909094
-3.97257174;-12.06964329;-18.93512367;-3.432286499;12.49534815;1.784011682;-15.72185256;2.479921299;7.735647659;5.169506636;-11.05877787;-15.68650403;-4.208681584;-4.945251113;-8.601217841;-9.834356125;-8.987947619;6.289072862;-6.839085318
-4.954239681;-11.13057375;-19.11293154;-5.750646909;13.82711826;1.976512598;-7.849969342;0.992979953;3.174527216;4.778174715;-15.03160116;-16.45266294;-4.214017066;-3.646821374;-12.60115964;-10.04666992;-8.416302811;13.90761647;-6.097765951
-4.382420146;-8.591277213;-17.03480486;-2.88292576;11.4361727;2.26786266;-1.388708933;-0.577584856;-1.678995825;3.763620624;-18.60497423;-17.13727238;-4.110029297;-1.203355193;-15.77707382;-10.4496848;-6.320550364;12.83387313;-4.055308026
-3.494701294;-7.089252175;-15.26910983;1.880221987;7.20429296;2.514662723;-1.918910366;-2.2452203;-4.431940672;1.432528661;-22.16618842;-18.42268692;-4.794339584;1.393873574;-17.15717422;-12.37977078;-4.024197649;4.829765199;-2.354675948
-3.340243331;-8.789820224;-15.68325296;4.518887256;4.321629378;2.570877113;-7.841046215;-3.268965214;-3.450327895;-1.717874491;-25.46654861;-19.98690119;-6.029686577;3.037689296;-16.7901109;-15.72220588;-2.908904034;-4.716943484;-2.310797484
-3.935433021;-13.53437214;-18.0454953;3.243467562;4.406323893;2.414429034;-12.41999645;-2.673424549;0.784549191;-4.244532633;-27.35591929;-20.86565052;-6.770727104;3.211237943;-15.42376234;-18.93226616;-3.338396398;-10.48293518;-3.878543885
-4.248293435;-18.59597163;-20.33086184;-0.278813225;6.240293185;2.152616687;-10.40866809;-0.186121007;5.795486259;-4.774354589;-26.49036541;-20.41137824;-6.152225451;2.254440011;-13.83719575;-20.2231065;-4.395881144;-10.36405279;-5.627698547
-3.03294756;-20.45471997;-20.39451317;-2.402651215;7.148191036;1.909825728;-2.903710113;3.242154956;8.680361987;-3.043957098;-22.43138012;-18.95993025;-4.258847845;1.016213036;-12.41717321;-18.9092194;-4.663057966;-6.014433183;-5.785806088
0.135084486;-17.37187136;-17.62434034;-0.538148736;5.597934788;1.711287542;3.925868663;5.860614026;7.984050799;-0.170065308;-16.23089891;-17.61696659;-2.062909232;0.191203332;-11.26171031;-15.8221561;-3.408660662;-0.857027152;-3.575218402
4.422358589;-10.78803725;-13.30951836;4.661299305;2.570039063;1.474970779;4.767643461;6.230863045;4.504849211;2.06464559;-10.03495268;-17.37786822;-0.656052524;-0.138852217;-10.56538153;-12.54247085;-1.214201501;2.543922305;0.166549415
8.224773787;-4.39161925;-9.572486019;9.703186661;0.505275594;1.116796545;0.073735682;4.188457133;0.519242168;2.374553259;-6.000173716;-18.36414164;-0.453774411;-0.434212046;-10.77407107;-10.17339496;0.469527095;3.780679547;3.543798467
10.19820404;-1.504464282;-7.832946946;10.94003906;0.935689285;0.665941566;-4.559674076;0.920660207;-1.886503135;0.720181348;-5.261046509;-19.81181063;-0.989250763;-1.20795394;-12.24303315;-8.686558668;0.46268489;4.037388946;4.900796902
10.07053005;-2.773263595;-8.009955812;7.406827792;3.075811496;0.278000618;-3.77784477;-1.871132805;-2.094097295;-1.867439897;-7.530368642;-20.75942603;-1.368999464;-2.547092381;-14.67739693;-7.293436889;-1.237060024;4.6497075;3.888565974
8.683817187;-5.930707719;-8.934346469;1.574047069;4.658706034;0.129530497;2.535830732;-3.055108338;-0.989501928;-4.16338785;-11.40777434;-20.79481462;-0.949827735;-4.026709949;-16.9645727;-5.394688436;-3.496225083;6.116641609;1.552251619
7.311628369;-7.756886367;-9.446224375;-2.546553808;4.147821548;0.286452854;9.298577169;-2.601720295;0.061895919;-5.587068967;-15.07545236;-20.23804666;0.278542503;-5.053716622;-17.76312657;-3.223736732;-4.961428197;8.041480944;-0.536383951
6.797949402;-6.641554029;-9.223241882;-2.417252866;2.185224664;0.660444553;11.14316847;-1.280627539;0.35635693;-6.373389399;-17.01542712;-19.69744972;1.783967586;-5.3303665;-16.53980029;-1.660009766;-5.081171679;9.502160249;-1.383085633
7.114169511;-3.717529268;-8.781066239;1.244736354;0.913875826;1.085119438;7.495788098;0.079130775;0.228552442;-7.062949844;-16.55224246;-19.49340864;2.851045853;-5.058506224;-14.22173521;-1.459541482;-4.426215415;9.239138809;-1.100265835
7.554028902;-1.736167328;-8.851198492;5.214425393;1.857264535;1.436917391;3.028085076;1.091292835;0.514021511;-7.875477854;-14.13239558;-19.49931974;2.901339492;-4.745392996;-12.77826784;-2.629121001;-4.112636595;5.737873988;-0.570688585
7.320635086;-2.688954836;-9.784061997;6.29694303;4.405523809;1.692996195;3.102810638;1.726395477;1.674553546;-8.577750998;-11.21587933;-19.48937664;1.647438887;-4.800166069;-13.84878541;-4.466588105;-4.85614406;-2.194085974;-0.628758998
6.051841885;-6.14990006;-11.44080633;3.584740705;6.36701231;1.886414462;8.561988327;1.874084133;3.32;-8.948327259;-9.660647694;-19.57079488;-0.843212957;-5.254751943;-17.37835798;-6.149958736;-6.430287784;-14.18019077;-1.438545675
3.973831036;-9.661532548;-13.50581873;-1.244741908;6.074853568;2.019490328;14.82968675;1.099129109;4.42547494;-9.341398487;-10.72266775;-20.20230658;-4.094951822;-5.807355341;-21.37787406;-7.296352805;-7.90871124;-27.23914383;-2.49110498
1.684891744;-10.79144376;-15.80576054;-5.576188656;4.052637889;2.033277701;16.23739623;-1.093524859;3.971951251;-10.71147477;-14.18032042;-21.72527068;-7.254119438;-6.111217092;-23.165859;-8.027862535;-8.419018593;-36.33794515;-3.110506625
-0.20898139;-9.153075552;-18.33328482;-7.902737605;2.637202544;1.870893532;11.5248312;-4.703121678;1.503261084;-13.92996834;-18.24929165;-23.85016243;-9.349993846;-6.05390134;-21.30671403;-8.613501645;-7.775719984;-36.98934215;-2.999799414
-1.378586741;-6.77428179;-21.04984985;-8.597404363;3.858628643;1.573988479;5.270151642;-8.938814189;-2.713685773;-18.9077877;-20.57976184;-25.65342914;-9.777107098;-5.821600513;-16.83781716;-9.162807012;-6.54609947;-28.50741053;-2.420078125
-1.878413339;-6.574129415;-23.76742917;-9.002570622;7.512665908;1.310058594;3.740962398;-12.5561872;-7.890732852;-24.32031201;-19.85755061;-26.22027882;-8.722941273;-5.744574809;-12.8185712;-9.734435571;-5.610159775;-15.39507695;-1.951991521
-2.093044943;-10.20369467;-26.27330612;-9.912269081;11.20875149;1.285140894;8.915610989;-14.64660495;-13.06624324;-28.31437642;-16.93573517;-25.47559858;-7.176001222;-6.084532615;-12.44627082;-10.71755757;-5.641467418;-5.221858811;-2.103517691
-2.567081343;-16.91998542;-28.54517477;-10.92768304;12.38;1.60095354;16.30815303;-15.26960332;-17.43145807;-29.76288178;-14.56592918;-24.50266309;-6.396161674;-6.923814303;-17.04085988;-12.96288519;-6.881321812;-3.920920389;-3.06407912
-3.751451506;-24.23826662;-30.76393389;-11.21093657;10.45925802;2.171809818;18.880478;-15.38982928;-20.57235837;-29.09892687;-15.71081695;-24.98904784;-7.148773064;-8.184394352;-25.27971359;-17.29617582;-9.22827866;-11.71970746;-4.702462488
-5.729851627;-29.68466955;-33.03084822;-10.77357114;7.288182143;2.771908309;13.6937338;-16.11324322;-22.56617128;-27.99872446;-21.48200227;-28.1014693;-9.232042289;-9.687064871;-34.11364144;-23.64267432;-12.38682746;-22.87443619;-6.694736396
-8.059279689;-32.2219378;-35.03549004;-10.89930129;5.441966465;3.17675424;5.182774042;-17.77921375;-23.82481079;-28.0598626;-30.13187648;-33.54967759;-11.63349132;-11.16651067;-40.57981559;-30.48620409;-15.86314498;-29.71949363;-8.631282338
-9.873782409;-32.37473874;-36.04299555;-13.10913007;6.019311612;3.287725258;1.698706439;-19.59725076;-24.65886676;-29.45550313;-37.87173349;-39.49832889;-13.17324192;-12.26;-43.19467382;-35.28297367;-18.87244662;-28.2;-10.07036323
-10.28023967;-31.24093925;-35.3178682;-17.49813327;7.870496929;3.150323732;7.953241567;-20.11390268;-24.78697256;-30.641137;-41.02833413;-43.41469398;-13.13230484;-12.56175326;-42.11859355;-35.75700771;-20.41399025;-20.73046921;-10.61331046
-8.863997456;-29.41915212;-32.68938112;-22.0029878;8.865888873;2.871582304;19.91371404;-18.1796957;-23.21793621;-29.42111767;-38.11713453;-43.33397916;-11.43240556;-11.78936348;-38.33405287;-31.26421348;-19.65469519;-14.14262235;-10.04815438
-5.984050727;-26.75787809;-28.77937315;-23.48500628;7.94281483;2.523711106;26.9449781;-13.73462674;-18.796356;-24.62245341;-30.5;-38.80281027;-8.359413857;-9.979519833;-32.76729475;-23.25303541;-16.43626772;-14.27333551;-8.485620928
-2.619947461;-22.96542151;-24.6538779;-19.96444637;6.023087947;2.118862992;19.92809578;-7.892025905;-11.20225818;-17.11176683;-21.32403918;-31.023871;-4.212575029;-7.548974002;-26.08428934;-14.44633592;-11.50731464;-21.40466376;-6.347476078
0.179761321;-18.34342928;-21.13575083;-12.25279215;5.016222499;1.662248531;-1.112970253;-2.318513508;-1.700425298;-9.357318169;-13.61060402;-22.22753801;0.738545014;-5.124786714;-19.08316213;-7.281316121;-6.22055258;-30.12640897;-4.158628165
1.902036384;-13.88573089;-18.31269907;-3.587296445;5.925236886;1.214045262;-26.17375863;1.625064349;7.067628709;-3.840211208;-8.823269447;-14.68822804;5.984461431;-3.227097954;-12.98266779;-2.668689248;-1.841695815;-33.68909879;-2.270985527
2.813016278;-10.65573472;-15.62776119;2.558189974;7.870039063;0.886202336;-42.06748537;3.427016523;12.33003906;-1.499355677;-6.710410324;-9.886689616;10.56877369;-2.026081869;-9.048859215;0.129366947;1.055778446;-29.33984906;-0.734226366
3.66476883;-9.047372224;-12.46752354;4.81801863;8.929259536;0.769287742;-41.56430849;3.397042169;12.72380174;-1.35710157;-6.20635542;-8.137686525;13.31842315;-1.357766085;-7.750382483;2.53341984;2.68626592;-20.36646716;0.578540478
5.074055018;-8.610826552;-8.765885085;4.610712817;7.971152164;0.858435411;-27.85025449;2.229863692;9.046066217;-1.542886887;-6.484223035;-8.731376371;13.47876837;-0.982406221;-8.244599108;5.381713738;3.618122927;-13.2455435;1.704707157
7.027868768;-8.556841568;-5.144715559;4.662996663;5.731924408;1.053956289;-11.25430301;0.546898082;3.651084859;-0.84657901;-7.359354917;-10.42531331;11.28027432;-0.864240339;-8.8396965;8.289478446;4.209624101;-12.24543346;2.436859349
8.883629487;-8.410946617;-2.496669635;6.641880194;4.136865981;1.243571533;-1.363373305;-1.287451534;-1.064406342;0.447392461;-8.935028321;-12.02501243;7.922368303;-1.220737131;-8.232664062;10.02255255;4.391637944;-15.8836826;2.443110598
9.867395365;-8.18423197;-1.348610242;9.855620557;4.525218554;1.39378549;-0.885105882;-3.056331383;-3.952209409;1.072920313;-11.0237134;-12.79766265;4.900508027;-2.273716269;-6.54159235;9.521045677;3.946338021;-18.13806307;1.581231899
9.69969618;-7.94604314;-1.482865453;12.06024969;6.454064623;1.563939962;-5.537872645;-4.498480038;-5.269811044;0.154446701;-12.96097233;-12.56418798;3.156274553;-3.893382999;-5.189846885;6.793109663;2.985826268;-13.4837357;0.133694342
8.875399693;-7.316190663;-2.064162225;11.63041921;8.181528194;1.824676484;-9.01673919;-5.267702974;-5.764157479;-1.755250705;-13.97480577;-11.48867205;2.697567362;-5.446743006;-5.615318335;3.06867779;2.156560129;-1.751928066;-1.267035146
8.370782934;-5.519175149;-2.14564532;9.205539598;8.331856304;2.152937507;-8.277504019;-5.112833703;-5.634354087;-2.890242035;-13.74296055;-9.760607547;2.94391148;-6.033885223;-7.823705366;0.158609313;2.33373627;11.08192454;-2.003496278
8.967218578;-2.113641174;-1.204907512;7.362869377;7.144567761;2.405206504;-4.939981756;-4.140945134;-4.359878834;-1.623443292;-12.62785611;-7.429441674;3.431118821;-5.006227292;-10.05302588;-0.52596206;4.012839542;16.8977286;-1.863511172
10.6625159;2.198642316;0.587937301;8.531326788;6.137940756;2.408783905;-2.517380694;-2.93184827;-1.523557266;2.116875512;-11.39768471;-4.528062059;4.213091764;-2.429510434;-9.977963331;1.304154969;6.872577308;11.23268946;-1.163256706
12.58556929;5.497909741;2.454650099;12.85750767;6.549493315;2.108317016;-2.708889543;-2.349415183;2.223470085;6.537410605;-10.692794;-1.372575259;5.603465426;0.838655199;-6.6021566;4.715082273;9.855079888;-3.449091828;-0.526045671
13.4817291;5.59349344;3.347831277;17.81835549;8.086066911;1.649990638;-4.193422249;-3.092079355;5.110786483;9.099353687;-10.67593592;1.262868823;7.541422881;3.540644589;-1.331890789;8.044692781;11.70743689;-19.38500462;-0.511015967
12.44710786;1.42423144;2.386919512;19.9670632;9.208753824;1.327440837;-4.52613623;-5.218646296;5.367997431;8.26408312;-11.09383371;2.349714831;9.258502126;4.655193238;2.715160983;9.680585692;11.59578296;-28.73578922;-1.380301813
9.432667744;-6.110741377;-0.752541063;17.45915978;8.687293442;1.418291089;-2.797375728;-7.953461596;2.656377023;4.555699862;-11.60865945;1.15558119;9.684041077;3.899119074;2.748829539;8.735463092;9.399838009;-28.55647617;-3.137927198
5.213294677;-14.55052999;-5.630708869;11.36615381;6.910159556;2.022397669;-0.345426047;-9.956797547;-1.457882048;0.147038195;-12.07014211;-2.204579945;8.339092617;1.812807832;-1.797499403;5.342035197;5.587742227;-22.08029605;-5.717605361
0.887598612;-21.25074172;-11.1368247;4.766223836;5.63583155;3.00784386;0.948759343;-9.984159387;-4.537089436;-2.69465471;-12.52555222;-6.642613936;5.943456761;-0.585540127;-8.912191395;0.485277218;0.884017607;-15.73473007;-9.074148535
-2.724010686;-24.77076923;-15.91047236;0.392420939;6.352196645;4.087935779;0.805729745;-7.593328883;-5.074795781;-3.112241977;-13.04141924;-10.56699552;4.103391824;-2.343947204;-15.40574022;-4.506352889;-3.979526594;-14.34347692;-13.05287503
-5.385320553;-25.34262884;-18.92746197;-1.250229632;8.778097732;4.962882118;0.862077947;-3.466295401;-3.596983778;-2.005057392;-13.56179193;-12.6973717;4.192074387;-3.007879346;-18.95983569;-8.540109983;-8.319613091;-17.98539247;-17.1597098
-7.301130441;-24.23945571;-19.92600232;-1.828983566;10.9762392;5.432329105;2.880978453;0.906176831;-2.097132816;-1.039817094;-13.93354515;-12.70463589;6.265930008;-2.738480652;-19.31007813;-11.10864833;-11.48242549;-22.46621701;-20.49911279
-8.701562755;-22.67909221;-19.39126086;-3.346360468;11.06659669;5.429665804;6.764220615;4.047674026;-2.215532643;-1.180336527;-14.02092427;-11.25882075;8.927803508;-2.116638562;-17.8297411;-12.24271371;-12.92278051;-22.66925213;-22.04508551
-9.507534445;-21.13463068;-18.10037006;-6.138030314;8.998333274;4.996249007;10.46136495;5.345839868;-3.66750386;-1.917125334;-13.73953367;-9.473476494;10.33857145;-1.788058387;-16.06664981;-12.14988164;-12.40413224;-16.20770301;-21.13824061
-9.337962942;-19.44768859;-16.56430125;-8.415871924;6.707961295;4.244049205;11.93280603;5.380806293;-4.284783658;-1.772881266;-12.9573786;-8.147100149;9.64283141;-2.146466847;-14.51901195;-10.84172573;-10.1599758;-4.950019531;-17.88879576
-7.8387255;-17.41870887;-14.7989989;-7.739293097;6.433645976;3.332772418;11.22236468;5.489661123;-1.732378577;0.367579043;-11.40417104;-7.319500847;7.686453306;-3.191555629;-12.57796839;-8.069182089;-6.840689364;6.280154819;-13.19588015
-5.060991365;-15.21305419;-12.59336483;-3.166730276;8.668127561;2.447873063;10.53211326;6.826173934;4.43703784;4.186025773;-8.779441385;-6.411735454;6.414681066;-4.593943816;-9.500139132;-3.653148373;-3.243188902;12.63722909;-8.349894977
-1.579944076;-13.21699498;-10.00964007;3.73820009;11.62415237;1.755793875;12.14066874;9.532072974;12.06092522;7.963997399;-5.073857386;-4.800622501;7.36730004;-5.905683409;-5.433346486;2.035761538;-0.014013985;11.83832101;-4.465065018
1.753858793;-11.57591427;-7.626834428;9.920790207;12.75432086;1.342691977;16.15392289;12.58126968;17.62207165;9.686433579;-0.867094523;-2.395663124;10.41596201;-6.799888605;-1.573739919;7.867987447;2.465073142;5.002300991;-2.080272248
4.25662178;-9.971080113;-6.245998511;13.06159071;10.9994504;1.17807276;20.30102915;14.4089501;18.57625608;8.371767691;2.71121649;0.182682589;13.72954352;-7.217675881;0.646011817;12.28437715;3.980916673;-4.374539039;-1.115855554
5.727695734;-7.944404808;-6.265028826;13.19352991;7.744904851;1.141975932;22.03308572;13.90217648;15.02196377;4.660029297;4.461813701;1.933049234;15.02397685;-7.348525621;0.607202977;14.03869667;4.359514649;-12.39256119;-1.120599371
6.422317696;-5.50697503;-7.272163384;12.38875507;5.603770874;1.107616697;20.92769871;11.0888119;9.516514903;0.297919886;3.790970765;2.08682328;13.18003906;-7.460327715;-1.077876681;12.88462964;3.502377282;-16.50018969;-1.585740221
6.729929541;-3.419727086;-8.270039063;12.79619798;6.105977684;1.021128842;19.05658304;7.086208565;5.264198428;-3.019053788;1.129818314;0.614279014;9.046637386;-7.687828305;-3.055176883;9.724015861;1.591979342;-16.26911186;-2.135748655
6.829634125;-2.765918141;-8.409391875;14.68526325;8.373409977;0.916103547;18.91987375;3.388829266;4.062044558;-4.587638385;-2.224543898;-1.690048828;4.871466372;-7.923411484;-4.138841978;6.08257549;-0.758391194;-13.09702434;-2.558679756
6.596337457;-4.068554752;-7.63906794;16.15122466;9.979111633;0.853188196;20.93938051;1.005454892;5.426005139;-4.834819924;-4.786672457;-3.605633783;2.812023528;-7.893999355;-3.899048557;3.243447987;-2.657798759;-9.242530107;-2.762181053
5.812514084;-6.68144401;-6.706382774;14.75255112;9.210962517;0.840932042;23.00013279;0.003931253;7.319426716;-4.722654181;-5.667415794;-4.154873116;3.603479171;-7.37805472;-2.586745578;1.602269153;-3.399928637;-6.778065207;-2.744684684
4.479778389;-9.048350641;-6.480498098;9.721193518;6.679768094;0.813357738;22.58132283;-0.314642113;7.739024669;-4.985020874;-4.989329648;-3.168734117;6.26649662;-6.405250145;-0.678035079;0.639113934;-2.931171701;-6.931949264;-2.5906589
2.937494601;-9.746181042;-7.170690576;2.871674962;4.797825109;0.690735848;19.44695258;-0.832105071;5.964275314;-5.75155604;-3.713348868;-1.410714951;8.934392064;-5.279205965;1.42284237;-0.533659579;-1.933100179;-9.985510905;-2.439647049
1.659297503;-8.553147174;-8.13054677;-2.617321285;5.583065972;0.472486003;16.18233338;-2.064106787;2.74559138;-6.69996435;-3.034216924;-0.152022925;10.10586197;-4.387640064;3.286766666;-2.466225396;-1.380163312;-15.5481536;-2.404460481
0.881608801;-6.688303263;-8.443455987;-4.609274941;8.769338556;0.27407508;15.84396318;-3.974461608;-0.433955709;-7.459349393;-3.736142925;-0.415578294;9.436394825;-3.929699116;4.242776882;-4.984616696;-1.847545139;-22.8429309;-2.487722745
0.383289012;-5.970203963;-7.787980978;-3.63876672;11.94075471;0.260744383;18.84631768;-6.169308715;-2.347670397;-7.892925368;-5.862739322;-2.342678877;7.631915862;-3.767272143;3.491590775;-7.329582536;-3.077972199;-30.74095791;-2.57797493
-0.366913489;-7.482204516;-6.803666814;-2.385330928;12.59220138;0.519861839;22.18438058;-8.238578641;-2.655796044;-8.115679368;-8.819525505;-5.107836293;5.692594311;-3.5241482;0.653348243;-8.660976284;-4.154176453;-37.63450664;-2.550584619
-1.778503276;-10.74267707;-6.592342486;-3.368741644;10.28918503;0.975394206;22.07819257;-9.98732291;-1.982445914;-8.374469283;-11.77503065;-7.478163151;4.15482448;-2.867642996;-3.678400627;-8.566255694;-4.172079454;-41.54946587;-2.401866522
-3.761023592;-14.02182891;-7.757809195;-6.738432111;7.015237193;1.425346497;17.83562129;-11.45486437;-1.567327975;-8.973908508;-14.10139121;-8.664812925;2.860833403;-1.7584524;-7.972503927;-7.276954459;-2.92210443;-40.83401578;-2.301677795
-5.725619148;-15.58805064;-9.831012352;-10.01994925;5.420973389;1.68793607;13.23557699;-12.7875951;-2.679660657;-10.26624537;-15.6258263;-8.863456075;1.320231469;-0.471191798;-10.559582;-5.524646023;-1.074200117;-35.25919427;-2.508323216
-7.002654358;-14.96527035;-11.6284036;-10.12674433;6.551881654;1.749453907;13.64290514;-14.08544962;-5.945770564;-12.5629512;-16.59259617;-9.05716056;-0.699831177;0.632632398;-10.6917784;-4.170525346;0.262790902;-26.79034498;-3.20222642
-7.365784638;-13.27407876;-12.2774085;-6.077004537;9.060724461;1.793890485;20.90300052;-15.29295354;-10.82048213;-15.8781316;-17.38729036;-10.18535423;-2.824081432;1.394114418;-9.042515834;-3.809164823;0.273487426;-19.19365167;-4.361625876
-7.23573961;-12.41287311;-12.01944604;-0.194699308;10.5443954;2.077651224;30.43652273;-16.15075396;-15.56351727;-19.64739176;-18.19693971;-12.2919387;-4.198693348;1.964171714;-7.202195106;-4.500552635;-1.065067174;-16.29245617;-5.766206853
-7.363418463;-13.68690379;-12.03929982;3.300992709;9.741092858;2.73109504;33.55235986;-16.22418401;-17.97938898;-22.72931818;-18.82432926;-14.3389736;-3.992621257;2.626498497;-6.52126485;-5.712527688;-3.032538644;-19.72153114;-7.109989324
-8.201056961;-16.87737784;-13.39077924;1.360273466;7.598712362;3.63078126;23.75873977;-15.04410055;-16.70198009;-23.86797231;-18.80157988;-14.89810986;-1.932644219;3.472583581;-7.197890864;-6.503649271;-4.658475954;-27.64086017;-8.128147431
-9.441862153;-20.39299928;-15.90247971;-5.49253206;6.30145283;4.442044109;2.299532395;-12.35385194;-12.24136132;-22.42046361;-17.75988388;-13.23907167;1.463082589;4.205493437;-8.319392241;-5.917669351;-5.267148064;-35.45325336;-8.65660186
-10.11476164;-22.34727488;-18.03585848;-13.29033067;7.206313213;4.811496199;-21.61698759;-8.347502984;-6.912750107;-18.84521106;-15.80374471;-9.970230556;5.095595691;4.26698145;-8.781135899;-3.461762226;-4.723778085;-38.27983007;-8.622186637
-9.214867244;-21.75711569;-17.91470304;-17.25414969;9.594824945;4.581457233;-36.42707434;-3.708782117;-3.424734734;-14.51530087;-13.56976149;-6.679859117;7.828371945;3.22992065;-8.281005261;0.560569686;-3.318641685;-33.69240628;-8.020840872
-6.43542529;-19.02266483;-14.76087378;-14.98974867;11.35149148;3.881782774;-35.63941952;0.665072079;-2.94856894;-10.88260013;-11.8291134;-4.791172048;9.06657016;1.171189169;-7.540502401;5.091813441;-1.489116863;-22.96382041;-6.925312151
-2.465533862;-15.41839297;-9.58809595;-7.91425889;10.90267878;3.039996332;-21.67045069;4.1477466;-4.084435979;-8.536605;-10.84609105;-4.488701807;9.045167897;-1.273821439;-7.578600144;8.799962249;0.383225501;-10.11549542;-5.49914514
1.382174591;-12.05700971;-4.567313028;0.034356318;8.623602114;2.375010293;-3.517251332;6.760716532;-3.667277054;-6.848614159;-9.978074131;-4.565322711;8.645173948;-3.249808136;-8.685934883;10.78388379;2.028178198;0.438362836;-3.960068359
3.967355553;-9.141478881;-1.53504587;5.28612767;6.450667303;2.014547074;9.616513254;9.13162593;0.969723352;-4.506874648;-7.934930591;-3.350329683;8.821702034;-4.190863539;-10.01100785;11.09801997;3.29069765;5.998027818;-2.480412638
4.989977088;-6.054704732;-0.799145871;6.883398074;6.098121105;1.852057031;13.86933346;11.99375837;9.843354144;-0.597485053;-3.675643432;-0.035635194;9.973880082;-4.13847868;-10.14926228;10.74357906;4.182994233;6.224530159;-1.09423689
5.077361638;-2.168349914;-1.142874733;6.491608093;7.532943394;1.657772279;11.74034412;15.54365746;19.90630128;4.53476414;2.609786306;4.610376825;11.65464655;-3.638750693;-8.2651099;11.08317667;4.948505022;2.397422441;0.290814935
5.258944015;2.313306043;-0.957003654;6.428468128;9.080425443;1.254752234;8.677786822;19.13054264;26.7796218;9.270019531;9.18168466;8.693770174;12.83147932;-3.298567772;-4.811989336;13.01136164;5.999347709;-3.644163897;1.755769579
6.225457484;6.19816011;0.451726922;7.486698143;9.012529296;0.635523667;8.527786378;21.54859438;27.4484449;11.56493599;13.48039752;10.47710219;12.55667241;-3.33194361;-1.243029739;16.3925022;7.662119281;-9.917192576;3.210198812
7.892786782;8.04;2.405959303;8.341799793;7.12988642;-0.052677104;11.32641054;21.76696101;22.019218;10.09048228;13.56227777;9.542798743;10.6170411;-3.429129073;1.054888125;20.12160822;9.868525001;-14.11840588;4.367160998
9.537595677;7.254092215;3.534722308;6.912722627;4.902660755;-0.628470382;14.44137559;19.59382023;13.36677764;4.913172365;9.330865083;7.013963062;7.724911788;-3.03281527;1.731646003;22.76863166;12.05593504;-13.76313558;4.919321265
10.34976126;4.746014691;2.933773514;2.402471013;4.09495507;-1.005105071;15.34139965;15.80497829;5.08986746;-2.654375603;2.703457405;4.747806832;5.115889112;-1.799431678;1.575569355;23.39873607;13.43665858;-7.327844787;4.802713214
9.972468127;2.469749336;0.82898782;-3.766496568;5.18145892;-1.23198568;13.49809883;11.66046817;-0.625442151;-10.82123529;-3.45447369;4.163642254;3.829928816;0.107507473;1.714765064;22.06547411;13.50339433;4.093489179;4.320790088
8.658810866;2.098559765;-1.7414635;-8.920248484;7.006849487;-1.424066499;10.29329249;8.180661775;-3.763035409;-18.13969766;-6.940598315;5.548447786;4.169344861;2.106560244;2.633499136;19.70326185;12.40415034;16.12568091;3.974303543
6.989963545;3.705812552;-3.855256224;-11.18823958;7.946208779;-1.63974109;7.672957294;5.704544058;-5.619980703;-23.91553654;-7.305953091;8.215512506;5.683846587;3.590390053;3.838702896;17.53184819;10.86946419;22.66556066;4.071468549
5.418780843;5.465496951;-5.399598075;-10.94108502;7.434789348;-1.806201827;6.959478176;3.994683604;-7.358151074;-28.13932795;-5.748281107;11.21269414;7.635764517;4.319520969;4.41674203;16.36864263;9.704436453;19.25173444;4.401388248
3.992136765;4.743677403;-6.96528801;-10.45453172;6.434596633;-1.755371403;8.484922265;2.70597311;-9.242675578;-31.20472961;-4.00657656;13.94346442;9.553219578;4.531555614;3.936603992;16.25491014;9.212869436;6.133409899;4.257344462
2.426172923;-0.041848886;-9.118384174;-12.12369616;6.440177754;-1.349930459;11.70353935;1.767438476;-11.00271949;-33.70189745;-3.147366846;16.28613297;11.44849253;4.707718196;2.865043994;16.56284982;8.999697028;-11.33123118;2.862426922
0.423957248;-8.062694485;-11.76288802;-16.71080073;8.001128431;-0.608610776;15.30703963;1.350009766;-12.65813765;-36.34169556;-3.121684533;18.30209517;13.57551379;5.196628898;2.112765026;16.44308353;8.315503099;-25.62282404;-0.059406783
-2.041794485;-16.271514;-14.18385204;-23.00261579;10.16750769;0.265324601;17.4986897;1.489624617;-14.8107084;-39.85108969;-3.289307759;19.94347903;15.9787683;5.987988567;2.130412044;15.29770959;6.68063527;-31.55234283;-3.968506101
-4.695927369;-21.18107273;-15.71673946;-29.02039146;11.36904231;0.983217494;16.9064458;1.76032066;-18.05128791;-44.7014721;-3.315791106;21.06324493;18.24469087;6.797839639;2.412452555;13.01297587;4.303727518;-29.19814452;-7.705448416
-7.173202884;-21.12830068;-16.41152674;-33.63746689;10.88288929;1.338441079;13.93903196;1.367850892;-22.10189946;-50.757352;-3.586188619;21.66566475;19.69060968;7.384933507;1.940343296;9.892435762;1.976284293;-23.22960427;-10.10619887
-9.276561726;-17.47622114;-17.05513728;-37.19760895;9.503675629;1.332283533;11.34803699;-0.320310496;-25.6434489;-57.12217546;-4.745825014;22.09020394;19.8695072;7.850382228;0.259773897;6.435999777;0.544785809;-19.22921013;-10.64886466
-11.0596613;-13.83695484;-18.47708624;-40.67284344;8.79534477;1.174245199;12.75120163;-3.18169021;-27.14826804;-62.39696109;-6.773167455;22.91430718;19.01747921;8.694657551;-1.742797546;3.17248822;0.3874306;-19.84702279;-9.714721993
-12.66675441;-13.72704335;-20.6970151;-44.21014806;9.639519806;1.156678707;19.47103112;-6.155196605;-26.0403445;-65.27544686;-8.443578451;24.66027662;18.10912926;10.58336221;-2.146640989;0.645370646;1.289118105;-23.61390126;-8.304358681
-14.06634812;-18.18181773;-22.63698334;-46.45990794;11.44178937;1.486051074;28.05735816;-7.665310617;-23.10776693;-65.12019017;-7.767223167;27.57769586;18.46224981;13.96646504;0.695477118;-0.528594369;2.756064995;-27.01498438;-7.409647996
-14.90961918;-24.95084067;-22.68461668;-45.39707233;12.72116057;2.176362168;31.20012662;-6.4187199;-19.71427027;-62.14942264;-3.194234734;31.66371434;21.1240997;18.7745572;6.815344625;0.291775946;4.448335634;-27.81442266;-7.452823936
-14.6599727;-29.86236896;-19.72585276;-40.02954864;12.50419817;3.061313961;22.45953541;-2.079438243;-16.46777138;-57.14646735;5.27877545;36.81064611;26.37577694;24.34968501;14.36845501;3.50886566;6.342782619;-26.76850723;-8.131773966
-12.93891117;-29.47813172;-13.90898455;-31.56416992;11.20563334;3.900068359;1.837874357;4.57213052;-12.58147951;-50.95784778;15.94503533;42.83438897;33.57655051;29.62807878;20.79089312;8.907299368;8.514337023;-26.42425253;-8.724962487
-9.86092859;-23.2818552;-6.617155474;-22.97563546;10.18633745;4.497151009;-22.33440063;12.0327492;-6.627336462;-44.18054351;26.30861317;49.29376698;41.36395156;33.47648719;24.57871471;15.43510663;10.78621594;-28.29299159;-8.616126922
-6.111320692;-13.97096023;0.289992241;-17.1967409;10.43982681;4.764741199;-37.57410423;18.72385658;1.851856986;-37.24258895;34.40663476;55.30321427;48.08013223;35.04441115;26.31806127;21.40438277;12.62326255;-31.07516934;-7.687486155
-2.675205978;-5.715726457;5.419921532;-15.27046242;11.67177048;4.711398783;-35.2347865;23.51152102;11.26044658;-30.72100929;39.56705077;59.65045572;52.26387758;34.01750281;28.08901586;25.12633104;13.41675288;-31.61729381;-6.350773672
-0.355465519;-1.601861888;8.382272632;-15.85716972;12.64088022;4.394912873;-16.63168551;25.89727049;18.47112922;-25.52121908;42.12834637;61.30163225;53.07767614;30.70265247;31.60944259;25.67367504;12.93656154;-27.80126985;-5.235637029
0.630169242;-1.951864124;9.678355685;-16.43695485;12.41283005;3.889393186;7.510211683;25.93659813;20.74249143;-22.64978711;42.51412516;59.99459343;50.56235969;25.92225593;36.52666096;23.30924732;11.54558184;-20.78769974;-4.766595786
0.713882263;-4.538990032;10.15030268;-15.24562758;11.30514381;3.284783096;24.21913835;24.07339948;17.63731615;-22.66320688;40.58232231;56.45623258;45.62688372;20.74919733;40.25667322;19.28617211;9.954946976;-14.53114459;-4.91020451
0.650409267;-6.392285108;10.40724191;-12.46816086;10.60195558;2.696611507;26.84708463;21.02064522;11.45711641;-25.18323244;35.90738723;52.0284111;39.74088176;16.17558296;39.65169951;15.13058126;8.696819159;-12.83790836;-5.249632109
0.99629501;-5.872395779;10.54796495;-9.85968669;11.30418068;2.252713057;18.68223262;17.67333618;5.817501741;-28.8808176;28.79872158;47.96035085;34.42414089;12.84782124;33.36341279;11.87601352;7.755590064;-16.39392278;-5.330535735
1.729221873;-3.636756739;10.24644002;-9.212489644;13.11849701;2.04958596;9.151328941;14.96197946;3.400139984;-32.02622133;21.11101381;44.90015174;30.7526361;10.97635077;23.15262315;9.746680627;6.684366696;-22.25983257;-5.047390341
2.26020537;-1.966727384;9.065022657;-10.93314038;14.67615915;2.106748759;6.024601229;13.60822165;4.498244472;-33.30795818;15.9142781;42.92845285;29.11326716;10.43314907;13.0947248;8.439874442;5.122281582;-26.2417441;-4.80438126
1.837545304;-3.045920045;6.799725272;-13.80603758;14.80209143;2.3575233;10.02183998;13.8645608;7.295546847;-32.42894116;15.92776686;41.98127099;29.29431934;10.93874543;7.158979035;7.693221989;3.266412149;-26.11740158;-5.314634317
0.077706756;-7.400481322;3.69817441;-16.01696241;13.63663542;2.688518857;15.87131594;15.38865271;9.481221894;-30.13030862;21.66954794;42.16358064;30.7851469;12.19718391;6.852403395;7.614291638;1.860348557;-23.03987465;-7.129013939
-2.734562251;-13.49311593;0.452074751;-16.53338437;12.52566176;3.001046596;18.24594201;17.35561697;9.887818037;-27.6619203;30.69333936;43.59510193;33.04199672;13.90406014;10.58152525;8.483056491;1.654022417;-20.09994887;-10.17875588
-5.78442137;-18.64304877;-2.059821837;-15.74467283;12.75126003;3.250858996;16.93138115;18.78476531;9.006802471;-26.05298887;38.66825372;45.93831592;35.55602258;15.68090576;15.10914008;10.23236867;2.749655467;-19.50853337;-13.64563594
-8.213083925;-20.60990253;-3.190293614;-14.94089384;14.28875568;3.442514035;16.53800375;18.94138964;8.231455761;-25.6208914;41.78275312;48.15195192;37.76846139;17.06928618;17.93687647;12.14693549;4.386872676;-20.95967964;-16.29654482
-9.621045391;-18.83995877;-2.89114968;-15.15351122;15.78161152;3.592550445;21.14853339;17.63724675;8.62537843;-25.96230825;38.94243513;48.88358299;39.03195517;17.67116913;18.81271365;13.18101751;5.401156467;-22.51096745;-17.12644275
-10.247014;-14.66432604;-1.781147026;-16.33530908;15.79427009;3.697607322;28.99576204;15.3;10.19745895;-26.35395096;32.26895147;47.33286857;38.77282534;17.37714365;19.32223029;12.75641255;5.055672487;-22.92845458;-15.93021997
-10.71279789;-10.4111661;-0.807715281;-17.50740552;14.18630884;3.732044036;32.41187917;12.77557532;12.07515691;-26.262973;25.53523194;43.90277924;36.79874047;16.50497833;21.0615003;11.40756454;3.625524508;-23.09593533;-13.43410781
-11.53367033;-8.025615975;-0.669837575;-17.68663278;12.30415734;3.668607101;23.6878227;10.93164413;13.21571308;-25.65407391;21.61333952;40.01971456;33.50861277;15.69539051;23.98586165;10.64410333;2.272570381;-25.03173811;-10.87988109
-12.75513183;-8.038771104;-1.381261179;-16.79594141;11.77314376;3.496245187;2.117824381;10.22234505;13.00570907;-24.95280073;20.7179685;37.15711812;29.77942368;15.5823462;26.31892008;11.96917073;2.273557828;-29.42247431;-9.309471996
-13.97112942;-9.483581806;-2.304258985;-15.80917973;12.9915181;3.218861182;-23.89846535;10.42411092;11.39492691;-24.74548071;20.65820057;35.79987269;26.53729131;16.4425024;26.07720414;15.70294516;4.1482612;-34.15151577;-9.001618759
-14.68538056;-10.7701645;-2.66087968;-16.00482579;14.73712598;2.845069898;-41.93018532;10.71642836;8.697599557;-25.42468158;18.85100671;35.20151865;24.28325411;18.07163713;22.90730264;20.52110487;7.304433936;-35.52855395;-9.4145671
-14.71891697;-10.93204971;-2.155935039;-17.89265228;15.28250102;2.392294349;-44.05037713;10.13223967;5.403489291;-26.96881106;14.56155367;34.16032662;22.91183162;19.98139267;18.65609784;24.15644985;10.4273602;-31.41825155;-9.648606855
-14.340502;-10.39267825;-1.227408653;-20.62016565;14.00402708;1.91235242;-32.15785403;8.185137527;2.159691223;-28.92361387;9.674459167;32.17840621;21.95935107;21.76826789;16.12955576;24.84089926;12.30335572;-23.50122584;-9.095738679
-14.02149097;-10.67463705;-0.701808704;-22.3172513;11.98558078;1.51472408;-15.96425328;5.319743772;-0.209499943;-30.53452044;7.400907011;30.01726134;21.09802774;23.37210254;16.99468612;22.46411838;12.48903436;-16.39302931;-7.834803937
-14.01702447;-13.17089023;-1.093396782;-21.181833;11.03219469;1.350954944;-5.439031821;2.863284079;-0.849708825;-30.94025309;9.880466084;29.15458301;20.50250029;25.02958311;20.50899094;18.59748471;11.40890815;-14.03743106;-6.529256402
-14.11506729;-17.79828725;-2.085016504;-16.61211103;11.99188281;1.548082778;-3.830481046;2.412955124;0.801464532;-29.38021353;16.48131029;30.58115998;20.80685451;26.97487714;24.11454197;15.37581299;9.915803692;-16.35309057;-5.937427902
-13.76239498;-22.55495942;-2.61296571;-9.665823461;13.95094007;2.124230492;-6.594319744;4.945380177;4.72977231;-25.4214037;24.09357403;33.95095797;22.66997028;29.14476563;25.43359266;14.09126983;8.715233264;-19.16921739;-6.393754364
-12.47522783;-24.47255098;-1.524137989;-2.555086857;15.07638531;2.945709691;-6.500129462;10.15274537;10.30501802;-19.19941306;29.21892769;37.80475573;26.24666546;31.1388562;24.07735766;14.54737817;8.071928903;-17.78417679;-7.598459015
-10.21062008;-21.47217229;1.666943027;2.527008574;14.34368081;3.764515697;-0.209757445;16.42607822;16.48413536;-11.58423492;30.30761164;40.67257475;30.92201126;32.47023635;21.84836094;15.58916577;7.919218832;-11.26210257;-8.806490103
-7.399738986;-13.8809038;6.472253552;4.562875347;12.53659766;4.319955632;9.175638207;21.54538153;22.08159833;-4.106494093;28.61184385;42.11596477;35.48360598;32.89741458;21.22962421;16.28112963;8.156490045;-3.706040257;-9.236757446
-4.610876851;-4.460252265;11.78197276;4.187818662;11.55387801;4.442252452;15.31752548;23.71917054;25.98368874;1.476034693;26.95875283;42.84655166;38.63106662;32.56051921;23.42075698;16.71624822;8.818737241;-1.153207189;-8.422663037
-2.109730006;3.217042645;16.58641246;3.230699959;12.62881925;4.09753136;14.38423025;22.40984276;27.36608037;3.892812186;27.43483304;43.88065194;39.54107686;31.81139602;27.48392978;17.7981098;9.983012452;-6.499047161;-6.332670251
0.322969544;6.987954182;20.52370041;3.60643249;15.10880502;3.360900275;8.258230027;18.51428666;26.02110541;3.029013556;29.79620395;45.52931647;38.20755481;30.8873291;31.18715376;20.23329184;11.54786716;-16.73296784;-3.281595035
3.151869383;7.342788407;23.87645226;6.220879202;16.96336114;2.356504578;2.665538748;13.84475504;22.69065994;0.121998247;31.83381831;47.13554493;35.41489949;29.71027988;32.73122703;23.64799589;13.13734306;-25.01185537;0.232927808
6.597733649;6.77051043;27.08299348;10.52565251;16.60339335;1.216622396;2.18256785;10.22983339;19.04584166;-2.750701431;31.37554129;47.76425496;32.37391416;27.98512302;31.90223885;26.63482906;14.25381988;-26.0592356;3.662121043
10.28524821;7.697287601;30.19094265;14.94893258;14.35735809;0.078492096;6.583182893;8.712653569;17.01803585;-3.70948711;28.29881673;47.16938516;30.18106662;25.51419797;29.80643422;27.73809265;14.56703187;-20.45850121;6.498041815
13.33118141;10.61101337;32.6917759;17.87884984;12.22468645;-0.907431741;11.5188437;9.208789747;17.67350251;-2.070507193;24.88978384;46.10734323;29.33089853;22.46052602;27.62842256;26.57515712;14.09966662;-14.17180985;8.370205946
14.84822917;13.84690014;33.85054768;18.54364304;12.0911328;-1.596275512;12.61565432;10.71219304;20.37159102;1.314893443;24.1696694;45.67229918;29.51019612;19.33525484;25.65859498;24.15398014;13.16134163;-13.53627481;9.149902937
14.51434488;15.19196537;33.25534341;17.24577729;14.01819856;-1.900636692;9.236539914;11.87759473;22.98741157;4.621965477;27.43271905;46.24827427;29.80695455;16.71689686;23.46874963;22.10138761;12.10086012;-19.81301217;8.992850046
12.78751412;13.96042185;31.15462735;14.89041072;16.18189065;-1.83719747;4.737644621;11.67807872;23.29246703;6.176471286;32.9322234;47.06301645;29.27114718;14.93039991;20.94643656;21.4159411;11.09251845;-27.842057;8.246999162
10.59515821;11.73933814;28.3276032;12.25243304;16.54158652;-1.519898108;3.290218067;9.852473492;20.61867031;5.4183476;36.84384773;46.81488803;27.54;13.93591478;19.02380708;21.75146046;10.12129207;-30.02181232;7.246057493
8.715403469;11.05483122;25.58932983;9.572500718;14.72564514;-1.091554081;6.260940329;6.971790751;16.51189763;3.091425599;35.91575733;44.86946509;25.13725337;13.48750199;19.18777975;21.79758682;9.140517891;-22.44078294;6.121880347
7.30282628;12.9801851;23.2975613;6.749624601;12.39915004;-0.642179274;11.26700552;4.114087813;13.70403851;0.586679124;29.88844123;41.96240812;23.19779301;13.39068247;22.03839848;20.42196829;8.222935821;-8.204480768;4.785256637
5.911117736;15.74376734;21.21829018;3.867916321;11.75578115;-0.181381439;14.47096925;2.300685196;14.02972143;-1.049958959;21.85964293;39.72423589;22.72441843;13.61655538;26.19589983;17.62389484;7.547349443;4.703810519;3.10673942
3.996376896;15.74558995;18.84351738;1.499542534;13.50114713;0.309555292;13.87013896;1.96292323;16.85651853;-1.739221125;16.23897032;39.35514224;23.83172385;14.17696014;28.74457205;14.52287596;7.231238117;9.257448951;1.163179352
1.518633276;10.45558847;15.92970217;0.424994211;16.18060401;0.791041147;10.70244175;2.713432243;19.33194255;-2.241603219;15.69942026;40.54466134;25.50582157;14.89560602;27.14284556;12.41098631;7.174308226;4.263871956;-0.656453163
-0.829053951;0.967809467;12.85999938;0.951077257;17.48697132;1.126505571;7.981997992;3.553606188;18.37905323;-3.482840604;19.28447214;41.57140498;26.10482813;15.31843164;21.18141448;11.66322487;7.075591199;-5.390337905;-1.797987491
-1.971775758;-8.017817866;10.53758652;2.425071299;16.3660687;1.140470884;7.728301372;3.409628415;12.95961947;-5.90231543;23.02116964;40.55373075;24.32570898;14.89624538;13.35242524;11.40358297;6.630395538;-12.93182103;-1.859648682
-1.164950183;-11.15298319;9.828959566;3.454566806;13.99040279;0.740914559;9.400579513;1.691017757;4.850696091;-9.28235586;22.62334763;36.87366591;20.02378269;13.33897582;7.193120002;10.20014189;5.747541836;-14.68323851;-0.859252618
1.431324678;-6.345660868;10.90089619;2.781286555;12.69428226;0.012499756;10.73693469;-1.449960877;-2.669062637;-13.05562849;16.42544197;31.66636129;14.35378815;10.88386654;4.834365145;7.234591065;4.603923745;-11.94210062;0.740831985
4.738040788;3.349506361;12.91798048;0.179225705;13.83172591;-0.798984433;9.995423105;-5.283631556;-7.161894081;-16.69621132;6.57173778;27.04556976;9.157539703;8.270152301;5.697309201;3.02678593;3.493871228;-8.771572857;2.268941137
7.342162351;11.50031215;14.38233806;-3.340869814;16.51809051;-1.409722888;7.503025856;-8.94;-8.535919466;-19.81245558;-2.279624165;24.73805083;6.018748365;6.422624482;7.376394321;-0.839131127;2.607679512;-8.113867858;3.177925179
8.302398516;12.658811;13.9872078;-6.220872579;18.41899852;-1.644527453;5.258475981;-11.80622749;-8.580802698;-21.9366063;-5.812906549;25.18353541;5.579391725;6.040716543;7.933401451;-2.766233734;1.928197219;-9.649669922;3.266568936
7.645127071;6.202682293;11.47323935;-7.417202838;17.87598062;-1.506624506;5.152062701;-13.65161174;-9.060242374;-22.37190496;-2.597398857;27.65359291;7.460663262;7.322262982;7.627977396;-2.189633134;1.320676849;-10.85565092;2.68230176
6.239397265;-3.199241344;7.899070545;-6.993527159;15.42531134;-1.132668626;7.466933709;-14.49106835;-10.06463014;-20.44396119;5.225062656;31.05942002;10.68273991;9.924872287;8.572642636;0.113253742;0.716185077;-9.765848725;1.758914357
5.171098477;-8.899790719;5.072650291;-5.777470771;13.31426313;-0.683047549;10.85619895;-14.39983651;-10.02965762;-16.09358402;13.37745995;34.64640287;14.19055965;13.11360347;12.57585227;2.597660674;0.212684268;-6.690824762;0.83064938
5.068688755;-6.952457853;4.45546533;-4.397844183;13.45350687;-0.257959844;13.57977898;-13.48270815;-7.3307203;-10.31442978;17.97940632;38.06929897;17.15776637;15.98687962;19.0377251;3.943002682;0.006073213;-3.513925801;0.129690103
5.832968782;1.272556584;6.259344212;-2.559254701;15.68288399;0.107097882;14.795806;-11.99903875;-1.978806156;-4.916667548;17.61757956;41.03914837;19.03656678;17.71997995;24.8090226;3.779730932;0.228408264;-1.648117792;-0.224902996
6.903177662;10.3879334;9.374039401;0.76390766;17.94313988;0.389300521;14.90838617;-10.44549218;4.124266672;-1.582390669;13.84788384;43.12687745;19.54731297;17.81716035;26.32628624;2.749903533;0.854809319;-0.894716379;-0.204715282
7.795478364;15.09612076;12.19482201;6.303745257;18.19326709;0.539385521;14.96053479;-9.401827001;8.6181019;-0.800842062;10.02873798;44.03882726;18.76126954;16.33313441;22.4035292;1.988752619;1.765380504;-0.290106767;0.13871727
8.471133315;13.92972085;13.7502976;13.47240825;16.30254055;0.502508757;15.79837567;-9.168808501;10.54284724;-1.489313913;9.294355033;44.06281013;17.20324342;13.9425104;15.41622231;2.438948196;2.888554841;0.169285437;0.68044241
9.255563552;9.85246127;14.27817101;20.23788922;14.16550241;0.279593072;17.64122109;-9.475615129;10.98007813;-1.673705905;12.82797596;44.08682988;15.75389303;11.7249915;9.827671344;4.398669769;4.265782158;-0.982652059;1.255241337
10.40242397;7.455047302;14.80089877;24.13382591;13.9270007;-0.036551228;20.10907587;-9.561845997;11.9097867;0.183669577;19.31400261;44.96474698;15.25017118;10.67651322;9.109736626;7.465752755;5.954463029;-5.133758654;1.716323668
11.68906524;9.105715409;16.04419779;23.74111028;15.95622051;-0.297878304;22.42007813;-8.677435413;14.30425926;4.140798343;25.77169769;46.70773036;15.97983202;11.17982159;13.38746146;10.7988584;7.857477376;-11.4143321;1.974912343
12.4144195;13.12127189;17.6033078;19.58432583;18.4536843;-0.391803793;23.6513772;-6.684359092;17.16527085;8.763093301;29.25623993;48.29899884;17.4526336;12.77934294;19.55853672;13.51100086;9.66487396;-16.29632096;1.98125878
11.85527702;15.31768466;18.1093647;13.80712625;19.07691799;-0.314288193;23.22139593;-4.295031868;18.37961051;12.11958755;28.47572891;48.46363319;18.68791083;14.46007813;23.69460488;15.02278681;11.00793098;-15.93480038;1.668560438
9.860662621;12.58422493;16.34793329;8.885297384;17.10278738;-0.163989246;21.55711698;-2.704498318;16.65217844;13.02056056;24.41741021;46.83090915;18.86288167;15.28917434;23.80602241;15.24922753;11.72220787;-9.550265942;0.936434612
7.118024826;5.557926816;12.45152762;6.295352944;14.13200617;-0.062158041;20.35678999;-2.823670715;12.80418872;11.59544773;19.61670953;44.43799516;17.8496939;14.99339396;20.90074077;14.54444111;11.98433715;-0.793929335;-0.269445119
4.833612606;-1.746027795;8.127545698;5.990563633;12.66780991;-0.065921675;21.7071609;-4.648364599;9.263919836;8.881237675;16.50232601;42.98346648;16.2285977;14.0635393;17.72722986;13.41678356;12.16918101;4.529743037;-1.820297963
3.99197752;-5.041047159;5.589565543;6.858760292;13.85464817;-0.145971073;26.12301686;-7.228666967;8.159211569;5.884960317;15.86294725;43.33665493;14.78131213;13.31635266;16.40905212;12.16125948;12.51970145;2.858715713;-3.335928994
4.688546872;-3.146874926;5.916509733;7.632226793;16.44569526;-0.240473041;30.88174346;-9.271359153;9.650683057;2.946829468;16.47125528;44.58434632;13.89912439;13.2559284;16.89896364;10.65244693;12.91568166;-4.217068234;-4.295906138
6.015000065;1.014454228;8.115644901;7.534165604;17.95163411;-0.328811691;30.51560722;-9.94574704;11.93480206;-0.114286773;16.16964921;44.57919556;13.40493873;13.72685991;17.33205953;8.479831774;12.9751644;-11.13669766;-4.310890865
6.614064203;2.577918262;9.710695739;6.340938179;16.92617376;-0.453246516;20.07231043;-9.331816462;12.87860871;-3.322241989;13.68225998;41.70480848;12.913847;14.10844982;15.76071922;5.371296696;12.43923578;-12.84798251;-3.387289391
5.557029947;-1.609842209;8.514633465;4.092718767;14.29970817;-0.667634226;-0.628090533;-8.2449234;11.81748328;-6.059509458;9.801200977;36.42795643;12.3611203;13.85544004;11.74900106;1.595439108;11.51211611;-8.904206389;-1.983861726
2.961814474;-10.60147427;4.282079531;0.901486052;12.54263598;-0.963216711;-25.05043816;-7.645104592;9.919236749;-7.322169625;6.939302853;31.21857886;12.1554877;12.91464598;6.616633269;-2.012858308;10.81674059;-3.70654318;-0.785136449
-0.065874959;-19.96442529;-1.035611169;-2.947091348;13.42556891;-1.246786543;-42.60849499;-8.107984645;8.810078125;-6.577205776;7.217077571;28.69598168;12.74624819;11.67337431;2.337980644;-4.50425544;10.93003906;-2.661281624;-0.31721017
-2.129671845;-24.85720443;-4.664365714;-6.810132505;16.42062664;-1.401616595;-44.93328604;-9.699659252;8.732828282;-4.496272891;10.44584719;29.39843957;13.95604545;10.51761458;0.130007935;-5.453812106;11.84686065;-7.528017065;-0.651202416
-2.407469891;-23.25278528;-4.982027521;-9.771286174;19.18715815;-1.385318248;-31.60194837;-12.20685058;7.968725497;-2.857289672;13.63569624;31.04898978;14.72511329;9.429094058;-0.183169897;-5.289629234;12.84812948;-14.94097094;-1.382177998
-1.106046224;-17.02642233;-2.591947608;-11.07335883;19.66914649;-1.27969396;-10.94209128;-15.38243506;4.173916274;-3.533996158;12.66518596;30.09928838;13.63867349;8.017037849;0.259792525;-5.000224153;12.96855788;-19.34011074;-1.881315653
0.78240902;-10.31648102;0.301883467;-10.58905746;17.87095963;-1.242646805;5.17027794;-18.92641158;-3.418121677;-7.230198358;5.134313288;24.4877672;9.953869958;5.981198247;0.291337238;-5.382504701;11.76605812;-17.7324211;-1.643782488
2.225794148;-6.554485316;1.68602911;-8.908983464;15.71228763;-1.393359151;9.069237253;-22.25998653;-12.82096575;-12.8666407;-7.612399477;15.45760617;4.348916698;3.584159913;-0.615282083;-6.384709913;9.792494338;-12.15114531;-0.520563268
2.864038416;-6.368739459;1.266985225;-6.931874718;15.16310682;-1.720139112;2.009745431;-24.4349925;-20.27628676;-18.09277041;-20.8912212;6.902727556;-1.267180725;1.654213494;-2.258411149;-7.074532708;8.334425051;-7.737126939;1.265514251
3.191115611;-7.713845568;0.557882528;-5.286197872;16.44111774;-2.085205277;-7.620359187;-24.46262225;-22.77146128;-20.61073021;-29.44165199;2.617890773;-4.862783796;1.022805408;-3.976828719;-6.307222992;8.539485219;-8.198758567;3.268895859
4.096507747;-7.846296343;1.51758191;-4.066321622;17.94948277;-2.324102531;-11.09585451;-21.96433309;-20.1954294;-19.4541628;-30.74016375;3.511639447;-5.563048067;1.811333622;-4.929212633;-3.623654922;10.54866382;-12.63882498;5.013518999
6.113330174;-5.4974186;4.882988346;-3.066690391;17.95793686;-2.362907693;-5.831063664;-17.67251008;-15.48460262;-15.43577926;-26.57747935;6.926817656;-4.177733188;3.174353316;-4.323417752;0.293556261;13.30003906;-16.44538336;6.141139404
8.927211026;-1.652363999;9.534738096;-2.21663384;16.37276744;-2.264539983;3.396587093;-13.29775513;-12.66656112;-10.56477898;-21.79935404;8.602837915;-2.592564603;3.783990207;-1.769014706;3.966353692;15.18990686;-15.34312272;6.500559367
11.51103447;1.465248098;13.35826348;-1.721915071;14.868275;-2.173618094;9.089789048;-10.70044251;-14.28833066;-6.885602994;-21.11902587;5.777033012;-2.482278493;2.743602808;2.238300848;6.040459497;15.13049854;-9.011728184;6.188270112
12.80034784;2.263246033;14.84929579;-1.720206796;15.23483734;-2.207589905;7.443626531;-10.84846397;-20.07034475;-5.468856526;-26.24399057;-0.926798272;-4.290745497;0.239119637;6.087816344;6.132021255;13.23780859;-1.225374397;5.521476397
12.43195495;1.045562237;14.15406338;-1.79204288;17.53548018;-2.377470816;1.194611837;-13.26699278;-27.560687;-6.078614315;-35.23011441;-8.183763201;-7.178008951;-2.59297283;7.570593993;5.022535513;10.66296959;3.362238414;4.906402575
11.01357438;-0.220733285;12.75270621;-0.916275681;19.89003906;-2.590690407;-3.230937055;-16.3791888;-34.02621734;-7.569726831;-44.2686199;-12.57824713;-9.866166564;-4.497606782;5.140410457;4.100264616;8.731388832;2.791872229;4.618315096
9.717652351;0.602603921;12.12268836;1.871006604;20.17658541;-2.722409475;-1.542866332;-18.51125069;-38.0482761;-8.669487216;-50.36145352;-13.06577422;-11.64658258;-4.995111446;-0.841287475;4.460579455;8.061224867;-1.304246017;4.608195261
9.470559645;4.170729692;12.51638981;6.520359472;18.08197954;-2.69550547;4.745543465;-18.86841871;-39.79365688;-8.673408433;-52.87522347;-11.45843925;-12.76173558;-4.649996366;-7.927716885;6.260926113;8.304754716;-5.862874276;4.491980145
10.30139247;8.985002435;12.82703233;11.52565673;15.5257102;-2.515187877;9.908913663;-17.84092224;-40.13634118;-7.723318727;-53.06028797;-10.74295388;-13.95018251;-4.529718673;-12.90647317;8.692689482;8.632595091;-9.218586197;3.784510001
11.31166061;12.15628146;11.58332759;14.52366525;14.96050708;-2.247908585;9.314914943;-16.52123573;-39.64957219;-6.59757513;-52.31689698;-12.70958753;-15.64303697;-5.315226589;-13.87500413;10.50419297;8.496057659;-11.89271813;2.254526533
11.29607647;11.12888412;8.206954582;13.66591823;17.07026703;-1.97441241;3.681242839;-15.88753361;-38.34574962;-6.186702484;-50.89167754;-16.76768513;-17.54704938;-6.789097736;-11.57183575;10.70249948;8.025180957;-14.91893961;0.148721777
9.587192671;5.312252574;3.517207246;8.822596276;20.03058921;-1.753303009;-1.504011013;-16.2864291;-36.19041347;-6.966082428;-48.11295179;-20.73169366;-18.96302988;-8.097809097;-8.8648597;9.03912453;7.77054414;-17.83022184;-1.907417535
6.536550808;-3.372063047;-0.860257978;1.731192286;21.10569089;-1.608725418;-0.903347784;-17.51834986;-33.69107571;-8.764713312;-43.78650635;-22.75311266;-19.52129175;-8.540286126;-8.666348774;6.078213085;8.063380763;-18.69987287;-3.29410399
3.297609095;-11.39959977;-3.634730709;-5.021215098;19.17446462;-1.531944831;5.755430745;-19.29497616;-31.87621321;-10.95682926;-39.28332861;-22.75591672;-19.64309185;-8.20865065;-11.81228715;2.876641725;8.576072373;-16.35397941;-3.802296675
1.0636752;-15.54973119;-4.623153282;-9.418188353;15.84630652;-1.483769563;13.18079866;-21.55731928;-31.62773245;-12.93628203;-37.09935287;-22.28398942;-20.27165015;-7.944120172;-16.53366506;0.453651741;8.473186862;-12.3620869;-3.762835784
0.292222105;-14.74797953;-4.627458781;-10.82579158;14.06902081;-1.399191006;15.0398573;-24.33987958;-32.9620016;-14.52788453;-39.03825088;-23.03414271;-22.05388756;-8.646652654;-19.91655075;-0.713193589;7.034095632;-10.3134372;-3.807488213
0.448744654;-10.74109097;-4.649139117;-9.763180843;15.44835191;-1.205735104;9.698406729;-27.34742793;-34.90610404;-16.01365759;-44.47604453;-25.37293665;-24.6522278;-10.50874236;-20.16856683;-0.927468557;4.237941459;-12.52443214;-4.451060054
0.431649193;-7.102725765;-5.145578928;-7.084715515;18.74319809;-0.858146932;2.167518454;-29.73523354;-36.09206604;-17.73650742;-50.2620124;-28.03600638;-26.79993181;-12.79715501;-17.88348819;-1.084239427;0.84680897;-17.21491635;-5.810672055
-0.636591668;-7.04362928;-5.873368282;-3.435699584;20.96799094;-0.371987601;0.320398631;-30.44478069;-35.59792661;-19.60176898;-52.56063606;-29.16449255;-27.12731893;-14.35107987;-15.34906798;-2.078957908;-2.057390324;-19.32283453;-7.646082311
-2.808842651;-11.30719342;-6.294140351;0.575082425;20.12854537;0.170557797;8.248964615;-28.94467959;-33.40991861;-20.92902347;-49.35413431;-27.75840656;-25.15373204;-14.3882399;-14.56107625;-4.112169446;-3.700504768;-14.95261082;-9.630734965
-5.304126292;-17.51961719;-6.073987253;3.880231978;17.0647835;0.654774516;22.14661467;-25.79277309;-30.23855559;-20.85339474;-41.72381344;-24.37516051;-21.67656708;-12.98467962;-15.63064687;-6.357107497;-3.943439049;-5.713143408;-11.5866034
-7.062070959;-21.55442613;-5.243870322;4.968636516;14.65999972;0.990848569;32.22581808;-22.47291446;-26.92857549;-19.00062058;-32.93796119;-20.59464994;-18.23410982;-10.88670909;-16.85938998;-7.326607779;-3.143158062;1.42235924;-13.48709505
-7.447464622;-20.17663824;-3.993941225;2.804602938;15.12414112;1.159369428;29.43942052;-20.48967223;-23.93353969;-15.86322841;-26.07890973;-17.77505332;-16.02797656;-8.862250651;-16.29743228;-5.830748999;-1.775267086;-0.493227618;-15.27647109
-6.619156558;-13.28700221;-2.423977133;-1.931428937;17.89819432;1.216916614;12.01514267;-20.32306897;-21.16486318;-12.49048044;-22.06447005;-16.12159894;-15.11020432;-7.145458329;-13.36707339;-1.929757624;-0.189744546;-11.91429771;-16.73826444
-5.349917223;-4.209864854;-0.546505937;-6.471394973;20.19353263;1.260625165;-13.00784658;-21.03955695;-18.19949867;-9.677636904;-19.55067922;-14.74835324;-14.44380364;-5.404229773;-9.173955764;2.841474719;1.335153006;-25.16672616;-17.5917678
-4.481889562;2.299756689;1.488319875;-7.208850338;19.70605205;1.375338306;-34.21238546;-20.92324036;-14.63436942;-7.328424868;-16.65102359;-12.58305874;-12.78546685;-3.196472618;-5.354398067;6.275326309;2.412472474;-29.9618975;-17.75181344
-4.431414071;3.085380328;3.244466142;-2.045135147;16.92860201;1.59252111;-42.81906628;-18.72995962;-10.39430047;-4.601469293;-12.94106993;-9.335891456;-9.719663952;-0.479591762;-2.605940583;6.875969936;2.549615301;-22.10269757;-17.48791474
-5.068331619;-1.387565563;4.15459407;7.786075756;14.77441125;1.87773568;-37.35581122;-14.65939123;-5.898389387;-0.812787946;-10.02580143;-5.780256455;-6.061512999;2.274778894;-0.270377649;4.876131833;1.451108365;-7.926856119;-17.27142684
-5.984417641;-7.440336893;3.870403777;17.94554148;15.74836748;2.147320116;-23.23150787;-10.30200345;-2.025512767;3.641153694;-10.17010901;-3.182434734;-3.319926452;4.445798891;2.682569341;2.109461799;-0.605514106;0.11589416;-17.38041013
-6.883843964;-10.7752178;2.460612046;23.42207928;19.3316837;2.305853012;-8.332855839;-7.557619182;0.181770585;7.209570282;-14.11915233;-2.365353802;-2.613041372;5.777803391;6.242711555;0.758646009;-2.706681864;-6.032530662;-17.5912244
-7.780120439;-9.449084085;0.23076473;21.6511552;22.21292964;2.292512687;1.755489709;-7.294654026;0.043300356;8.189871635;-19.93762469;-3.119498184;-3.834540455;6.594116921;8.909145626;1.845048113;-3.737271282;-22.05250818;-17.26641547
-8.877812138;-5.121169316;-2.669652459;14.14758077;21.37592198;2.119599985;5.823439762;-8.73403925;-2.243665296;6.094089357;-23.91283997;-4.368352111;-5.68738599;7.521838033;8.732322489;4.553785515;-3.083480378;-33.25370142;-15.83088878
-10.27869319;-1.692788577;-6.415879865;5.457082918;17.21416109;1.881309382;5.909365307;-10.02160528;-5.483788379;2.239905921;-22.93877242;-4.93565264;-6.570550288;8.94891288;5.010212062;6.883189873;-1.102843931;-26.22492483;-13.27328139
-11.77416681;-2.335189111;-11.17496571;0.154474468;13.54052005;1.716739215;4.797561148;-9.577128402;-7.988025701;-1.042521803;-16.63249403;-4.360503375;-5.68698471;10.65157778;-0.845448538;7.112599768;1.017462966;-1.374435529;-10.24121295
-12.8921805;-7.063172066;-16.49312231;0.025105139;14.11837188;1.735994354;4.30274604;-7.232457513;-8.494783275;-2.071738379;-7.638057981;-3.210898294;-3.582246846;11.88821355;-6.093811682;4.970960163;1.951019097;24.19673364;-7.611477141
-13.15581264;-12.60156652;-21.01206709;3.368677023;18.76055891;1.950469356;5.096106783;-4.328771851;-6.903207188;-1.038110744;0.054548314;-2.705967617;-1.73236712;11.88664677;-8.52566561;1.646639383;0.996425707;27.13884395;-5.864851532
-12.35855308;-14.61985331;-22.98302106;6.721677874;22.86788414;2.259629305;7.281000794;-2.715732797;-4.252202845;0.248776599;3.511746264;-3.908842344;-1.478939843;10.35852953;-7.917423166;-1.298372982;-1.607872267;-5.255269498;-4.790029297
-10.67483716;-10.71899618;-21.4086989;7.503990842;21.42487448;2.516359616;10.62570218;-3.402355081;-1.915436436;-0.056224477;2.312802193;-7.011724773;-3.071920305;7.676866867;-5.956180937;-3.197512653;-4.989261649;-64.27885011;-3.786774394
-8.565981697;-2.074462246;-17.01126243;5.54968177;14.25657529;2.634201185;14.27910071;-5.848619223;-0.616834539;-2.202455747;-1.752827904;-11.16126093;-5.497573003;4.623793145;-4.803867766;-4.717534862;-8.273447085;-123.7109504;-2.524978312
-6.579866559;7.330019531;-12.17418358;2.551311445;7.629258729;2.657357726;16.73736216;-8.389142257;-0.044211793;-4.551490074;-6.213446036;-14.92529414;-7.202511285;1.926355354;-5.550464509;-7.157147907;-11.04392444;-156.0592412;-1.379638812
-5.172934673;13.22430979;-9.676818048;0.197387391;9.971636648;2.730354937;16.71557649;-9.432057862;0.653548252;-4.924757533;-9.371976045;-17.09586876;-7.182202747;-0.084480888;-7.764762469;-11.2204195;-13.32792516;-149.5467807;-1.213577068
-4.610078125;13.54468002;-10.96414375;-1.237509414;24.62087552;2.977264753;14.50365043;-8.519718241;1.967484429;-2.486609304;-10.72814453;-17.30944979;-5.645983294;-1.492023313;-10.29214936;-16.26893279;-15.2240191;-113.8659783;-2.624293568
-4.914373496;9.32386622;-15.14080088;-2.649103784;45.63512684;3.377513707;12.49073352;-6.481611333;3.569306281;1.459530621;-10.41805185;-16.08940928;-3.786222114;-2.544504676;-12.36857517;-20.62692098;-16.56510126;-71.43037778;-5.261226528
-5.828461339;3.663347551;-19.44910012;-4.568573059;60.80637294;3.740584832;13.87807679;-4.625240004;4.727305059;4.515859694;-8.506074464;-14.31449338;-2.839009574;-3.368391973;-13.98113434;-22.65543833;-16.93441825;-41.63414145;-7.824580167
-6.810951537;-0.244139151;-20.96464016;-5.899219891;60.24355907;3.813665763;20.07655387;-3.640520617;5.194150076;5.255591862;-4.89419902;-12.52929939;-3.146140458;-3.860983397;-15.27088957;-21.74286852;-16.01277155;-30.03106963;-8.837498623
-7.141816367;-0.67817555;-18.38158239;-4.28533378;43.98808852;3.452315655;28.6763708;-3.084111794;5.661919893;4.542827132;0.14161854;-10.63584039;-3.926321714;-3.819147158;-15.77624118;-18.51461238;-13.93712527;-29.32271295;-7.647160916
-6.175548167;2.213922076;-12.71090725;1.967253927;22.39624143;2.728206284;33.87585843;-1.832428167;7.226831803;4.881421203;5.471979952;-8.217068769;-3.932483982;-3.187576277;-14.48346827;-14.25241155;-11.34450098;-29.21060289;-4.885715348
-3.665275301;6.986328057;-6.505192459;11.95111534;8.596276322;1.890292947;29.64389887;0.87142789;10.24379562;8.207574132;9.365704897;-5.229419562;-2.501109418;-2.235972994;-10.81836357;-10.11592755;-9.047971444;-25.7135537;-2.015185891
0.021639775;11.7190148;-2.243763524;21.93314158;8.769371353;1.207130015;13.79824651;4.610173735;13.62882959;13.92161801;10.45678535;-2.454872375;-0.190424255;-1.52721085;-5.676413341;-6.78486908;-7.596041962;-22.39106189;-0.290340289
3.965689777;14.60339498;-1.00722247;27.31;17.92627286;0.809388174;-9.772618501;7.868087396;15.3992266;18.87477478;8.683325485;-1.231430074;1.50322021;-1.667834063;-1.36890387;-4.63636718;-7.044516733;-23.82067794;0.07136132
7.061518031;14.32755976;-2.225194839;25.46768818;24.49522988;0.647315695;-32.50682688;8.955910188;14.17393169;19.48371859;5.369571849;-2.53679635;1.177278523;-2.962046142;-0.240243422;-4.046300068;-7.072454984;-28.52379432;-0.105011381
8.525573715;10.52654301;-4.434328275;17.47737513;19.8930498;0.581142277;-45.59954099;7.111994103;10.41131281;14.38397316;2.289836137;-6.071062793;-1.436245538;-5.159113018;-2.937038805;-5.342775464;-7.289304156;-28.5303591;0.270381086
8.275451236;4.263772458;-6.316810826;7.377538108;5.23316366;0.514886028;-44.81671776;2.988797456;6.240846924;5.525220634;0.415712309;-10.09386829;-5.181059564;-7.458943021;-7.758555514;-8.374366135;-7.456432755;-16.2994178;1.644336857
6.964408458;-1.936098533;-7.270236471;-0.425789919;-10.19995102;0.456831095;-32.70483373;-1.792899532;3.885920401;-3.184817166;-0.642336779;-12.2738675;-8.154393341;-8.821904624;-11.72089604;-12.14586377;-7.472857605;7.276780386;3.506091233
5.639088296;-4.983017405;-7.297970211;-3.757799234;-17.1753692;0.46459648;-16.84064426;-5.655334206;3.933983869;-8.63272287;-2.024025584;-11.04761367;-8.870933343;-8.460652948;-12.56595555;-15.02940576;-7.217051128;31.35771912;4.876273275
5.193426027;-2.889136573;-6.590285488;-3.507856406;-14.36298976;0.541394049;-5.27321284;-7.901322969;4.949349165;-10.49875705;-4.325413653;-6.554970065;-7.102138344;-6.26140515;-10.15386292;-15.59424442;-6.467668988;42.21165926;5.148036889
5.900126824;3.753428632;-5.311844369;-2.353388655;-9.185471813;0.59466536;-2.042092493;-8.83746983;4.837783698;-11.01032696;-6.705902718;-0.48806198;-3.854935356;-2.883566283;-6.202213188;-13.51916139;-5.032957143;33.46814722;4.564704546
7.25924558;11.65343292;-3.766956187;-2.583180865;-11.07285923;0.507728133;-5.503714109;-9.222546626;2.834612517;-12.80310985;-7.20717139;5.018181403;-0.602549583;0.549322167;-2.733104348;-9.887691326;-2.996541236;11.22407934;3.953856608
8.241029604;16.47212959;-2.653064281;-4.70781038;-22.96249433;0.263563563;-10.3027488;-9.571892099;0.349377666;-16.73860202;-4.149412512;8.624876841;1.604553754;3.008271837;-0.638663267;-6.592324224;-0.845249433;-10.26965935;3.974477736
7.802569596;15.38178438;-2.976603702;-7.686487348;-38.31613949;0.00023975;-11.4509024;-9.880548847;-0.198472793;-21.44748448;2.407178828;10.27604183;2.519716824;4.040975061;0.442029977;-5.245489984;0.68492031;-18.97782732;4.532682514
5.419658964;8.850216209;-5.514667054;-10.22484198;-46.19512582;-0.071079997;-7.680238957;-9.91302078;2.329309683;-24.83014176;10.26529884;10.69014512;2.421241546;3.89340877;1.017948123;-6.350434123;0.98444796;-13.34445839;4.858583891
1.362328865;0.345778247;-10.17130316;-11.86652542;-40.11908491;0.167613644;-1.863863426;-9.711080846;6.350819083;-26.08300102;16.14753698;10.41823565;1.56120555;3.22703916;0.66644009;-9.237920024;-0.07808604;-2.209831726;4.166089706
-3.432650838;-5.936049423;-15.76809351;-13.0294096;-23.3110452;0.62896698;1.591437207;-9.801837267;8.382928759;-26.43575752;17.55902014;9.339001321;-0.106465493;2.65969887;-1.788391438;-12.65915968;-2.066216032;3.012779301;2.328176003
-7.828176946;-7.790443262;-20.53406701;-14.21856122;-6.062473286;1.067660547;0.332578012;-10.86927464;5.669877561;-27.96605346;14.23900754;7.022113878;-2.6859885;2.458224783;-6.835897718;-15.47665283;-4.197629569;-2.713727597;-0.001088019
-11.03674772;-6.270624689;-23.03241677;-15.3650556;2.425644912;1.262931251;-4.081221818;-13.13424671;-1.428465627;-31.5563725;8.278227331;3.583634356;-5.85811445;2.560848838;-12.91331026;-16.96905353;-5.71917352;-14.9638362;-1.912404948
-12.94167162;-4.640907779;-22.9121395;-15.98306601;0.893011751;1.193054853;-7.429962787;-15.96486014;-9.292572279;-35.81028489;2.882882808;0.177082316;-8.672493624;2.828286767;-16.63725543;-16.73500645;-6.206293288;-24.42255663;-2.967882073
-14.00797684;-5.830265078;-20.98755014;-15.92286731;-3.920386012;1.055873234;-6.194741868;-18.08381129;-13.4112593;-37.92657042;0.618002857;-1.462997496;-9.907670441;3.245192096;-14.90333312;-14.56964035;-5.656496677;-24.73877494;-3.522822496
-14.85761595;-10.27298044;-18.63494797;-15.83719901;-3.639230264;1.110950234;-0.372657518;-18.28035763;-11.50100574;-35.8627814;2.198353794;-0.193561049;-8.797888391;3.868133195;-7.433034034;-10.6267154;-4.402939671;-17.15762244;-4.381180415
-15.80469589;-15.68627964;-16.96794326;-16.72641409;4.603094866;1.465993639;6.526161483;-16.14223875;-4.980068359;-30.02835792;6.434150114;3.55274391;-5.584679366;4.578737057;2.312485381;-5.750466834;-2.955224216;-8.697970029;-6.071906949
-16.67296421;-18.86077937;-16.35317042;-18.86827474;16.20090064;1.979264328;10.349428;-12.3036602;2.295094906;-23.1342226;11.17559166;7.822744339;-1.455560626;4.918370208;8.880131738;-1.516682407;-1.842351717;-6.130656497;-8.333618313
-17.01362613;-18.05578961;-16.50899227;-21.17354273;23.56633349;2.357876381;9.734927876;-8.061722911;6.947801725;-18.32958682;14.5623063;10.31705806;2.104166138;4.247746582;8.240665634;0.346269109;-1.463348621;-11.04750114;-10.21571607
-16.54216656;-14.20696851;-16.97290274;-21.78193444;22.84714138;2.374417352;7.235511097;-4.656598074;8.313444098;-17.10205821;15.85542935;9.881156282;4.082515704;2.197010078;0.489200704;-1.062486312;-1.94059298;-19.6996253;-10.71202379
-15.441425;-10.11565412;-17.49358368;-19.63121669;17.01883468;2.031324994;7.08503901;-2.704097772;8.317656105;-18.51838989;15.51555521;7.229882586;4.312165232;-0.922440688;-10.15443128;-5.13297649;-3.030464298;-26.89948456;-9.443886399
-14.27721783;-8.323118292;-18.05396579;-15.72583066;12.9253282;1.549048294;11.37911724;-2.09503222;9.322474194;-20.23595912;14.66420097;4.378286062;3.267729121;-4.117453213;-18.09411287;-9.98060953;-4.189911444;-30.09491052;-6.906198149
-13.57983546;-9.308921501;-18.5985374;-12.8573839;15.15053917;1.198066835;17.94062337;-2.307057888;11.88720919;-20.33303411;14.34229049;3.213053401;1.561366376;-6.218584648;-19.90587322;-13.57187854;-4.837208779;-30.25166967;-4.148700811
-13.42366826;-11.32440153;-18.79803461;-13.69818702;22.16746491;1.115061694;21.91099897;-2.812026775;14.32536506;-18.51062575;14.97228601;4.258097544;-0.416217158;-6.585700405;-16.2053843;-14.98185654;-4.694825736;-29.49962988;-2.174394367
-13.35785935;-11.89219936;-18.12837939;-18.59484232;27.97435672;1.243459929;19.98796369;-3.283256101;14.31948943;-15.90527238;16.23840476;6.50022396;-2.476348991;-5.509488979;-10.66;-14.84715502;-3.987559773;-28.38297138;-1.482860206
-12.77046075;-9.771875418;-16.2364542;-24.83065802;27.54520266;1.426147775;13.76716709;-3.543300235;11.10965393;-13.92362565;17.37046061;8.319950542;-4.382280643;-3.990658166;-7.073119568;-14.65055882;-3.318493149;-25.50369794;-2.000700797
-11.41368013;-5.912965815;-13.28590967;-28.13271723;21.21617881;1.553872852;9.051587295;-3.416378153;6.363494775;-13.16160848;17.6474737;8.768150507;-5.71384215;-3.028200147;-6.765511812;-15.37486956;-3.260513772;-19.70622492;-3.323062591
-9.668099869;-2.734236786;-9.96394812;-25.48425066;14.27476874;1.640180957;11.19334467;-2.683194387;3.033149722;-13.16725288;16.859522;8.239482833;-6.04253966;-2.920559202;-8.066768975;-16.57327907;-3.929625587;-12.36820579;-5.006707813
-8.314529867;-2.31655008;-7.097141458;-17.22494195;12.31683143;1.771638376;20.02233112;-1.191408572;3.209753274;-12.97462531;15.48889857;8.110662069;-5.274067769;-3.085234246;-8.041760937;-16.59646881;-4.855941788;-7.248698291;-6.715305159
-7.972043624;-4.85013096;-5.148721765;-6.88060151;16.53710254;1.994738715;28.70931523;0.986519773;6.739858115;-11.77878864;14.49684601;9.691488088;-3.81514425;-2.523593923;-4.962154164;-13.82239803;-5.272984719;-7.711996878;-8.210361856
-8.635975948;-8.435382525;-3.981252489;1.160232062;22.96179494;2.249162966;28.07450609;3.48932422;11.60710905;-9.253153373;14.79951674;13.28406136;-2.354532739;-0.584716161;0.342913633;-7.958677626;-4.637827248;-13.72291502;-9.309311706
-9.679400974;-10.34246978;-3.069974533;4.416149327;26.05020055;2.405476998;13.47084523;5.740641153;15.56295044;-5.537366428;16.69945306;17.977549;-1.397634405;2.527099239;5.120416404;-0.437929396;-3.01085663;-21.39453071;-9.900143435
-10.31488743;-8.831292638;-1.997846707;3.55980882;23.34868877;2.367916045;-11.00333391;7.097753944;17.55429204;-1.222430987;19.59555219;22.22526069;-0.938222752;5.851748693;6.676268533;6.373586734;-1.016988158;-25.70230321;-9.983963458
-10.14716311;-4.299697316;-0.836049469;1.408403952;17.19861463;2.149001312;-34.46572946;7.003579667;17.87940826;2.561229569;22.16871366;24.73044381;-0.555372242;8.280403719;4.206341587;10.55138538;0.582120881;-24.20721999;-9.659036098
-9.38385014;0.970370014;-0.099369987;0.639199839;12.28027339;1.855715278;-46.22511456;5.140336265;17.24435668;4.26274653;22.98798359;25.05889838;0.141465977;9.221704986;-0.739481646;11.58919203;1.387585677;-18.71822501;-9.024805104
-8.563504958;4.257843458;-0.304157749;2.045217363;11.40824949;1.609363912;-42.68809244;1.617455188;15.82391489;2.583136818;21.24672187;23.69172016;1.111335532;8.878663602;-5.310191245;10.37036229;1.572182887;-13.56056849;-8.093212445
-8.062329926;4.081946743;-1.484064812;4.506287831;13.29444188;1.47473044;-29.12059007;-2.85173536;13.25900555;-2.477723694;17.25685064;21.6355771;1.89403165;8.005679683;-7.079790022;8.313133891;1.666412112;-11.96983631;-6.815882472
-7.813407506;1.056910165;-3.072271792;6.362792729;14.00377326;1.453498927;-15.1694829;-6.953250588;9.502528307;-8.994734823;12.44186549;19.91843448;2.048860015;7.384615466;-5.323110127;6.425957403;2.111704578;-13.64062681;-5.227888855
-7.469870914;-2.581833929;-4.282909942;6.816479681;10.5086144;1.528976043;-7.824885578;-9.129428489;5.561847673;-13.71019946;8.805277537;19.23342232;1.644997628;7.404552822;-1.184066523;4.941582546;2.933432393;-15.3805666;-3.571562808
-6.842236779;-4.44677765;-4.722871599;6.181228411;3.090134674;1.702547757;-7.247194739;-8.259446921;3.276361094;-13.8163353;8.089384525;19.79757246;1.351169098;7.978751121;3.166412519;3.637908435;3.769875441;-14.1480573;-2.244530836
-6.190019531;-3.523182194;-4.752428051;4.990376505;-5.338337274;1.980226167;-8.283462098;-4.331531952;4.188534504;-8.834234613;10.98198408;21.36144299;1.988810227;8.746443503;5.760078125;2.402631651;4.200750349;-9.789179096;-1.559926657
-6.071545584;-0.787951112;-5.271988243;3.036242964;-12.00557987;2.327780779;-5.814453757;1.363337418;8.431531729;-1.153485107;16.73096485;23.31069541;3.867238407;9.326867906;5.756994942;1.490185667;4.087528522;-5.153407133;-1.496739725
-6.852136527;1.468983963;-7.043304568;-0.573064806;-16.40808045;2.651929543;0.797474726;6.771428228;14.56746226;5.367038012;23.38394403;24.85965738;6.428655135;9.435905555;3.660509078;1.277166871;3.646649096;-3.564350561;-1.67257378
-8.296798178;1.189655527;-10.03514035;-6.280485362;-19.93029402;2.841927921;7.697663211;10.12066847;20.48442504;7.870058594;28.60945867;25.33344445;8.509923069;8.859157215;0.816729366;1.79082547;3.207724502;-5.861787208;-1.613062121
-9.634348651;-2.04232426;-13.3104968;-12.92510579;-23.65585734;2.842832283;10.47600992;10.83119082;24.57921984;6.259084627;30.75785738;24.44912458;9.049482138;7.413344562;-1.478573625;2.464813426;2.869205264;-9.553747977;-1.137016647
-10.09423958;-6.670078125;-15.59602191;-17.7969502;-26.80411987;2.692623086;8.250741355;9.671123572;26.30914;2.92300051;29.63022559;22.43248452;7.719908674;5.004110738;-2.777214942;2.355939792;2.345931166;-10.81712052;-0.544854976
-9.503745951;-10.16305563;-16.15782603;-18.17325574;-27.52216406;2.482823493;4.276809564;8.032898871;25.86540529;0.656554385;26.49846589;19.85427088;5.030829132;1.749291903;-3.736799679;0.666454484;1.147784966;-7.705380393;-0.424128939
-8.450128227;-10.70347858;-15.3433479;-13.31381877;-25.32610246;2.273856226;2.771168284;6.844593215;23.52560515;0.425956506;23.29924274;17.24422258;1.86596231;-1.966666311;-5.663162791;-2.803801876;-1.034290975;-1.921642776;-1.187975569
-7.845779804;-8.415027551;-14.35861125;-5.375087591;-22.6680723;2.043752162;5.040547794;5.921571269;19.42347784;0.74243334;21.43559592;14.7224482;-1.151516174;-5.602170124;-9.56714251;-7.551667575;-4.021621831;2.327224093;-2.696085103
-8.218192602;-5.267011791;-14.40239923;1.5720659;-23.69849155;1.722661671;8.471906863;4.24890854;13.90958388;-0.903702065;20.92921782;11.92204774;-3.971827096;-8.680373497;-15.30156382;-12.60272454;-7.148894414;1.536329096;-4.268950037
-9.280058594;-3.696873562;-15.76807714;3.837933492;-30.85209494;1.285447333;9.198556676;0.974459523;7.972164376;-5.766190903;20.50257436;8.306518219;-6.910977503;-10.95981833;-21.36409344;-16.86409007;-9.575504736;-4.338098188;-5.108999775
-10.11944556;-4.909860593;-17.57135302;0.185690689;-42.10282961;0.814266892;5.866322099;-3.673024536;3.068401975;-12.6004706;18.56822092;3.707092829;-10.15570794;-12.42478841;-25.57314172;-19.39600552;-10.6930858;-11.73949697;-4.819375439
-9.858320025;-8.062264882;-18.31377302;-7.641579231;-51.51441024;0.462752617;0.978809748;-8.292494266;0.312204799;-18.45152811;14.45042107;-1.289208051;-13.42809918;-13.12429231;-26.25209596;-19.5641024;-10.36624037;-16.13576113;-3.626802578
-8.263597107;-10.90091671;-16.87561449;-16.11003906;-53.09361522;0.341102193;-1.395583794;-11.16902742;-0.318147894;-20.79741754;8.955434028;-5.426535774;-16.09373558;-13.02756931;-23.18456177;-17.15473397;-8.884173735;-15.40953258;-2.145041671
-5.851122247;-11.36640329;-13.21828487;-21.83778554;-45.11907565;0.419458026;0.617080219;-11.46088238;0.012645006;-19.30761669;3.853429919;-7.384424779;-17.61154846;-12.05114082;-17.72389183;-12.50021655;-6.711296855;-11.40417721;-0.878989279
-3.446520097;-8.972187572;-8.312140254;-23.04379663;-31.52504966;0.541203095;4.989462249;-9.81882094;-0.123525528;-15.86905744;0.648386538;-6.583617007;-17.94167427;-10.24829006;-11.99931469;-6.533823101;-4.245054435;-8.403480584;0.126419909
-1.598384945;-4.983747393;-3.410546726;-19.88040753;-19.15429174;0.547126956;7.731344281;-7.95941557;-1.370172411;-13.00101004;-0.4245315;-3.683467559;-17.57367286;-7.978259176;-7.765901848;-0.637075004;-1.742167754;-9.668481005;1.210142427
-0.326131856;-1.373881756;0.712207621;-13.89567329;-12.94966209;0.412844955;6.657164075;-7.50305526;-3.269311445;-12.05696592;-0.393339705;-0.387841551;-17.15672384;-5.852518317;-5.654914293;3.756383488;0.584607927;-14.68841893;2.659950318
0.630627199;0.537438762;3.952128207;-7.258462811;-12.75907474;0.283735677;3.440128422;-8.930944407;-4.907196617;-12.64746949;-0.552477631;1.415268359;-17.03342289;-4.427256395;-5.247549831;5.648601171;2.435227355;-19.3377995;4.283553983
1.332158893;0.68533071;6.401202682;-2.12707058;-14.09340688;0.373737319;1.992399549;-11.39471975;-5.847782069;-13.55884828;-1.308714965;0.705590229;-17.04201188;-3.843076502;-5.782412853;4.799492387;3.406704702;-18.95812429;5.355801936
1.386967512;-0.249776786;7.707229262;-0.112486024;-12.03919967;0.807547306;4.66566338;-13.43910909;-6.408356827;-14.14708336;-1.857080125;-2.08581196;-16.72206754;-3.704834638;-6.880794941;1.707177595;3.134897659;-12.09690115;5.020171831
0.175596116;-1.837926808;6.940782499;-1.717216744;-5.148351871;1.531925289;9.882457449;-14.01791313;-6.993665937;-14.87541129;-0.995177181;-5.374393002;-15.73596737;-3.346755082;-8.737685333;-2.716298573;1.499837004;-1.994981659;2.866057562
-2.622209443;-4.362156464;3.224073778;-5.964698666;3.649830416;2.360883355;13.55263827;-13.02960154;-7.195089664;-16.5547069;1.598759762;-7.453453623;-14.16417048;-2.335396028;-11.69707373;-7.556190714;-1.255217034;5.492500306;-0.739098462
-6.635313838;-8.269209492;-3.311297058;-10.69182158;9.570537436;3.105923792;13.07474553;-11.06231239;-5.709343915;-19.09480632;4.757937467;-7.597063674;-12.45711837;-0.852453221;-15.62379063;-12.1602872;-4.580048828;6.131447476;-4.805302963
-10.87603993;-13.13346997;-11.05487324;-13.68464894;9.721941281;3.676552228;10.14511478;-8.707521658;-1.422951945;-21.05295236;6.521393002;-6.483809195;-11.11294395;0.348444987;-19.62805732;-16.16796721;-7.815623727;0.503730723;-8.250133776
-14.23642655;-17.22163758;-17.4747622;-14.09603161;5.130604191;4.074390268;9.496400626;-6.115058508;5.165374385;-20.55364547;5.662626783;-5.636371892;-10.36102594;0.418882966;-22.40978637;-19.38617291;-10.41210025;-6.399659676;-10.43177908
-16.03504899;-18.31438838;-20.46907208;-13.07491614;-0.318128828;4.308149321;14.41148644;-3.175903508;11.54655836;-16.89499903;2.796772305;-6.271354174;-10.1045384;-0.993838042;-23.00934805;-21.66807248;-12.05106251;-9.025710912;-11.338857
-16.2348935;-15.32841652;-19.60814767;-12.89982185;-2.91659613;4.329143236;23.06366368;-0.103491358;14.48101997;-11.47003906;0.049695253;-8.400918508;-10.1455128;-3.468522073;-21.43944157;-22.89157661;-12.63836902;-5.619812373;-11.36354279
-15.24544551;-9.441160356;-16.35166467;-15.04965819;-1.676689294;4.060898085;29.35206854;2.214556137;12.17791597;-7.128722806;-0.579704037;-10.86133413;-10.47638366;-6.057642831;-18.73903538;-23.02088009;-12.22088364;0.388838505;-10.88463222
-13.54961016;-3.640712137;-13.03018724;-18.67072464;1.432628523;3.49723159;28.00771039;2.548771569;5.686279881;-6.367352524;1.108739952;-12.24934993;-11.36478262;-7.892393995;-16.37;-22.16584558;-10.90702365;3.205765888;-9.991385064
-11.48185335;-0.819844343;-11.29091142;-20.83166384;3.421664036;2.766087046;19.68190629;0.19169884;-1.697389086;-9.692403319;3.232189463;-12.0365176;-13.12695102;-8.710924944;-15.30771051;-20.57194117;-8.832981547;-0.483650531;-8.528986141
-9.279756901;-1.758732195;-11.11824873;-18.65101792;2.671083023;2.078213002;11.24263452;-4.321363296;-6.633376692;-15.36697914;3.292477036;-10.9688628;-15.746743;-8.930815529;-15.3876846;-18.54066095;-6.161904404;-8.60625863;-6.379085349
-7.245948174;-4.552333499;-11.11358906;-11.7904074;-0.034546768;1.5857145;10.35460168;-9.284601039;-7.851389934;-20.66201237;0.30021785;-10.40852663;-18.64807241;-9.228037277;-15.34136319;-16.33273206;-3.084551274;-15.24721352;-3.716030725
-5.759713679;-5.988246202;-9.766492847;-3.280927515;-2.388242089;1.269197275;18.49459407;-12.75277689;-6.541918883;-23.61107689;-4.192173452;-11.13067608;-20.84748856;-9.955601797;-13.55924213;-14.11075396;0.185766603;-15.50357622;-1.021715704
-5.052577966;-3.871642501;-6.705034008;2.218532901;-2.443149711;0.962285243;28.41716184;-13.71165018;-4.852271635;-23.99989448;-7.122850717;-12.56881428;-21.45014179;-10.85223034;-9.176987521;-11.94616494;3.404154739;-9.617723643;1.153357376
-4.938120105;1.454915479;-2.958707701;1.622304169;-0.001092962;0.508219959;28.83514905;-12.63942495;-3.908290948;-23.03865597;-6.336486321;-13.1859267;-20.19220911;-11.2628936;-2.838601027;-9.876971913;6.263956816;-2.808809115;2.497947398
-4.793825382;7.511805273;-0.068661561;-4.311283504;3.411681474;-0.078424223;13.16791415;-11.04024827;-3.123167218;-22.19732693;-2.487781333;-11.75058348;-17.66609308;-10.69366073;3.38510036;-7.975942515;8.385859967;-0.821298583;3.090048828
-3.911382658;11.60163943;1.197360909;-11.45232241;5.777211954;-0.590255057;-14.46537668;-10.29467878;-1.332320908;-22.18767059;1.190169595;-8.52502495;-15.05126109;-9.26211864;6.978309196;-6.38032448;9.393399016;-4.997501132;3.292653427
-2.005173916;12.68511693;1.459856016;-15.24538544;6.027153413;-0.78093456;-41.03800073;-10.67824189;1.41197534;-22.74565293;1.23999499;-5.371674597;-13.49593165;-7.685395889;6.350058594;-5.250864309;9.09490997;-11.28953223;3.488689242
0.515270552;11.78160225;2.162013384;-13.90222243;4.696557375;-0.57875325;-53.21998658;-11.25766873;3.205363887;-23.11969478;-3.291558993;-4.597140364;-13.53279152;-6.807762071;1.767750102;-4.674797939;7.684208825;-14.26816664;3.851995607
2.763491127;10.74227067;4.288185078;-9.390160377;3.44128316;-0.182146875;-46.41709699;-10.70247047;1.611150751;-22.68947847;-9.917973208;-7.352012589;-14.89325615;-7.026491928;-4.769945126;-4.585185667;5.792200777;-12.59920149;4.301342695
3.967450114;10.57702631;7.435654902;-5.511185889;3.836418421;0.055049629;-27.47179297;-8.370712706;-4.093850779;-21.25649605;-14.42585533;-12.78619327;-16.81144826;-8.048042303;-10.69201641;-4.787403775;4.265818464;-10.75892407;4.635735681
4.008238619;10.78871049;10.04302596;-4.697508844;6.281050277;-0.127185399;-9.201519658;-4.855065245;-11.76720923;-19.00437942;-14.02661889;-18.59935418;-18.56821688;-9.141580225;-14.31622432;-5.11958127;3.728662124;-14.8288771;4.721867745
3.494399571;10.19023478;10.63940596;-6.16446448;9.709005488;-0.700244169;-1.22375312;-1.615653619;-17.56947174;-16.40934456;-9.545072868;-22.56121904;-19.86570033;-9.66852235;-15.64104411;-5.649188334;4.175255241;-25.72635368;4.589660155
3.299802029;8.33624358;9.117156092;-6.914540655;12.27964845;-1.358749353;-4.090850016;-0.017194766;-18.71507037;-14.24422435;-4.909523548;-23.85766731;-20.77231815;-9.467323038;-15.94652366;-6.723116779;4.900976402;-36.32150265;4.385332525
3.898595977;6.172555022;6.955885694;-4.708038819;12.61247005;-1.732935555;-10.73011806;-0.497953554;-15.61579452;-13.50093214;-4.261105221;-23.31391123;-21.33521086;-8.818300406;-16.5458875;-8.750039063;4.889826128;-36.30920951;4.24819932
4.986659679;5.246102674;6.128432311;-0.464397845;10.77774579;-1.642351601;-13.24393817;-2.441424452;-11.59593456;-14.98764511;-8.851892872;-22.4714988;-21.24799225;-8.07545066;-17.67326687;-11.80246677;3.466125495;-21.98646528;4.224259686
5.66514053;6.158942433;7.48466611;1.998187025;8.38304842;-1.205004734;-9.180697661;-4.758704486;-10.30980914;-18.68658946;-16.09310071;-22.37508535;-19.94003906;-7.324012509;-18.39223549;-15.33243683;0.790539007;-2.788729506;4.27817826
5.045875559;7.694368455;9.8872617;-1.202369816;7.659568509;-0.732180126;-2.454775604;-6.673126375;-12.9060368;-23.36803415;-21.47769954;-23.04428758;-17.10418403;-6.374975181;-17.59367895;-18.29979824;-2.161586604;2.369366475;4.368341877
2.838825558;7.514590543;10.85628697;-10.81526777;10.11434347;-0.500718342;1.079929173;-8.109342846;-17.22612965;-26.96641179;-21.90219709;-23.91271876;-13.25921593;-5.084957768;-15.23640952;-19.74153322;-4.166165689;-21.75495469;4.493598397
-0.483419434;3.970670429;8.335695391;-23.44470944;15.61448495;-0.57447424;-0.945199461;-9.454074533;-19.66177767;-27.69491551;-17.85748928;-24.6478714;-9.805004478;-3.676126762;-12.72017129;-19.43557015;-4.50054267;-73.17614434;4.652905944
-4.023095778;-2.441684677;2.300136818;-33.55733832;22.46084514;-0.791635685;-5.668141864;-10.95972043;-18.10865897;-25.2050182;-12.85598583;-25.48645734;-8.337319925;-2.709561115;-11.93904262;-18.14235107;-3.370209546;-129.7746223;4.751302486
-7.016968267;-9.212518574;-5.019552299;-37.0003067;28.30130917;-0.901173868;-7.999382196;-12.31446664;-13.57943179;-20.90404517;-10.5954721;-26.75464043;-9.564947594;-2.670627208;-13.66614234;-17.14546788;-1.723308926;-161.1336123;4.555380962
-9.211630838;-13.47380175;-10.51856537;-33.4316803;31.18294851;-0.730766568;-5.272789093;-12.73652907;-9.200805454;-17.08961932;-12.06914469;-28.08470253;-12.57973546;-3.498952567;-16.57867165;-17.33864595;-0.599950894;-148.0448356;3.781520975
-10.82537708;-13.87292521;-12.24487296;-26.03549189;30.09745841;-0.270820111;0.68847373;-11.52468811;-7.52276901;-15.46203899;-14.81855895;-28.20460762;-15.11061136;-4.501280063;-17.85526315;-18.52080369;-0.491161028;-95.93565238;2.295484638
-12.19199885;-11.21542013;-10.62258094;-19.0365189;24.95719148;0.35588778;5.682540011;-8.647436846;-8.4488908;-16.09352573;-14.85039096;-25.70432874;-14.75900348;-4.800310036;-15.08908651;-19.48871626;-1.152001723;-32.03248386;0.29139544
-13.40174788;-7.498454601;-8.012276658;-15.07127327;16.46845555;0.983864755;7.17115264;-4.927703212;-9.510511875;-17.60333452;-9.724848152;-20.26924669;-10.49;-4.013143915;-8.17049276;-18.94308977;-1.951248538;12.2758079;-1.704373017
-14.21927588;-4.291863498;-6.965984899;-14.25341551;6.287864645;1.47896049;6.433546599;-1.672306487;-8.18583672;-18.34895818;-0.502062772;-13.33380203;-3.385175451;-2.609723677;0.306971664;-16.56279107;-2.433033866;21.42874542;-3.059307665
-14.31836212;-1.869136661;-8.466260527;-15.16031452;-2.794977473;1.765894743;6.963241315;0.02347106;-4.237581613;-17.65980887;8.839895129;-7.46723999;3.905166762;-1.610053711;6.532503317;-13.39731999;-2.633974752;3.848613418;-3.383920202
-13.62389516;0.305088238;-11.39934826;-16.43702549;-7.408482966;1.829811969;10.79028546;-0.139403386;-0.057240859;-16.15621196;14.01053775;-4.805492345;8.703264689;-1.801471293;7.869008458;-11.20060102;-2.936260052;-16.95809827;-2.788831453
-12.47667437;2.409938949;-13.55813888;-17.52330105;-5.290297642;1.720997336;16.28992122;-1.53689678;1.287386857;-14.98756745;13.12786866;-5.659046035;9.844833623;-3.073976049;4.470525017;-11.15297134;-3.635196676;-20.8205661;-1.867781896
-11.4776176;3.702999378;-13.3420449;-18.14751499;2.627858998;1.559517433;19.58848382;-3.004463438;-1.331710148;-14.71439184;7.71312826;-8.352760051;8.219855085;-4.421190458;-0.986369929;-12.94121377;-4.623847477;-4.692188038;-1.389210998
-11.10893621;3.200821327;-10.86382096;-17.52548837;11.45305991;1.508718099;18.28809752;-3.4817682;-6.00129539;-14.80597578;1.471942826;-10.42251859;6.009703834;-4.646718949;-5.177901779;-14.9354785;-5.466792814;17.89037925;-1.868202247
-11.39415062;0.9759964;-7.697320105;-14.43394207;14.23276256;1.701447072;14.02101213;-2.54777523;-9.095144717;-14.14863758;-2.086781327;-10.25806547;5.20810241;-3.246562003;-6.193200115;-15.36027606;-5.774325916;29.74662142;-3.273694351
-11.83657055;-1.281625687;-5.563960836;-8.333839109;6.04019422;2.150884051;11.33424382;-0.572830632;-7.966531666;-12.08044087;-1.529798542;-7.982469432;6.455784112;-0.776879877;-4.328742586;-13.56412868;-5.518510455;24.10285668;-5.043170781
-11.69137717;-1.238300708;-5.031258523;-0.49641014;-12.28882211;2.710440821;13.72264454;1.548771548;-2.880323442;-9.042683252;2.177884954;-5.019307366;8.911834604;1.586592657;-1.229108454;-10.40123131;-4.992059678;8.636376586;-6.384416536
-10.4093376;2.177233346;-5.214192592;6.155033304;-33.73418138;3.125752859;20.30104394;2.894877854;3.262094174;-6.303661766;6.754058221;-2.846915894;11.0931942;2.944574894;1.733897433;-7.445809556;-4.446819092;-2.629082586;-6.673105427
-7.981954468;7.538466269;-4.639495898;8.735486109;-48.97049354;3.157695925;26.20917452;2.953083316;7.070133158;-5.014983403;10.07999149;-2.006475631;11.94983361;3.303906175;4.460981972;-5.70271461;-3.759534688;-1.725905271;-5.718155802
-4.981592682;11.59816275;-2.528491289;6.454692041;-52.31575345;2.701881123;26.64941966;1.783450645;6.946239673;-5.398833056;11.10070942;-2.088515717;11.38583989;3.439261956;7.758474134;-4.881597926;-2.472401765;7.227294133;-3.777119442
-2.278157528;11.59031665;0.528255491;1.37654096;-45.55813416;1.833473669;21.2124097;-0.130097961;3.820125019;-6.69886504;9.840540633;-2.522389628;9.971375811;4.122398966;12.05264661;-3.82479747;-0.229620527;12.84685004;-1.371286396
-0.60543733;7.431236318;3.008264991;-2.850677609;-36.60348792;0.762661537;14.68850114;-2.199383212;-0.003001889;-7.849544444;6.903363566;-3.332993398;8.248471968;5.383459799;16.39484796;-1.70969694;2.74217934;7.160742563;0.946194183
-0.229237767;2.008084532;3.626361274;-3.41496862;-33.60631569;-0.254337456;13.37358873;-4.010870076;-2.756757319;-8.244940008;3.00629708;-5.151023062;6.287922567;6.444406996;18.70113014;1.008237597;5.546889809;-7.464682386;2.736593787
-0.894037519;-0.823412151;2.308880471;-0.108033578;-38.81379107;-0.990441324;19.65286114;-5.419003179;-4.339966195;-7.996108218;-1.198862619;-8.503855692;3.842394733;6.397266791;17.13047777;2.734106527;7.063947189;-20.8933268;3.709674739
-2.048857279;0.920543259;0.237671329;4.821598863;-46.85085615;-1.286718662;29.24286536;-6.457678787;-5.924078521;-7.588700127;-5.131622523;-13.08323145;0.871434178;5.057950153;11.55456367;1.872536414;6.621633468;-24.46951561;3.711942765
-3.189077485;5.85181518;-1.029036082;8.45405057;-48.94442879;-1.075018737;33.53391557;-7.195214245;-8.583771716;-7.375715723;-8.324942155;-17.69475506;-2.112758338;3.252013647;3.964652126;-1.951801896;4.386319465;-18.47577252;2.742042355
-4.099116382;10.22392271;-0.65810804;9.125108768;-39.97448709;-0.407056789;25.53380312;-7.667845568;-12.17080191;-7.396106738;-10.52950667;-20.96738987;-4.247926027;2.242459605;-2.544789391;-7.577385414;1.170937528;-11.31384003;0.99545939
-4.866220596;10.68391552;0.955681964;7.083249374;-22.88787871;0.524117823;5.098967043;-7.926452762;-15.29278251;-7.596827553;-11.72663634;-22.22553282;-4.930508272;2.727021465;-5.527329812;-13.12182238;-2.164676618;-11.49515274;-1.130065918
-5.6945413;6.659402441;2.601547281;3.685471885;-6.922311319;1.416020776;-20.3709689;-8.110206349;-16.29527865;-8.092662692;-11.9534055;-21.80507906;-4.303628709;4.218337866;-4.48189476;-17.22670525;-5.220710011;-19.84337678;-3.133483221
-6.673399012;0.620636701;3.194569918;0.157399428;-0.89148091;1.968400284;-40.26407066;-8.425847036;-14.41035521;-9.070456545;-11.07918371;-20.60926123;-3.176102774;5.342866382;-0.888072295;-19.70966087;-8.066954139;-28.88083553;-4.596560147
-7.665314533;-3.844908297;2.512107153;-2.903814907;-6.701953345;2.034326335;-47.03455958;-8.997326375;-10.24231387;-10.35842755;-8.808194822;-19.35900561;-2.399500353;4.865565796;2.917382165;-21.15939898;-10.79445932;-29.78577034;-5.350303935
-8.379761719;-4.551263536;1.221667759;-5.054559697;-18.13733561;1.713628582;-40.1868521;-9.686471416;-5.362644181;-11.12037838;-5.019534643;-18.19931461;-2.195388247;2.655692181;5.179799211;-21.94818799;-13.06111117;-20.54528942;-5.502516088
-8.564509529;-1.920597059;0.279106973;-5.402557932;-25.80471004;1.306288265;-25.61906432;-10.049067;-1.415170707;-10.13716811;-0.203988088;-16.92066681;-1.983062033;-0.162488786;5.56234739;-21.63563963;-14.10281206;-7.965382308;-5.297136523
-8.172071047;1.836080042;0.228235031;-2.85889481;-24.28949666;1.134338777;-11.30036301;-9.513192095;0.663130618;-6.644361578;4.444814329;-15.45199145;-0.857890043;-2.000536712;4.995535911;-19.36204449;-13.27932463;-1.765844336;-4.903991173
-7.38902802;4.64511666;0.925468732;2.719693428;-15.90169848;1.342563454;-2.516450331;-7.697628021;0.936354499;-1.127388081;7.530845834;-14.05754202;1.655219208;-1.937808568;4.834540984;-14.90723386;-10.73410859;-6.049072288;-4.300300604
-6.519250721;5.953194626;1.808316849;9.570422721;-8.230153413;1.815518787;0.305089442;-4.662989447;0.27643282;4.632352607;8.305102628;-13.02498167;5.166110179;-0.346088159;5.958442786;-9.433477107;-7.591940079;-15.73040435;-3.343257588
-5.809791693;6.591449183;2.390662683;14.45530581;-7.707542126;2.270116374;0.35981991;-0.916871868;-0.110656533;8.457389567;7.247046203;-12.20451401;8.631267425;1.428901273;8.311566171;-5.130177132;-5.445813188;-21.09371935;-1.983854075
-5.335134045;7.531221251;2.549507878;14.59071848;-14.46642277;2.454543562;1.331905087;2.835084008;0.778311511;9.073473931;5.862473541;-10.97117577;11.02523715;2.038777788;11.00200369;-3.888823393;-5.440485657;-16.46512762;-0.447821568
-5.002969191;8.812868484;2.420130539;9.753176699;-22.50326786;2.306246914;4.77161189;6.018416322;3.309261374;6.896610784;5.738700781;-8.796469343;11.93735199;1.006074109;12.76173162;-5.992005272;-7.593290349;-5.399746671;0.787803057
-4.658697938;9.598097254;2.08426645;2.799039357;-24.72681376;1.957322333;9.544074109;8.376951389;7.023244157;3.730124828;7.486923331;-5.976780801;11.65573407;-1.106857006;12.49392648;-9.864134989;-10.83094218;2.153273265;1.253134292
-4.206912252;9.163036244;1.395574171;-2.081371515;-18.57253032;1.597025775;13.22843146;9.918055549;10.80262782;1.578994796;10.33433473;-3.796593105;10.7381448;-3.25310268;9.713118015;-13.12801452;-13.69378903;-1.728520413;0.825454872
-3.668844436;7.780828989;0.122095032;-2.248493646;-7.664656039;1.31074661;14.11155573;10.70863645;13.35714351;1.412909479;12.66609795;-3.817544982;9.474602688;-4.665596201;4.768524733;-14.19293134;-15.18641364;-16.14197631;-0.093849711
-3.145066822;6.60095488;-1.732237402;1.513810189;1.509338238;1.025633703;12.32376507;10.71979425;13.7941151;2.701874026;13.10733093;-6.76080741;7.693045807;-5.244199182;-1.227419787;-13.19790155;-15.1974468;-31.89762815;-0.729921988
-2.715764758;6.620276681;-3.74447988;5.604898142;4.830039063;0.599725118;9.511167909;9.854980481;11.94819968;3.949922795;11.34046359;-11.89373959;5.03294291;-5.370382211;-6.795643202;-11.66317766;-14.28584261;-38.79597964;-0.3663273
-2.350134494;7.721135969;-5.232245217;6.256715996;3.286240139;-0.027140301;7.500387138;8.124823997;8.295912677;3.753506797;8.089147746;-17.49384866;1.406523375;-5.435469661;-10.70580959;-11.21236468;-13.10982205;-33.43327353;1.191561582
-1.893038627;8.714113439;-5.661469641;2.200178351;1.244920041;-0.749699055;7.00049054;5.797809287;3.578935139;1.630112678;4.370209777;-22.07813527;-2.775286029;-5.535647502;-12.52922546;-12.3929995;-11.97835889;-21.17107701;3.424280479
-1.153166653;8.407041835;-4.987476492;-4.648029978;2.17335946;-1.351242459;7.237190905;3.368111129;-1.550039063;-1.857768197;0.671895599;-25.40560551;-6.812054991;-5.54602025;-12.79415875;-14.44157867;-10.81132572;-11.08844957;5.332459263
-0.0527541;6.764144571;-3.660960741;-10.85922107;5.72949463;-1.652815325;6.713915443;1.323816176;-6.642476076;-5.612297468;-3.285561693;-28.40650744;-10.17745853;-5.401112054;-12.59127248;-16.02235864;-9.414739248;-8.603806025;5.989067733
1.252055133;5.091171441;-2.300210075;-14.05056771;8.630721856;-1.641026626;4.505422872;-0.147781883;-11.39779585;-8.697029782;-8.086353283;-32.08760155;-12.84697014;-5.240904279;-12.82502608;-16.22743609;-7.748948225;-11.99885858;5.087975422
2.373214041;5.011029568;-1.293930723;-14.27296561;8.199682572;-1.478129199;1.102879696;-1.331448326;-15.672523;-10.78619688;-13.9311477;-36.36215758;-15.22760424;-5.261066868;-13.57911567;-15.04442469;-5.956561198;-15.26188983;3.147699417
2.845826364;7.055273354;-0.63959382;-13.29694679;5.138763281;-1.390422732;-1.88121206;-2.921265497;-19.64746241;-12.20846121;-20.35636594;-39.86543918;-17.76777345;-5.435015687;-14.03220389;-13.062786;-4.195039981;-14.10769248;1.228034266
2.366534204;10.06074765;-0.116397755;-12.67482084;2.930214974;-1.519202406;-3.006183699;-5.742285541;-23.92978602;-13.68684025;-26.58231832;-41.00066607;-20.57978938;-5.426463593;-13.00823545;-10.84937762;-2.505660596;-9.617779918;0.317545439
0.972510155;11.91017875;0.382492348;-12.40219017;4.440740199;-1.83720003;-2.318273844;-10.36868701;-29.25341896;-15.95433215;-32.11466576;-39.3808043;-23.36782956;-4.836260006;-9.808068541;-8.607009573;-0.879138199;-6.535960307;0.763143245
-0.963075624;11.05214983;0.65362125;-11.32075791;8.918021269;-2.177852574;-1.537059797;-16.77819921;-35.75587128;-19.3758985;-36.98078086;-36.41383606;-25.67291311;-3.591888764;-4.763956659;-6.340802753;0.559933004;-8.240308671;2.097870466
-2.926257072;7.617680376;0.297183625;-8.756128461;12.2528411;-2.345568183;-2.726039238;-24.1717996;-42.33500228;-23.67730808;-41.32638337;-34.42015292;-27.17945311;-2.113846638;0.85742846;-4.218293989;1.483328964;-13.25444898;3.379719825
-4.514333035;3.316669748;-0.936736636;-5.74495727;10.43285297;-2.231252205;-6.31667455;-31.06414676;-46.79300968;-27.91042523;-44.73580084;-34.87621839;-27.80558745;-1.058774932;5.533519241;-2.641613995;1.546789994;-16.48341287;3.830928354
-5.558419222;0.297003888;-2.829151053;-4.573339781;3.179524729;-1.869802647;-10.13041278;-35.69307797;-47.00734307;-30.76572954;-45.99232382;-37.15421508;-27.52864728;-0.811103028;8.291606331;-1.890407545;0.718649991;-13.91647426;3.370248002
-6.026101238;-0.082436195;-4.640901466;-6.88485567;-5.519118173;-1.421449944;-10.55324418;-36.66899778;-42.48074248;-31.17224338;-43.69986289;-38.80544801;-26.16274459;-1.142442791;9.132169062;-1.686833885;-0.545631262;-6.436473859;2.692128694
-5.800653644;2.309298655;-5.382755748;-11.96047808;-10.59909273;-1.098358394;-5.405292333;-33.6121888;-35.06397841;-28.87338155;-37.43631214;-37.24430932;-23.36389902;-1.348826632;8.854496633;-1.181894986;-1.491640711;0.691774038;2.833789959
-4.561743914;6.823333069;-4.25405954;-16.73298057;-10.16337625;-1.072683845;3.534273865;-27.42664993;-28.03717437;-24.56676084;-28.52702403;-31.58108203;-18.93154952;-0.787889638;8.481059701;0.498413948;-1.529127427;2.138564793;4.50142669
-1.936715651;12.72583564;-1.008744085;-17.68913151;-7.095693012;-1.399675993;10.57465534;-19.96780305;-23.94722953;-19.4232248;-19.65921348;-23.22293006;-13.18253194;0.60241208;8.705841647;3.550871237;-0.630561788;-3.196287904;7.584548395
2.13352444;19.43833113;3.930821857;-13.23345155;-6.561913088;-1.983814581;9.320155972;-13.18931715;-22.71782626;-14.2582792;-13.39003906;-14.81998601;-7.055924014;2.22147946;9.694959619;7.248245288;0.653027766;-11.53657479;11.16712368
7.094844765;26.22642996;9.648964641;-4.683165731;-11.45288861;-2.608324166;-2.810812233;-8.218608387;-21.57844992;-8.964909026;-10.51693874;-8.409065406;-1.782614541;3.230774841;11.25485895;10.41066159;1.586421688;-17.51818456;14.02417124
11.85032954;31.88758172;15.10776261;4.826810748;-19.64528513;-3.027975544;-21.96247634;-4.932735066;-17.10045204;-2.703210257;-9.525862127;-4.187962282;1.708104568;3.150259022;13.11468687;12.24157277;1.760147605;-18.35032734;15.28507765
15.26473325;35.04080715;19.55406385;12.57300532;-25.47339361;-3.089885798;-39.35396258;-2.332401828;-7.967572945;5.208675052;-7.639755434;-0.799858069;3.245386795;2.162971368;15.04730001;12.84091965;1.335632227;-15.34685516;14.85322316
16.82062561;35.01480048;22.79808992;17.81206546;-24.26196286;-2.817632436;-46.34185777;0.522169053;3.618531623;14.34626626;-2.819704862;3.20716902;3.413858101;0.913496576;16.76838921;12.97081129;0.863647838;-11.94216628;13.35
16.96544236;32.63443599;25.243258;21.56164294;-16.1798003;-2.400797587;-39.77734467;3.670879594;13.10091234;22.95285926;4.688035986;7.977713049;3.097649682;-0.002512949;17.80290036;13.29399381;0.849952042;-10.41252352;11.66999761
16.85242712;30.10010393;27.63631541;25.02278461;-6.229649475;-2.08458335;-23.96059699;6.133939442;16.58039428;28.73343323;12.40118224;12.12707258;2.907516317;-0.429782699;17.56701164;13.76857236;1.418451777;-10.3293213;10.46992701
17.59843488;29.80459672;30.63213018;28.17477728;-0.403935567;-2.022752736;-7.768259255;6.628412627;13.49744446;30.19781007;17.25059384;13.84089015;2.898995185;-0.628215019;15.72106275;13.74757489;2.307996302;-9.789628559;9.915134268
19.5514439;32.81900957;34.38044796;29.8065122;-1.183014121;-2.189899537;1.070875259;4.603616349;6.982537919;27.6211261;17.65799682;12.39003906;2.749643361;-0.899827129;12.56192657;12.70460151;3.149912009;-7.783427419;9.786643095
22.08330019;38.13934569;38.36373495;28.89221225;-6.007380425;-2.414044479;0.568170464;0.803205839;1.606652301;22.91400893;14.54701025;8.855938084;2.201447231;-1.225049607;9.096598507;10.93095295;3.75995894;-5.215417118;9.789522458
24.05497115;43.27681995;41.5972407;25.9756193;-9.803639963;-2.507431922;-5.150979412;-3.118148085;0.20728554;18.45520451;10.57447027;5.497841904;1.373749001;-1.2413323;6.613753439;9.535667866;4.206389121;-3.721227049;9.788228041
24.60736805;45.78165848;43.09012549;23.17516686;-9.293240992;-2.403043087;-9.652953805;-5.697558068;2.105209074;15.66645706;8.172180358;4.228995088;0.667569123;-0.593720439;5.944859834;9.657147758;4.635257177;-3.739987806;9.801542216
23.68999728;44.60727751;42.29480897;22.60643205;-5.471195235;-2.20149029;-9.151949754;-6.706702044;3.894333009;14.26400208;7.835534573;5.298687018;0.322436933;0.634883192;6.895686254;11.48045168;5.041248415;-3.998344513;9.816583736
21.94662034;40.39036816;39.273333;24.42700808;-2.34575058;-2.100557703;-4.951665659;-7.373539958;2.024461347;12.61390574;7.866075831;7.080078125;-0.013053885;1.783963867;8.28065304;13.86447277;5.196159856;-3.002233807;9.6388657
20.07738529;34.58696394;34.50234438;26.14733224;-3.235240841;-2.264826886;-1.808722166;-9.60624761;-4.835667411;8.85968739;5.676712062;7.052916109;-1.309816443;1.916429264;8.59943678;14.93165902;4.790296715;-0.954382594;8.955948804
18.20076629;28.25724776;28.49168333;23.93808262;-7.887559365;-2.729591941;-3.789471254;-14.75249537;-15.27142003;2.042288133;-0.347205264;3.282913104;-4.673918735;0.376313521;6.928260413;13.22577564;3.658024401;0.046348649;7.591020804
15.72848277;21.4671896;21.51557682;15.13116774;-12.82912585;-3.396509451;-10.9546643;-22.73196253;-26.47646053;-7.432912528;-9.748272186;-4.531683211;-10.61536004;-2.771054517;3.415539129;8.606163007;1.903322298;-2.008916507;5.729677828
11.85259304;13.68435531;13.65080037;0.175561478;-14.50637541;-4.103180596;-19.35041301;-32.07197207;-36.13974759;-18.10015358;-20.31549239;-14.98511077;-18.54260842;-6.706781957;-0.961395478;2.260337847;-0.159664596;-6.691294894;3.887217737
6.257884095;4.713876773;5.061639594;-17.31562848;-12.42494194;-4.698821422;-24.11421542;-40.72023219;-43.38316301;-28.14994682;-29.42175195;-25.74824041;-26.8392568;-10.24876496;-5.181526103;-4.111937951;-2.188257769;-10.85154402;2.574633649
-0.499140089;-4.674084071;-3.731545822;-32.43517383;-9.581126406;-5.071161332;-23.14805158;-47.01383343;-48.33332289;-36.08728376;-35.3515392;-34.64818936;-33.51692854;-12.41855838;-8.901397365;-9.30397523;-3.980817236;-11.02237496;1.878611526
-7.231115898;-12.95612483;-11.85129388;-41.49509927;-9.847555719;-5.127311973;-18.51953568;-50.19270718;-51.12525784;-41.07700687;-37.79475991;-40.44965408;-37.0759766;-12.85881418;-12.55361934;-13.0942207;-5.539156714;-6.535470502;1.286990428
-12.77856925;-18.72040023;-18.36294105;-43.61393024;-14.55336218;-4.778044018;-14.6103054;-50.2827202;-51.4407167;-42.99113885;-37.43812085;-43.03830601;-37.08290878;-11.89673446;-16.74785858;-15.97596819;-7.013818711;-0.491874456;-0.045610891
-16.57530151;-21.48438979;-22.66289423;-40.5946613;-21.13209714;-3.968370806;-14.51542664;-47.64455918;-48.93458213;-42.26912348;-35.21824743;-43.06872716;-34.16383068;-10.26472588;-21.45412716;-18.44671304;-8.574668684;2.500971623;-2.708219862
-18.71822996;-21.84176506;-24.66952972;-35.48117255;-24.9483419;-2.745161639;-17.44082828;-42.62625607;-43.91791426;-39.6417902;-31.83988435;-41.3695121;-29.48120035;-8.664185118;-25.63805861;-20.43244749;-10.25539309;0.009981669;-6.499813676
-19.56089044;-20.86827226;-24.68947746;-30.87345622;-22.80358035;-1.303847462;-19.03485975;-35.5264758;-37.41363044;-35.73686828;-27.70918309;-38.44324689;-24.06285579;-7.413857045;-27.68500956;-21.22847763;-11.82391007;-6.298948418;-10.3437795
-19.22921293;-19.27746524;-23.09079591;-27.9336366;-15.3286328;0.042710742;-14.45010895;-26.74225507;-30.39202253;-30.68932775;-23.00105451;-34.30177716;-18.4;-6.358395236;-26.34768374;-19.92357939;-12.7565586;-12.16518339;-12.77288042
-17.49;-16.96183742;-20.06113297;-26.33824431;-6.467737951;0.976935384;-2.045059686;-16.84858263;-22.9135438;-24.01806306;-17.58659514;-28.69403612;-12.51179767;-5.070324907;-21.54954353;-15.97777645;-12.39982142;-14.29551781;-12.72849146
-14.0772114;-13.22398148;-15.64541533;-24.83901885;-0.610505034;1.311915097;14.755615;-6.509464007;-14.11783222;-14.98349402;-10.91983551;-21.56961284;-6.347287683;-3.221669127;-14.48386014;-9.61203338;-10.32305221;-12.80640013;-10.19110771
-9.180822695;-7.492840735;-10.01556185;-21.95828797;0.326002627;1.069084801;28.70282124;3.652161654;-3.245423397;-3.331177473;-2.255129188;-13.46334182;-0.1823047;-0.8990945;-6.969795768;-1.851097043;-6.706281964;-10.47065913;-6.246433957
-3.659584256;-0.009664436;-3.723376457;-16.56928618;-2.256227038;0.453867029;32.4093507;13.05047767;9.151651086;10.04276627;8.642822746;-5.496532637;5.299860424;1.349182521;-0.544568501;5.755998738;-2.488090666;-9.688780155;-2.539495464
1.240672771;7.969674895;2.310494036;-8.339046804;-5.197689139;-0.250832951;22.40925721;21.00488002;20.96708997;23.05512028;20.70293114;1.082553201;9.309773473;2.797714507;4.108807333;11.62866007;0.934425604;-10.19953504;-0.445700726
4.48860465;14.58177116;7.11745292;1.987335353;-6.05760304;-0.808826886;1.343995718;26.69280762;29.65520499;33.21706301;31.43878035;5.560787038;11.41888237;3.005571638;7.127993433;14.71866361;2.386687505;-9.761950926;-0.444409889
5.769920729;18.14992002;10.11720453;12.61522179;-4.560366568;-1.110297687;-22.94033758;29.38416078;33.88934213;38.82650464;37.98155094;8.161452013;11.85;2.154885367;9.031294082;14.94956482;1.600331453;-7.096754999;-2.025154188
5.558072577;17.96201659;11.37923744;21.2017609;-2.163448363;-1.182404617;-40.98427653;28.88482537;34.39777035;39.79693703;38.81431537;9.844487309;11.36534966;1.011797733;10.29204389;13.29503284;-0.569086068;-4.058363293;-4.110208601
4.745184427;14.65656674;11.53357293;25.74722953;-0.466950688;-1.145984539;-46.20701904;25.8362754;33.25178716;37.54503974;35.00267464;11.58246881;10.80332737;0.49549846;11.18914216;11.35154841;-2.601391756;-4.586022372;-5.679158052
4.120450679;10.0206946;11.38548077;25.46947319;0.071717536;-1.150118635;-38.01148637;21.52527543;32.18661086;34.01509255;29.82396319;13.60778081;10.56342291;1.121570638;11.86770131;10.53224732;-3.198953801;-11.03178261;-6.216865152
4.033371758;6.256472865;11.46905229;21.15514714;0.188299936;-1.310693785;-21.87041174;17.21173938;31.35781294;30.53775103;26.76733996;15.20197204;10.38159729;2.695700327;12.38109809;11.31132547;-2.027938228;-21.17318267;-5.784901016
4.386885405;5.020861381;11.79234086;14.75342016;0.86687153;-1.66824219;-6.316031194;13.41121363;29.53470242;27.31035296;27.16456098;15.22415773;9.54719068;4.470285153;12.620318;13.0173011;0.180310894;-28.95855277;-4.783106416
4.858906205;6.69272145;11.89433935;8.45041776;2.392640786;-2.175645703;1.548514773;9.684874068;25.45779901;23.77007813;29.17193285;13.0092956;7.4141227;5.645759435;12.28188319;14.36679102;2.211395073;-28.84332293;-3.631692232
5.144218505;10.26127656;11.15502344;3.779791601;4.193945106;-2.72278239;-0.478586922;5.143578271;19.08270693;19.43027575;28.97773675;8.955151749;3.862948027;5.850214425;11.0757348;14.4115371;3.189603103;-20.25282937;-2.578505011
5.083192101;13.93113483;9.180596044;1.24637981;5.447948672;-3.192112246;-9.178205677;-0.687403587;11.60342568;14.4369368;23.50513044;4.332993654;-0.587423854;5.263124946;9.127750242;13.2306781;3.046880393;-8.317960854;-1.684868274
4.682476699;16.12507403;6.070874894;0.542930464;5.785604039;-3.518176548;-18.50414667;-7.307929838;4.331702608;9.421456202;12.72816023;0.456586919;-5.070428237;4.339429271;7.221257428;11.84472009;2.349585528;-0.083471265;-0.908731452
4.094613101;16.29415961;2.444671931;1.045548933;5.477360475;-3.713101141;-23.52332297;-13.43393571;-2.394956113;4.882834743;-0.059090484;-2.145973859;-8.841304825;3.40365761;6.506452336;11.39544545;1.699692017;0.730024414;-0.182183356
3.578301877;15.03590249;-0.79176874;2.174248326;5.047419849;-3.83700662;-23.13863133;-17.79750523;-9.134766488;0.748973117;-10.2113489;-3.915380639;-11.59781375;2.462262423;7.702891164;12.2041895;1.22933465;-3.928769974;0.547401099
3.400416307;13.46559789;-2.836402412;3.432245872;4.767148534;-3.931999524;-19.95803407;-19.93358509;-16.11486391;-3.423074684;-14.52626761;-5.684642013;-13.46280297;1.363827725;10.33320363;13.43243788;0.57618391;-8.795365689;1.275997207
3.665109266;12.30112114;-3.36514767;4.262333477;4.490986774;-3.971388522;-17.70913807;-20.35969566;-22.10309884;-7.77187006;-12.93338919;-7.854829658;-14.70738687;0.113741949;12.67128419;13.61590598;-0.704553018;-10.04850421;1.878451485
4.157492786;11.3323809;-2.698124069;4.003669409;3.900704367;-3.870485142;-18.2868923;-20.06533852;-24.71511065;-11.63961633;-8.072287593;-10.0361506;-15.48201296;-0.992237416;12.63786371;11.67520331;-2.693005779;-8.177928756;2.072299675
4.354418067;9.672968872;-1.654348794;2.101917556;2.847676891;-3.558934672;-20.62511888;-19.78292158;-22.24891666;-13.8219382;-3.340605018;-11.46376348;-15.78560293;-1.581788471;9.124890989;7.652198945;-5.01402782;-6.550818078;1.501143258
3.678499838;6.610577164;-1.15311676;-1.538886747;1.464025086;-3.06091682;-22.04655357;-19.64139179;-15.61341999;-13.47691881;-0.97970359;-11.81827207;-15.67381465;-1.597441424;2.799174093;2.655653122;-7.15130983;-7.314900533;-0.038176244
1.880833551;2.408943145;-1.773105314;-6.337724766;0.000369222;-2.514386023;-20.78066746;-19.41206196;-8.527680093;-10.97320979;-1.447130997;-11.70127651;-15.476286;-1.494159842;-4.253094389;-1.882403349;-8.85440046;-8.766839912;-2.341341076
-0.710041504;-1.57689843;-3.515852844;-11.15944206;-1.388066366;-2.101807674;-17.48953004;-19.00571234;-5.415466719;-7.899516237;-4.096526904;-12.27623965;-15.75684997;-1.999308956;-9.811064197;-5.042039653;-10.26430241;-6.918643457;-4.72206541
-3.288416706;-3.619699246;-5.894305579;-14.75594379;-2.693897788;-1.933994722;-14.5620139;-18.66959276;-8.357651393;-6.082958753;-8.154544115;-14.28906977;-16.95399687;-3.558363556;-12.76898273;-6.7504535;-11.65633599;0.056730748;-6.253476009
-4.996958847;-2.704039431;-8.253617778;-16.28959059;-3.955917787;-1.970777;-13.84964926;-18.65217719;-15.44118743;-6.285236321;-12.99699657;-17.24834284;-18.92806703;-5.887355657;-13.41739506;-7.479911891;-13.04843833;8.789631578;-6.245808978
-5.399446751;0.78209749;-10.08451127;-15.65392885;-5.174892263;-2.040905322;-14.83942892;-18.65920532;-21.9213861;-7.577559273;-17.65642231;-19.48314883;-20.78088559;-8.014969882;-12.62908279;-7.666842331;-14.03502471;12.40639103;-4.672891259
