Channel 1 - P4;Channel 2 - O2;Channel 3 - P8;Channel 4 - T8;Channel 5 - C4;Channel 6 - Cz;Channel 7 - Fz;Channel 8 - F4;Channel 9 - Fp2;Channel 10 - F8;Channel 11 - Fp1;Channel 12 - F7;Channel 13 - F3;Channel 14 - C3;Channel 15 - T7;Channel 16 - P7;Channel 17 - P3;Channel 18 - O1;Channel 19 - Pz
14.21433316;6.199494321;-11.15045802;17.3631741;-130.1973221;16.88586833;-77.81211916;-24.68844526;-14.52602024;-22.55937508;-15.11134432;-18.75683219;-32.3051107;17.95328875;-11.29214794;-27.0485071;7.40843788;-194.4616707;16.3497435
5.081111616;6.654575863;-30.23423457;12.71607449;-133.1231629;13.57707065;-106.9321438;-32.23394656;-16.91756536;-30.3731683;-16.71417212;-30.87909161;-40.58460105;9.721698134;-19.11073954;-35.60025382;2.517911935;-171.3364032;11.43400179
-4.351250194;2.010822981;-33.17649512;3.501581125;-85.02981647;6.574542023;-89.39309449;-28.53626856;-11.32028582;-30.72094523;-8.948155828;-30.71509536;-33.21977751;-1.732363066;-24.06663464;-33.80635363;-5.204315002;-88.8238861;3.450905045
-10.84369171;-4.120613857;-19.79741292;-5.293196714;-15.72582564;0.155335816;-36.26722911;-16.70954421;-0.690289991;-25.26102667;4.165787241;-20.05861479;-16.19323714;-10.5421124;-24.52814231;-22.68289173;-10.7843481;4.921107534;-3.500103071
-13.45347775;-8.153414912;-0.758026573;-9.659997637;34.93583158;-2.378858252;20.90160792;-3.977715025;9.510443465;-18.59014747;15.50218226;-6.949186403;-0.362918957;-12.77364971;-21.08108373;-9.29687712;-11.2596592;59.85426875;-6.54505609
-13.73830053;-8.990019531;10.75306655;-9.177901066;44.20397787;-0.698732356;50.97581078;3.457695914;15.03408639;-14.76477152;19.80933164;0.488568845;6.204900114;-8.696421453;-16.02117007;-1.391115879;-7.397085445;56.84145825;-5.589130715
-14.16505133;-8.323548139;8.562864662;-6.781706681;19.31761375;2.808008026;42.5235803;4.209539759;15.31775733;-14.65612181;17.10170842;-0.397884031;3.202641751;-2.095784742;-11.91457835;-1.98003418;-2.673022296;16.32719494;-2.866786512
-16.07720882;-8.7727192;-2.936799333;-6.082969385;-11.95495681;5.130268341;8.396541546;1.621169986;13.0435104;-16.01253712;11.97757452;-5.886752725;-3.037339022;2.654382636;-10.25706225;-7.936621836;-0.498178425;-21.53647314;-1.065934121
-18.81077878;-11.52721834;-13.4071517;-8.476122276;-23.99946601;4.839405094;-26.20032592;0.389713749;11.48441275;-15.87485019;9.619886346;-9.796095716;-5.300058594;3.493689717;-11.00310349;-13.23155277;-1.871175098;-28.12513549;-1.520387795
-20.5217274;-15.42064424;-15.07785909;-12.27047573;-11.14240528;2.783727207;-42.03678371;2.847272235;11.94072753;-13.19759195;11.78077232;-8.67703909;-1.0758938;1.517816045;-13.01483863;-13.85768052;-5.107514782;-4.730311923;-3.681091836
-19.8888542;-18.04223873;-8.235256087;-14.35385433;11.98701527;0.973207578;-36.96915629;7.70703924;13.20799805;-9.568125011;15.86554631;-4.132602716;6.204350623;-0.556197354;-14.91289851;-10.46650289;-7.558109007;24.02302498;-5.958131295
-17.23119882;-17.79669389;0.241951729;-12.8759036;25.39580739;0.769969959;-23.08714259;11.79467338;13.15718563;-7.638770802;17.57353474;-0.806559772;10.67235612;-0.83065721;-15.75440835;-6.96054456;-7.744158525;33.46881204;-7.030039063
-14.18164616;-15.13304935;3.361955804;-8.745808358;20.36301165;1.892111076;-14.29062508;12.8917204;10.80114589;-8.788855509;14.68014396;-2.164638214;8.94403637;0.394039681;-15.29125541;-6.689489668;-6.224971995;18.64825996;-6.578503274
-12.31251406;-11.99083695;-0.23080581;-4.835343721;4.567813965;2.903067858;-15.22039443;11.23730425;7.053482213;-12.04768491;8.800655154;-7.709566795;2.443737562;1.215724604;-13.89182467;-9.641852039;-4.728068251;-4.573318133;-5.08522806
-11.93973734;-10.07738834;-5.821322418;-3.678032865;-6.726937159;2.587131055;-19.83161273;8.718264897;3.731592622;-15.09981663;3.850863117;-13.70913046;-4.329158101;-0.025213643;-12.2962282;-12.83616065;-4.504750212;-15.47643712;-3.143886343
-12.08367682;-9.541795678;-7.308876463;-5.594504833;-4.408391379;0.969575452;-19.12587491;6.855698815;1.919147166;-16.3739641;2.721872315;-16.44178007;-7.641414705;-3.272003575;-11.28692464;-13.23113359;-5.357932062;-6.380532394;-1.009977309
-11.52003906;-9.174206216;-2.622795538;-8.697390376;7.716832521;-0.819997821;-10.2361756;5.556451815;1.221131242;-16.35093243;5.048091602;-15.03508822;-7.110194439;-6.790678061;-11.3130217;-10.42904295;-6.03966173;12.53156644;1.28710032
-9.944012833;-7.865940842;4.721371472;-10.62882091;17.83868195;-1.594224667;1.089651435;3.645327269;0.465305063;-16.99604978;7.829455391;-11.65299878;-5.167273173;-8.542376193;-12.19554038;-6.872803036;-5.489177698;23.96520904;3.550513029
-8.249044527;-5.947323085;8.89210042;-10.5154663;17.2243467;-1.088186125;6.127982108;0.447225363;-0.977896561;-19.89152977;8.161173089;-9.243676681;-4.376453911;-7.678273947;-13.12554193;-5.569163902;-3.750048828;19.06860766;5.258172952
-7.747687785;-5.137996412;6.688815753;-9.563091812;7.410335512;-0.058988006;1.353438435;-3.229958598;-2.591794391;-24.74537903;5.617257043;-9.058682572;-5.226020503;-4.99276245;-13.06362725;-7.483873544;-1.829904632;4.095456559;5.85637712
-9.070164499;-7.080493236;-0.11158798;-9.907729323;-2.178303494;0.481729638;-8.245428513;-5.68814982;-3.38689155;-29.56516082;2.312060842;-10.06391018;-6.227404593;-2.130740252;-11.36776497;-10.87444605;-0.768667893;-6.595362539;5.224105234
-11.69308624;-11.70531781;-6.724447633;-12.74979545;-3.153563238;0.1571347;-13.48;-5.931248046;-3.139359589;-32.29967873;0.779670785;-10.47492194;-5.877424859;-0.340632067;-8.251326192;-13.00134331;-0.83555027;-3.839152955;3.830966991
-14.4348219;-16.89012804;-9.573212212;-17.29159144;4.669141632;-0.535206062;-8.941538407;-4.714170855;-2.919469874;-32.48975881;1.660196772;-9.761982187;-4.418918363;0.207684879;-4.740196517;-12.58740424;-1.543604675;8.822108766;2.395861608
-16.39874305;-19.83107095;-8.976924451;-21.26662645;13.8568191;-0.771212759;2.349084423;-4.0007177;-4.299177702;-31.51131455;3.205173846;-9.219037146;-3.724179935;0.142361752;-2.141757384;-10.86251914;-2.345057524;19.40597884;1.333568194
-17.50949808;-19.11106319;-8.189139079;-22.57017519;16.46746385;-0.182320543;11.56790854;-5.25652173;-7.892875936;-31.25833944;2.910142836;-10.65364692;-5.498006988;0.093750938;-1.380660721;-10.38074611;-3.245182695;18.77564661;0.489771256
-18.22948279;-15.82486978;-9.993020665;-20.71301134;10.94676955;0.831998713;11.64373704;-8.097982369;-12.57222492;-32.46562161;-0.273408461;-14.50651028;-9.554695747;0.167908444;-2.609047769;-12.74627353;-4.707726906;8.465509579;-0.592838185
-18.82068055;-12.82869048;-14.0630271;-17.07183285;2.868055735;1.493552474;3.277354029;-10.53745401;-16.15652344;-34.13701539;-5.092922479;-19.17621244;-13.78609074;0.091711615;-5.240562959;-17.23322643;-6.954726112;-1.551347751;-2.124888364
-18.91406657;-12.64978372;-17.36315915;-13.8868995;-0.573855071;1.337974667;-5.625275711;-10.66156659;-17.08212373;-34.52942944;-9.152582382;-22.17198517;-15.83697874;-0.243593008;-8.249494244;-21.3956927;-9.382618017;-2.391587353;-3.752510339
-17.82236902;-15.63585071;-17.00629669;-12.83576383;3.022662778;0.582172228;-6.580078125;-8.306580271;-15.65605394;-32.7681846;-10.93668347;-22.0596034;-14.96618143;-0.453481901;-10.49783718;-23.02497721;-10.74178044;5.903936353;-4.782737445
-15.30524943;-19.72290878;-12.86779014;-14.16247437;9.610592425;-0.124485363;2.298711059;-5.278122977;-13.80857384;-29.64390889;-10.89487658;-19.49767149;-12.47329325;0.102232258;-11.01918168;-21.75503083;-10.02516038;15.06511311;-4.769261392
-12.04554915;-21.94410454;-7.642190982;-16.7836247;12.83526356;-0.293876075;14.42277872;-3.910676132;-13.51767438;-26.89961697;-10.73393967;-16.52148222;-10.41913554;1.732721893;-9.344429047;-19.06820237;-7.327385239;16.60028962;-3.93738565
-9.333344825;-20.50307157;-4.435984575;-19.07085958;9.856177841;0.01083755;19.60816012;-5.178621956;-15.1953743;-25.6633235;-11.68715576;-14.78405335;-9.875953219;4.033986946;-5.864500488;-16.88832363;-3.898700688;9.471534191;-3.051455325
-8.163708641;-15.89153352;-4.157162373;-19.67876135;3.599880556;0.309528237;11.77343554;-7.9335354;-17.34425265;-25.42509194;-13.36431233;-14.31247513;-10.25733814;6.078176107;-1.960842567;-16.0654764;-1.277563422;0.583870587;-2.80900062
-8.493267049;-10.3421085;-5.000962333;-17.98065389;-0.248999473;0.193023068;-6.521524703;-9.865578692;-17.71859379;-24.46120471;-14.14441375;-13.78195692;-10.19251479;7.030410546;0.457109651;-15.96100793;-0.170450314;-1.911237919;-3.261348443
-9.285613034;-6.172365013;-4.338082629;-14.09138253;1.548969372;-0.305659668;-25.95520662;-9.339423683;-14.99694924;-21.33157279;-12.62963177;-11.92007813;-8.98657375;6.686691016;0.026597098;-15.26402794;0.024549226;3.942026028;-3.747765234
-9.308704484;-4.305160065;-1.169915191;-8.702269683;7.145953049;-0.7832932;-36.95474154;-6.576486246;-9.627026524;-16.14852521;-8.776890201;-8.698073298;-7.251376161;5.520406207;-2.965830911;-13.14904877;0.677761135;12.45634738;-3.402089488
-8.018159843;-3.955967302;3.071843891;-2.893079074;11.64806528;-0.882052077;-35.75980065;-3.281144219;-3.279755703;-10.53496463;-3.73832419;-5.257673768;-6.159806016;4.259138053;-6.35312841;-9.776023112;2.82357843;15.82855029;-1.817747144
-5.815980159;-3.50364726;5.993733344;2.102598063;11.65993811;-0.642231373;-25.80894419;-1.145409551;2.476335849;-6.339443263;1.289504661;-2.732028109;-6.10709253;3.384144075;-7.209331211;-5.892745172;6.374638923;11.29409634;0.660425339
-3.537677064;-1.725621796;6.522218718;5.258980019;8.111010448;-0.466203752;-14.14404091;-0.551865264;7.113052433;-4.23490552;6.00585483;-1.122459342;-6.114160297;2.941103878;-3.806609648;-2.125557706;10.23576253;3.371921158;3.224123957
-1.682509284;1.515457252;5.88213813;6.180548453;4.999497593;-0.739944149;-6.195424861;-0.516217542;11.00597459;-3.382837325;10.82460601;0.693384511;-4.599126842;2.721035171;2.932330563;1.312575151;13.15160751;-0.584980805;5.198036973
-0.081322764;5.453717104;6.419939666;5.338252572;5.507968349;-1.470073242;-2.942751572;0.214590179;14.55048977;-2.379957778;15.82537588;3.805667956;-0.859981102;2.546359949;9.697891054;4.334649587;14.56746209;2.806905397;6.447839655
1.74334017;9.090218763;9.39370156;3.881799714;9.180126081;-2.267607031;-1.959682036;1.952958497;17.47485555;-0.591627351;19.99132473;8.010441168;4.060869471;2.3687113;12.82491863;6.588154165;14.85421097;10.06386251;7.301470698
3.91546736;11.72750197;13.74652447;3.039995669;12.61957522;-2.685207477;-0.61785909;3.790068359;19.00172027;1.312172441;21.64716755;11.60353038;7.925972836;2.139438093;10.76397428;7.503504867;14.82776695;14.28809815;8.115080521
5.899319509;13.05612471;16.94554493;3.429532141;12.82156548;-2.598611605;1.59605686;4.397734214;18.63809662;2.044012232;19.83758996;12.48868064;8.82990096;1.6727841;5.184743409;6.800225254;15.05405404;11.56932507;8.899957699
6.863391726;12.96725346;17.10892733;4.704735205;9.93;-2.296243403;3.336238235;3.126899649;16.759656;0.931884977;15.38760649;9.734492551;6.44852013;0.723900305;-0.182994408;4.919003387;15.51709295;4.415316788;9.336899866
6.399060242;11.4635756;14.53794058;5.788044645;6.942991874;-2.213453085;3.389301527;0.436251567;14.36157363;-1.442705948;10.54060189;4.332949296;2.047019977;-0.744837643;-2.180276208;2.85310443;15.83111524;-0.770297085;9.140853502
4.936145679;8.818590895;11.35945561;5.551183724;6.815681089;-2.560992354;2.170739689;-2.645117396;12.16469063;-3.770987829;7.304148155;-1.432015558;-2.627182107;-2.376131961;-0.382569253;1.425681654;15.69688991;0.36244236;8.427605047
3.454497417;5.768123953;9.673711829;3.528906826;9.751472417;-3.172847588;1.290932337;-5.445765145;9.920684409;-5.203995133;5.857382512;-5.488905024;-6.547084006;-3.552584087;2.808916791;0.639163248;15.15805272;6.255862837;7.738447914
2.717169864;3.397928871;9.866190389;0.232641098;13.14406827;-3.684768942;1.789728631;-8.100848937;6.633129243;-6.091562721;4.448925247;-7.200346704;-9.742093735;-3.811661566;4.160039063;-0.275179671;14.48031352;11.09396113;7.679572762
2.685576103;2.64756144;10.5049299;-3.113597085;14.08753557;-3.859433979;2.947438897;-11.14946229;1.597389918;-7.568401155;0.996526699;-7.453686232;-12.67779722;-3.211491827;2.09469033;-2.091366613;13.85731761;10.25163156;8.463538486
2.629276076;3.74084679;9.796040872;-5.243269519;12.03820503;-3.762980146;2.983198044;-14.70400538;-4.615709301;-10.33405949;-4.893026692;-7.701661425;-15.43463837;-2.31169521;-2.229192928;-4.759291735;13.27762614;4.468214869;9.723430876
1.839174757;5.998655016;7.236300701;-5.522367469;9.197183411;-3.654832171;1.059556457;-17.9889644;-10.14433363;-13.73330491;-11.22205699;-8.798310942;-17.50984241;-1.73999696;-5.983531787;-7.260896962;12.67501987;-0.986821002;10.74906041
0.323246844;8.231282528;4.027680482;-4.241357385;8.376136465;-3.718594392;-1.382285355;-19.69535081;-12.93361662;-16.02619817;-14.9262331;-10.50225745;-18.37181132;-1.677182164;-6.886976357;-8.316028493;12.16860538;-1.224547735;10.96357453
-1.125910295;9.455147536;1.984597156;-2.368238188;10.40744633;-3.891881979;-1.486312154;-18.87196673;-12.15991225;-15.71551407;-14.24393161;-11.88554725;-18.14121085;-1.687610137;-4.751431451;-7.35486815;12.1006682;3.855361135;10.28785405
-1.559816605;9.422385392;1.979076381;-0.922234582;13.47294908;-3.942192381;2.393283043;-15.62649007;-8.881335546;-12.85380014;-10.22175356;-12.17232427;-17.66589106;-1.052540277;-1.217053162;-4.93654481;12.79011756;9.617506983;9.150294903
-0.663735814;8.614114823;3.2888308;-0.351680979;14.8694366;-3.702123302;8.510078125;-11.10044684;-5.388247685;-9.207486209;-6.083934325;-11.29537671;-17.86056172;0.650638063;1.89819423;-2.27664691;14.2221495;10.99678992;8.180176747
0.970506209;7.784986752;4.338343392;-0.303414285;13.49481445;-3.239315951;12.12326255;-6.796179788;-3.720111162;-7.067566588;-4.893782697;-9.800468473;-18.89665894;3.18836183;4.101266107;-0.312212791;15.98564861;7.028679779;7.841030585
2.326625633;7.478762168;4.098818621;0.061759306;10.76958882;-2.810537794;8.614508308;-3.814972657;-4.430917447;-7.607399183;-7.310300327;-8.288208834;-19.9812673;5.819976084;6.303407538;0.898954322;17.55155153;1.527289024;8.257599381
2.797545199;7.884338382;2.916704415;1.400408715;9.237028227;-2.652188652;-2.872422821;-2.531680522;-6.457901062;-10.07258507;-11.17487872;-6.900547611;-19.93570041;7.83419591;9.534224588;1.983887904;18.66145834;-0.543621791;9.297850194
2.671425862;9.036274106;2.131184214;3.607648462;10.22327278;-2.799202585;-18.15880704;-2.786560644;-8.096678645;-12.43108354;-13.22175957;-5.245069142;-18.08506746;9.045162194;13.56209712;3.51585402;19.47641277;2.425184699;10.76539115
2.866036654;11.03051072;2.911808113;5.743888144;12.71985653;-3.08176496;-30.36201581;-4.261607185;-8.296518899;-12.95997825;-11.56674486;-2.773816436;-14.73656817;9.865806767;16.73696641;5.42439819;20.34292163;7.386241412;12.50253419
4.13542531;13.93629851;5.339923944;6.56391936;14.43596455;-3.279894901;-34.3004169;-6.674708248;-7.343121071;-11.53376088;-7.086547156;0.686985697;-10.92878002;10.92221643;17.24520612;7.049128564;21.38290753;9.568180659;14.32635768
6.402996359;17.43152493;8.425134206;5.327822586;13.95571096;-3.284315562;-29.76515886;-9.724546258;-6.532098158;-9.655847886;-2.728520477;4.624238727;-7.76049068;12.52736556;14.68700964;7.717302841;22.28499374;6.83244204;15.90058858
8.757755643;20.54453133;10.88875591;2.348419462;11.98765284;-3.131961453;-21.2579882;-13.00549159;-7.183124923;-9.276154499;-1.388389421;7.940945832;-5.878721068;14.4161964;10.58082704;7.274664338;22.50454142;1.487353779;16.72721838
10.10189366;21.89635972;11.9626702;-1.121623988;10.61479121;-2.919022534;-14.49262307;-16.10074458;-9.741394277;-11.34275355;-3.99463143;9.424668235;-5.430249566;15.91453782;7.31927375;6.10565653;21.71723436;-1.95117624;16.35308086
9.923673548;20.44627824;11.6012966;-3.619553041;11.31753536;-2.704197535;-12.41337994;-18.8022963;-13.53825366;-15.15723907;-9.133341068;8.342981426;-6.296974888;16.38047482;6.426339318;4.699928407;20.13968457;-0.861021388;14.69572005
8.603008699;16.26397584;10.13737308;-4.348209072;13.61735269;-2.498674884;-13.73788017;-21.20391979;-17.25940845;-18.91824658;-14.29084845;4.862265041;-8.238592777;15.58522981;7.542789849;3.240829166;18.43703583;3.280437261;12.25092021
7.062391532;10.71232144;7.884162203;-3.622116035;15.5433417;-2.328217102;-14.89780959;-23.50452622;-19.71772213;-20.94497004;-17.62500343;0.055007123;-10.81131567;13.79676082;8.918386383;1.620073242;17.28650313;6.46436339;9.973051815
6.093408742;5.7950414;5.092464213;-2.604520203;15.42663232;-2.2696808;-13.49257486;-25.66363551;-20.42554983;-20.66253185;-18.95440984;-4.549539495;-13.30039096;11.57543036;8.9104919;-0.180814675;16.94950973;5.894378324;8.820533002
5.897013424;3.046375568;2.1905823;-2.534999959;13.36019912;-2.396490818;-10.2519157;-27.25;-19.68491029;-18.73873219;-19.41347239;-7.666480364;-14.95738871;9.474744218;7.196345362;-1.786418711;17.18106065;2.436323569;9.205081182
6.139063669;2.720277605;-0.100707234;-3.963620091;11.04421161;-2.678834349;-7.9256446;-27.6859348;-18.23943332;-16.44642819;-20.25724519;-8.824435182;-15.48213808;7.840416237;4.75432579;-2.569959491;17.50775817;-0.358227199;10.69900328
6.378882469;3.847750799;-1.043022405;-6.453035795;10.24017987;-2.953764376;-8.256700177;-26.71446559;-16.74935471;-14.82094817;-21.8129177;-8.457104612;-15.30609177;6.768414996;2.796844757;-2.154204128;17.60560405;0.39956298;12.23473181
6.458996752;5.094756201;-0.361349792;-8.861743461;11.27187244;-3.026845172;-9.905839514;-24.66258521;-15.38865084;-14.17062552;-23.28586833;-7.457527227;-15.27723324;6.160761426;1.722240804;-0.795224923;17.46247786;4.344201225;12.72570068
6.546660026;5.759818899;1.52625368;-9.958405787;12.87312534;-2.83496555;-9.39;-22.21259287;-13.76551955;-14.11249826;-23.4;-6.503851922;-15.86834312;5.799973679;1.033017206;0.752781974;17.23624005;8.302443394;11.73945834
6.861747229;6.168183607;3.792417419;-8.98474983;13.40659603;-2.520530137;-4.416240608;-19.83652767;-11.2029797;-13.92831173;-21.29496935;-5.640374819;-16.5669362;5.421576263;0.201553822;1.813796776;16.99584217;9.207380803;9.77813432
7.39396082;7.212946378;5.779943939;-5.915684848;12.27958127;-2.329530999;3.27632282;-17.3965736;-7.237777399;-12.94052002;-17.06329677;-4.411872094;-16.09356896;4.805090453;-0.441212431;2.297705314;16.61067437;6.732445323;7.952049794
7.885188884;9.466971101;7.369330486;-1.395638899;10.32049505;-2.404083839;8.29759094;-14.32244727;-2.062233973;-10.7591121;-11.68735795;-2.416699589;-13.43782916;3.876446371;0.261140254;2.668455298;15.88172408;3.322089456;7.238989253
8.08326467;12.60478298;8.820259654;3.527554419;8.912407243;-2.648564273;5.357121698;-10.28418281;3.373992985;-7.415892377;-6.543610067;0.19636864;-8.927396433;2.76051012;3.263541276;3.394211387;14.76649616;1.787707572;7.825963729
8.016739885;15.58812596;10.27197908;7.746262457;8.789952182;-2.798009805;-6.390101218;-5.803440877;7.717353092;-3.417840369;-2.818942168;2.718074508;-4.373911159;1.721647065;8.190116679;4.394378792;13.46822626;2.81682454;8.997142034
8.020249918;17.4297044;11.41246003;10.43488836;9.59257154;-2.642509112;-21.94780232;-2.225740209;9.85266722;0.335512866;-1.10591005;4.373535383;-2.012876373;1.007012652;13.16721564;5.021464515;12.30334225;4.648869448;9.655998938
8.461817546;17.88640279;11.66034549;11.30887837;10.45300445;-2.216452233;-33.42192052;-0.968824286;9.451418329;2.842129268;-1.285524283;4.898993787;-2.962851011;0.695757482;15.89313885;4.626591905;11.47780953;5.026647223;9.108072778
9.386520058;17.51933867;10.70046031;10.68461697;10.92493211;-1.782341977;-35.27099311;-2.573966512;7.069896891;3.429970751;-2.696658475;4.691144334;-6.408726281;0.665631266;15.15149178;3.197156845;10.97999889;3.42907728;7.528472493
10.37208034;17.10527244;8.853234423;9.257706224;11.32887508;-1.614612295;-27.92709715;-6.295824494;3.729513978;2.090870331;-4.526907968;4.379198343;-10.20335471;0.695459213;11.56515362;1.449884204;10.66744324;1.4659152;5.766029463
10.73068886;16.92371544;6.89064131;7.673576523;12.25660891;-1.766436045;-17.07135988;-10.57487465;0.271157581;-0.54110382;-6.278479345;4.176978801;-12.45876454;0.607383915;6.996862388;0.234658298;10.4256053;1.174437011;4.638831687
9.926039709;16.52540083;5.421201633;6.148686807;13.81802766;-2.021984935;-9.247222352;-14.05108509;-3.065147166;-3.604036859;-8.075157393;3.586623682;-12.88906558;0.325308509;3.109168166;-0.256094021;10.21250965;2.962402538;4.272074485
7.915365598;15.15523407;4.37975973;4.429887507;15.42196227;-2.076988829;-7.317074969;-16.3573038;-6.558196284;-6.548945153;-10.5867718;1.747911271;-12.86036955;-0.183680226;0.259333762;-0.753853693;9.940359708;5.202147732;4.001653636
5.185405333;12.43729206;3.08489352;2.163818489;16.30188433;-1.791454545;-9.221900026;-18.11788062;-10.52588187;-9.413181849;-14.53468131;-1.816995432;-14.14902438;-0.993895244;-2.422976102;-2.356987006;9.344843278;5.824694833;2.92357317
2.468844033;8.718001505;0.828616751;-0.584025931;16.24283085;-1.296715712;-10.67458649;-20.21290764;-14.84729214;-12.61606385;-20.03235933;-6.662575596;-17.43920171;-2.206154367;-5.941327553;-5.567167035;8.044065153;4.329095308;0.65355536
0.337094981;4.781471684;-2.506763192;-3.095905112;15.78228307;-0.869466226;-9.198279722;-22.930443;-18.86695112;-16.43451797;-26.19871602;-11.53590882;-21.75634785;-3.807005924;-10.31663893;-9.72385044;5.819624394;2.256967038;-2.312603974
-1.073491561;1.212961615;-6.326005906;-4.320834107;15.69661704;-0.691258467;-5.996540447;-25.67399529;-21.75233663;-20.57661774;-31.37716256;-15.08358058;-25.22534746;-5.522068832;-14.40706399;-13.34642105;2.910598863;1.692088809;-4.931249041
-2.052775646;-2.00360719;-9.770401509;-3.590376595;16.28773677;-0.709340556;-4.224006389;-27.41239452;-23.02699768;-24.20684432;-33.92192871;-16.62630731;-26.46601268;-6.833691433;-16.78848488;-15.15094928;0.035167096;3.249523002;-6.371676153
-3.062214207;-5.284835434;-12.32435521;-1.224256048;17.15757347;-0.718010512;-5.462947017;-27.46687419;-22.88094479;-26.43240682;-33.11438408;-16.45263913;-25.48976997;-7.220560256;-16.92432432;-14.9447119;-1.955161725;5.493407432;-6.59509724
-4.411990491;-8.828364726;-14.06305756;1.461441189;17.6528076;-0.577819282;-7.784039234;-26.00032457;-22.04061233;-26.90319486;-29.63438368;-15.48313571;-23.46454146;-6.483665053;-15.63876824;-13.69463881;-2.573762831;6.3340593;-6.291564806
-6.066878327;-12.15870205;-15.38428055;2.825288687;17.50031293;-0.365616965;-7.318823661;-23.85616484;-21.30093631;-26.08309024;-25.25211114;-14.62537567;-21.6803367;-4.917435669;-14.51384536;-12.73573085;-1.979184668;5.049318239;-6.241223948
-7.681287054;-14.30230423;-16.5341241;1.84231473;16.99404062;-0.313227355;-2.069002615;-21.92083583;-21.0363338;-24.98275887;-21.8784027;-14.2981118;-20.6380399;-3.17372722;-14.71409837;-12.76881082;-0.820489794;2.976653111;-6.636451044
-8.818755274;-14.50474037;-17.38013383;-1.290092773;16.57931234;-0.587088764;5.465646351;-20.52132338;-20.98423066;-24.5219338;-20.51100907;-14.37103652;-19.94770424;-1.892863279;-16.16953085;-13.43226296;0.223655639;2.198440898;-6.927304047
-9.203636354;-12.8963602;-17.59872449;-5.249861063;16.30793022;-1.109441453;9.425485827;-19.2813171;-20.39493549;-24.93800838;-20.68858996;-14.40281215;-18.95080659;-1.358484212;-17.70964464;-13.73076921;0.840856107;3.473638239;-6.314500658
-8.844126549;-10.50629065;-17.02927976;-8.282004822;15.76833472;-1.58946339;4.918380772;-17.47149947;-18.43117991;-25.61753069;-20.77387213;-13.89343299;-17.39199945;-1.416720174;-17.97043758;-12.90509211;1.119580393;5.413364308;-4.47727672
-7.960991879;-8.549998048;-15.81213163;-9.026315705;14.59400814;-1.748008211;-7.848863629;-14.54003906;-14.60270845;-25.44992049;-18.91235507;-12.39478864;-15.54463463;-1.692345565;-16.3373467;-11.00947075;1.255540098;5.737899921;-1.932457023
-6.795883952;-7.539149982;-14.18992151;-7.031550085;13.02590264;-1.546456665;-23.05165733;-10.45177637;-9.043922464;-23.48577025;-14.12818982;-9.55169143;-13.78766705;-1.903354875;-13.24944188;-8.759404147;1.253747204;3.473708353;0.271863825
-5.46116221;-6.946626083;-12.23219992;-2.797677436;11.89641755;-1.222271364;-32.93095346;-5.679843412;-2.524339744;-19.51693974;-6.935939926;-5.212975603;-12.14381166;-2.011014277;-9.747940164;-6.838646201;0.938573499;0.019163896;1.2822736
-3.958598448;-5.726582607;-9.843777662;2.514757925;11.95212488;-1.098218037;-32.92;-0.956092398;3.822367087;-14.25537934;0.889293758;0.398913085;-10.25892118;-2.096813103;-6.712075911;-5.278797475;0.275350368;-1.979840079;1.012722252
-2.350932855;-3.28573411;-7.118024126;7.480283097;13.11706583;-1.324749879;-24.35526777;3.011720451;8.957868829;-9.014668925;7.267439254;6.645069693;-7.81426597;-2.100167506;-4.366661732;-3.421972137;-0.320674747;-0.973500985;0.137147091
-0.923412778;-0.114141482;-4.683755201;10.78502363;14.43196092;-1.768949009;-12.91767049;5.73051126;12.38738064;-5.06444493;10.95036382;12.70339454;-4.924473752;-1.677330963;-2.337962707;-0.47379227;-0.050967054;2.060450716;-0.447841838
-0.149412822;2.4562456;-3.59488038;11.57262209;14.8135314;-2.135128446;-4.329788316;7.023727201;14.35370504;-3.003408532;12.16410854;17.97432274;-2.108102238;-0.346020257;-0.094075419;3.813447815;1.769700486;4.42884327;-0.239547978
-0.417958762;3.196558924;-4.675310027;9.731542174;13.9954219;-2.206256049;-0.777975271;7.086303236;15.63244561;-2.49582982;12.35331474;22.33360897;0.134336377;2.159892223;2.616122674;8.855108656;5.132147461;4.07222793;0.631672398
-1.695139485;1.895003203;-7.762150673;5.998403593;12.78768004;-2.000755223;-0.562836109;6.475680286;17.01521335;-2.527937398;13.17349021;25.97777459;1.70084254;5.588700714;5.608622515;13.53152371;9.148152426;1.340690653;1.641292527
-3.398693042;-0.465079231;-11.49708408;1.739590286;12.37396656;-1.721967845;-0.623961075;5.971787434;18.79230388;-2.046827137;15.37215011;28.9625681;2.842378826;9.167008599;8.412678139;16.81180994;12.47154379;-1.392576632;2.301604924
-4.649657293;-2.379780214;-13.96268698;-1.568879789;13.24298632;-1.559090736;0.633228738;6.287399332;20.57790163;-0.606413984;18.29975313;30.86100189;3.751404019;11.92814635;10.54804507;18.25077522;14.06144256;-1.900926475;2.408302686
-4.786004137;-2.81411149;-13.80253585;-2.924900583;14.71149496;-1.519834372;2.572754736;7.7312489;21.59455794;1.376847659;20.38597419;30.9275078;4.234158623;13.16953191;11.74207307;18.06195751;13.74032641;-0.068851874;1.97039323
-3.791669283;-1.773664744;-11.04612869;-2.137554435;15.48726586;-1.436934515;3.797577444;10.00458197;21.19859317;2.916748688;20.25088694;28.72454043;3.850210008;12.75070001;11.99565307;16.8068534;12.14923764;2.119469343;1.010114778
-2.312411599;-0.112502872;-7.046406823;0.225621964;14.78957954;-1.1345017;3.986340885;12.26189798;19.25152925;3.094075742;17.66107515;24.7049723;2.429270235;11.06678441;11.50354223;14.98499063;10.1715387;2.508571225;-0.490684586
-1.214858783;1.159670335;-3.591412149;3.158724528;13.03880082;-0.604912643;4.170445616;13.4189773;16.08389921;1.598029339;13.64471447;20.18743184;0.455722747;8.75896227;10.48401502;12.81076756;8.302865109;0.803325514;-2.426530416
-0.99223767;1.486726566;-1.84608249;5.557198383;11.51028818;-0.044804884;5.327016503;12.56210781;12.14934068;-1.187745586;9.701205651;16.62193079;-1.123258176;6.381545772;9.002561161;10.27461005;6.456844956;-1.183064864;-4.393546181
-1.452936897;0.894867186;-1.848059454;6.448120957;11.27229724;0.27759426;6.970896605;9.291249748;7.725815128;-4.563561819;6.726643209;14.65918277;-1.586161681;4.23085679;6.901537021;7.377362134;4.310880223;-1.289095306;-5.771500112
-1.923940696;-0.289225111;-2.802197475;5.190797943;12.35098603;0.21371998;7.445631168;3.901076973;2.950366697;-8.008139429;4.493389752;13.76702129;-1.04085521;2.388501498;3.929382881;4.334875667;1.840572459;0.865403191;-6.096983701
-1.806716242;-1.754238956;-3.813491361;1.766311692;13.82982857;-0.163918526;5.816462727;-2.621844149;-1.871606012;-11.36759007;2.08189732;12.73987505;-0.374441683;0.872491154;0.050300951;1.600193411;-0.45429273;3.372119276;-5.449994896
-1.048413206;-3.272131258;-4.452685589;-2.938278199;14.73036107;-0.616521039;3.435247497;-8.789439364;-6.045198359;-14.60041541;-1.103330031;10.72380776;-0.534159883;-0.259021444;-4.251926773;-0.317875435;-1.849245907;3.664732179;-4.493461724
-0.160749473;-4.576911719;-4.805711573;-7.186393578;14.83586539;-0.893312061;3.268141453;-12.99840543;-8.676839222;-17.35142255;-4.585417976;7.939281455;-1.734064991;-0.928047944;-7.944244269;-1.13057558;-1.973770453;0.844290248;-4.059937562
0.21777193;-5.328259805;-5.133398352;-9.058521114;14.72722876;-0.867061293;7.115125415;-14.06804328;-9.223148816;-18.81318805;-6.986595955;5.517860156;-3.282327339;-1.134203047;-9.830846884;-0.962595519;-1.169103932;-3.400087891;-4.566288523
-0.144751187;-5.308701216;-5.537795341;-7.542008269;15.07101083;-0.569889667;13.08387241;-11.75845692;-7.958604944;-18.11238571;-7.033113774;4.596439967;-4.196175786;-1.018240305;-9.201557654;-0.316379518;-0.295278993;-6.135911077;-5.712374163
-0.877089327;-4.686680615;-5.910495698;-3.348938597;15.8945359;-0.136513508;15.92433554;-6.995547634;-5.905400941;-14.9934487;-4.618549838;5.421173554;-4.072927125;-0.818966496;-6.335270626;0.210857881;-0.110114881;-5.642612201;-6.712484806
-1.299148393;-4.025744908;-6.109164618;1.27513714;16.55578218;0.279269699;10.5962974;-1.590092773;-4.185604588;-10.25441561;-1.072084663;7.186203299;-3.446204388;-0.747783552;-2.473748381;0.304640395;-0.703241663;-2.838049674;-6.882182028
-0.96369652;-3.927014994;-6.109991376;3.859367081;16.41617977;0.558394237;-3.469276072;2.504149503;-3.26989569;-5.512041827;1.617586076;8.699396494;-3.305317862;-0.875152346;0.787208125;0.149326555;-1.439310017;-0.44876644;-6.119312336
-0.011411559;-4.577045986;-5.980280967;3.336771384;15.53517234;0.633408527;-20.9485631;4.039792502;-2.743993772;-2.368789642;2.065487661;9.279438847;-4.201209705;-1.111230071;2.326673422;0.293725375;-1.468536585;-0.672607514;-4.917917948
0.93042982;-5.638095262;-5.761124801;0.77840285;14.68650974;0.493874326;-33.57906941;2.956226691;-1.819378011;-1.533186264;0.316048698;9.134344955;-5.736323289;-1.284790986;2.010159405;1.210796441;-0.417415286;-3.364749607;-3.946266103
1.202834541;-6.643919505;-5.461718883;-1.443152846;14.65888102;0.19501323;-35.5458377;0.211007942;-0.182302798;-2.510843302;-2.341015759;8.962518481;-6.896582778;-1.248700122;0.566948719;2.847839423;1.270119904;-6.264624486;-3.563612494
0.552739378;-7.563343103;-5.219961753;-1.53632368;15.50609111;-0.146104961;-27.28649883;-2.908159805;1.550712358;-4.068719152;-4.363686267;9.200873638;-6.930408919;-0.929107206;-1.025565438;4.526718487;2.604129836;-6.977691846;-3.656689141
-0.769512942;-8.948893063;-5.439280878;0.22673675;16.47628995;-0.390008545;-14.84599672;-5.525892556;2.208620051;-5.106428786;-4.98432665;9.615015992;-5.98805487;-0.295527447;-2.167997817;5.334047472;2.733955133;-4.947965738;-3.863805699
-2.273986532;-11.39932548;-6.650582205;1.682798894;16.70880777;-0.443538459;-5.38589446;-7.50250251;1.012172708;-5.29788122;-4.548192959;9.566824976;-4.948818296;0.693290777;-2.832493717;4.769342225;1.546937106;-1.768374379;-3.918835227
-3.591152359;-14.72126996;-9.080400867;0.587070276;16.04982518;-0.31439321;-2.398039783;-9.193091551;-1.685967785;-5.096323998;-4.028337651;8.657819388;-4.594033571;2.086354583;-3.257814982;3.180207493;-0.243791956;0.303592202;-3.789184979
-4.629402671;-17.58527421;-12.2381934;-3.344845518;15.21026395;-0.10546155;-4.182873843;-10.91285482;-4.518665422;-5.214898826;-4.197355465;7.121142733;-4.874757116;3.85124488;-3.482846878;1.624407817;-1.569011339;0.224397553;-3.53177478
-5.453865873;-18.18526257;-14.93668937;-7.891188773;15.10122714;0.055169377;-6.321384081;-12.56594331;-6.040950919;-6.067389747;-5.107132295;5.605024339;-4.942984936;5.761273805;-3.161378023;1.209249521;-1.689467049;-1.182723595;-3.090955195
-6.069629573;-15.57349936;-15.87768043;-9.888559475;15.96097128;0.100290358;-5.664711337;-13.72057705;-5.762743331;-7.593511785;-6.185523144;4.583419405;-3.934322516;7.373339498;-1.838861793;2.363042802;-0.634684262;-2.22703414;-2.314258663
-6.352966352;-10.64491163;-14.4678057;-7.787628115;17.09564922;0.061962146;-2.462367663;-14.02987911;-4.457309129;-9.496270628;-6.74964615;3.978746453;-1.816691637;8.167667893;0.532092816;4.564702365;0.865883762;-1.962739553;-1.213116333
-6.195539348;-5.850157629;-11.27161188;-3.145658571;17.49026357;0.035217288;0.766626063;-13.61657967;-3.508169248;-11.56017704;-6.483071464;3.358980114;0.446357864;7.801161942;3.277729208;6.722437701;1.865155385;-0.938605304;-0.192822524
-5.692351506;-3.653119086;-7.71554996;0.28616705;16.73237806;0.098264799;2.069276979;-13.07767579;-3.834901553;-13.70942871;-5.570520168;2.494053878;1.572714084;6.318289735;5.194800457;7.906851298;1.750692116;-0.504168698;0.066065243
-5.145329694;-4.803076428;-5.199227556;-0.658509837;15.39265198;0.251198153;1.780947128;-13.07888896;-5.258636001;-15.78112888;-4.516389439;1.683804047;0.908598603;4.160971196;5.177713382;7.89172113;0.52890493;-1.427519926;-0.903740261
-4.832122524;-7.766449599;-4.228225033;-6.017380824;14.50635184;0.41561592;1.71081323;-13.84049468;-6.77118347;-17.31003906;-3.871046341;1.474970596;-1.140471723;1.942994896;2.88548103;7.133411212;-1.280617319;-3.138422905;-2.859072091
-4.736805334;-9.845293625;-4.185424466;-12.42883885;14.63375042;0.488477961;2.9520779;-14.90660701;-7.409902589;-17.63537311;-4.027277589;1.993751974;-3.510068359;0.124641976;-0.99197631;6.272705904;-3.009745249;-4.253182741;-4.804719758
-4.514238186;-9.195460999;-3.892969701;-15.46075808;15.3667195;0.407385287;4.74965538;-15.3799187;-6.967264163;-16.32942948;-5.080726071;2.557935951;-5.302935501;-1.191056789;-5.055340591;5.598279176;-4.209424641;-3.838089602;-5.554108655
-3.773466676;-6.205788792;-2.542347448;-12.83022746;15.73164214;0.186242611;5.636258424;-14.46565764;-5.96694942;-13.60673029;-6.701261613;2.053842827;-6.306397569;-2.196724033;-7.923877189;4.892441478;-4.815997339;-2.235116743;-4.537149069
-2.471773881;-3.159874172;-0.321827104;-6.076266336;15.10674567;-0.090964219;5.574390428;-11.95770586;-5.010922204;-10.326759;-8.084038643;-0.116452051;-6.80326384;-3.106245024;-8.941880877;3.731371061;-5.069663608;-0.731595072;-2.242710038
-1.075868164;-2.442469375;1.682011096;0.575077989;13.80164357;-0.304774911;6.600781006;-8.357275947;-4.140406914;-7.518005167;-8.155685915;-3.293574952;-6.948546542;-3.887900426;-8.450307555;1.943652606;-5.285733249;-0.420756184;0.080816454
-0.308942144;-4.700692029;2.20229869;3.257173077;12.7718021;-0.34467782;10.81286545;-4.575479043;-2.795632144;-5.754693302;-6.09804693;-5.731269022;-6.369259165;-4.226201006;-7.466236963;-0.158290515;-5.636618453;-1.285498714;1.276994096
-0.640495453;-8.389043344;0.615681792;1.097986314;12.74884441;-0.15229997;17.31613946;-1.436802902;-0.384747727;-4.855738338;-1.946113999;-5.670872329;-4.402958182;-3.754218446;-6.963209222;-1.930411666;-6.06246244;-2.269884669;1.054020652
-1.90514909;-11.00068689;-2.655188168;-3.471001915;13.60007813;0.245816999;21.28486134;0.703558088;3.083922261;-4.122610999;3.19928228;-2.543671914;-0.763261856;-2.373907424;-7.19737446;-2.771391943;-6.336305058;-2.196511843;0.101257262
-3.35498546;-10.94402068;-6.353773893;-6.785469791;14.49641096;0.732352716;16.85106295;2.024593651;6.890820502;-2.906473166;7.649203959;2.626914563;4.003012382;-0.396585906;-7.5255899;-2.423263701;-6.223223848;-0.690489006;-0.51378178
-4.116762308;-8.563971106;-9.01345174;-6.657971776;14.69966389;1.137035741;2.108806559;2.995362983;10.10359846;-1.058161477;10.10178841;7.93;8.728546565;1.629376005;-6.879297382;-1.028282704;-5.631610902;1.636413982;-0.172472952
-3.715048431;-5.584061941;-9.604402165;-3.660159945;14.21052339;1.313241935;-17.88750402;4.00324849;12.21118692;1.046126849;10.45886755;11.80215997;12.35944747;3.280452743;-4.625804467;1.002512128;-4.670975721;3.776506175;0.891078784
-2.289731743;-3.5748958;-7.904422886;-0.209686282;13.67615448;1.214600435;-33.23164956;5.080058594;13.31147552;2.841080843;9.832764486;13.81667595;14.57957229;4.518069841;-1.232202137;3.147593581;-3.591238365;5.088489773;1.888325161
-0.398899863;-2.808860213;-4.51653946;1.532333824;13.68197555;0.918818834;-35.51468674;5.869519232;13.71122138;3.94096642;9.650630373;14.47225088;15.78739604;5.624667833;1.80132458;4.876731479;-2.650307783;5.600625577;2.181869104
1.375287158;-2.428284778;-0.62284043;1.149535139;14.14210738;0.574915346;-23.83276225;5.835820994;13.37090928;4.260533446;10.48098622;14.29501059;16.47588954;6.856985324;2.8114459;5.743580312;-1.998665948;5.732859594;1.7968454
2.684961011;-1.649747661;2.400497226;-0.228583174;14.39516539;0.307227193;-5.681948812;4.584670985;11.79183023;3.886537595;11.49462452;13.13416623;16.61392141;8.103634429;1.11530086;5.530231672;-1.65380768;5.823320464;1.333081378
3.383680924;-0.815761518;3.416010381;-1.362501012;13.91323695;0.147670159;8.239810536;2.111503009;8.528523642;2.920503914;11.04148688;10.31103857;15.63070177;8.851019155;-2.401359545;4.383509847;-1.570708544;5.903028966;1.387651853
3.338829739;-1.273109013;1.921570003;-2.140487942;12.91829587;0.048084154;11.47930548;-1.167718924;3.885844625;1.475559142;7.966612142;5.481039338;13.04904245;8.52047247;-5.779582975;2.781566809;-1.741485362;5.813293439;1.994581587
2.36053187;-4.137664579;-1.713227391;-3.514144753;12.26945733;-0.042847144;5.815301845;-4.625089778;-0.893113767;-0.219437044;2.671568024;-0.603191109;9.193899007;6.928892412;-7.325082469;1.247719401;-2.233142011;5.418939959;2.551742636
0.375646865;-9.037297072;-6.310652876;-6.287311524;12.68120023;-0.111902744;-1.16973189;-7.744099889;-4.25881784;-1.815901552;-2.932418046;-6.190895111;5.283248715;4.503414508;-6.8532957;-0.039330236;-3.120409186;4.669308723;2.289186033
-2.306095186;-13.99722788;-10.30148369;-9.955886745;13.9954467;-0.090640567;-2.709728843;-10.34905355;-5.401990306;-3.055239998;-6.6112819;-9.528834325;2.716026452;2.059618367;-5.863087448;-1.421064004;-4.359402552;3.526763514;0.896142361
-4.935483456;-16.67794236;-12.36792175;-12.73085691;15.21778656;0.061438248;1.881968917;-12.5775554;-4.884353817;-4.040869963;-7.288335505;-10.00698275;2.078211871;0.296384515;-6.39750627;-3.503517845;-5.708403012;1.969390654;-1.184702993
-6.637600113;-16.01945241;-12.02231244;-12.8114463;15.33298789;0.278055452;7.540019531;-14.60015672;-4.283338839;-5.265201531;-5.725037371;-8.545726612;2.679827071;-0.610025635;-9.369960473;-6.5952459;-6.781030435;0.156529648;-3.007251544
-6.932633229;-12.98201125;-9.812447653;-9.865316732;14.1812108;0.39772376;8.749609175;-16.28020271;-5.045123381;-7.237639917;-3.896151913;-6.909385617;3.046719066;-1.006429623;-13.63991094;-10.26792393;-7.222274149;-1.429719567;-3.711451676
-6.076459162;-9.806688741;-7.015137037;-5.467547488;12.59718861;0.277278715;4.944808388;-17.04132549;-7.387847832;-9.927027613;-3.525269787;-6.477387403;2.033072251;-1.375197475;-16.64478285;-13.44138387;-6.898432007;-2.137016549;-3.025781945
-4.92381105;-8.414294273;-4.95739072;-2.095032971;11.67685727;-0.077348837;1.099085684;-16.09573217;-10.09007813;-12.48285296;-4.862351774;-7.403876774;-0.284008449;-1.883786439;-16.22416155;-15.00829179;-5.967576003;-1.596663871;-1.370322454
-4.370917586;-9.208002778;-4.326388949;-1.433895422;11.83110782;-0.478627509;2.8723799;-12.9407991;-11.33564134;-13.5663149;-6.58683656;-8.744154392;-2.608892815;-2.236869582;-12.29647514;-14.5664392;-4.773663818;-0.119060067;0.438042506
-4.770218114;-11.131349;-4.854913241;-3.280905813;12.47688727;-0.66835945;10.59549204;-7.819029614;-9.993419571;-12.16426627;-6.876852822;-9.347896032;-3.327847751;-1.941127918;-7.072917621;-12.70328332;-3.632132725;1.392263538;1.626215532
-5.746586677;-12.76218132;-5.567710343;-5.824641963;12.62562755;-0.498822435;17.65687796;-1.816297696;-6.410518857;-8.340435755;-4.840078125;-8.765154235;-1.641488621;-0.755788482;-3.56756576;-10.60699559;-2.653688075;2.049933062;1.776126888
-6.541857567;-13.429383;-5.449737991;-7.03047154;11.80849658;-0.044890676;15.26741415;3.521669175;-2.19287921;-3.362804066;-1.268150081;-7.498354567;1.871145135;1.040449632;-3.482700908;-9.301572034;-1.723640272;1.651008592;0.892476363
-6.610497207;-13.46309163;-4.134789879;-6.076866162;10.48792588;0.444655713;0.046589925;6.872110387;0.80308073;0.92614962;1.811444957;-6.521094299;5.606677047;2.776605721;-6.065032575;-9.083688524;-0.636925303;0.810009766;-0.711747631
-6.006168231;-13.54338601;-2.178364521;-3.844699096;9.603897838;0.72228686;-21.90023339;7.738136582;1.531628088;3.089435334;2.459930015;-6.543155818;7.907718556;3.805440631;-8.79666713;-9.541141302;0.726269168;0.394548347;-2.588938457
-5.278446356;-13.89396986;-0.715680461;-2.207891286;9.711086989;0.708333214;-38.25335019;6.635791387;0.204905799;2.791719763;0.122420883;-7.592440655;7.98370746;3.893703669;-9.356680524;-10.03496423;2.322744149;0.738958129;-4.311708494
-4.989496772;-14.09810364;-0.691477633;-2.695214438;10.51913151;0.52371313;-39.05875074;4.782034142;-2.024257623;0.823807633;-3.951032692;-9.116108307;6.249016659;3.325347255;-7.299481263;-10.16681689;4.018386546;1.355501153;-5.589183068
-5.24679821;-13.63314673;-2.146187768;-5.425780028;11.23249448;0.374959362;-24.09432735;3.490893689;-3.780871942;-1.441848813;-7.397412849;-10.36456072;3.990674785;2.699186355;-4.147938103;-9.838241649;5.735504257;1.440891023;-6.333117524
-5.610535059;-12.50792437;-4.043996822;-8.94393516;11.31397514;0.395800764;-3.177066236;3.625089351;-4.080704623;-2.729633128;-8.075926264;-10.69650333;2.672076762;2.61392646;-1.89674145;-8.94277233;7.537236761;0.73720309;-6.644646355
-5.421577385;-11.31444612;-4.800550705;-10.98959093;10.91314668;0.574759092;11.00715469;5.365623106;-2.567781488;-2.287518495;-5.218506379;-9.669804173;3.284702613;3.44924423;-1.212349203;-7.103566243;9.564018563;-0.067820934;-6.711856937
-4.27178767;-10.61628081;-3.207162039;-9.73647299;10.56688745;0.813289463;12.09783094;8.333777242;0.558957964;0.019279247;0.2597191;-7.065525928;6.008902599;5.301121945;-0.845485335;-3.826664802;11.86563204;0.158080921;-6.674694239
-2.257394936;-10.28532079;0.833859669;-4.836785041;10.52276887;1.042512036;4.221621714;11.89561553;4.719797648;3.789434203;6.401650569;-3.022140504;10.2309575;7.987380189;1.247357446;0.983149898;14.27081736;1.969762202;-6.560039063
0.139773376;-9.492754155;6.240295241;2.268329757;10.41854145;1.282084359;-1.977897106;15.42704198;9.110584828;8.201800529;11.35171936;1.779735015;14.83554839;11.04451623;6.005902655;6.606416669;16.41938323;4.708982785;-6.34520618
2.39804761;-7.452731336;11.38442795;8.971026043;9.686667581;1.588636841;1.810332571;18.42339121;12.87336126;12.20053801;14.29611487;6.159427253;18.65249389;13.7576494;12.1842894;11.65365383;17.95585174;6.882463106;-6.088110387
4.235153243;-4.273789706;14.99900863;12.79793586;8.293579112;1.95156761;14.79842598;20.49542853;15.33449471;14.84656945;15.66561112;8.895559174;20.91014616;15.33806004;17.0252661;14.78567329;18.74692917;7.305925922;-5.977974241
5.632158397;-1.10486357;16.76229016;12.73373086;7.026849247;2.247927914;27.58849362;21.37538724;16.2453045;15.76371728;16.54483822;9.421317632;21.515277;15.26813732;18.20150952;15.51166866;18.95127391;6.064687341;-6.209640268
6.655226686;0.641399711;17.22872312;9.789628313;6.93469453;2.315203599;29.34986658;21.00833291;15.86036045;15.37720633;17.72811865;8.254410669;21.00852426;13.63499515;15.50295334;14.44510845;18.87548063;4.455886015;-6.752564991
7.289444835;0.369398417;17.24767093;6.382865229;8.358077423;2.088771172;16.02779431;19.67959615;14.75149865;14.65308315;19.07679331;6.739995936;20.1945516;11.17528832;10.95150237;12.7971044;18.7187892;3.933413354;-7.224229559
7.450793617;-1.242301513;17.34364733;4.814024455;10.46827496;1.68245444;-6.604364568;18.04156684;13.45330217;14.40084142;19.62535203;6.176605103;19.65681759;8.902643686;7.282525095;11.48701144;18.40722561;4.932171647;-7.04191942
7.146926641;-2.813868089;17.48343064;5.794656668;11.83180379;1.33079522;-27.03622823;16.93530731;12.18914389;14.63247084;18.37127319;6.920982341;19.47282631;7.510364629;6.011777482;10.55017867;17.6602728;6.551516786;-5.812588814
6.600887134;-3.373839732;17.30105571;8.055903834;11.58535659;1.22824156;-35.81529061;17.04121223;10.88003906;14.54943697;15.19492742;8.16454377;19.32326677;6.970304697;6.578828602;9.274210458;16.25519403;7.338962475;-3.694990331
6.176031085;-3.04337495;16.49879888;9.374510537;10.18628253;1.392001276;-31.18193385;18.53724341;9.414052558;13.27765704;11.23199333;8.60423579;18.89650497;6.654057784;7.138679739;6.910495486;14.2908231;6.485299522;-1.43532786
6.121888999;-2.725876208;15.06902627;8.307444533;9.023984159;1.660651157;-18.85316227;20.97812233;7.938543409;10.80249381;8.37382531;7.533199141;18.25310445;5.91434123;6.24546867;3.37137586;12.23536887;4.427914914;0.005397387
6.337245461;-3.137645402;13.20885119;5.325766881;9.189415702;1.83052162;-6.946532866;23.49309664;6.915479191;8.263844879;8.177219607;5.511078761;17.84084944;4.681537711;4.018456138;-0.624040486;10.69359571;2.407999779;0.004099191
6.360888564;-4.108848258;11.09250538;2.428872259;10.48876945;1.819631772;-0.402228902;25.20292903;6.869179049;7.205068959;10.89777596;4.058931663;18.13760887;3.584047085;1.89297087;-4.028332878;10.03780109;1.427310069;-1.372818068
5.63400515;-4.8176108;8.758773244;1.487078136;11.60462048;1.72886861;1.095028385;25.61424955;7.999733958;8.258948689;15.29747073;4.561312153;19.21773338;3.463364746;1.265122985;-6.168245854;10.15505649;1.509429109;-3.463100826
3.864942247;-4.730029297;6.203654611;2.611267533;11.28389234;1.756734976;1.003646544;24.76583518;9.941263737;10.36073897;19.35070739;7.17863904;20.61637006;4.651081669;2.228231201;-7.156983401;10.48614311;1.827390098;-5.466852586
1.239340248;-4.325716908;3.529892996;3.901443466;9.4881579;2.041955545;2.206173359;23.06965339;11.84423852;11.30510253;21.36522393;10.58869674;21.62830177;6.595636942;3.466571406;-7.783587891;10.32792409;1.476165174;-6.932194514
-1.673642365;-4.851087311;0.941052867;2.866418698;7.45457591;2.559433234;4.937515608;20.99064186;12.74796129;9.417964382;20.78895156;12.77120498;21.81655441;8.170993936;3.374920791;-9.040730959;9.195675481;0.163247181;-7.93906674
-4.25;-7.241759022;-1.456587452;-1.552833416;6.597422227;3.142368719;7.564784045;18.79801832;12.03938613;5.106450754;18.25421631;12.28917039;21.32486335;8.458743824;1.457629796;-11.63780348;7.023624113;-1.726504292;-8.900292457
-6.143227622;-11.17506322;-3.844417535;-7.969094331;7.243766518;3.598146897;8.784962008;16.53649924;9.760581688;0.962062952;14.97467862;9.179267932;20.74252824;7.407101067;-1.152376568;-15.73823446;4.121521901;-3.605501261;-10.17569999
-7.399144092;-15.1741036;-6.625533853;-13.40012561;8.360187824;3.818390864;8.89883695;14.18036529;6.61451399;0.113705709;12.01440555;4.876419599;20.63260798;5.85715668;-2.48993479;-20.93587135;0.980222863;-5.154061548;-11.78705471
-8.296595374;-17.76712147;-10.06741917;-15.36324503;8.524764094;3.804923372;9.152090526;11.79644451;3.657417954;3.92;9.909761161;1.297368703;21.10234602;4.922179256;-1.257467698;-26.3716729;-1.910134862;-6.35740784;-13.39042153
-9.048373719;-18.71150463;-13.91070482;-13.59250415;7.250752945;3.614706286;10.17497751;9.56049186;1.800101316;10.73338961;8.739347988;-0.242800241;21.74804581;5.205830526;2.120198361;-30.94131324;-4.140171958;-7.188603001;-14.45489329
-9.580411818;-19.14458869;-17.2947713;-10.0640944;5.436906758;3.292216133;11.31034875;7.620934369;1.340381326;16.77284612;8.371138147;0.41131959;21.99169749;6.445561826;5.675184556;-33.61689757;-5.401839152;-7.383096689;-14.49251824
-9.538188155;-20.42595496;-19.13404047;-7.377820671;4.52244079;2.85348479;11.50497527;5.949604971;1.776624166;18.58016155;8.573202631;2.453964133;21.51147055;7.800612951;7.169379517;-33.85458346;-5.547520713;-6.616300393;-13.23389248
-8.510831778;-22.63839561;-18.72177297;-6.835817552;5.128979477;2.324914328;10.70277864;4.331081633;2.055825071;15.30776889;8.93783828;4.762922522;20.41200541;8.489092344;5.546820927;-31.91039477;-4.711177389;-4.924701619;-10.74357546
-6.32756753;-24.13801374;-16.14675589;-7.727799094;6.459676629;1.783439708;10.11704711;2.510634333;1.181873477;9.176118713;8.840714335;6.465421208;19.01822311;8.243600778;1.579464875;-28.82094677;-3.386945696;-2.90419618;-7.489719147
-3.24698613;-22.73592021;-12.24859575;-8.272851931;7.031779395;1.344157563;10.94883051;0.367382384;-1.144647278;3.799764442;7.653189361;7.112072042;17.49856459;7.272899971;-2.670114927;-25.96251629;-2.318575301;-1.40344594;-4.312000695
0.069609161;-17.67656587;-8.185226338;-7.30263108;6.074721568;1.093935399;12.8565634;-2.049503662;-4.275744152;1.661308914;5.148906041;6.539046877;15.65995251;5.870297546;-5.149352032;-24.40160234;-2.167988488;-0.929892304;-2.190009766
2.790328119;-10.76098737;-4.942046256;-5.24361127;4.287377584;1.024172111;13.95191324;-4.652528504;-6.975978597;2.58774813;1.778018795;4.721951136;13.10195405;4.092473947;-5.02767312;-24.43875571;-3.127345445;-1.299435979;-1.813479304
4.240299367;-5.513364984;-3.074578898;-3.658721192;3.22407889;1.023227247;12.67153213;-7.472140153;-8.205263675;4.23922998;-1.487387409;1.820577085;9.609710946;1.811672967;-3.116217869;-25.63124913;-4.746127593;-1.860549824;-3.157065266
4.17592918;-4.833973006;-2.719519055;-3.875613003;3.85241529;0.943744644;9.829177451;-10.64660376;-7.801568686;4.064653369;-3.696959643;-1.672165666;5.461396476;-0.945598532;-1.325934302;-27.22777985;-6.143951596;-2.088835223;-5.377798904
2.884243079;-8.872900938;-3.696493225;-5.948983957;5.617507551;0.701922642;8.551431975;-14.1988822;-6.565717231;1.147913275;-4.468713953;-4.936314734;1.388716334;-3.749100356;-1.532216884;-28.65208787;-6.51869539;-1.996209295;-7.215874408
1.060949479;-14.80089916;-5.547169203;-8.797559288;6.906010249;0.34180056;11.5132686;-17.7760611;-5.668241594;-3.378975337;-4.124920223;-7.13156249;-1.799153749;-5.902268054;-4.47266025;-29.68776421;-5.631108329;-1.97995965;-7.729572809
-0.484925109;-18.7353369;-7.555796667;-11.25279756;6.514987776;0.022901482;17.58620448;-20.62097818;-5.813568961;-7.444969293;-3.341375623;-7.852144272;-3.657096627;-6.895188303;-9.230849803;-30.32147795;-3.939290822;-2.284302586;-6.892725136
-1.173426585;-18.41432799;-8.919353621;-12.97423665;4.780945107;-0.060046539;21.17695654;-21.89788276;-6.795967444;-9.599373471;-2.642026877;-7.376382077;-4.292686112;-6.786445719;-13.56356908;-30.50951894;-2.293044704;-2.631153929;-5.606301083
-0.888740319;-14.63560828;-9.117263376;-14.4058819;3.306288658;0.221402699;15.7377209;-21.20062499;-7.77751364;-9.771238651;-2.175022042;-6.461718791;-4.179207419;-6.161925878;-14.9541466;-30.1574247;-1.407682735;-2.417199371;-5.065444918
0.004088357;-10.44773302;-8.267696356;-15.91733394;3.498707962;0.859043259;-0.664866102;-18.87692947;-8.035863142;-8.817043881;-1.906244115;-5.787760668;-3.752822497;-5.680664832;-11.93746587;-29.33230203;-1.483347412;-1.315317066;-5.908329452
0.869008023;-8.809217172;-7.134467047;-17.0670357;5.246707963;1.700574435;-22.19810466;-15.89233262;-7.545986686;-7.499680551;-1.942919135;-5.459981629;-3.108114716;-5.583244402;-5.055382677;-28.43852648;-2.207887149;0.301555851;-7.766482252
1.129632329;-10.53572452;-6.65250591;-16.80293406;6.96079762;2.507980201;-37.78080108;-13.28837758;-6.90798773;-5.909185071;-2.564431209;-4.976235806;-2.020631125;-5.57479503;3.117285118;-28.07980235;-3.083933063;1.560938961;-9.555782241
0.552525134;-13.99851058;-7.244566109;-14.49670298;6.977697342;3.058784086;-38.24487304;-11.60461026;-6.701830536;-3.777873707;-3.842583604;-3.703907157;-0.267163949;-5.164164163;9.03883538;-28.63126025;-3.790757033;1.785204287;-10.28884948
-0.657378262;-16.58404453;-8.447629856;-10.85165369;5.070939179;3.247725287;-23.08496768;-10.67042392;-6.857776042;-1.239222314;-5.207149322;-1.49048014;2.022620741;-4.137457739;9.937207449;-29.86903881;-4.304449343;1.071854423;-9.788154064
-1.985348127;-16.59588608;-9.18747831;-7.741450747;2.689818668;3.138388388;-1.433963133;-9.889658617;-6.631016226;0.831018302;-5.487880291;1.108217939;4.288057668;-2.731818982;5.334727809;-31.0209457;-4.72961815;0.230718861;-8.759628807
-2.87505593;-14.11727282;-8.534372652;-6.944107509;1.688094059;2.929016659;14.01471438;-8.763951463;-5.242741373;1.325173241;-3.614350751;3.208191381;5.841339322;-1.358198542;-2.530029297;-31.26044926;-5.041680789;0.118815914;-8.190806686
-2.985162926;-10.37998162;-6.359103065;-8.737017152;2.675974495;2.839176535;15.92414123;-7.238627616;-2.644146575;-0.141569032;0.462903054;4.306261036;6.36519205;-0.146057709;-9.732785235;-30.26676577;-4.997425636;0.946666797;-8.56362266
-2.30513555;-6.452477024;-3.363894054;-11.51787723;4.482076156;2.976650872;7.356020443;-5.636102064;0.289963777;-2.707457455;5.401886207;4.730231912;6.236055059;1.239127767;-12.66673107;-28.39465533;-4.305245128;2.138229885;-9.500262976
-1.092642354;-2.497384417;-0.472067582;-12.81907749;5.216665388;3.269357133;-1.048354848;-4.302954512;2.370579984;-4.712794154;9.11147186;5.411871466;6.388702127;3.294499699;-9.924882565;-26.333016;-2.908110083;2.820311304;-10.09673645
0.302451919;1.832883779;1.898273927;-10.96721413;3.982921941;3.51558713;0.295737249;-3.323403023;3.04536416;-4.824419126;10.09244948;7.107575022;7.751336164;6.135135882;-2.98743166;-24.58372907;-1.128722879;2.481339764;-9.648314394
1.607863018;6.406356555;4.050662272;-6.149996601;1.69924391;3.527711951;12.12281701;-2.55295731;2.898848788;-2.944983932;8.535531851;9.678496649;10.60955084;9.202924942;4.676561123;-23.23797891;0.459260844;1.259006309;-8.180864084
2.692498903;10.10404555;6.532246239;-0.174601516;0.299034199;3.272757652;25.47568619;-1.902226593;3.244798065;-0.186735725;6.306568222;12.05295814;14.35277974;11.54085274;9.545430674;-22.21964981;1.343218718;-0.282417986;-6.392221165
3.500811162;11.38048899;9.385923472;4.753568705;1.030644421;2.906611711;28.52935801;-1.553645519;5.091103204;2.031522062;5.728261431;12.97713796;17.81711749;12.46069436;9.868969266;-21.6902015;1.333206789;-1.57165873;-5.098979008
3.921959792;9.449508225;11.80465024;7.23228487;3.370170405;2.670969477;15.78872744;-1.853756617;8.284729719;3.000768262;7.97624175;12.00582024;20.01123292;12.06669392;6.344424843;-22.12981482;0.595745856;-2.266038891;-4.662569987
3.704927694;5.034654286;12.52750588;7.056030621;5.483946314;2.723834313;-7.466077685;-2.939422329;11.51824222;3.053587854;12.23312443;9.932754588;20.71041185;11.18142493;1.35403006;-23.92373281;-0.524063516;-2.244007715;-4.837565458
2.508411219;-0.026430324;10.69226088;4.812856877;5.782385684;3.026970663;-28.83018146;-4.437211408;13.2036341;3.044908671;16.21591393;8.255326018;20.47763397;10.70174377;-2.641311848;-26.81201027;-1.719240854;-1.59739982;-5.102902573
0.089747646;-4.036672966;6.480290875;1.311787678;4.166878172;3.373235173;-37.53286578;-5.552916982;12.55086815;3.534036773;17.70362625;8.032582561;20.09698827;10.89301965;-4.49859459;-29.78859086;-2.813254895;-0.782613977;-5.145492922
-3.465430081;-6.515210154;1.069944642;-2.61554724;1.915667997;3.532449245;-31.51114779;-5.544740365;10.06312509;4.405062217;15.98973226;9.021634145;19.87246492;11.198006;-4.759597701;-31.694545;-3.713158154;-0.716241777;-5.087061469
-7.627901739;-8.219053612;-4.025285687;-5.989115791;0.422673047;3.407496332;-17.66117941;-4.228848701;7.147863554;5.192065666;12.27882599;9.812993971;19.37676268;10.72426435;-4.899567025;-32.10580429;-4.344780383;-2.417793496;-5.312010056
-11.54117344;-10.16318033;-7.710848987;-7.720177676;0.007582896;3.08977801;-5.711420323;-2.11121823;5.212430815;5.710401694;8.830292379;8.921326654;17.89205939;9.018258159;-6.091464472;-31.75750813;-4.685085457;-6.151908299;-6.10525081
-14.35730467;-12.55664499;-9.658381707;-7.122798357;-0.145049389;2.783556792;-1.022447556;-0.036208424;4.923847234;6.342064219;7.512986032;6.01523191;15.21043087;6.496090057;-8.363579807;-32.05336792;-4.870909971;-10.6666391;-7.435587072
-15.62790135;-14.60980992;-10.15600659;-4.58589355;-0.979899877;2.665029088;-1.909467933;1.361013197;6.068398117;7.687330977;8.757093057;2.317017198;12.11592857;4.177610651;-10.6712428;-33.96859277;-5.239685619;-13.3865172;-9.037506015
-15.51387496;-15.35146304;-9.753186646;-1.702348356;-2.553080242;2.779261337;-2.880943207;1.959372621;7.925581149;9.91505455;11.50772267;-0.179388268;10.06570224;2.932428689;-11.73188652;-37.21729797;-6.182499188;-11.84481244;-10.64891718
-14.65589416;-14.65941264;-9.016234834;-0.461491317;-3.997264541;3.034983625;-0.256676153;2.000498054;9.737615968;12.43984307;14.05597104;-0.108660282;10.21123414;2.832424458;-10.96655023;-40.3966672;-7.859611237;-5.551969185;-12.13724414
-13.75147753;-13.49788098;-8.435727343;-1.921206923;-4.452284056;3.278448054;4.888747377;1.668739434;10.94236002;14.25968549;15.09524424;2.299477273;12.47068198;3.10873759;-8.883819557;-42.03275142;-9.993521039;3.157172608;-13.39762067
-13.09079556;-13.07139255;-8.305949254;-5.354824893;-3.985232965;3.379900555;8.609532362;0.812436555;11.17282551;14.68253487;14.33887323;5.40764563;15.40135318;2.725863741;-6.697638544;-41.69560734;-11.94946226;10.23277309;-14.1734544
-12.36195907;-13.61987165;-8.491261259;-8.625908175;-3.551230773;3.279848749;8.460964535;-0.932986798;10.24533349;13.81323082;12.44082548;7.344551414;17.05364727;1.114528439;-5.52691932;-40.28394072;-13.11133456;12.44519684;-14.06048209
-10.88208874;-13.98033029;-8.289011943;-9.607782861;-4.020268808;2.990480796;5.985912083;-3.738413067;8.26748619;12.38576938;10.42813309;7.262351302;16.23484729;-1.481222018;-5.773427246;-39.27273493;-13.31303773;9.559912254;-12.78833317
-8.126221443;-12.43423585;-6.71249717;-7.608105459;-5.25142508;2.5793924;5.028575587;-7.272667417;5.743747194;11.10940074;9.075613735;5.764628057;13.26929535;-4.248801729;-7.061882071;-39.57690921;-13.00010073;4.45837415;-10.57503936
-4.204549778;-8.236787489;-3.218510442;-3.730514962;-6.180078125;2.154082903;7.702736108;-10.78729411;3.451313005;10.11800408;8.568974253;4.281250828;9.700414907;-6.387430362;-8.657752616;-40.96739018;-12.96450207;1.024715323;-8.206435541
0.051183605;-2.553766413;1.594251345;0.04659181;-5.889687917;1.838603773;12.10569139;-13.53820412;2.044956981;8.9954283;8.557611213;3.970898552;7.173130534;-7.554733695;-9.941879942;-42.4508856;-13.8032218;1.38264623;-6.667131245
3.475898741;2.071882603;5.978870659;2.282646696;-4.629255979;1.728010527;14.17567545;-15.19571811;1.648880336;7.313365648;8.477349277;5.009170068;6.341970033;-7.88555235;-10.57221785;-43.17503123;-15.46527824;4.603880235;-6.521694984
5.18725066;3.423555132;7.961329143;2.864987307;-3.72280535;1.833780995;12.02270387;-15.92226765;1.78579724;5.157608789;7.920466028;6.700313189;6.595428282;-7.666816735;-10.32100738;-43.0087785;-17.20524207;7.816945491;-7.499487361
5.017099287;1.193308413;6.642979443;2.673062752;-4.359627485;2.063396616;8.453990606;-16.10550721;1.745891142;3.148405668;6.846922742;8.148005759;6.727548904;-7.006267082;-8.900785282;-42.32541837;-17.98513851;8.690990843;-8.635517507
3.475637181;-2.809261661;2.881924412;2.587656365;-6.378805447;2.268487527;8.834044257;-16.02802165;1.117983034;1.941499313;5.535360227;8.84457712;5.961305439;-5.776229442;-6.083315091;-41.30830881;-17.06550081;7.198825336;-8.91481862
1.303406769;-6.005596796;-1.284664597;2.793516574;-8.258028519;2.343221509;15.74722614;-15.76337595;0.052145434;1.678669423;4.327837777;8.758491621;4.509592214;-3.836564807;-2.0780936;-39.55640381;-14.41537184;5.27808038;-7.973134506
-1.037505146;-6.902189234;-4.128367598;2.92420522;-8.428494442;2.301908626;25.25860007;-15.32288761;-0.941785462;1.897455363;3.362031253;8.040019531;3.291696729;-1.30211011;2.209937763;-36.45691641;-10.71398853;4.865134215;-6.343936625
-3.553693737;-6.007718636;-5.47494372;2.7442418;-6.753621296;2.26675155;28.68720855;-14.81466012;-1.44102124;1.977910249;2.510678801;6.790679667;3.118681683;1.388782654;5.427654195;-32.00801749;-6.990581104;6.141305425;-5.072748248
-6.475939899;-5.147914131;-6.673284993;2.57116615;-4.763950454;2.363517885;19.18718463;-14.38532278;-1.381203905;1.703513232;1.602102644;5.167593601;4.044587997;3.653266955;6.51220398;-27.26493041;-4.152785312;7.527373535;-4.990186705
-9.813599955;-5.814944883;-9.277935317;2.957125003;-4.333557002;2.602927088;-2.007858247;-13.9877721;-0.937496061;1.408310287;0.750002441;3.639205704;5.371012152;5.034131971;5.427547368;-23.85743464;-2.666485098;7.311723243;-6.178300172
-13.10070831;-7.942085637;-13.53457015;3.948351293;-5.945270225;2.846888338;-25.08406085;-13.26817972;-0.21191759;1.571028516;0.471540743;2.964277965;6.216543435;5.361437719;3.287455258;-22.86720271;-2.502360512;5.318257908;-7.99642279
-15.5665003;-10.08745633;-17.97065677;4.733824765;-8.150880657;2.895509715;-37.87227319;-11.80629796;0.875363159;2.24115569;1.389949476;3.713008429;6.127593587;4.731749854;1.664126316;-23.99453006;-3.291090842;3.047728047;-9.595591153
-16.61095212;-10.7988507;-20.48315694;4.179233124;-8.800909348;2.63180238;-34.25158435;-9.587863948;2.322422706;2.85559736;3.66446889;5.663075431;5.254904017;3.386035267;1.529624733;-25.77097993;-4.547184511;2.200100327;-10.4933242
-16.20780149;-9.938387689;-20.02877106;1.885535537;-6.995492055;2.110683748;-18.23373623;-7.270468551;3.687508986;2.65901169;6.59591229;7.664018342;4.051454454;1.611344819;2.622167938;-26.70041947;-5.849737706;3.017207089;-10.77563256
-14.90721504;-8.803237221;-17.47653414;-1.183207134;-3.988802685;1.522763913;-0.601937649;-5.876622716;4.11314758;1.382628917;8.820732513;8.253499657;2.848022909;-0.289384974;3.739656605;-26.39811111;-6.941838914;4.044414475;-10.82395255
-13.43142708;-8.931127806;-14.88290796;-3.19095039;-2.17294711;1.065348237;9.089373867;-6.022919479;2.900491616;-0.427934304;9.083247798;6.652374171;1.691416271;-2.01423017;3.731445488;-25.77858071;-7.757081236;3.553236215;-10.85105126
-12.18693672;-10.63048484;-13.81214979;-2.777353394;-3.002181934;0.825447011;8.793569938;-7.280645466;0.224397562;-1.766237867;7.07172947;3.355494698;0.513418492;-3.329884901;2.380063477;-26.15327138;-8.385205134;1.271689014;-10.66172086
-11.08127394;-12.54188762;-14.15867901;-0.192954743;-5.714019966;0.760895948;3.894666853;-8.287765276;-2.707456237;-1.943568631;3.659973993;-0.20711488;-0.629189539;-4.171419615;0.444057222;-28.03155412;-8.983235885;-1.253414726;-9.839088215
-9.773554646;-12.67983774;-14.48217298;2.764307523;-8.018579326;0.775813842;1.542798478;-7.683998976;-4.386383849;-1.15558469;0.300047607;-2.70823068;-1.531435724;-4.680408613;-1.159424232;-30.65239762;-9.655655534;-2.06277605;-8.185396545
-8.120078125;-10.13377216;-13.5164832;4.041920165;-8.152452089;0.808177074;4.594505179;-5.227360232;-4.181132343;-0.362393611;-2.013269827;-3.824366014;-2.052939851;-5.11249625;-2.297112968;-32.61066541;-10.35777442;-0.66985821;-6.026084037
-6.41063777;-5.999216443;-11.4570892;2.851797888;-6.441759734;0.849743519;10.13782366;-2.188994353;-3.002503407;-0.57474728;-3.396955338;-4.264742307;-2.312322057;-5.658385669;-3.804532842;-32.98303276;-10.88203677;1.370101862;-4.094683168
-5.174204409;-2.699077941;-9.828444583;0.191954749;-4.952956182;0.894737951;13.19815381;-0.603916522;-2.777111649;-2.123766211;-4.809951649;-4.945218759;-2.614665444;-6.314721168;-6.659490229;-31.95911407;-10.94605332;1.810855771;-3.060838183
-4.716241417;-2.177114051;-10.0299016;-2.049197203;-5.553854043;0.887797252;11.70382504;-1.847687126;-4.998927267;-4.48530512;-7.066938082;-6.074324889;-3.144129879;-6.914920611;-10.7957516;-30.48007813;-10.33772235;-0.215958762;-3.063199256
-4.80504775;-4.408636406;-11.89967195;-2.663133099;-8.168876579;0.741481114;8.091909801;-5.594604018;-9.467176068;-6.754696228;-9.966727335;-6.988309811;-3.722985008;-7.296350467;-14.61685421;-29.30195879;-9.036528548;-3.340207243;-3.620689659
-4.82267483;-7.460660057;-13.6806075;-2.075695004;-10.83896247;0.419501505;6.43272144;-9.978452669;-14.28807799;-8.342223418;-12.31086168;-6.878326575;-3.911663298;-7.456443499;-15.78720565;-28.38962495;-7.248893794;-5.152625642;-4.007747885
-4.304330835;-9.090677301;-13.53449383;-1.917086171;-11.53299248;0.006699481;8.236390696;-12.86848893;-17.24879699;-9.323992263;-12.8559562;-5.710332603;-3.405348414;-7.551990852;-12.84958441;-27.17771012;-5.349488228;-4.402467799;-3.817026344
-3.433283162;-8.605228173;-11.31453656;-3.584561109;-10.03260739;-0.313250405;11.17953721;-13.30684402;-17.52277419;-10.21965293;-11.42860612;-4.423336817;-2.371114989;-7.728064071;-6.474476888;-25.37533913;-3.763854873;-2.159972961;-3.280765161
-3.047946345;-7.453063653;-8.973301139;-6.98996241;-8.135220236;-0.371304426;11.9439371;-12.03286723;-16.31599329;-11.455175;-9.236997055;-4.132982977;-1.379661982;-7.912879491;0.677325412;-23.46306434;-2.8346595;-0.824244581;-3.100541044
-4.087137091;-8.027090689;-9.108298298;-10.51130507;-7.976681161;-0.129610668;10.17091686;-10.74748143;-15.86962679;-12.98424723;-8.041968831;-5.010336052;-0.937215827;-7.752490953;5.497984922;-22.33331326;-2.700358267;-1.852296132;-3.908727374
-6.860296808;-11.59985324;-12.78052174;-12.17953059;-10.03011339;0.297019475;9.27392364;-10.75397921;-17.57700724;-14.33768076;-8.802615459;-5.886925642;-1.00575958;-6.753710397;6.34526454;-22.37439519;-3.21407475;-4.315826656;-5.766925276
-10.70193639;-17.04502289;-18.44432446;-11.1534034;-12.65404847;0.732503266;12.84422122;-12.05458635;-20.7402394;-14.97572167;-10.88663966;-5.065035564;-0.95186711;-4.547736957;3.999078568;-22.88473728;-3.947632914;-5.678644104;-8.079750683
-14.29777809;-21.40419994;-22.94624298;-8.341585599;-13.6286214;1.062794267;19.89175152;-13.54705305;-23.01362455;-14.6013946;-12.51162184;-1.749572791;-0.01365727;-1.109410723;1.030833612;-22.45534253;-4.325933189;-4.14240526;-9.986476343
-16.46028819;-21.91175358;-23.81746194;-5.727527652;-12.25504368;1.285149963;23.8438843;-14.0452061;-22.21901247;-13.21663348;-12.09192257;3.099519901;2.080236662;3.181989809;0.082494689;-20.0795615;-3.882251643;-0.412035955;-10.93027037
-16.79025328;-17.94580019;-20.9942574;-4.944454621;-10.04307147;1.450553772;17.19194288;-13.21791939;-18.08870349;-10.99626331;-9.426984516;7.285465229;4.85896538;7.638899942;2.258238715;-16.04558633;-2.528605263;2.795907055;-10.97425449
-15.76303364;-11.43833084;-16.60070222;-6.163736715;-9.310649692;1.56913606;-1.583220861;-11.7005395;-12.53619316;-8.206357108;-5.797937941;8.928098722;7.447695783;11.44325039;6.636485946;-11.80314366;-0.671366646;3.123582477;-10.63622507
-14.23687333;-5.48332371;-13.08045144;-8.063906962;-10.97866263;1.581938258;-24.87613433;-10.39508946;-8.243896679;-5.265009794;-2.930869212;7.831166054;9.223178288;13.84266342;11.05126842;-8.874443909;0.950092773;0.681737399;-10.39252408
-12.81946392;-2.253166789;-11.32925804;-8.838092849;-13.63169316;1.432436526;-40.06196367;-9.657965633;-6.708264381;-2.799339831;-1.692998444;5.569183121;10.24850007;14.34790758;13.466818;-7.71868259;1.661223902;-2.054137935;-10.26031464
-11.59363073;-1.790029297;-10.38359311;-7.499589772;-14.76951571;1.163908464;-38.28244647;-9.101687205;-7.287200068;-1.481810669;-1.565997633;4.243699701;11.13823912;12.91412543;13.04379343;-7.502682156;1.267811431;-2.505459066;-9.801232436
-10.3561882;-2.462679478;-8.786082412;-4.610813087;-13.13256316;0.930519443;-21.08773915;-8.130824879;-7.942712352;-1.641155251;-1.265629092;4.931256451;12.47736082;10.03020913;10.39299476;-6.937547936;0.2161572;-0.350726891;-8.546825279
-9.072695392;-2.545680935;-6.269588006;-1.991782025;-9.947203071;0.885648407;0.538534975;-6.660110528;-6.995826202;-2.939511222;0.065131204;7.04106888;14.26582941;6.604984831;7.098865157;-5.42502774;-0.638904754;2.204555038;-6.497055001
-8.082921595;-1.573446179;-4.182945625;-1.611507064;-7.897270899;1.035246897;14.17946833;-5.321370978;-4.449462659;-4.464894942;2.090068359;8.986244782;15.80900248;3.614425821;4.920539917;-3.530892139;-0.54252859;2.529146247;-4.268886291
-7.844893452;-0.448071946;-4.281034845;-4.332386365;-8.726114707;1.197422019;14.69828865;-4.95633151;-1.874591343;-5.286912804;3.536683838;9.485693356;16.10283848;1.648010225;5.04149077;-2.442201329;0.685640105;0.108314058;-2.740887269
-8.450186166;-0.392029943;-7.012364129;-9.249969098;-11.66544737;1.130298347;6.854787769;-5.851983113;-1.067880744;-5.097785684;3.21786507;8.39175923;14.40940539;0.62886351;7.567100841;-2.964289679;2.513689666;-2.86;-2.445275936
-9.382232036;-1.770462386;-10.89589647;-14.05404533;-14.15031396;0.739323358;0.172134781;-7.408816479;-2.640125717;-4.409136038;0.977930474;6.487017812;10.65423686;-0.068911163;11.39622695;-4.956011949;3.985538563;-3.436838052;-3.177045031
-9.80223757;-3.808065511;-13.59078765;-16.28550759;-14.16995567;0.188037819;0.784628963;-8.544018575;-5.635275224;-4.088615424;-2.148478128;4.646805992;5.483127046;-1.136086299;14.59718753;-7.615675738;4.251456285;-0.711301774;-4.13731375
-9.185244296;-5.360354181;-13.73831983;-14.82059274;-12.0764008;-0.198832659;7.160766705;-8.485117115;-8.349760771;-4.573325825;-4.614869979;3.236836742;0.048560372;-2.793615908;15.29531536;-10.21668199;3.014087989;3.204348503;-4.515491237
-7.79087939;-5.96056568;-11.97067875;-10.67284594;-10.16707168;-0.179413292;12.82902093;-7.285147919;-9.565235456;-5.41386891;-5.319052527;2.225912612;-4.341741224;-4.603913207;12.74566526;-12.53111221;0.639494024;4.948325103;-4.066882219
-6.544803428;-6.163176266;-10.23532581;-6.489581315;-10.43936753;0.207146929;13.00872776;-5.662527325;-9.207870393;-5.575678365;-4.178812623;1.692638186;-6.652334288;-5.796161103;7.952606523;-14.58505757;-2.088679304;2.902283331;-3.240845283
-6.3723855;-6.882067407;-10.07596349;-4.89426082;-12.64748258;0.654595809;8.890699719;-4.372102205;-8.071898661;-4.30714203;-2.058569761;2.013064217;-6.576390716;-5.881339026;3.283618236;-16.1234008;-4.379500459;-1.314893861;-2.7680703
-7.486638135;-8.349642594;-11.39673613;-6.670425731;-14.53160617;0.811656728;5.879503569;-3.698746522;-7.058648058;-1.887174768;-0.249334124;3.419781052;-4.84463877;-5.079318144;1.125096817;-16.47487011;-5.755118717;-4.250167019;-3.045033409
-9.199276586;-9.677328077;-12.74682891;-10.07654795;-14.04369205;0.537403969;7.878355943;-3.498366606;-6.664638369;0.378097855;0.11857317;5.395978956;-3.091357564;-4.189259191;2.374659331;-15.07912346;-6.133127558;-3.677110201;-3.81338502
-10.42646993;-9.473339158;-12.7792457;-11.95659848;-11.46490257;-0.010303796;13.31684503;-3.667839075;-7.037513646;0.956629258;-1.50568034;6.688519436;-3.117589943;-3.95316845;5.833620191;-12.19462625;-5.698014151;-0.539017272;-4.390039063
-10.51189286;-7.037600816;-11.52278341;-10.05258587;-9.338457746;-0.512483294;16.79824232;-4.514542165;-8.287942624;-0.894271734;-4.876578354;6.19468225;-5.817115176;-4.380048828;9.020207714;-9.013218919;-4.705517382;1.998934317;-4.253622067
-9.730570952;-3.124000135;-10.34534784;-4.908870833;-10.16248503;-0.727622696;14.73882408;-6.593525353;-10.5299916;-4.639036383;-8.935509738;4.056772693;-10.4370269;-4.578782239;9.893292777;-6.906963215;-3.359530766;1.513885038;-3.499660578
-9.0774473;0.408042217;-10.70631874;0.154242606;-13.94373081;-0.636434105;9.38083803;-10.09244755;-13.50278139;-8.806558169;-12.07602556;1.903233263;-14.80716367;-3.300806697;8.253669857;-6.380956628;-1.807562943;-1.431332973;-2.781220557
-9.493887942;1.827132822;-12.85662137;1.21709039;-17.95602208;-0.395997888;6.922812503;-14.30197532;-16.1868853;-11.82736826;-12.74645189;1.794289157;-16.5694075;0.13841903;5.79606175;-6.673057723;-0.201178165;-3.845586;-2.769672659
-11.11147389;0.71457391;-15.60993176;-3.33969864;-19.06898918;-0.176308806;11.10923224;-17.69495167;-16.97839151;-12.71948611;-10.20353171;4.596399322;-14.65967095;5.207414783;4.806016426;-6.417896443;1.269536756;-3.154245081;-3.564342677
-13.07129309;-1.770795445;-17.28180372;-11.35066326;-16.59570861;-0.039727516;18.29613047;-18.65657335;-14.53056439;-11.22557008;-4.968763214;9.159838679;-9.987897229;10.27326456;6.526859969;-4.821627872;2.420700152;0.319803575;-4.529742152
-14.04258637;-3.676247146;-16.87380235;-18.03659033;-13.01744623;0.042048363;19.23506519;-16.37473522;-8.716460585;-7.533981338;1.416443841;13.12166063;-4.770166855;13.45633482;10.42270343;-2.290604868;3.17597233;3.575436507;-4.706345207
-13.06370454;-3.441059745;-14.49296562;-19.13;-11.81052561;0.084682337;6.943341839;-11.26616485;-0.927218337;-2.025442711;7.292432785;14.78541782;-0.971700505;13.67890487;14.77907581;0.06011135;3.642812118;3.686287205;-3.494173384
-10.13217209;-0.650102726;-10.84003906;-13.73051756;-14.27111586;0.034038658;-15.82894827;-4.677896514;6.634343615;4.684876284;11.85426512;14.5245018;0.970097656;11.22283264;17.99063619;1.534603029;4.080293423;0.540686631;-1.102122193
-6.190380454;4.009508591;-6.492838098;-4.792357346;-18.24155302;-0.172327862;-36.45682191;1.857032919;12.22252392;11.57737327;15.46669276;14.46331115;2.171877792;7.451049236;19.41697146;2.501428642;4.738644143;-3.006181221;1.557222902
-2.583719494;9.309590097;-1.779224955;3.097509022;-19.98644938;-0.490014648;-40.76809032;7.259881857;15.47612265;17.32892346;19.05521236;16.62510334;4.101962584;3.916261068;19.21483449;3.873736815;5.647831949;-3.756362285;3.430248889
-0.380586273;14.02500249;2.735530581;6.945000232;-17.59628729;-0.737151492;-23.74927814;11.07417565;17.35428524;20.8460059;23.05244222;21.08050566;7.163061878;1.472558862;17.56347145;5.890977584;6.501069682;-1.155038169;3.929914886
0.050518302;17.18954799;5.896621733;7.140719961;-12.83444358;-0.714542371;5.898797908;13.22136384;19.19003906;21.90080293;26.77791355;25.68724388;10.23722879;-0.041895313;14.24903387;7.446008866;6.756869173;2.158801851;3.189596542
-0.951547288;18.2055716;6.42419164;6.555957403;-9.685919508;-0.388450703;31.23469608;13.698169;21.61452004;21.29909807;28.80093087;27.68269927;11.55911248;-1.411783264;9.151429738;6.798036338;5.955605304;2.798909211;1.859842988
-2.644181027;17.04666536;3.987254368;7.82200895;-10.84926818;0.037346366;38.49820561;12.51330596;24.13297297;20.31640851;28.01951238;25.80960888;10.17534669;-3.291953223;3.174941887;3.208769126;4.078845544;-0.165560977;0.664009735
-4.274413531;14.49326736;-0.135919118;11.06055925;-15.32624494;0.254541861;25.77240205;9.864107538;25.57655218;19.77305173;24.57135271;21.20461791;6.775256051;-5.65745488;-1.458673242;-1.975355374;1.694514225;-4.244591158;0.033646813
-5.381388541;12.02606883;-3.672676413;13.86916544;-19.3193919;0.098473672;2.678673253;6.311178938;24.9918583;19.50003906;19.81742705;16.35989512;3.227290119;-7.828697614;-2.225939225;-5.972374345;-0.276250568;-5.7508209;0.003113128
-5.924079176;11.11562764;-4.989567963;13.46640526;-19.6572534;-0.299785695;-17.75405622;2.721891311;22.28210525;18.67184057;15.41038215;13.12524792;1.237189115;-9.013546205;1.866728595;-6.646356984;-1.087661956;-3.192446801;0.321964066
-6.217798106;12.20110329;-4.421203854;9.1432986;-16.64536491;-0.604656632;-27.99039873;-0.030828869;18.19840046;16.7314111;12.21444182;11.48725994;1.227900193;-8.947146868;9.037408374;-4.341378604;-0.668417845;1.315303128;0.634739157
-6.704055503;14.14344637;-4.034592243;2.978395061;-13.73638049;-0.551275325;-28.91223844;-1.425475513;13.79994247;14.06884827;9.93233855;10.08212677;2.273155938;-8.156977007;15.25818783;-1.806443512;0.274675737;3.968402144;0.628057662
-7.638854925;14.79857657;-5.850324568;-1.739010399;-14.30988739;-0.176103603;-25.79374081;-1.488562521;9.836354976;11.7832206;7.661066534;7.807827244;2.986882937;-7.650383638;16.47970088;-2.084371029;0.680607916;2.774187911;0.144311319
-8.860039063;12.53411282;-9.956723679;-3.038885347;-18.51318169;0.200337188;-22.22239721;-0.742345526;6.461429655;10.67811611;4.820232067;4.958866862;2.524311578;-8.21848545;11.13419239;-6.018305985;-0.156015577;-0.61986124;-0.720046387
-9.80586277;7.633675781;-14.18595679;-1.677067145;-23.08;0.233919563;-17.74929712;0.041522689;3.39100499;10.39927511;1.654836254;2.855585146;0.912036496;-9.811214578;1.193464608;-11.47038291;-2.071456254;-2.49630233;-1.584028463
-9.833917189;2.407629189;-15.75519339;-0.322291305;-24.31489608;-0.156047492;-10.66131534;0.167551046;0.329313727;9.596014805;-1.024618289;2.430748462;-1.350733896;-11.40453685;-8.944476355;-14.97363265;-4.099392991;-0.591895865;-1.916113602
-8.676493955;-0.283935444;-13.5611728;-1.261670864;-21.49877245;-0.716664491;-2.073418825;-0.689070904;-2.630390386;7.113448341;-2.511999207;3.242059258;-3.825015;-11.48430342;-14.94453492;-14.47891968;-5.103275828;3.728274828;-1.344245771
-6.723186176;0.88771516;-9.179139203;-4.526209555;-17.55786534;-1.065572295;3.517918129;-2.325743225;-4.87911511;3.227583685;-2.657658571;3.935740966;-6.232395856;-8.898528347;-14.73592926;-10.9031842;-4.544980459;6.719683349;0.021561668
-4.894761405;4.631550704;-5.678095666;-7.922937583;-16.34878733;-0.990312167;2.18225063;-4.09724853;-5.548837184;-0.257819657;-1.813222318;3.713615228;-8.168861525;-3.602199622;-9.150194547;-7.202887327;-2.847426345;5.789454553;1.513204679
-4.147826387;7.885391401;-5.232294961;-8.881720841;-19.06024515;-0.586738507;-4.929476358;-5.269258671;-4.070019531;-1.343358683;-0.519950247;3.28454685;-8.99078549;3.135882584;-0.93821388;-5.82716365;-1.099162436;1.97880475;2.214702981
-4.930198256;8.057529459;-7.540291803;-6.605054797;-23.08402402;-0.130290647;-11.43326474;-5.488453593;-0.735029894;0.400929703;0.644743636;4.200381234;-8.269296234;9.205965749;6.864198395;-6.783762979;-0.329296443;-0.998468765;1.51340149
-6.959631453;4.971767551;-10.33522194;-2.851460912;-24.44224642;0.185734333;-10.82384143;-5.051495569;3.147875885;3.184747204;1.003163958;7.061686354;-6.504506521;12.58263689;12.13991305;-7.957202763;-0.882754274;-0.312445195;-0.477726926
-9.462235685;0.994835566;-11.4311528;-0.808302282;-21.54183136;0.398158115;-2.465642749;-4.698953729;5.78650341;4.229132132;-0.138181443;10.33186183;-5.287452375;12.22967618;14.05258474;-7.282744046;-2.318226193;3.198141542;-2.948321578
-11.66230963;-0.769325619;-10.4483325;-2.940670307;-16.74639518;0.677293917;7.288979705;-4.981389732;5.962560707;2.075081648;-2.956105731;11.1352954;-6.416365613;8.522786724;12.86734225;-4.728536591;-3.831029364;5.741384686;-4.872906157
-13.144567;1.195108054;-8.750657585;-9.339488888;-14.24536351;1.09011126;10.4394689;-5.641179254;3.963581198;-1.899386445;-6.427791472;7.629901057;-10.4444086;2.988527389;9.671767069;-2.259951738;-4.815476905;4.231224521;-5.605471082
-13.85429797;5.785456189;-7.820911437;-17.58198248;-16.15439535;1.462888453;4.665267724;-5.566704799;1.621956398;-4.180720439;-8.303169341;0.933364076;-15.86798814;-2.477771967;6.075178815;-1.851334696;-5.132710211;-0.543258043;-5.160300806
-13.83175025;10.2923906;-7.717750043;-24.01553679;-20.48625598;1.491189112;-4.088643866;-3.510914758;1.205379598;-1.739977034;-6.26702652;-5.279067619;-19.85909714;-6.484886762;3.669047662;-3.442049897;-4.954308356;-4.36228551;-4.010156667
-13.00087221;12.54271753;-7.099886277;-25.55837415;-22.94844385;1.009731045;-6.554453887;0.863376833;3.784973453;5.387126716;0.215672773;-7.452311546;-20.20898812;-8.655013415;3.230322708;-4.8132778;-4.426982569;-3.423986674;-2.621938981
-11.25053078;12.38592462;-4.745897017;-21.0427493;-20.96126863;0.175123441;1.446207161;6.42872311;8.275696738;13.69283733;8.810357254;-4.967991112;-17.01451684;-9.542503171;4.144502274;-3.588977758;-3.521239486;1.910494644;-1.142618762
-8.73496571;11.36242837;-1.033599831;-11.61189334;-16.15694796;-0.61747993;14.69513439;11.08313249;12.01689354;18.50961192;15.22248117;-0.65472556;-12.67793199;-10.07840783;4.688554275;0.44824686;-2.200357321;7.087006745;0.517699569
-6.068822428;10.97073935;2.128166889;-0.209791854;-12.95975602;-1.024952429;22.65827862;13.05445926;12.63415191;17.42705476;15.88980508;1.562686529;-10.10877648;-10.91580236;3.269460163;4.915200906;-0.701104647;7.311880423;2.333502002
-4.143791681;11.13491513;2.92021865;9.535719982;-14.48443666;-1.004880363;18.77905232;12.09074522;9.831841337;12.20165744;10.60519387;-0.082306554;-10.54598596;-12.07582233;-0.179292132;6.789235207;0.415871869;1.984277624;3.919963295
-3.62042176;10.25866696;1.253856372;14.66903362;-19.55594176;-0.807493056;6.811842028;9.612057483;5.664680793;7.594802764;2.90353619;-3.879956907;-12.80352755;-13.0777386;-3.834416562;5.07839881;0.578671538;-4.536521178;4.675760914
-4.46530718;6.834876078;-1.172827829;14.06361289;-23.69874739;-0.726112488;-1.802758664;7.672542069;2.956787109;7.914240868;-2.399619091;-6.458445354;-14.56345581;-13.41655425;-5.198673035;1.765432627;-0.349339965;-6.725290718;4.229848782
-5.918980089;1.185457099;-2.502082591;8.874674141;-23.27122405;-0.837178908;2.224019381;7.525286771;3.061162412;13.83612213;-2.794337584;-6.118683413;-14.56384901;-13.03013391;-3.140562108;0.073371531;-1.890392896;-2.901007903;2.809910224
-6.959482038;-4.259333251;-2.466665563;1.947043158;-18.92003906;-0.963741725;17.31091899;8.903969629;4.802519576;21.90181906;0.082900168;-4.610651715;-13.71945447;-12.41537627;0.864317457;1.521182768;-3.245447848;3.170009766;1.185123436
-6.934151966;-6.520141916;-2.521044362;-3.646428259;-15.05800449;-0.884123249;31.20941465;10.53473116;5.564389696;27.03716733;2.008297264;-5.562667938;-14.14055356;-12.29875624;3.479110293;4.404829629;-3.857311418;5.684570569;0.183128411
-5.901557764;-4.281678658;-4.160775607;-6.155769445;-15.73632213;-0.578194141;30.46809803;11.36025865;3.690743902;26.14271754;0.000109079;-10.79851071;-16.91333777;-13.08058809;1.893316937;5.142867116;-3.786396061;2.188348441;0.141116873
-4.467134076;1.011560271;-7.075685178;-5.835466618;-20.72038359;-0.271660772;11.4763651;11.38258775;0.160252791;20.05968623;-4.777708277;-17.86683655;-20.68858469;-14.44368837;-3.915973584;1.386002843;-3.581126115;-4.062368717;0.711590355
-3.29914912;6.066605869;-9.093311966;-4.330019531;-25.5190767;-0.233650501;-16.15410239;11.42034383;-2.025642865;12.57473626;-7.688727915;-21.29007813;-22.48365072;-15.42248872;-10.88628313;-5.821422916;-3.75265355;-7.084480007;1.154960157
-2.732018398;7.948241214;-8.220767959;-3.267629285;-25.4951589;-0.520210193;-36.7402591;12.08855174;-0.401870357;7.450490406;-4.599423012;-16.86532195;-20.13821594;-14.92185519;-14.91365605;-12.74506341;-4.307845564;-3.84421307;0.866389104
-2.72934152;5.882408072;-4.960164599;-3.15828138;-20.30114357;-0.909964179;-40.24567021;13.03090263;4.552125155;5.887891542;4.068400172;-5.527635665;-14.30846487;-12.36126844;-13.75653522;-15.92479012;-4.746129801;2.686687751;-0.270812494
-3.135259926;1.374250031;-2.534264114;-3.410829394;-14.4199073;-1.095069306;-28.93411708;13.19317315;9.314586367;6.268773523;12.81666937;6.636191917;-8.174378504;-8.022007089;-8.586818008;-14.80447069;-4.519615761;6.133964839;-1.926299549
-3.910840935;-3.234981199;-4.415385027;-3.319428113;-13.1218987;-0.944500645;-13.91855242;11.92110771;9.86680528;6.058931638;14.94709837;12.55943776;-4.990804826;-2.872940073;-3.014126296;-11.77310363;-3.54837109;2.755388052;-3.640162589
-5.129702816;-6.462109357;-11.12523355;-3.041488299;-17.49201809;-0.585727547;-5.263800855;9.820450773;4.950401289;4.052355533;7.960696329;9.35611431;-5.53495795;1.986900695;-0.395101731;-9.727543962;-2.336793056;-4.716322727;-5.111303197
-6.791094384;-8.308814211;-19.25305805;-3.635633789;-23.23521239;-0.228742251;-4.454023631;8.452088578;-2.66195524;1.071343596;-3.963542953;0.327040345;-7.656377633;5.864782251;-1.552416103;-9.495223616;-1.594405475;-9.248881204;-6.255506159
-8.704220394;-9.574049875;-23.91322985;-6.123620298;-24.58494587;0.08464111;-5.298488632;8.991501669;-8.090723919;-1.258150445;-12.74175523;-7.806167033;-8.325259325;8.618670083;-4.609093417;-9.499394134;-1.703560787;-5.986148741;-7.088772305
-10.60776536;-10.74762246;-22.79567485;-10.47465695;-19.82366174;0.538230367;-1.474063038;11.01825955;-8.073988451;-2.33420505;-12.50131102;-10.1520533;-6.375782873;10.35412593;-6.881148954;-7.867991701;-2.500896454;2.910335344;-7.635373087
-12.4088309;-11.59773712;-18.30891495;-15.5076988;-13.19503898;1.322212757;6.874226191;12.62330041;-3.54182836;-3.254756643;-4.240419895;-7.12;-3.522384436;10.97793626;-7.15388229;-4.81608578;-3.538937356;9.792382147;-7.964263244
-14.25312172;-11.74601314;-15.74040916;-19.84680163;-11.15399921;2.34099779;13.61933446;11.91376194;1.058997744;-5.73156696;4.795048739;-3.454434625;-2.7750573;10.02967178;-6.50672342;-2.823887092;-4.549222002;8.387427552;-8.252487558
-16.27669521;-11.49546257;-18.79467857;-23.03576885;-16.21178837;3.159643942;13.32254458;8.696391342;1.172826566;-10.28358343;6.650986444;-3.946540542;-5.725708824;6.980019531;-7.18834613;-4.24548153;-5.654075595;-0.189237384;-8.705327266
-18.23133911;-11.92176909;-26.31079211;-25.7151492;-24.14966226;3.301425597;7.245288094;4.827298561;-4.467665529;-15.42743034;-1.267244287;-9.611260563;-11.19601061;1.77765646;-10.66734792;-8.579264715;-7.134966184;-8.037452424;-9.327753586
-19.38307462;-13.98843929;-33.11404957;-28.64085721;-27.53120325;2.669104877;2.595394365;2.786718828;-13.16479547;-18.69536407;-14.47591972;-17.44890357;-16.47477499;-4.823292242;-16.5226549;-12.2154031;-9.014323657;-7.542352636;-9.773098403
-18.90929304;-17.48032501;-34.40076173;-31.49531359;-22.61540175;1.702588973;5.555226824;3.598670944;-20.73895385;-18.66214646;-25.39186974;-23.61752464;-19.95781723;-11.48921057;-22.93828032;-11.3355993;-10.90963523;1.380761388;-9.518490972
-16.57026966;-20.8620175;-29.877253;-32.76900628;-13.3119154;1.08307257;14.84496105;5.878383741;-25.01424398;-16.22289251;-29.68555592;-26.90357264;-22.66234127;-16.98762524;-28.13318168;-5.616764903;-12.36065455;10.73118848;-8.341363514
-13.10415742;-22.40327593;-23.97527336;-31.0561863;-8.16809863;1.196882978;22.32676537;6.893050287;-27.40870016;-13.97358958;-29.74316258;-29.36549544;-27.1120034;-20.8336962;-31.38053816;0.705318589;-13.3395187;11.52690384;-6.722008713
-9.929450932;-21.72079641;-21.89159716;-26.6930132;-12.69786653;1.817085667;20.51799568;4.782328959;-31.43148563;-14.17677075;-32.39401318;-33.81677425;-34.592234;-23.40446302;-32.8672563;1.816175611;-14.40415919;2.335825081;-5.733331239
-8.279223199;-20.35506429;-24.96104973;-22.10941293;-23.94580917;2.300714692;10.0619483;0.030815692;-39.53015018;-17.01900793;-42.83886161;-40.76877558;-43.4352695;-25.43020822;-32.84362406;-4.801945515;-16.22755849;-8.782154574;-6.344185961
-8.394148412;-20.68659922;-29.54868525;-20.23185418;-32.57966126;2.149590947;-0.189220307;-5.097659704;-51.03801985;-20.61254921;-59.87325606;-47.84789655;-50.17012998;-27.28;-31.1407085;-15.68022362;-18.82571482;-11.25332603;-8.596795397
-9.409880087;-23.88621815;-30.50934038;-22.04210927;-31.10139623;1.441226901;-1.090451913;-8.65037508;-62.87258777;-22.68498384;-76.41919468;-52.2265714;-52.69389283;-28.63996723;-27.62411194;-23.38701201;-21.17915723;-1.920613305;-11.34297035
-10.03861455;-28.51768296;-26.06489268;-25.39290355;-20.91363214;0.730998033;8.010623366;-10.69190583;-72.16897393;-22.45999768;-84.98368344;-53.63447334;-52.52946699;-28.85902751;-23.0590712;-21.91830099;-21.70692431;11.29980533;-12.8689347
-9.499501369;-31.03764891;-19.54074811;-26.36675906;-11.53218574;0.5004612;18.08217824;-13.03086044;-78.40031866;-21.11540231;-83.62136031;-54.88610776;-53.7963754;-27.66263471;-19.30038877;-11.20003906;-19.34884868;16.03394911;-12.03301932
-7.956628207;-28.00790551;-16.21312338;-22.36080794;-12.12866266;0.661307993;18.52100635;-17.18626113;-83.14623186;-20.49830073;-77.6050258;-59.22206172;-59.44103182;-25.58519251;-18.29175784;2.928300081;-14.43349974;6.914439201;-9.066803101
-6.160911367;-18.48382917;-18.10949104;-14.44826876;-22.80765373;0.606321528;7.410019531;-22.51550637;-87.90196906;-21.324793;-75.52;-66.91642035;-67.99326712;-23.68321305;-20.55622652;13.18171129;-8.593372844;-8.589011447;-5.393223665
-4.687766701;-4.861651043;-21.73990523;-6.920509654;-33.82854332;-0.191400107;-5.846855453;-26.40720343;-92.11671621;-22.51752168;-82.92058095;-74.518148;-74.03507966;-22.70873183;-24.5288322;16.05085564;-3.723968084;-16.04086503;-2.582511604
-3.49658802;8.400360997;-21.24143215;-4.131155107;-34.14069106;-1.566222841;-8.676507385;-26.59191421;-93.38263019;-22.26577017;-98.4215772;-77.75693117;-72.47352579;-22.43657628;-27.51088415;13.62381645;-0.774496344;-7.160309838;-1.276426571
-2.203202686;17.23367585;-14.34299251;-7.063277946;-21.93304422;-2.645638137;2.72618061;-23.54383374;-89.6407768;-19.79647566;-114.9182644;-75.61861813;-63.18149466;-21.77949542;-27.64465076;10.89915532;0.680121748;11.53221118;-0.944896692
-0.752784858;19.88392389;-5.53963322;-12.43491038;-7.37127793;-2.540461525;18.93336774;-20.59187036;-81.34042159;-16.17115844;-124.5540365;-71.71495065;-51.83;-19.6919611;-25.34188713;11.30093852;1.773887979;23.19533643;-0.634339424
0.235125866;17.16322306;-2.958779291;-15.18883037;-4.174148749;-1.179097229;25.32408633;-21.24663188;-71.48350389;-13.30738668;-123.4828886;-71.33700944;-45.73793239;-16.16368802;-22.96108795;14.3491357;3.192604591;15.45751315;-0.009922194
-0.110386735;11.20368925;-11.09323439;-12.44033241;-16.88330289;0.491400891;16.0008297;-25.85042783;-63.42999761;-12.09007813;-113.2594126;-76.61328241;-47.92773665;-12.44926447;-22.96129444;17.13108678;4.53081075;-7.256809064;0.264043883
-2.040491656;3.883527209;-25.82878523;-5.705430107;-35.42708868;1.224649063;0.527212495;-30.61846199;-58.43738838;-11.36937319;-98.74957546;-84.27867521;-54.48015931;-10.25760558;-26.03563389;17.6092235;4.701290672;-25.70716895;-0.832477036
-4.712262553;-3.936537259;-36.84589733;0.390064697;-42.95427233;0.578714149;-4.079167025;-30.37266349;-55.18434419;-8.93023227;-84.9687407;-88.52497072;-57.78846099;-10.4956657;-30.72773456;16.27343187;2.995593611;-21.96309815;-3.591093172
-6.699854176;-12.1033848;-36.18435327;1.820004883;-31.14202693;-0.56471658;9.779962525;-23.06878486;-51.67226168;-3.723390265;-75.25543487;-86.77822756;-53.29079825;-12.59214687;-34.75614583;14.58961665;-0.188919662;3.591248683;-7.083623275
-7.193308944;-20.40784978;-25.83633618;-1.803594346;-9.520320848;-0.633349394;29.92896894;-12.31685522;-47.60279878;2.646671108;-71.19040054;-83.1455322;-43.96362745;-15.00743817;-36.8389145;12.18196641;-3.63406869;29.9776329;-9.808055146
-6.846071869;-28.1684106;-17.18661676;-7.334584158;0.753304228;1.253072647;32.05248039;-5.349267245;-44.7786262;6.733476842;-72.91685484;-85.77546006;-38.35744545;-16.56027134;-37.47027093;6.245548428;-6.338697691;32.0559165;-10.97436075
-7.372487113;-34.43449013;-21.6465409;-11.10188325;-14.85279244;4.284775204;1.4318221;-7.539270699;-44.90539448;5.985050943;-78.71733177;-99.59740537;-43.30463374;-17.47003906;-38.11435374;-5.404406279;-8.324924323;3.188111534;-11.26100754
-10.01743178;-38.44532079;-39.74238365;-12.10544569;-48.89531742;6.297691916;-49.10718504;-17.67671702;-46.78935811;1.225882262;-84.40188186;-120.4502959;-57.23276058;-19.17853919;-39.70098192;-20.18226015;-10.40346151;-35.4081132;-12.23036478
-14.09935106;-39.83743353;-58.26993927;-12.56723846;-73.8021262;5.352839903;-82.54647697;-28.03508436;-45.86263094;-3.34648777;-84.19169111;-136.2633449;-70.04254092;-23.0029926;-41.85258075;-29.9826827;-13.05597472;-48.66926746;-14.75169065
-16.98125119;-38.49572186;-59.24178055;-15.36895933;-61.87012601;1.390498149;-63.56953094;-29.6709114;-37.1486377;-2.979461486;-73.80783006;-135.480339;-70.38149843;-28.70045312;-43.48448276;-26.00525181;-15.49761336;-15.87476151;-17.76474748
-15.78202599;-34.40031095;-34.55442606;-20.70506841;-8.773210663;-3.407280598;11.41234829;-19.14095111;-19.62495149;4.036442038;-54.06778009;-116.62;-54.90206311;-34.20674548;-44.07601695;-6.28479312;-15.95985664;49.32360043;-18.61061731
-9.669141262;-27.82338051;5.305300539;-25.06377181;58.68856327;-5.985288486;104.7463802;-1.406116241;1.749520719;14.85596531;-31.84626438;-91.1365064;-31.97372882;-36.93395167;-44.28118717;20.28467644;-13.20075439;104.6823361;-14.93217246
-0.905730301;-19.76115644;36.45505617;-23.69109562;98.69729915;-4.589918632;159.2134455;13.54889301;18.57964729;24.01244912;-16.61387272;-76.46655519;-16.35525378;-35.72620509;-45.22540241;37.87137288;-8.051204701;108.7506204;-6.765273235
6.373413761;-12.04679653;37.97551456;-14.64073773;83.74192299;-0.118200196;137.2850692;17.97231737;24.71076053;27.43278444;-14.25805695;-83.85200291;-18.48357135;-31.93655381;-47.17213313;33.95085056;-3.52915712;52.26069816;2.910620981
8.939697573;-6.702434462;7.477610002;-0.99438171;21.24617109;4.430039063;49.11714064;11.95487632;20.77429187;25.43624421;-22.6250352;-109.9998062;-36.53735505;-28.67096571;-48.95210682;8.680519947;-3.071181874;-32.95103898;9.817144116
6.770552711;-4.758739964;-36.18627449;10.79245559;-50.64665661;6.039777747;-52.65244774;3.078981181;13.89209849;22.34151342;-32.54576465;-139.0778797;-57.51484675;-28.64448963;-48.90144197;-24.01399414;-8.002312347;-95.28220937;11.15246805
3.068087156;-5.420688207;-65.63353615;15.30754471;-89.5191608;3.769063766;-108.5955075;0.433318979;12.52012557;22.969975;-34.11660366;-153.746524;-66.62550686;-32.21324827;-46.59622222;-45.21897775;-16.18719029;-99.39965877;7.452378736
1.877882634;-6.425950429;-63.85416529;11.94649994;-77.69791669;-0.699505331;-92.65505028;7.70094731;20.30752414;28.81091809;-23.75799691;-147.019464;-57.84253103;-37.07199798;-43.75230557;-43.70446032;-23.09458556;-49.98309191;2.098346635
5.047277616;-5.607071604;-35.30923246;5.094194621;-32.39479922;-4.398464341;-27.30314395;20.65882841;33.71156157;36.88797532;-6.660974416;-126.2169384;-37.65123354;-39.86450581;-43.21374276;-23.27896078;-24.71099167;14.15998762;-1.189671785
10.81847679;-2.637614207;-1.292733697;0.661737268;9.661192017;-5.233165635;36.47547989;30.83885644;45.14602718;42.1926578;7.339442278;-106.4980447;-19.45546964;-38.50676257;-46.60156635;0.540432264;-20.24551813;49.99320514;-0.979264822
15.13210179;0.408718206;16.31769862;1.781552839;20.21366971;-3.329212794;57.75121994;32.22557826;49.03166921;41.68306742;11.26827679;-99.42632841;-13.35810012;-33.50858479;-52.51860543;11.89393145;-12.60684367;40.61944556;1.117636454
14.65486835;0.324760737;10.27671113;6.97875717;-1.599084564;-0.655119525;32.98964768;25.61919299;45.87090492;36.60961217;6.004477518;-105.4362484;-19.32942285;-27.39174245;-56.97842892;5.42332768;-6.252231427;3.588538737;2.079315706
9.248514741;-4.851677893;-8.951550231;11.96879826;-32.69079383;0.628981504;-7.218000726;17.38686577;41.21184136;31.32149428;-1.079851505;-115.4471903;-28.66575855;-22.777622;-56.020519;-11.18985971;-3.988451241;-27.01822723;0.15503342
2.064361887;-14.0149202;-23.39963416;13.2768694;-46.98935515;-0.269991316;-26.55961878;13.93365003;40.61343651;29.58138242;-2.525738832;-119.4247333;-31.87544976;-20.67710917;-48.65721202;-24.1349628;-5.102805538;-28.50594249;-3.545532699
-2.72;-23.15635607;-22.064651;10.60244344;-35.98600529;-2.462175256;-12.06648249;16.55613695;44.93522301;31.42645381;3.106256582;-114.5129093;-26.26651904;-20.2274514;-37.89436059;-23.88789826;-6.184212489;-5.051242653;-5.798849188
-2.761866944;-27.61180557;-8.199990341;6.209252065;-12.94800163;-4.363619614;19.0091152;20.77917444;49.83290382;33.1403427;10.38209079;-106.4001335;-17.30042783;-19.87804024;-28.95993381;-11.1752966;-3.945784604;19.78016885;-3.749872954
1.073455024;-24.98182552;5.329489189;2.298703772;0.707093329;-5.02893337;37.61786406;20.45388158;49.7157792;30.35709457;11.90374757;-103.5567572;-13.22162304;-18.87829893;-25.97019722;5.236929922;2.131590458;24.8392877;2.80040678
5.657473361;-16.74829339;7.594589033;-1.03328541;-5.988182042;-4.720495277;28.98842589;13.05502358;42.71434148;21.79070317;4.74274843;-109.7288214;-17.88628449;-17.79045614;-29.40316013;16.04042612;9.317415732;8.378182638;11.03212218
7.925802651;-7.428269269;-1.863344056;-5.399863017;-25.5826564;-4.371650279;3.903847589;1.854496686;32.49190648;10.6071594;-6.964778972;-120.97597;-27.73999928;-17.68481289;-36.07543921;17.71843996;13.60489518;-12.99685913;16.88708736
6.764472186;-1.762645215;-13.93113499;-11.78891155;-40.30973717;-4.562610302;-13.14614702;-6.595836231;25.49395774;2.366737986;-15.28424368;-129.2640523;-35.03584358;-18.83988161;-41.43745001;13.23591371;12.59012574;-20.48947684;17.61862307
3.210747913;-1.782549124;-18.39897225;-18.61936509;-37.98899636;-4.9688927;-7.090126033;-7.403113027;26.03330698;1.171216343;-14.73524552;-129.0852577;-34.15778715;-20.17411672;-42.41876897;7.82587118;7.112030139;-9.296029079;13.28030309
-0.841462164;-5.695999721;-12.25838961;-22.20054818;-21.76451296;-4.732106517;14.13623459;-0.676568516;33.25797894;6.976266643;-6.321074324;-121.429419;-25.69029545;-19.96677253;-38.91675348;4.390379357;0.538330483;8.791915813;6.2587353
-4.167527863;-9.32124694;-1.130708772;-19.45412314;-6.105227919;-3.347980511;27.11007813;9.143065344;42.28292496;15.98427977;3.802832974;-112.1508522;-15.21908225;-17.28576591;-33.24418735;2.416516842;-3.635939717;17.21448701;-0.553480267
-6.780991739;-9.09;6.428991068;-10.67928547;-3.652683556;-1.229354142;14.36056228;16.99188658;48.23861492;23.56471631;9.590666258;-106.6876463;-8.433217814;-12.91222957;-28.32923228;0.431877805;-4.05791659;9.42641023;-5.483527755
-9.353006102;-4.599905934;6.09538438;0.040179607;-14.79173834;0.566375891;-19.35679506;20.66928532;49.7351668;27.28995605;9.727431623;-105.9081087;-6.934588612;-8.956909704;-26.07071119;-1.259269357;-2.104408199;-6.334305051;-8.573331789
-12.25913041;0.999114442;0.260891729;7.308939555;-28.50233209;1.190676019;-50.14460451;21.43202786;49.05130663;27.84855172;7.882160712;-106.4045741;-8.053578615;-7.439982819;-26.74317071;-0.591059188;-0.58759068;-15.53532487;-10.81919672
-15.17548433;3.055743339;-5.514003278;7.953428021;-32.77303374;0.67695931;-54.65254436;21.73114937;49.33422752;27.5052826;8.773477585;-104.4319141;-8.22276569;-8.938970313;-29.38355014;3.640514745;-1.703010578;-10.61143659;-13.04379455
-17.4724773;-1.444431197;-8.053376303;2.95044968;-24.88509904;-0.145703752;-29.43763866;22.49496908;51.56673027;27.74392834;13.73621265;-99.63393298;-6.493993842;-12.31917308;-32.53026765;9.529729222;-5.689787255;2.956429153;-15.33515174
-18.87221994;-11.73451906;-8.833987826;-3.605927043;-12.81162921;-0.397159841;6.351351963;22.4302006;53.95944443;28.15878543;19.63761624;-95.24308864;-5.060302888;-15.66146804;-34.81677069;12.88972282;-10.94031846;12.5155066;-17.29276997
-19.66346164;-23.55086998;-11.29037889;-7.539850965;-7.320596001;0.115798452;26.89094515;19.73632384;54.03941262;27.34265295;21.85935879;-94.82369064;-6.63267455;-17.571579;-35.3517398;10.76727935;-15.19339072;10.01218695;-18.59249837
-20.29204605;-31.67779923;-16.29613399;-7.257460966;-12.38869864;0.796340544;20.49013066;14.38990099;51.27517119;24.70631796;18.50632774;-98.70588316;-11.38330271;-17.85290844;-33.99864262;4.40459221;-16.82702963;-1.158702406;-19.23870167
-20.8001936;-33.0795849;-20.50827563;-4.206056133;-22.34948597;0.841170566;-2.053610059;8.734902998;47.74475926;21.43376333;12.10631036;-103.3664498;-16.38603367;-17.15891367;-31.47971581;-1.357543452;-15.46784065;-9.968133957;-19.33159239
-20.72965619;-28.55381185;-19.29900093;-1.182840598;-27.66572132;-0.029519351;-17.8911144;5.771720878;46.28716706;19.67825987;7.451698523;-104.2498096;-18.04382485;-16.11455171;-29.04570303;-2.021465174;-11.80568002;-8.153375998;-18.71978474
-19.61604388;-21.84405368;-11.47403597;-0.138915608;-23.5641838;-1.331696468;-11.8508688;6.685301343;47.92752621;20.75260641;7.65410578;-99.47681237;-15.23014529;-14.75767458;-27.65733912;2.711284795;-7.028971763;2.475564023;-17.00594008
-17.58238931;-16.88912458;-1.166357969;-1.190853066;-13.75027606;-2.246169506;11.27145806;9.848173901;50.99235208;23.97617737;11.90303249;-91.23140106;-10.27716384;-12.74253239;-27.13045518;8.723328107;-2.33496456;12.18070853;-13.97267447
-15.40671431;-15.16690532;5.143721611;-3.254050194;-6.373822607;-2.311247605;31.57954125;12.20198004;52.7247167;27.23490765;16.71031535;-83.77420649;-6.95120808;-9.993553162;-25.97836782;11.22932367;1.334568831;12.45607057;-10.02380559
-13.93303511;-14.99960115;4.001016825;-5.318964869;-6.476650542;-1.772973007;31.11395636;11.80405947;51.88996861;28.7664719;19.25560551;-79.96354328;-7.262670477;-7.094058062;-22.31701169;9.140465173;3.439523622;3.622688539;-6.166620743
-13.34851536;-13.25764041;-2.048025977;-7.088845304;-11.93122998;-1.318610504;8.349428499;9.320821951;49.95462435;28.58901894;19.69930718;-79.28609882;-9.925521732;-4.982407339;-15.35387921;6.017214905;3.962127754;-5.88065123;-3.464850648
-13.02581222;-8.137397433;-6.617103629;-8.580097656;-16.21307139;-1.464596466;-21.5028816;7.216910354;49.73054179;28.31213618;20.47976734;-78.87048337;-11.72379749;-4.209914326;-6.366317086;6.648429706;3.421060599;-7.472102068;-2.384619722
-12.13359185;-0.883526939;-4.962860886;-9.39249262;-14.94611548;-2.14446113;-39.54670678;7.42981933;52.69583423;29.50996224;23.48920279;-76.29147376;-10.4442787;-4.448797602;1.697521031;12.37771352;2.639983359;-0.155532589;-2.571127144
-10.49244509;4.893744748;1.993215612;-8.628381256;-9.941807405;-2.827280923;-37.87418249;9.618903061;57.43058038;32.12228507;27.9495829;-71.56369358;-6.735774578;-4.727143969;5.871431721;19.60414507;2.305687041;8.942027675;-3.223503497
-8.878569913;5.836941356;8.599077407;-5.688470558;-7.131208022;-3.014546455;-23.82545978;11.51915091;60.63700519;34.34492366;31.05697208;-66.6943555;-3.340477665;-4.210515584;4.973459176;23.06174556;2.588695712;11.39298186;-3.721807901
-8.438284256;1.424536841;9.482835179;-1.184827923;-10.61102086;-2.652276827;-11.54003906;11.04790402;59.91877261;34.17;30.78669296;-63.47702156;-2.538993016;-2.850121043;0.299349384;20.98411383;3.126422813;5.186172858;-3.971474993
-9.680686145;-5.472859284;4.200111709;3.030663877;-18.53187015;-2.113742814;-9.307930556;8.277133663;55.91438429;31.26614619;28.15440691;-61.72265745;-4.176955029;-1.331940595;-5.237081491;17.23599378;3.403330395;-3.667966158;-4.22592576
-11.93529561;-10.54024342;-2.529793677;4.971658423;-24.65153246;-1.818090155;-13.85779055;5.518747899;51.9087449;27.5275709;26.65805074;-59.55779569;-5.991718425;-0.388183826;-8.843058926;18.00845295;3.220957023;-6.863036837;-4.638617337
-13.79291237;-11.03451215;-5.103765818;3.950231294;-24.01685869;-1.865620242;-15.6005668;5.420247555;51.21142455;25.70961615;29.20869225;-55.42010301;-5.818104729;-0.106772647;-9.261130837;25.68280196;2.855457502;-1.413688292;-5.021774659
-14.19390814;-7.605675825;-1.970867544;1.1506766;-17.45593543;-2.017176091;-8.897383688;8.680426583;54.49542025;27.19;35.24567561;-49.82761898;-3.597787466;0.122968665;-7.062463234;35.4696168;2.766016332;7.78183115;-5.049564723
-13.24307374;-3.578626555;3.134320485;-1.181901141;-10.7685481;-1.99853043;2.476302688;13.30899699;59.29944407;30.69036746;40.72642013;-45.25608456;-1.39636026;0.966976839;-3.923680775;38.46439556;3.123028539;12.57495858;-4.679029162
-12.04777576;-2.313834825;4.679997666;-1.332021271;-9.446990706;-1.807199966;9.357397202;16.04591873;62.04393531;33.06408954;41.22568409;-44.20427515;-1.502414994;2.388030679;-1.599668135;29.21778327;3.602638321;8.979999594;-4.324063568
-11.72183191;-4.730350453;0.395453457;0.746632704;-13.81993977;-1.71639829;6.381970102;14.77709987;60.82421401;31.60209133;35.61965734;-47.13482563;-4.397225407;3.488880549;-1.216421229;11.54322995;3.667879525;0.60428052;-4.542416094
-12.42948125;-8.883456627;-6.579280485;3.568886679;-19.00854883;-1.977454173;-2.581086001;10.02628662;56.69333083;26.07137392;27.21545427;-52.03859051;-8.414848518;3.166626538;-3.004455889;-2.881566023;3.114359781;-4.847525267;-5.47906011
-13.3082336;-11.80525627;-10.31218195;5.307059527;-19.5952676;-2.519544797;-7.876618501;4.435156832;52.5231932;18.90281374;21.2952221;-55.91984291;-11.30982231;1.072922148;-6.269418438;-2.838320691;2.393837047;-2.610204012;-6.592181077
-13.32762707;-12.00545052;-7.136046191;5.01477196;-14.62335852;-2.953149486;-3.1160041;0.787486078;50.57590369;13.40183604;21.06932181;-56.89109929;-12.22605187;-1.928428182;-9.522585219;13.43601914;2.389313884;5.004039067;-6.98264565
-12.30127578;-10.55799556;1.259170266;2.972933254;-8.362245174;-2.896841909;8.663040367;0.201028664;50.87509483;11.39;25.36660745;-55.19192633;-12.27242512;-4.235802396;-10.96286866;35.91877721;3.774136841;10.96403482;-6.113929271
-11.12205543;-9.934794621;9.306783956;0.075964751;-6.254603667;-2.336046821;17.56516094;1.796032187;51.61343617;12.07707623;29.89714752;-52.51526761;-13.25694655;-4.595516209;-9.41536004;49.47177704;6.451241252;10.00545998;-4.322925607
-10.97786872;-11.65304116;12.2260175;-3.032890773;-9.87869702;-1.678101362;15.93407279;3.843093013;51.02288134;12.94074563;30.91147988;-50.47847428;-15.8279739;-2.980810855;-5.314631554;44.67996194;9.521637199;3.263800328;-2.649049466
-12.22787682;-14.79079024;9.797830025;-6.280039063;-15.57675654;-1.434215507;5.707373599;5.252602811;48.97068386;11.81723463;28.13709686;-49.62590558;-18.7672774;-0.605329254;-0.900115965;24.56380383;11.81279119;-3.024557733;-2.068094529
-13.95633808;-16.67564827;6.095395947;-9.74942044;-17.94787966;-1.79471178;-2.83706553;6.188136308;46.95441508;8.52879326;24.61445028;-49.63271992;-20.06755947;0.915604384;0.911744564;2.032221795;12.56369632;-3.339406056;-2.736187365
-14.65853596;-15.19721446;5.597194152;-13.06224026;-14.91537814;-2.465264132;-0.161828962;7.490159163;46.66347568;4.841790009;23.7660541;-50.18971149;-18.77105017;0.612117007;-1.50079106;-9.792238249;11.77244827;2.205382857;-3.872461335
-13.52702217;-10.79498758;9.183571835;-15.2405818;-9.669850568;-2.907317488;13.48971501;9.612109266;48.47843989;2.910376829;26.34390092;-51.51511143;-15.86883293;-1.327138802;-7.056865199;-6.768807792;10.01730472;8.228448885;-4.398854689
-11.25413799;-6.409967377;13.45542052;-15.27012069;-7.700708979;-2.776140391;27.17989024;12.05211466;51.19078942;3.508507206;29.86807553;-53.97239041;-13.45003906;-3.853151274;-12.42192711;4.459401962;7.981177291;9.176189671;-3.831990321
-9.638915418;-5.367499896;13.80521165;-12.923039;-11.64933515;-2.184165616;27.68112588;13.69291211;53.04922361;5.421808622;30.92037525;-57.25939805;-12.89477226;-5.830039063;-14.28663662;12.83778991;6.086913066;4.349465437;-2.70738477
-10.27536647;-8.875342571;8.434407846;-9.151875599;-18.71045061;-1.576503047;10.36136652;13.64985225;53.10220567;6.394784361;28.20147027;-60.09145318;-13.74901505;-6.674748785;-11.88672499;11.79356347;4.469455453;-1.675733964;-2.190009766
-13.3637211;-15.13857134;-0.161504359;-5.706844947;-22.98542587;-1.342453786;-16.5095674;11.88840379;51.69067182;4.836828585;23.69758175;-60.82278321;-14.26103307;-6.477953944;-7.741386351;3.46097888;3.174798438;-3.42063978;-3.176280553
-17.57947824;-20.75512995;-7.374843495;-4.232479196;-20.6943337;-1.503936641;-37.63580824;9.202284074;49.8353746;0.995525765;21.02325459;-58.54402846;-13.03504946;-5.684995686;-5.840371518;-4.604535316;2.302225645;0.490932782;-5.587027663
-21.0592531;-23.19694797;-10.27265016;-5.454151849;-13.56490009;-1.737050523;-41.93875855;6.727518023;48.25697192;-3.19926689;22.43740563;-53.73940945;-10.27547565;-4.707779016;-8.561554498;-6.724309733;1.932429523;6.260785038;-8.381408808
-22.66982495;-22.3610166;-9.66928532;-8.930141388;-7.352493487;-1.684458846;-30.11271392;5.449625094;46.96370108;-5.408554325;27.07209246;-47.98706511;-7.524769428;-3.764960129;-14.74947895;-3.900145004;1.954641256;8.59227518;-10.24886356
-22.56280646;-20.05410513;-8.82691271;-13.40698614;-6.800876655;-1.272529625;-12.79196618;5.968433938;45.65767425;-4.330523813;31.76189654;-43.01590836;-6.206160317;-2.952551743;-20.55899033;-2.231150026;2.038588348;5.579940327;-10.43617395
-21.68296387;-18.06491132;-10.12505985;-17.4593792;-11.50999272;-0.764289782;-1.493272104;8.427818334;44.38201826;-0.392080833;33.62094243;-39.89893977;-6.357383086;-2.341378478;-22.43783363;-6.766035909;1.857887748;0.309230874;-9.121567405
-20.7853633;-16.62734282;-12.72699892;-20.04631695;-16.34251161;-0.524831504;-0.133505228;12.41290161;43.66036026;4.619818981;32.14568626;-38.88183081;-6.712685908;-1.951211159;-19.82519138;-16.44562069;1.399578512;-2.168626696;-7.146856181
-19.85814623;-14.61388904;-13.26230447;-20.79341574;-15.97382004;-0.721662791;-3.778374516;16.84741596;43.97770336;8.601852056;29.21477691;-39.67800189;-6.004122057;-1.658533911;-15.34544364;-24.59739298;1.063887909;0.450202217;-5.40171097
-18.38782476;-11.15902671;-8.845830869;-19.99109001;-9.576549082;-1.216568792;-4.730439842;20.17064874;45.17492685;10.17220416;27.25510148;-41.70821046;-4.21925887;-1.210682438;-12.37797917;-24.48352246;1.411880766;5.697224382;-4.339812365
-16.09926199;-7.068077788;0.237579064;-18.36071194;-1.590263669;-1.716266178;0.04527286;20.97624083;46.4420063;9.195513566;27.32390514;-44.04462677;-2.616119471;-0.415424533;-12.12450739;-15.06305822;2.727795463;8.759801279;-3.902623842
-13.391927;-4.53116231;10.472933;-16.65486823;1.998782509;-2.020946466;6.710232054;18.86011185;46.98922127;6.67267202;28.69385099;-45.3665853;-2.481675942;0.635994127;-12.73179504;-2.06790115;4.744746253;6.986821753;-3.765881595
-11.03208118;-5.221028839;17.66617277;-15.23162967;-1.41803173;-2.145813601;9.009665177;14.86211897;46.76255378;4.172880975;30.01713308;-44.38846729;-3.816029386;1.541968407;-11.23735341;6.420039063;6.763686203;2.26534475;-3.624463806
-9.410375917;-8.438431185;19.91738308;-13.84327315;-9.122270271;-2.231320894;4.846744189;11.02134102;46.47192882;3.095003112;30.73704103;-40.7360955;-5.216233731;1.842069871;-6.609816431;6.097528649;8.075233724;-0.854207812;-3.315447868
-8.126354424;-11.13098456;18.59558363;-11.84388564;-15.55510693;-2.357620897;-1.237291966;9.194170883;46.84134794;4.040386302;31.35733721;-35.59186405;-5.129726549;1.372311695;-1.137599431;-0.749411991;8.354163146;0.563502892;-2.800719016
-6.383291707;-10.10311619;16.67604074;-8.759515607;-16.88554667;-2.451923819;-1.979339396;9.914347163;47.76236206;6.542957989;32.41859385;-31.33850086;-3.359996905;0.428528145;1.185850668;-7.77664157;7.743705142;5.163123797;-2.149475848
-3.909367228;-4.780929022;15.98394537;-4.83497014;-13.72557575;-2.369096514;5.808653934;12.13534431;48.18040626;9.311212564;33.33789431;-30.15833581;-1.424897904;-0.414920962;-2.00303938;-9.992935638;6.62621981;8.648982876;-1.581315701
-1.565591675;1.806438186;15.65264357;-1.086423433;-9.927593409;-2.05209321;17.65089305;14.0673165;46.89212654;10.9266757;32.41173898;-32.52201523;-1.368701396;-0.695919339;-9.244325408;-7.443476725;5.328365606;7.816147626;-1.475483079
-0.988844033;4.90098827;12.94546439;1.28282037;-8.879250051;-1.607605478;24.30924412;14.48040928;43.5720047;10.66091247;28.14927697;-36.80532911;-4.022649673;-0.355094076;-16.16712456;-4.379407514;4.011849645;3.4839211;-2.219356138
-3.425824405;1.51636454;5.614498254;1.708194738;-10.6915193;-1.223882246;18.86093171;13.48509815;39.09054515;8.915327082;20.77145948;-40.49467989;-8.23924262;0.287607308;-18.83465017;-5.101304512;2.775390842;-0.342784586;-3.920595226
-8.653299181;-7.126255807;-6.165116123;0.651645275;-12.56970545;-1.014783543;2.136350652;12.22974292;34.80029376;6.948881176;12.43753219;-42.14131259;-11.8024077;0.808950405;-16.74502669;-10.29954534;1.772865691;-0.222881234;-6.197772335
-14.89474525;-16.26131789;-19.73415283;-0.84064312;-11.67950178;-0.942482384;-17.81307168;11.8273691;31.40421699;6.012316251;5.827494725;-42.51116704;-13.25680479;0.949663599;-12.98666572;-16.90572601;1.155007939;3.578741747;-8.282679023
-19.8838987;-21.01498958;-31.64302584;-2.107266499;-7.725194447;-0.888649423;-31.5424012;12.41794449;28.41926421;6.454721641;2.17602985;-43.9378905;-13.09103547;0.662856929;-11.48038116;-21.18806868;0.860297931;7.430958453;-9.45027612
-22.30583204;-20.05897321;-39.70128615;-3.537697134;-3.002218267;-0.795988654;-34.49717925;13.10864382;24.72490567;7.444959815;0.40449261;-48.33021053;-13.26305383;-0.028681167;-13.72068748;-22.06949894;0.489365131;7.760684932;-9.504076067
-22.52827839;-16.63394609;-43.91758076;-6.259049126;-0.154632507;-0.734799648;-28.98317805;12.77491235;19.70722346;7.540965196;-1.879188477;-55.42228008;-15.48329967;-1.154141904;-17.7966945;-21.73528823;-0.528246337;4.336243014;-8.943254751
-22.08721736;-16.04543692;-45.86892501;-10.96117267;0.106922768;-0.827116952;-20.96823104;11.00322351;13.9666966;5.718448909;-6.304085754;-62.70582836;-19.7244165;-2.732249809;-20.421191;-23.22100197;-2.52623462;0.391426677;-8.640710724
-22.36159439;-21.4538324;-47.19446793;-16.78649125;-0.733842594;-1.10571421;-15.0478185;8.39119446;8.95224576;2.11441549;-12.28038943;-67.1352928;-24.20166142;-4.588770928;-20.04450358;-27.3560805;-5.26255699;-0.447411247;-9.228031069
-23.47757269;-31.15123057;-48.36950962;-21.31582219;-0.771541047;-1.453677804;-11.8524703;6.010567619;5.857194621;-2.053230359;-17.34410935;-67.2613483;-26.78740295;-6.285043893;-18.21969148;-31.8396031;-7.960058594;2.477436132;-10.62243061
-24.25470961;-39.45157311;-48.51602792;-21.90208934;0.382061803;-1.693665263;-9.433066833;4.549991004;4.772403824;-5.305595044;-18.99859732;-64.11891344;-26.61716834;-7.310163839;-18.00960765;-33.15932432;-9.750160567;6.313568827;-12.04320557
-23.16351758;-40.6163157;-46.2135415;-17.51013277;1.354227687;-1.747286256;-6.483752095;3.880464555;4.832381175;-6.825484571;-16.55892527;-60.23603629;-24.54730678;-7.424314943;-20.92308091;-29.52151562;-10.20598232;7.414664423;-12.51291544
-19.50275571;-32.96060706;-40.67842442;-9.702946314;0.571782315;-1.709337218;-3.966900575;3.365876012;5.154566924;-6.803234986;-11.57939412;-57.65470717;-22.17751597;-6.848237222;-25.22017456;-22.20739188;-9.564021558;4.73632866;-11.49323661
-13.91175475;-20.15758483;-32.55864394;-1.945758371;-2.008790071;-1.756355953;-3.712515228;2.573563181;5.632667726;-6.018268776;-6.656885023;-56.59308065;-20.39967174;-6.08636835;-27.21540023;-14.3458339;-8.481504002;0.760162151;-9.226012732
-7.921041048;-8.842825697;-23.86675792;2.386714663;-4.727439519;-1.967440828;-5.74850034;1.713915083;6.798988652;-5.084492691;-3.687717661;-55.751556;-18.78682348;-5.495122138;-24.50398524;-8.429311262;-7.549548805;-0.85872311;-6.578610863
-2.988832992;-4.307365622;-17.03649752;1.953220899;-5.758062275;-2.22712817;-7.40188104;1.41698901;8.887290563;-4.019779753;-2.95392211;-53.84959696;-16.31976375;-4.970152133;-18.25649991;-4.861510367;-6.956290265;1.316211292;-4.537225574
0.221414795;-7.347104247;-13.56079686;-1.965326584;-4.841066063;-2.313152647;-5.422877963;2.06648357;11.05343156;-2.470494841;-3.564509584;-50.9848892;-12.71894774;-4.060474263;-12.4820263;-2.64345841;-6.526122827;5.22378348;-3.695549806
1.875624455;-14.33418893;-12.98589333;-6.534434619;-3.520190316;-2.101956663;0.721693136;3.310625029;11.64889018;-0.327815723;-4.59389616;-48.63674844;-9.101112994;-2.446300736;-10.80901269;-1.199890898;-6.01638062;7.277923671;-4.030403635
2.462187523;-20.15811043;-12.99028541;-9.228215254;-3.645461678;-1.707644484;7.658203499;4.216112304;9.497363932;1.872030107;-5.77927037;-48.34095507;-7.28341982;-0.362125345;-13.53823567;-1.32328134;-5.351155038;5.705566937;-5.028040035
2.257505608;-21.71334412;-10.74064275;-9.175796612;-5.569101647;-1.41814463;10.5705125;3.973162024;5.129976723;3.174045156;-7.216177588;-50.19737041;-8.268726287;1.452546901;-17.51934097;-4.193244615;-4.590837682;2.139008595;-6.015735856
1.170743443;-19.48783044;-4.87185684;-7.22639132;-7.754126597;-1.468637151;7.477625333;2.583114525;0.816254101;2.905329873;-8.533357462;-52.50067393;-11.20195726;2.296985536;-18.95019438;-9.43994006;-3.74430299;0.027311765;-6.491740335
-1.028432336;-16.45367536;3.173941205;-4.97909756;-8.177723968;-1.840670305;1.520389102;0.9625297;-0.838170068;1.262489117;-8.558410704;-52.84714054;-13.73775522;2.108300601;-16.64994641;-14.32667032;-2.713177023;1.402254623;-6.318305969
-4.401783289;-15.49059822;9.530303302;-3.674580189;-6.223488476;-2.261136948;-1.145348364;0.361027655;1.26546434;-0.73141723;-6.021853441;-49.87359454;-13.60784963;1.571645047;-12.95859491;-15.23338127;-1.517924298;5.028228527;-5.744368018
-8.729232456;-17.44039136;10.04292198;-3.699366613;-3.30437471;-2.407879424;3.481487314;1.520903568;5.880666617;-1.896445335;-0.812724195;-44.29397773;-10.19669598;1.581773701;-11.51795329;-10.4893047;-0.615240805;7.62496346;-5.279916817
-13.60431527;-21.08130763;2.922386029;-4.776860103;-1.644438478;-2.154330362;13.21966497;4.183108899;10.28507654;-1.663144616;5.360428591;-38.45848469;-4.92974399;2.465822443;-13.93335655;-2.168191617;-0.916286388;6.967396679;-5.461454335
-18.55230071;-24.63922324;-9.847176124;-6.374333794;-2.341993549;-1.656188071;20.44370019;7.257861551;12.21402277;-0.331200363;9.700596227;-34.77658848;-0.223725188;3.632973205;-18.28049144;4.907339931;-3.29671718;3.939635066;-6.576941647
-23.03279725;-27.31393461;-23.37120397;-7.88167513;-4.464097498;-1.220992384;17.46764378;9.489179693;11.37542554;1.350749838;10.1230773;-34.14728798;2.152595399;4.001477805;-20.76460549;6.452451504;-7.845114239;1.637576841;-8.467944355
-26.39517941;-29.53194836;-32.46667637;-8.570645464;-5.935220469;-1.081962648;2.579146127;10.13484011;9.420398598;2.878717664;6.832817163;-35.4738006;2.079706245;2.901405865;-19.03779262;1.826331685;-13.43298212;2.395249649;-10.5387553
-27.96990423;-31.90807738;-34.31918429;-7.690137252;-5.341204018;-1.263401326;-18.03137259;9.251014096;8.486492569;4.336692398;2.400961459;-36.53450607;0.808282983;0.712824384;-14.21835594;-5.493276997;-18.06568032;5.545706508;-12.01699383
-27.35725409;-34.06163111;-29.5032088;-4.913670347;-3.003804168;-1.627108888;-34.11998105;7.499335628;9.527461525;6.094981379;0.120838728;-35.56098469;-0.225877138;-1.327065723;-9.823695777;-10.47344154;-19.92194999;8.024206682;-12.34968231
-24.73077221;-34.51472887;-20.95402997;-0.872349477;-0.454071215;-2.025456349;-38.2083102;5.700884857;11.72177949;8.161953332;1.733081214;-32.45283869;-0.491222731;-2.040699169;-8.581649216;-10.14034947;-18.42719347;7.254765465;-11.49752831
-20.8663786;-31.88208292;-11.92997263;2.799696909;1.046074318;-2.407281996;-30.2861253;4.443144194;13.31007813;9.826874977;6.15396435;-28.84676845;-0.551971277;-1.223638608;-9.979167959;-5.477889563;-14.60280183;3.625033813;-9.924584585
-16.78407701;-26.34988282;-4.507448754;4.22392809;1.469162479;-2.791780025;-17.04146982;3.913290855;13.07257721;10.00775509;10.17315682;-27.00691896;-1.340078125;0.204667139;-10.76103505;-0.278466861;-10.41385735;0.232085894;-8.27559329
-13.21685907;-20.08417621;0.593674671;2.483969601;1.628811277;-3.166631997;-6.548113558;3.945673236;11.24173063;8.102788188;10.67927009;-28.24106683;-3.187140969;0.964300346;-7.973339289;1.962003976;-7.552380653;0.111418261;-6.955969984
-10.3023208;-16.02531508;3.293557755;-1.582521565;1.976847207;-3.440009766;-2.710977465;4.177243205;9.21384427;4.655940942;6.858131245;-31.8577382;-5.400980733;0.4876628;-1.867288732;0.58178686;-6.49299386;3.490232229;-5.905894835
-7.737959996;-15.85320099;3.599042432;-5.70720861;1.930078125;-3.51256586;-3.602600623;4.221012006;8.420377609;1.219963674;0.809542012;-35.39042862;-6.680296383;-0.57487931;3.948827912;-2.152940059;-6.434849528;7.581822036;-4.721109856
-5.261750755;-18.65907444;1.79143062;-7.547644617;0.489716226;-3.400674998;-4.43669236;3.817030978;9.311341747;-0.58997427;-3.854358028;-36.05964458;-6.012585955;-0.841652308;5.35192674;-3.202350489;-6.080831868;9.096754194;-3.019383806
-3.041891651;-21.40627405;-1.06658246;-6.189636563;-2.443521189;-3.273163162;-2.211079338;2.935411865;11.17939494;-0.190176463;-4.439251391;-32.62294593;-3.383594024;0.705240621;1.179594225;-1.218691585;-4.62165178;7.161147864;-0.777471456
-1.636338537;-20.94256173;-3.209588696;-2.737966953;-5.445871407;-3.334307959;1.97868144;1.793488227;12.8120412;1.567951262;-0.922939046;-26.38966595;0.184689039;3.897933543;-5.600659427;2.655877998;-2.221183416;3.989128465;1.600207468
-1.558211331;-16.1647711;-3.190736997;0.432609104;-6.437865195;-3.636613874;4.634770038;0.760712722;13.36196883;3.033727513;4.171770786;-20.58557168;3.259037047;7.489270902;-10.03374386;6.09176642;0.250650326;2.747663829;3.510168452
-2.831894478;-8.824186003;-1.140749805;1.240125023;-4.403432847;-3.993406116;3.688148463;0.181070398;12.80291011;2.989373711;7.646422748;-18.30950424;4.848065885;10.08348462;-8.872952907;7.656427431;1.913062311;4.627349926;4.491689686
-4.936274556;-2.461086441;0.943984959;-0.806604896;-0.410943557;-4.093140833;0.836904551;0.202749732;11.77909359;1.557165484;7.871411603;-20.38094119;4.943161684;11.12544189;-2.840640896;7.84741071;2.419630759;7.820184518;4.441946248
