Channel 1 - P4;Channel 2 - O2;Channel 3 - P8;Channel 4 - T8;Channel 5 - C4;Channel 6 - Cz;Channel 7 - Fz;Channel 8 - F4;Channel 9 - Fp2;Channel 10 - F8;Channel 11 - Fp1;Channel 12 - F7;Channel 13 - F3;Channel 14 - C3;Channel 15 - T7;Channel 16 - P7;Channel 17 - P3;Channel 18 - O1;Channel 19 - Pz
-18.49061434;-18.71492325;-86.15947925;-11.23093226;31.13596147;-13.03979778;-59.85272609;-29.7252362;14.64405498;-4.161815803;13.60653306;13.46850302;2.387673107;-10.36782963;-9.533478823;-51.73442578;-19.951528;41.26573405;-17.83144371
-13.48700339;-27.90631285;-50.78408818;-7.832062022;67.78934726;-8.277879015;-17.73080151;-6.521859374;48.96829475;15.90563807;53.47614723;33.29065782;20.73071622;-7.139640912;-8.587868118;-35.53586664;-22.90007813;72.56254403;-16.92124492
-6.539637126;-33.90567915;-12.68517627;0.169934159;71.40684172;-1.023355639;7.57160573;15.76554981;77.92314112;33.97019159;86.40308941;40.16946117;32.67436262;0.226101033;-11.0888019;-22.33957789;-20.50874605;65.26039599;-12.04658514
-2.558941499;-35.79863827;5.012341787;8.399182511;44.41794578;4.633543118;4.131551173;25.87357872;89.8132893;41.81588881;99.16317211;30.26228707;32.08492527;6.698954214;-16.82189905;-21.10520052;-16.28947074;28.6227965;-6.675185808
-3.72355433;-34.28569532;-3.72984896;11.79953325;9.228427544;5.931699416;-17.25232999;21.56463614;83.91191835;38.1298624;91.48683277;10.21013028;21.526138;8.205389614;-22.60384476;-30.73220874;-13.76177991;-9.562278756;-3.84464399
-8.353112338;-30.93097461;-25.96517285;8.196853973;-9.438114301;3.188444028;-34.54432216;10.00161334;69.53575696;28.56804672;74.57868277;-7.686133249;9.462363947;4.401796531;-24.53015043;-41.87537656;-13.96357823;-24.06427808;-4.139644242
-12.61026077;-27.1858748;-41.63153926;0.066992862;-2.35353868;-0.744874232;-32.9847892;1.560118987;58.55212507;21.1188301;62.16185857;-13.9506497;3.580182697;-1.381777945;-20.98412086;-44.8008338;-15.16281696;-9.770250264;-5.717266366
-13.52672815;-23.80983457;-39.07731675;-6.949775811;19.6332367;-2.766802842;-15.40718704;2.162174885;57.25129643;20.47883231;61.16929719;-7.7902436;5.552651033;-4.82458386;-14.00087566;-36.81513533;-14.76143161;17.14560122;-6.20109907
-10.9897654;-20.86135212;-22.25987725;-7.868172378;36.52335;-1.729039608;2.848290461;9.872021062;63.41082912;25.5354193;68.73760124;3.677035598;10.99484374;-3.77062026;-7.8687044;-23.5871383;-11.67340795;33.9320648;-4.785640093
-7.331634655;-18.01262642;-5.15954205;-1.776566374;35.70843909;1.057685862;8.468658272;17.75218635;69.92412019;31.3553583;76.71958549;11.64673406;14.00853166;0.506896353;-6.059187675;-13.90350905;-7.232749347;29.19115539;-2.82218315
-5.129295229;-14.86513932;0.715496768;7.671721738;20.7237243;3.203461789;1.048098689;20.04770997;71.3256976;33.60668982;79.14609299;12.18935957;12.22446822;4.692046342;-8.878832088;-12.60749877;-4.030364072;9.963717837;-2.504056452
-5.142147027;-11.15185728;-4.903172646;15.05720006;6.19538181;3.23663548;-8.455596239;16.56200156;67.84761222;31.80025144;76.46936631;8.271707834;8.312335892;6.156195757;-13.57340974;-17.47909108;-3.80029555;-6.348521628;-4.866573581
-6.005785443;-6.900599756;-12.51713504;17.15174875;4.52883889;1.608944744;-9.114257657;12.07859202;64.262546;29.10049325;73.82681533;6.286382526;7.176519414;4.823614979;-16.59600464;-22.10860853;-6.151169108;-7.197524673;-8.829599156
-5.735208366;-2.593023876;-12.16340266;15.0294892;15.97648068;0.049162991;-0.417299948;11.90762501;65.20117098;29.35121714;75.71613302;10.41086829;11.59125247;2.841869719;-16.09257329;-21.7703173;-9.095402874;5.657696192;-12.05598849
-3.621804881;0.823920792;-2.043886131;12.78885384;29.8226458;-0.017218509;7.56398377;17.54120816;71.18176743;33.97856565;82.02641884;19.3949582;19.97495372;2.553625877;-12.71161787;-17.15947749;-10.77676827;19.42858625;-12.8385157
-0.908534768;2.259357322;10.58106714;14.01108742;34.53687701;1.399534283;3.909250697;25.82521284;78.45268806;41.12671397;88.54786206;27.95548328;27.85679078;4.535642586;-8.441692723;-13.14809761;-10.8740353;22.24274205;-11.39793767
0.241137622;1.083895934;16.19565541;18.83499334;27.52372766;3.034472568;-12.61160787;31.8407504;82.27523337;47.31029874;90.90438239;31.12026025;31.42466283;7.237357573;-4.844854842;-14.16298393;-10.57877561;12.99287912;-9.54260804
-1.474578748;-2.363134297;11.09765921;23.9642758;16.32384731;3.562867185;-31.69016516;32.71910834;80.55709576;49.91076463;88.09428791;27.78550908;30.06846552;8.340110673;-2.337910451;-20.47601095;-11.34359712;1.099696311;-9.064498362
-5.467602343;-6.827917919;-0.133303455;25.50304987;11.07838785;2.709256853;-39.8801685;29.26138457;74.90204371;48.52648391;82.66448729;20.87240964;26.07064764;6.595976394;-0.934471805;-28.48831439;-13.60431722;-2.636288609;-10.28485976
-9.769044742;-10.87276524;-9.283230326;22.21166918;15.5048013;1.359703191;-31.77082585;24.46496145;68.67185338;44.48947483;77.85934011;14.50379961;22.19563028;2.663617406;-1.343007167;-34.33714008;-16.56616658;4.471616282;-11.95462594
-12.5532171;-13.83985358;-11.64629061;16.47389093;24.27750907;0.692229815;-14.23432614;20.71195519;64.15142778;39.44651771;74.71508908;10.89042934;19.53898872;-1.588497862;-4.976671684;-37.3;-19.10453867;15.28600576;-12.49758971
-13.37940537;-16.31093529;-9.36956401;12.20883691;28.53503067;1.160617655;-0.322998407;18.18768157;61.28417334;34.4083735;71.75355781;9.386956647;17.37106898;-4.579280354;-12.58936235;-39.94276823;-20.8439175;19.76543224;-11.44362573
-13.20187017;-19.61462275;-8.532716094;11.53125267;24.05783483;2.203005211;1.59650314;15.6219046;58.67680655;29.86844268;67.22540733;7.991324058;14.67205866;-6.046929455;-22.7915793;-45.11649811;-22.40463159;13.92159943;-9.803346729
-13.28897058;-24.64859187;-13.09364532;13.01536427;14.74785776;2.842707668;-5.950673339;12.23731761;55.48320885;26.42653537;61.43336391;5.514811502;11.57762226;-6.883965379;-32.09742971;-52.78141254;-24.64392604;2.956737199;-9.113581705
-14.06408248;-30.87478051;-21.26198879;13.06114796;8.681884421;2.57169109;-12.96512052;8.861983197;52.24538983;24.95662525;56.75466786;2.445815074;9.303043093;-8.089198898;-36.91553247;-59.66632565;-27.65731743;-3.730695127;-10.04335805
-14.83442117;-36.30368532;-27.29215579;9.220971949;10.71988491;1.727702667;-11.43375504;7.191462257;50.06891656;26.00480419;55.35671465;0.06593957;8.778534637;-9.806706205;-36.0698042;-62.05827921;-30.49711106;-0.845535382;-11.78865225
-14.53202855;-38.58596843;-26.72916691;2.637373367;18.42315456;1.093563012;-2.219914937;8.044600082;49.22539012;29.04795582;56.91397557;-0.956313967;9.526620898;-11.21404212;-31.71029421;-59.11638266;-31.87330344;8.539090576;-12.75174653
-12.72948087;-36.49187517;-20.27032559;-2.569513671;24.68761303;1.15121473;6.50910915;10.37562563;48.74664109;32.50334331;58.67407535;-0.997738051;10.02090062;-11.23421671;-27.64140213;-53.65041204;-31.19460171;16.14066503;-11.87960335
-10.0352179;-30.73785901;-12.9575008;-2.580286927;24.34376288;1.684471309;7.42787332;12.01170812;47.45202767;34.69;57.96456923;-0.646110039;9.233734845;-9.393751417;-26.26209243;-49.65061;-29.01555481;15.84830214;-9.505152268
-7.587563553;-23.57967317;-9.713142831;2.854472298;18.61426043;2.051652104;1.076855791;11.42519787;45.32492593;34.98500966;54.83080641;0.320416728;7.834504712;-6.137561262;-26.61369856;-48.82110603;-26.52039141;8.724377386;-7.016198295
-6.161852273;-17.48242084;-11.33694616;9.924241929;13.57274294;1.822914612;-4.690522002;8.908831144;43.7524321;34.13933601;52.24147538;2.887085295;7.763950217;-2.450325771;-25.25213064;-49.26398511;-24.55121926;1.519374434;-5.699873748
-5.688323758;-13.81524127;-14.37440397;13.58633039;14.31235596;1.172692219;-2.294797645;6.132747685;44.25244641;33.42985516;53.48269613;7.592838501;10.44932706;0.802096363;-19.35695296;-47.50406578;-23.07071283;0.439084592;-5.772469883
-5.552258466;-12.42971438;-14.65003906;11.50529789;20.28712547;0.683500209;7.908664396;4.584105366;46.84409655;33.38132682;58.99367987;13.36368726;15.27899172;3.269287883;-9.571705998;-42.02601933;-21.50771694;5.85066913;-6.369168891
-5.33842004;-12.27528288;-11.10107902;5.914916417;25.97533668;0.776234583;16.99180986;4.374544747;49.6677644;33.22;65.53436638;17.72022773;19.81669681;5.038342793;-0.188455977;-35.12828466;-19.5997815;12.40118801;-6.403205805
-5.322906842;-12.45888355;-6.569949917;1.838053144;26.04450091;1.312043136;14.72868102;4.462951178;50.35683258;31.59011263;68.57434669;18.45206424;21.68538647;6.293228942;3.600995605;-31.38392557;-17.89604108;14.05235576;-5.493915018
-6.287077554;-12.93205735;-5.14783774;3.032539088;20.18307171;1.727014094;-1.362406796;3.952862659;48.01835783;27.92580109;65.92027081;15.39759172;20.49697242;7.069613517;-0.70103956;-33.98837323;-17.42071831;9.349126874;-4.195691842
-8.844714469;-14.39308724;-8.692312578;8.885004384;13.25810937;1.557386139;-23.04222454;3.123319385;44.04504662;23.24774646;59.44635675;10.70226574;18.09411415;7.271548612;-11.21032492;-42.11325901;-18.79339017;2.383290792;-3.434607898
-12.87646077;-17.63153821;-15.60181221;14.73618343;10.8285357;0.862198866;-37.16932283;3.167773406;40.98492728;19.61792686;53.42562502;7.184361554;16.84675103;6.835341637;-23.06768642;-51.48529318;-21.61413329;-1.05235341;-3.732446303
-17.52828232;-22.89242435;-22.62622253;15.39064673;14.21343937;0.163080459;-35.60327894;4.911874901;40.44135265;18.64783561;50.9417315;6.126365643;17.49939565;5.832007018;-31.68328875;-57.61920371;-24.68211258;1.539289411;-4.890761481
-21.72130817;-29.67888261;-27.71961901;9.053843112;19.55138854;-0.026162075;-21.09478075;7.800905689;41.86014042;20.29246768;51.53372453;6.393559416;18.50555703;4.435044538;-35.26510948;-58.93049612;-26.85660158;7.567075959;-6.308502596
-24.71228391;-36.97474742;-31.2311472;-1.343680376;21.5315914;0.359974796;-4.530108891;10.21145662;43.254962;22.93942441;52.09321924;5.676604768;17.4861129;2.852235996;-34.92317841;-57.2194689;-27.79575434;12.01723961;-7.528130246
-26.27601607;-43.57476082;-34.56052135;-10.35538425;18.25664279;0.920853197;3.877752371;10.86838664;43.15212372;24.71154796;50.10880039;2.796513972;13.54545909;1.330801737;-32.77241352;-55.41133046;-27.94441879;11.90754266;-8.475441941
-26.47384782;-48.28318842;-37.89820253;-13.91662153;12.81928232;1.185957969;2.053346752;10.04609706;41.92620432;24.88977441;46.2537715;-0.959805283;8.368082589;0.201307803;-29.98860674;-54.77502434;-27.84979805;8.565907546;-9.241267649
-25.33644363;-50.0281652;-39.45613667;-11.89261496;10.30446954;1.041332805;-3.686196076;9.365868268;41.28013826;24.29576354;43.92045861;-2.700771664;5.041574641;-0.182159679;-26.45876218;-54.09072559;-27.49887376;6.001084433;-9.730269842
-22.80199049;-48.09441872;-37.01993165;-7.486013329;13.09859906;0.793633084;-5.146540747;10.2826324;42.37528236;24.38589648;46.07690325;-0.310960589;5.532845141;0.336125999;-21.95382014;-51.29433132;-26.32417931;7.156496304;-9.603073261
-18.94040606;-42.51842496;-30.30657124;-4.281038721;18.80579344;0.830997146;0.460815261;12.61256454;44.42413728;25.89355099;52.2803339;5.673051857;8.953992361;1.484939754;-17.29679752;-45.84200972;-23.86662152;11.48636849;-8.591772443
-14.18431301;-34.38063624;-21.75672629;-3.467560572;22.55842669;1.21681453;8.670188554;14.50262957;45.18732162;28.1880499;58.61776256;12.32179726;12.13119921;2.595459613;-14.1329564;-39.47856028;-20.43820681;15.80344097;-6.849475878
-9.276773314;-25.61934773;-14.83077697;-3.399787622;21.47314363;1.607132493;12.50756288;13.98855591;43.06117541;29.84896201;60.78770276;16.53039334;12.06376082;2.992836571;-13.43390327;-34.69327965;-17.10580872;17.30682344;-4.936210145
-4.929804877;-18.26697588;-11.24085413;-1.568290243;17.14418622;1.572862579;9.246810047;10.83417105;38.88816739;29.90091429;57.73469724;17.35646621;8.279555765;2.52129234;-14.27684073;-32.36782789;-14.94845053;15.91027613;-3.408932157
-1.479834872;-13.48688583;-9.61067712;2.897417095;13.99007813;1.027002158;3.061656994;7.012668999;35.72172548;28.63079863;52.67690684;16.54898785;3.190377844;1.77089626;-14.33464068;-30.89887054;-14.2384155;13.90696373;-2.40340747
1.158867965;-11.04960806;-6.812721347;8.341616084;15.10803325;0.356389978;1.255187033;5.316587112;36.51791564;27.32860838;50.55035708;16.87693456;0.208946088;1.733240842;-11.92176837;-27.71019051;-14.30048741;13.5633946;-1.635507806
3.216580759;-9.654438823;-0.828643289;11.93766288;19.49788951;0.125471167;7.423881705;7.200896468;41.60169657;27.2388049;53.94697038;19.69985783;1.184145489;3.056456039;-7.830356962;-21.82742996;-14.19757797;15.0143819;-0.84444518
4.738752953;-7.911198714;7.383386609;11.99820275;23.14118536;0.607200666;17.57198265;11.65099016;48.08471606;28.64128737;60.91174798;23.79528372;5.161328695;5.440595142;-5.128909734;-15.14165003;-13.62352654;16.32427011;-0.235713172
5.513466783;-5.307643181;14.6207568;9.252937477;22.81873057;1.551144475;22.67284084;16.01138015;51.84335822;30.78555437;66.39669222;26.33283094;9.291475869;7.675209297;-6.784859412;-11.11181257;-13.17138384;15.45387071;-0.428936463
5.304968263;-2.502743882;18.04359513;6.108595535;19.07341487;2.386408849;15.7364557;18.05358223;50.5185781;32.61363105;66.12014338;25.0795998;10.97549205;8.361562197;-12.98328379;-11.95282705;-13.70731917;12.18270733;-1.86895955
4.138454193;-0.8003063;17.30702361;4.647184493;15.60428062;2.67576616;-2.312731738;17.54399157;45.12386333;33.55734067;59.65944227;19.98375762;9.492818685;6.833814008;-20.51545879;-16.75654517;-15.41893572;8.259989751;-4.214004612
2.328390308;-1.256183399;14.39317809;5.094693187;15.72897654;2.430377805;-22.68318185;16.06387132;39.00889101;33.73715808;50.38744718;12.94682571;6.012770049;3.625671776;-25.01838218;-22.22281316;-17.44769703;5.814357126;-6.331234245
0.198774619;-4.080209702;11.46149771;5.953839221;19.24831719;2.036938553;-34.68495883;15.37589557;35.12979894;33.52308006;42.57589628;6.191754876;2.321174359;0.164357482;-24.42222542;-25.39990721;-18.51654171;5.609335201;-7.042913427
-2.231564692;-8.675651136;8.814888038;5.517748459;22.62597625;1.89762427;-33.02897434;15.8607129;33.93553676;33.01903093;38.25693844;0.741617285;-0.4654615;-2.056914988;-20.78584784;-26.06029473;-18.04915734;6.696732654;-6.074998653
-5.250101664;-14.12136112;4.888536603;3.380207296;22.29530415;2.118322057;-21.02420135;16.40269755;33.55429765;32.04583204;36.38040036;-3.764814745;-2.19533687;-2.229234673;-18.86923977;-26.64097034;-16.77437681;7.583337005;-4.393059231
-9.058459284;-19.61162281;-1.771067264;0.715423884;18.01052224;2.501595451;-7.57611092;15.75258565;31.93824572;30.63981164;34.62993789;-8.01498795;-3.056181386;-0.435926336;-22.42266764;-29.7998188;-16.20461981;7.6456304;-3.555497532
-13.29214092;-24.54015639;-10.44829501;-0.742458092;13.12980588;2.801141498;-0.575921377;14.05644613;28.97193173;29.50807074;31.96792502;-11.9246877;-2.919845365;2.678730668;-31.09566309;-35.72517281;-17.35827125;7.471750409;-4.52969663
-16.90375142;-28.33576564;-18.12982592;-0.012644091;11.55624688;2.96215259;-1.682757783;13.09705737;26.67691122;29.85368179;29.54770011;-14.61963862;-1.407154295;6.384246046;-40.45323955;-41.56625756;-19.80266408;7.993224775;-6.905479642
-18.60928247;-30.40366925;-21.55475763;2.628081624;14.14606805;3.116492813;-6.058885754;14.95279107;27.38550991;32.55647391;29.30808495;-15.48424335;1.43519202;10.08233332;-45.13449458;-43.53179033;-21.87739713;9.443608725;-9.156655476
-17.63664906;-30.3655441;-19.69329913;6.200613454;17.8945382;3.363942617;-6.759177029;20.2022345;31.55394969;37.35156663;31.73840966;-15.17545212;4.643611027;13.20787486;-42.70130123;-39.91327278;-21.96942779;11.21611939;-9.758132024
-14.23344903;-28.39862942;-14.47905304;9.947001841;18.67766136;3.589084435;-0.236724886;27.23742692;37.17702413;42.76980144;35.01246119;-15.47346695;6.685142477;15.09097652;-35.22820145;-32.49645168;-19.7961154;12.65305326;-8.267864416
-9.537867049;-25.26531227;-9.144969279;13.74114631;15.07802451;3.525935619;10.97995049;33.32387598;41.33857064;47.03321688;36.36844056;-17.90777359;6.478811087;15.08171742;-27.5428581;-25.18621694;-16.61609128;13.80790146;-5.52274675
-4.888032408;-21.85047531;-5.609891924;17.74452648;9.814073685;3.027756574;20.03881074;36.57371807;42.56517769;49.29393007;34.52101912;-22.28364917;4.23572816;12.93750294;-23.6683435;-20.99830732;-14.1842482;15.29191666;-2.841497177
-1.064474826;-18.50958981;-3.164057191;21.84017143;7.436883922;2.277405764;20.41753757;37.24366557;41.96994505;50.25501624;30.93;-26.45161835;1.360683866;9.145245162;-24.28719493;-19.88877873;-13.33482972;17.34825411;-0.942054946
2.005821478;-14.81202945;0.475196685;25.53096195;10.31522977;1.706114169;10.21928897;37.35049528;42.23355382;51.64147426;28.74951014;-27.68156333;-0.544289345;4.822003508;-27.00038065;-19.1308408;-13.39312898;19.19683483;0.519770411
4.922892943;-10.01669751;6.744012074;28.41462638;16.47512538;1.65618066;-6.580225254;38.98316595;45.31274676;54.87301179;30.3106148;-24.65591659;-0.770046387;1.158666037;-28.79037224;-15.81566183;-12.90246222;19.49686467;2.449330531
8.168501506;-3.988665103;14.59634314;30.66754179;21.21715535;2.078255136;-22.46980185;42.70036695;50.79732763;59.92023769;35.24443094;-18.53890885;0.166562099;-1.23223126;-28.43243321;-9.365622268;-11.02163816;17.63168377;5.335582966
11.64346577;2.207923764;21.04726754;32.90034248;21.0904503;2.550092773;-30.65991159;47.23016067;56.2179187;65.19695557;40.76413231;-12.28675571;1.115157711;-2.585820847;-26.93530262;-2.062666071;-8.375096907;14.57371007;8.661536792
14.69258006;6.657683871;23.37451174;35.39235145;16.74283795;2.628694147;-28.63707411;50.55877619;58.93967058;68.56068436;43.77615003;-8.737308407;1.209596172;-3.671632159;-25.97788535;2.69328634;-6.615613427;12.34284253;11.196959
16.52413072;7.77333664;21.08268863;37.43936045;12.19730958;2.24306955;-19.04111473;51.40607904;58.01935292;68.67956567;43.01990254;-8.919926653;0.335600636;-5.147396991;-26.02412785;2.870399697;-7.070811982;12.37476153;11.89748916
16.66075071;5.461525424;16.04827869;37.59789739;11.26526104;1.779919545;-7.597081993;49.91590006;54.57878123;65.79676738;39.56879455;-11.75600675;-1.110911865;-7.075238188;-25.89689348;-0.930798749;-9.628655001;14.24071821;10.63819823
15.10436371;1.325200031;10.88698092;34.83700163;14.27649113;1.770476;0.43808543;47.17866822;50.59962138;61.41969277;35.53253077;-15.17242564;-2.762681575;-8.939053623;-24.11427778;-6.24283332;-12.80375646;15.97068796;8.193261324
12.17440267;-2.36525374;7.037451998;29.68295335;17.93789018;2.434908025;3.075027425;44.1933129;47.33835813;57.25853794;32.28832939;-17.60767762;-4.514161159;-10.08680517;-20.64031727;-10.66925732;-14.91256812;15.80645159;5.53997975
8.230494143;-4.234127387;4.114835351;24.2573836;18.32955752;3.473466969;2.002674145;41.22410822;44.70867489;54.22384482;29.76800762;-18.76428269;-6.268745964;-10.20083453;-17.34687881;-13.35929276;-15.35275857;13.84027146;3.117774387
3.524965106;-4.726877973;0.836567082;20.94538662;14.33326234;4.289064631;0.600459161;38.00924739;41.96742001;52.14560256;27.1941582;-19.23786896;-7.58935104;-9.428322307;-16.6805301;-15.00656951;-14.92532818;11.99849831;0.651056557
-1.737169496;-5.669837904;-3.527249587;20.63380026;8.52491525;4.458748811;1.156306886;34.46539624;38.85912844;50.28065408;24.31887592;-19.58928068;-7.766343977;-8.128767112;-19.65599536;-16.6921784;-14.98224421;12.29101448;-2.38634189
-7.245371846;-8.764908253;-8.496635211;21.96956022;4.881867196;4.059945166;3.380414231;31.14274019;36.07493677;48.11950733;21.88635471;-19.74277007;-6.366988413;-6.517488277;-24.90287972;-18.74680274;-16.17908803;14.86982731;-6.131698365
-12.50702556;-14.14273189;-12.91917371;22.37402895;5.4291819;3.583567519;5.248550154;29.00123183;34.64794028;45.87722397;20.92496599;-19.13158545;-3.762872202;-4.531814456;-29.57537126;-20.55220471;-17.90463601;17.70714011;-10.07714653
-16.91970451;-20.05790697;-15.96610503;20.12988824;8.745697903;3.517649899;5.326368925;28.73761259;34.95300438;44.37294634;21.65961074;-17.28900624;-1.041721854;-2.006698226;-31.3454128;-21.22683081;-18.82500576;18.29652582;-13.36292813
-19.93462283;-23.94249196;-17.55801609;15.9077749;11.47926631;3.956741386;4.465264017;30.27558644;36.32176117;44.46442026;23.18684505;-14.26166174;0.760231216;1.042814477;-29.83707126;-20.39017931;-18.0035646;15.92871189;-15.30424615
-21.20727478;-24.02731439;-17.92063764;12.45953774;11.35988939;4.554812122;5.214506855;32.83560568;37.64622852;46.46404668;24.27701791;-10.5165054;1.494159049;4.311663683;-26.42893293;-18.29320972;-15.59772994;12.48856779;-15.69550873
-20.679802;-20.37256843;-16.91804842;12.63520804;9.014137072;4.836444268;9.235461502;35.46860357;38.37232264;49.89508318;24.53895934;-6.554556674;2.030229317;7.360374086;-22.7853449;-15.32760976;-12.56657635;10.96892128;-14.71724889
-18.60157049;-14.66410818;-14.01670603;17.23055751;7.115367348;4.58248768;14.90204166;37.57723084;38.90943642;53.67938716;24.79500505;-2.686811753;3.47684956;9.871901679;-19.49493262;-11.53422256;-9.730485483;12.92636536;-12.66106822
-15.49916004;-9.070264246;-9.019170072;24.33011436;7.823110618;3.966281073;17.45435104;39.04726438;40.04977832;56.60374941;26.24166046;0.82788794;6.102568616;11.76328793;-15.95240768;-6.664981333;-7.08525733;17.09562117;-9.804399837
-12.07170805;-5.061760125;-2.815741982;30.63878057;10.87871086;3.353947454;12.16286724;40.01045057;41.95438311;57.81928379;29.13200454;3.530285857;8.909372591;13.06757678;-11.41962996;-0.739354758;-4.000264122;20.40885543;-6.5258625
-8.988917349;-2.951117782;2.744109574;33.7478449;13.96482041;2.975469026;-1.63666928;40.55389296;43.70640982;57.16778983;32.21730745;4.799044526;10.30416059;13.74092292;-6.160039063;5.494818187;-0.091117749;20.5644587;-3.430985677
-6.644210606;-2.228375537;5.970847375;33.60660387;14.82661887;2.7648417;-18.89324579;40.63621969;43.92783129;55.21636942;33.54102968;4.281287573;9.37374341;13.62778926;-1.559800583;10.72469218;4.079614364;17.91893412;-1.206826392
-5.003465532;-2.178731442;6.567328097;32.17775235;13.15070305;2.491334351;-31.32843111;40.18924777;41.95758365;52.9740482;31.95839901;2.350383515;6.70245097;12.6515996;0.862225608;13.80885189;7.179025844;15.06554854;-0.210848073
-3.682651865;-2.229076811;5.871553306;31.71534244;10.58485481;2.03269007;-32.67335408;39.19760947;38.51846744;51.37603349;28.06481991;0.079501337;3.999482049;11.04592539;0.636416479;14.49380664;8.071409713;14.49965465;-0.137764962
-2.247340752;-1.913215293;5.808417133;33.11181397;9.068257134;1.522026909;-22.9407533;37.63681484;35.20056179;50.75236273;23.69253854;-1.41434194;2.778414497;9.353732406;-1.336557602;13.5132848;6.757808813;16.44598217;-0.135167116
-0.547311408;-0.781459702;7.37873388;35.54585802;9.124391593;1.23149931;-8.484590668;35.37967158;33.12739334;50.57500943;20.36920129;-1.819555364;3.137209486;8.106844035;-3.565300327;11.9968299;4.452823073;18.75294257;0.619995531
1.160453338;1.417001468;9.942900723;37.49948923;9.643179099;1.306730271;2.337115303;32.26871633;31.92890057;49.69549267;18.03915535;-1.970564851;3.635586713;7.405259899;-5.109132148;10.68344526;2.687342139;18.90680249;2.307408035
2.408327026;4.351982531;11.8797515;38.12510125;9.186618195;1.604213723;4.751680725;28.37680919;29.93602923;47.02110654;15.13283875;-3.31;2.389793551;6.763279924;-6.085961312;9.555359482;2.15968994;16.3428852;4.330246882
2.895534056;6.97089827;12.01535782;37.80656662;7.456356332;1.787754911;0.315498008;24.21708445;25.49338873;42.26661359;9.921716097;-6.797210202;-1.47310291;5.415123848;-7.199425052;8.107786219;2.277223964;12.99512299;5.80801125
2.753398967;7.956167665;10.5778967;37.5831074;5.532130882;1.6033059;-5.06845097;20.61503125;18.3267918;36.28819976;2.010756372;-12.07570438;-7.137341708;2.896680173;-8.847067444;5.937946594;1.748333293;11.6156515;6.303419623
2.482094284;6.624228037;8.898166179;38.0993712;4.753256704;1.091008995;-6.094747324;18.22210385;9.825771573;30.70533166;-7.280812313;-17.57341369;-12.70155011;-0.542961077;-10.6968909;3.13257437;-0.292978499;13.37458901;6.169679906
2.600604859;3.617392335;8.2006096;39.05386885;5.407318877;0.550221064;-2.016509038;17.00858883;1.978764144;26.96362185;-15.95599727;-21.52739785;-16.56181481;-4.053373447;-12.09848469;0.186417824;-3.570107735;16.85786742;6.216346512
3.282134553;0.758116847;8.598300725;39.55539747;6.499563253;0.290721715;3.341540884;16.17218714;-4.202950881;25.39842953;-22.931188;-23.22437932;-18.50546728;-6.770193071;-12.8586488;-2.384427655;-6.916760149;19.30824851;6.98147793
4.257560165;0.022243933;9.151974602;38.94881401;6.770127218;0.384655626;5.211756386;14.60230293;-9.523311681;24.92158308;-28.8982556;-23.56744559;-19.73152985;-8.437893196;-13.56207346;-4.354865907;-9.230538583;18.9697196;8.247618647
5.049795944;2.289771248;8.852960704;37.31530367;5.918104029;0.623024811;1.978075479;11.58260522;-16.04451935;23.58886881;-35.80268501;-24.54954148;-21.8677522;-9.573255794;-15.07319435;-5.796711766;-10.29313262;16.46975813;9.23036794
5.336226789;6.75856342;7.576107875;35.25427748;4.837598932;0.697616691;-3.619791759;7.202385879;-25.56859052;19.73638014;-45.38814287;-27.97629124;-25.7748898;-11.02153179;-17.66709236;-6.861670699;-10.78964733;14.09326951;9.274424301
5.145928527;11.44368295;6.143428471;33.27114638;4.674027374;0.442455819;-6.986747904;2.184048038;-38.29836871;12.98635197;-57.92730265;-34.28166396;-30.98975642;-13.2387002;-20.62645967;-7.596895106;-11.57919898;13.69382846;8.43573336
4.75221588;14.39031892;5.5065523;31.42976294;5.662043758;-0.062061477;-5.609444203;-2.679467751;-52.61961798;4.493705453;-72.01331557;-42.19048485;-36.09912689;-15.86276063;-22.73387875;-7.949832171;-12.89937511;15.14451397;7.420675702
4.380048828;14.73542962;5.86296894;29.58846598;6.892384093;-0.582558009;-1.079943796;-6.977612376;-66.06472477;-3.706746347;-85.42229078;-49.40650363;-39.6577783;-17.92241249;-23.26045652;-7.896436129;-14.19436119;16.65504977;6.922943036
3.989997045;12.93919726;6.529519347;27.89222008;7.219044251;-0.914636994;2.42103516;-10.67007813;-76.686047;-9.819216593;-96.31574475;-53.860874;-40.97484509;-18.53576173;-22.5748035;-7.520039063;-14.66915967;16.55435161;6.94681688
3.313739523;10.18449441;6.639617934;26.89640322;6.393303647;-0.992696185;1.804295743;-13.70831487;-83.89543756;-13.17061168;-103.9673487;-54.75525961;-40.32105202;-17.5659209;-21.81834166;-6.962689451;-14.03126589;14.84569335;6.741891716
2.091112244;7.536568879;5.95104864;27.06;5.296421091;-0.862295548;-2.227040775;-15.73140749;-88.3486132;-14.36210989;-108.7054588;-52.82094411;-38.57881942;-15.73072485;-21.92458914;-6.332476672;-12.74743714;13.1261929;5.452991273
0.296019754;5.504071678;4.983494405;28.02967617;5.039320283;-0.586191702;-5.714838576;-16.19252495;-91.17503116;-14.70166242;-111.3553406;-49.72279174;-36.68381962;-14.0864496;-22.84400444;-5.691447299;-11.60907766;13.00826533;2.955866856
-1.82708563;4.176072483;4.387425861;28.46748558;5.822071994;-0.200241974;-4.753489907;-14.84487192;-93.21561304;-15.37635434;-112.6860237;-47.03558221;-35.21400484;-13.28673008;-23.64375892;-5.130662074;-11.02813916;14.54823974;0.156334602
-3.913942296;3.587139145;4.20375348;26.7864407;6.69399405;0.243253347;1.186282011;-12.1484682;-94.74669515;-16.9093178;-113.1651995;-45.42821753;-34.27554648;-13.18138638;-23.364626;-4.81105318;-10.71361128;16.14422943;-1.544909651
-5.662801651;3.843741413;3.774139272;22.34465145;6.475524739;0.618344514;8.668115537;-9.196745894;-95.69969116;-19.15624379;-112.9973863;-44.51518086;-33.63113146;-13.04395511;-21.85283195;-4.871406267;-10.01705765;15.99155781;-1.230965646
-6.900679494;4.887759466;2.413076677;16.1426301;4.947539274;0.752574619;12.95190228;-7.172875078;-96.04513497;-21.68596812;-112.2665457;-43.39656592;-32.93594461;-12.22552889;-19.83786496;-5.269488194;-8.622206491;13.75978231;0.872235039
-7.5288781;6.209667773;0.185644019;10.36299825;3.1184812;0.547153201;11.79898811;-6.751840084;-96.0081071;-24.17035238;-111.0665979;-41.4725399;-31.96223181;-10.71257647;-18.23184104;-5.746457657;-6.940681663;10.96989909;3.565533698
-7.469152593;6.923029763;-2.00257586;6.995169679;2.25995635;0.085975053;7.384741684;-7.895268065;-96.01489903;-26.51017952;-109.6067323;-38.95324108;-30.72716939;-9.160264445;-17.3278675;-6.025370501;-5.838257439;9.738890858;5.5224512
-6.714486059;6.278083986;-3.155589389;6.551097404;2.625754241;-0.387368111;4.739217446;-10.12311384;-96.48721536;-28.71140711;-108.2758325;-36.70662442;-29.47102319;-8.393900667;-16.63757615;-6.116270333;-5.915113941;11.01615871;6.142729218
-5.449146818;4.245148973;-3.108687449;7.843307523;3.139782271;-0.636977105;7.80444297;-12.9351625;-97.64892798;-30.73473281;-107.5852689;-35.56461705;-28.49545327;-8.781838764;-15.49112559;-6.435555111;-6.967319313;13.85119636;5.786169957
-4.088826684;1.666856492;-2.74033307;8.969971783;2.447801187;-0.620316715;16.03163328;-15.97765683;-99.43188262;-32.50516199;-107.9333116;-35.61782138;-27.96350051;-9.966162976;-13.80618563;-7.552178985;-8.110184153;16.27215759;5.293334928
-3.130980826;-0.200603666;-3.216058101;8.711095116;0.385883209;-0.530184051;24.10485731;-18.86462712;-101.4889588;-34.05298414;-109.2942408;-36.05913439;-27.80860845;-11.14168603;-12.27508854;-9.694748914;-8.47601213;16.93003906;5.260948328
-2.877003237;-0.441508615;-4.907021365;7.25805074;-1.583243416;-0.642040937;25.17021019;-20.9527666;-103.3048274;-35.58793179;-111.0829278;-35.73066606;-27.82607882;-11.64410774;-11.75868089;-12.40965794;-7.902643438;16.05819477;5.672214552
-3.233754946;1.019351443;-6.966748223;5.789036064;-1.530700685;-1.082671761;15.48367347;-21.44465987;-104.3920854;-37.35729848;-112.385242;-33.9702756;-27.86052485;-11.38337992;-12.41211132;-14.69422431;-7.032105274;15.00294366;6.116157216
-3.773559639;3.494514598;-7.992103801;5.349367837;1.12418548;-1.710942648;-2.628831746;-19.87117556;-104.5141606;-39.36615008;-112.4644718;-31.08499837;-27.90201233;-10.80373159;-13.33195269;-15.56279021;-6.736119773;14.89137093;6.312721047
-4.034468139;6.042484464;-7.225192485;6.005927909;4.813791512;-2.213180236;-21.54132563;-16.58357325;-103.8124601;-41.22269077;-111.1865128;-28.04850038;-27.98288077;-10.43743892;-13.07418736;-14.64291625;-7.352236905;15.70670371;6.434637884
-3.841385734;7.960826539;-5.248580023;6.926644731;6.901760879;-2.337006985;-32.4798224;-12.78100822;-102.7258921;-42.31574517;-109.0244085;-25.64952672;-27.9792817;-10.43315043;-10.65140968;-12.363252;-8.372912666;16.54836721;6.944295559
-3.403522431;8.928247598;-3.554402424;7.207856257;5.830852931;-2.072316296;-30.55201534;-9.938664874;-101.7192472;-42.25159623;-106.6374011;-23.80214066;-27.56144339;-10.43834402;-6.23;-9.62287244;-8.851377765;16.69328213;8.112706065
-3.124255379;8.836297762;-3.354236587;6.662245656;2.485377305;-1.635695275;-17.56633893;-9.000657983;-100.9983587;-41.21239492;-104.3916958;-21.63547307;-26.43204193;-9.913360223;-1.027260596;-7.236918425;-8.192689927;16.35821327;9.6616812
-3.292553843;7.620910167;-4.65910584;5.886528116;-0.494510104;-1.282105897;-0.879795344;-9.915885774;-100.4314689;-39.90464614;-102.2489873;-18.3401684;-24.69813756;-8.602526269;3.43295241;-5.582501071;-6.678611086;16.42869664;10.85390518
-3.908383888;5.326878994;-6.405596374;5.610039063;-0.941245499;-1.109039904;11.05749675;-11.82798562;-99.74848616;-39.07909603;-100.1108242;-14.0727901;-23.01225863;-6.768505652;6.102044262;-4.628612466;-5.28776192;17.46557419;10.9763463
-4.758699521;2.324512894;-7.467426074;5.95863167;0.969420011;-1.014008798;13.72921799;-13.71561239;-98.85784636;-38.97800929;-98.26379842;-10.09948882;-22.23967086;-4.998335006;6.7341327;-4.173385043;-4.938183679;19.00220747;9.850963986
-5.632938957;-0.616446688;-7.616339135;6.307800462;2.857868808;-0.826217004;9.000809055;-14.96551509;-98.00762818;-39.17122853;-97.43986256;-7.952099353;-22.81810302;-3.743631828;5.745654263;-3.980865271;-5.741469935;19.84529247;8.003081464
-6.455768068;-2.580358779;-7.573553233;5.845547919;2.22060662;-0.48419612;3.400274509;-15.50339094;-97.63900415;-38.9533175;-98.33890171;-8.216274484;-24.32430117;-2.974770488;3.941037843;-3.717154969;-6.85539199;19.10592887;6.388428538
-7.218700497;-2.946051258;-8.141103411;4.331210259;-1.322651077;-0.101394401;3.305951267;-15.54181843;-98.04404797;-38.00535583;-100.9765049;-9.952128818;-25.68829929;-2.234835664;2.354304154;-2.893377197;-7.067903977;16.97926217;5.883473916
-7.808134291;-1.665504134;-9.247369962;2.379571525;-5.567416542;0.130326791;10.21661494;-15.31299168;-99.11623845;-36.77162233;-104.4429761;-11.29294504;-25.98621739;-1.051413767;2.116501544;-1.079475221;-5.696149426;14.53939863;6.857133247
-7.945012096;0.836976431;-9.82047743;1.031455156;-7.47705959;0.105483735;19.37346852;-15.06330075;-100.408219;-36.20297896;-107.3560149;-10.80890654;-25.20133803;0.631520501;4.103415078;1.643091246;-3.150513596;12.7701796;9.031427824
-7.350129536;4.012881334;-8.6508817;0.990240459;-5.671867024;-0.108752473;22.86295448;-15.22135366;-101.4461976;-37.03425511;-108.7013726;-8.554295622;-24.27469392;2.362919754;8.371227771;4.390773934;-0.7529758;11.78221337;11.64143437
-6.016533975;7.433945395;-5.501353797;2.165047525;-1.547813136;-0.334057293;15.25520242;-16.4026907;-102.027635;-39.16686502;-108.4018956;-5.930488195;-24.30757827;3.525454266;13.7970603;5.781050354;0.080273229;10.96356914;13.77377534
-4.328338789;10.72634369;-1.47854276;3.861626719;1.894803276;-0.42791696;-2.082957834;-19.05497827;-102.2480729;-41.66564442;-107.1649919;-4.456497673;-25.51973058;3.846751676;18.41492305;4.821508709;-1.246034791;9.872693791;14.73901677
-2.865384459;13.36037448;1.689683941;5.393524444;2.477870454;-0.386058643;-21.15909001;-22.95487077;-102.2474216;-43.38286279;-105.7627364;-4.457488124;-26.86174345;3.66964446;20.46428768;1.798971863;-4.085380503;8.925053162;14.3565185
-2.007066137;14.67167872;2.884343707;6.555339953;0.467649461;-0.319834815;-32.15885633;-27.03299471;-101.9170974;-43.70468498;-104.3701961;-4.774097599;-26.71042625;3.744990497;19.49958683;-1.595222273;-6.885196067;9.105802948;13.04616072
-1.655022763;14.279766;2.318686653;7.575574977;-1.905737272;-0.341638693;-29.73765697;-29.82385141;-100.8445509;-42.82336935;-102.5112632;-3.75567126;-24.17674699;4.67896667;16.68641812;-3.189066954;-8.064703322;10.91376123;11.65228048
-1.331133699;12.60092128;1.189206513;8.660953135;-2.496455991;-0.465000193;-16.45978765;-30.32445235;-98.56404198;-41.36044769;-99.61060395;-0.717894951;-19.97798771;6.442321151;13.9548174;-1.764676853;-6.900276692;13.57466108;11.02661475
-0.602272211;10.89612403;0.604595056;9.604186083;-1.034109342;-0.600363584;-0.92878372;-28.64774967;-94.91952904;-39.73708642;-95.62105301;3.364940209;-16.10069635;8.316036734;12.61569873;2.033132087;-3.899549094;15.41359447;11.55569218
0.512083821;10.58436816;0.727387986;9.845329782;0.830190616;-0.636315744;8.12788975;-25.95499046;-90.25461169;-37.89727342;-91.15641939;6.540307639;-14.43432822;9.329324089;12.56213;6.058149249;-0.463626798;15.21971516;12.9176751
1.513722521;12.21598364;0.832555485;8.949755135;1.121721845;-0.526530919;7.661001293;-23.69632438;-85.29039972;-35.63646323;-87.02865439;7.396459096;-15.41267137;8.884888434;12.74357471;8.115879471;1.944031698;13.43157701;14.26788709
1.84771916;14.94836782;0.175102191;7.085479598;-0.71697425;-0.312312465;1.898269663;-22.7273164;-80.79220882;-33.18089406;-83.62567282;6.186003406;-17.72947801;7.13566384;12.50678399;7.485537854;2.625782608;11.9945075;14.78508138
1.455807377;17.10491079;-1.120856788;5.077895772;-3.452540772;-0.078586267;-1.319815944;-22.94020839;-77.2541904;-31.36484366;-80.68436764;4.64946433;-19.34435172;4.868560333;12.57193266;5.4023855;1.994492676;12.85465925;14.2371156
0.997614963;17.53108317;-1.925761206;3.975536133;-5.262981763;0.103128914;3.272814806;-23.60007813;-74.76654126;-31.07959018;-77.62492726;4.707355806;-18.96171712;3.009620495;14.63765627;4.155254591;1.248886294;16.29829632;13.16873981
1.506663819;16.68881885;-0.845346748;4.453634011;-5.334529788;0.196741652;14.18770084;-24.00964028;-73.07106313;-32.37182454;-74.0990228;7.094497336;-16.81359345;2.117181387;19.78441047;5.476392421;1.594834394;20.58022251;12.553715
3.686081495;16.47889094;2.745276944;6.482312779;-4.422093561;0.190385015;24.02610973;-23.93263288;-71.71534587;-34.02076654;-70.24801804;10.99603741;-14.19611411;2.196284511;26.99994148;9.388957165;3.497639969;23.23777405;13.1310379
7.34683595;18.73747594;8.151169097;9.438552802;-3.975249477;0.089134167;24.69457065;-23.52162293;-70.23907159;-34.15549195;-66.49506635;14.8593046;-12.26218521;2.896858011;33.23886322;14.27797015;6.421664901;23.03574736;14.87738855
11.40668608;23.49899007;13.65048263;12.48913942;-4.741919312;-0.067552583;13.21643134;-22.98798235;-68.38205506;-31.62981762;-63.16617396;17.5869901;-11.15498262;3.874543445;35.26283046;18.0181194;9.198790293;20.91011306;16.97349609
14.463678;28.47503825;17.36553407;14.91967987;-6.157508967;-0.188677057;-5.970697558;-22.44672056;-66.28310774;-27.13816774;-60.3779624;19.09269901;-10.19385122;5.012039309;31.99312607;19.27208117;10.76411592;19.1103112;18.27295939
15.54979194;30.36775608;18.11714619;16.228396;-7.011856417;-0.158612996;-23.74535636;-22.09734156;-64.55;-23.10127728;-58.3032919;19.86762854;-8.847305828;6.360511359;25.52552839;18.08385808;10.77095269;19.2780648;17.94594707
14.56899775;27.19646684;15.81254225;16.06868585;-6.676856688;0.085552424;-32.02280013;-22.46279711;-64.05594262;-22.23113254;-57.46436495;20.12851304;-7.520948884;7.911837652;19.87726938;15.53158076;9.701091095;21.10690731;15.89128241
12.18750049;19.91754669;11.30932173;14.24978421;-5.703696132;0.480814823;-28.48603436;-24.27109277;-65.46344043;-25.73753627;-58.59437963;19.45548763;-7.37426396;9.443393567;18.28348155;12.89682524;8.447454476;22.70771479;12.71706303
9.344153263;12.0387114;5.979985733;10.88600607;-5.255941381;0.843087421;-17.28614759;-27.90372821;-68.72492898;-32.4971053;-62.00945001;17.30072932;-9.28347762;10.59302268;21.0330738;11.01950967;7.707220537;22.31787054;9.3912909
6.771331646;7.404885048;1.219299986;6.559029236;-5.967580144;0.970437325;-5.635723652;-32.84059125;-72.93309462;-39.82493968;-66.98585918;13.86633933;-12.87373778;11.10999011;25.45630791;10.17409454;7.625687091;19.83997204;6.826926339
4.81746519;7.72463919;-1.982472195;2.26130812;-7.336981322;0.778526314;1.012384533;-37.68407453;-76.71970847;-45.27162273;-71.78984443;10.44275545;-16.52622101;11.07228995;28.02672559;10.31060705;7.907828475;16.88081386;5.608126931
3.568572944;11.61202078;-3.332581747;-0.966909427;-8.224031609;0.361804343;1.847002847;-40.92466302;-79.00102871;-48.08272043;-74.53868755;8.75523331;-18.43194729;10.88580174;26.93643681;11.29339802;8.243954647;15.30066949;5.896272404
3.043326563;15.77369517;-3.282869355;-2.526560068;-7.95436589;-0.075271088;0.004677806;-41.94192992;-79.55538658;-49.24964813;-74.3450046;9.777528719;-17.8484055;11.05443285;23.21898903;12.94680961;8.666017783;15.5846842;7.447372688
3.253820481;17.38388281;-2.723216103;-2.541785343;-6.966188935;-0.367688856;-0.661833624;-41.42995787;-78.99109561;-50.22402811;-71.86119469;13.00456582;-15.52635619;11.88328317;19.71178025;15.01323667;9.535577607;16.47289547;9.69345133
4.122767777;15.89499571;-2.391533779;-1.712805175;-6.384825013;-0.501509224;1.347031501;-40.83181365;-78.11702009;-51.43441577;-68.74828396;16.82830072;-12.97917323;13.31381994;18.83830034;17.21573041;11.1865819;16.14765037;11.90761743
5.415188658;13.0922797;-2.330369378;-0.818944753;-6.934290454;-0.599062098;4.527549415;-41.18093757;-77.21619418;-51.86358024;-66.44502244;19.72556211;-11.24603476;14.97768862;20.98586797;19.4335259;13.54110665;13.90215676;13.46445707
6.819111374;11.5848371;-1.803306242;-0.210642939;-8.221076306;-0.795066951;6.341504598;-42.28356303;-75.82494777;-50.02537117;-65.19239836;21.27264293;-10.19880614;16.39973129;24.59277266;21.78739621;16.04389448;10.81338034;14.10583346
8.131886843;13;0.175062495;0.355618447;-9.071091496;-1.111484063;5.942267548;-42.93507889;-73.21509736;-45.48984303;-64.06363737;22.16977841;-8.926044362;17.20504938;27.59616849;24.46239717;17.99962596;8.844785815;14.03933204
9.365505287;17.134561;4.004870177;1.429018866;-8.610954623;-1.435119872;5.261145516;-42.00687778;-69.17962587;-39.63214655;-61.91725061;23.34;-6.768845166;17.22806842;28.88845703;27.3686055;19.05837831;9.186159084;13.75722005
10.63237047;22.38700673;8.966964595;3.336335761;-7.09185412;-1.609094462;7.411761374;-39.48807702;-64.43906532;-34.9131942;-58.43656476;24.9719291;-4.033412937;16.51838143;28.6577698;29.97279803;19.45591934;11.27698021;13.66118415
11.88291189;26.83191918;13.43602787;5.801172902;-5.698774648;-1.551609426;13.58307254;-36.58123745;-60.27951928;-33.20904196;-54.38635541;26.38427378;-1.737494079;15.29388613;27.61720296;31.54683227;19.79352841;13.3210926;13.75421008
12.74304406;29.06820715;15.7556977;8.001558957;-5.528431935;-1.299733457;20.98162229;-34.7475332;-57.67721547;-34.49241755;-50.92200183;26.80012225;-0.646715071;13.8727696;26.08787933;31.70050014;20.50126402;13.78529999;13.64340374
12.65972926;28.49557404;15.19173929;9.058083505;-6.673204167;-0.952347352;23.82770829;-34.50417559;-56.61627037;-36.89687484;-48.60596423;26.25314163;-0.510896784;12.57242907;23.8640926;30.74219448;21.38850011;12.55673889;12.8694788
11.31119032;25.29373245;12.31436345;8.64039573;-8.224416609;-0.580591342;17.18804807;-35.00869063;-56.16940879;-38.1028578;-47.00949808;25.70243005;-0.237854817;11.56752329;20.88148947;29.48331639;21.64160693;10.80713806;11.31553757
8.97879759;20.46550445;8.580411852;7.269476079;-9.143785128;-0.197411461;1.103373475;-34.80581679;-55.28667654;-36.97335096;-45.22952687;26.1558902;1.098418938;10.76275023;17.84522375;28.56625348;20.31;9.795555647;9.373808753
6.545153864;15.86068041;5.44921343;6.058331913;-9.165888061;0.189744188;-18.16806711;-33.11950054;-53.64940911;-34.23392232;-42.83444899;27.55082601;3.27927976;9.790332257;15.98818109;27.85908422;16.96543819;9.754799246;7.736435885
5.035721152;13.72257179;3.635692388;5.989568188;-8.910732285;0.509881219;-31.22889061;-30.59832629;-51.89712745;-31.7932053;-40.38982488;28.44895659;4.867589317;8.204743733;16.00703081;26.48126059;12.08538414;9.853346467;6.972834505
4.976812098;15.54643753;2.914035241;7.16279018;-9.160670549;0.633268146;-31.30764348;-28.87867073;-51.06610773;-31.34182293;-39.1045101;26.95955251;4.165725565;5.811183922;17.12844943;23.52783727;6.894590305;9.188232294;7.212931719
6.017284586;20.79743443;2.449566149;8.532885601;-10.04018373;0.469355874;-18.85965267;-29.32512267;-51.7338139;-33.3172384;-39.90838277;22.24286354;0.473453652;2.925928051;17.30466422;18.94220259;2.757423246;7.812594936;8.146318284
7.101945166;26.56291178;1.327241238;8.40352875;-10.89364677;0.076881362;-1.584308211;-31.98857661;-53.58354215;-36.89097066;-42.73665522;15.38767563;-5.329723439;0.354038157;14.61669092;13.79319191;0.499596767;6.794888044;9.278484256
7.099914807;28.82968132;-1.042712327;5.457746565;-10.95415666;-0.32606041;10.5164913;-35.61358194;-55.71183262;-40.76754226;-46.57030926;8.904397868;-11.29801262;-0.97117564;8.861897172;9.650971849;0.060821143;7.229295657;10.19741582
5.46994971;24.88534824;-4.743718894;-0.299945821;-10.12495845;-0.48824321;11.80229968;-38.62564741;-57.35332626;-44.02596961;-50.11250638;5.169556389;-15.58860694;-0.505154679;2.01190819;7.491815342;0.648339598;9.111514896;10.65262887
2.528762088;15.2720118;-9.333836898;-7.342136332;-9.096359877;-0.302562851;4.658011997;-40.2241836;-58.36370513;-46.38494433;-52.48518811;4.986356118;-17.39803627;1.558079869;-2.942313048;6.981799814;1.248104671;11.1503033;10.46718334
-0.816794239;3.76837461;-13.94180447;-13.37428601;-8.682118583;0.108528104;-2.61145408;-40.68218175;-59.06177951;-47.89283666;-53.42326077;7.307818958;-17.06332214;4.351707672;-3.953884825;6.725216817;1.16294382;11.75875843;9.471094437
-3.637488764;-4.808268939;-17.51594464;-16.61639936;-9.033505725;0.477617482;-2.259252109;-40.6991875;-59.63618319;-48.5306274;-52.97673602;10.22782183;-15.43857832;6.807245071;-1.220274848;5.315139915;0.285022238;10.40217521;7.599286502
-5.43774641;-7.549086269;-19.23145905;-16.77306041;-9.520121331;0.587622313;6.78864948;-40.49090134;-59.72058119;-48.16592001;-51.16769542;12.3811954;-13.17199478;8.25227386;3.134914222;2.397770706;-0.985189225;8.127766371;5.088406805
-6.225457553;-5.076390375;-18.88956012;-15.02473082;-9.417155584;0.424912743;17.81707802;-39.49050828;-58.57881284;-46.8380749;-47.99102591;13.68288301;-10.43975632;8.76626537;6.684000842;-1.038038794;-2.044615984;6.784019613;2.548379783
-6.239887142;-0.71316596;-17.02245944;-13.05230034;-8.730563835;0.1702388;21.19278071;-36.93734223;-55.77182758;-44.97849923;-43.70376459;14.98187872;-7.195254145;9.07908926;8.330565523;-3.32691582;-2.397119826;7.559219749;0.748796556
-5.624882024;2.090039063;-14.55363708;-11.81972421;-8.315403933;0.040505567;11.6767654;-32.79540618;-51.71950556;-43.24254968;-38.99927145;17.09905834;-3.555288171;10.08625036;8.757991275;-3.220806171;-1.810325995;10.05344495;0.207327257
-4.325466546;2.078869954;-12.21188646;-11.03428187;-9.097202299;0.114801984;-7.316074936;-28.12944155;-47.63592405;-42.05536716;-34.77326466;20.10589861;0.070786166;12.2844482;9.511716538;-0.62920626;-0.306937253;12.64443528;0.873980208
-2.259767218;0.576732227;-10.15669711;-9.689772275;-11.0898728;0.284303782;-25.77420502;-24.54467736;-44.84654505;-41.31035851;-31.64028315;23.33659416;3.168008965;15.45664568;11.59926483;3.425387051;1.915255199;13.81473178;2.169450089
0.424132056;-0.153055821;-8.149195211;-7.238097836;-13.16783274;0.355927208;-33.95762129;-23.13085561;-44.01732959;-40.55453644;-29.67011407;25.92901332;5.367130664;18.76051341;14.74214348;7.460058594;4.539025792;13.31509992;3.369971513
3.259984729;0.951986905;-6.133384077;-4.40129943;-13.90429929;0.211474701;-28.93384896;-23.79299958;-44.88218387;-39.53256333;-28.6303591;27.31082954;6.512248583;21.13055058;17.73454543;10.25445335;7.145261521;12.21157748;4.058503212
5.644850915;2.906643563;-4.672721563;-2.884109396;-12.79797826;-0.112882704;-15.97403293;-25.51125694;-46.61278125;-38.58315805;-28.49455155;27.26571685;6.554782996;21.74921705;19.41800075;11.22022497;9.256608228;11.8316915;4.318620029
7.161112542;3.716037615;-4.738645315;-4.12181122;-10.79391816;-0.481660826;-4.034902753;-27.26072013;-48.4423116;-38.46848518;-29.63974445;25.72575005;5.485320185;20.35040071;19.383393;10.38072243;10.46745608;12.55428086;4.567462959
7.792144289;2.265978633;-6.902242181;-8.018956764;-9.5795591;-0.784157469;0.920289693;-28.76426556;-50.00387378;-39.72010058;-32.40696968;22.6935976;3.437982506;17.24939757;17.92133301;8.194817596;10.63162955;13.49765526;5.209574255
7.867501277;-0.630917957;-10.58612919;-12.7227318;-10.21540151;-1.009521527;-0.436690883;-30.43676243;-51.18288983;-42.05457945;-36.35902712;18.46058653;0.843180621;13.14457844;15.49209894;5.410395606;9.98389275;13.37781721;6.396683218
7.781656585;-2.918474429;-14.1194532;-15.71538941;-12.27196081;-1.211801628;-2.692834799;-32.63036395;-51.76881546;-44.40536628;-40.01188247;13.84111391;-1.630117746;8.822927104;12.3629326;2.911473533;9.067416554;11.80033168;8.028135882
7.69673002;-3.063212596;-15.74127814;-15.47732584;-14.22227158;-1.412149781;-1.066185218;-34.92984583;-51.3601174;-45.61080069;-41.53442587;9.999686069;-3.426951833;4.904722885;8.762171052;1.431754162;8.457272494;9.853411861;9.886720391
7.44140083;-1.344670201;-14.86772365;-12.48937682;-14.74390889;-1.542754869;4.462761921;-36.20250402;-49.67671679;-45.22382706;-40.05407444;7.808916508;-4.502870833;1.713071068;5.279769899;1.173941269;8.4336112;9.407454354;11.71177368
6.666471278;0.426417075;-12.59796314;-8.816418984;-13.79230879;-1.49269039;9.641048213;-35.419969;-46.96714188;-43.77628808;-36.51620211;7.215179667;-5.370058594;-0.708765648;2.939027521;1.611823625;8.832744486;11.5656741;13.14515106
5.136079617;0.473946868;-10.94649682;-6.588704881;-12.52715093;-1.214468784;10.33538744;-32.55206564;-44.03165813;-42.27101625;-33.22102062;7.241275786;-6.647999678;-2.465470561;2.680547205;1.754134284;9.205420809;15.43481481;13.69176159
2.954082257;-1.460244568;-11.29600802;-6.52748951;-12.20370974;-0.78845521;6.754947879;-28.72528592;-41.70625119;-41.31730767;-32.18109943;6.785576951;-8.432579914;-3.64032758;4.628437865;0.821607016;9.189037451;18.23586653;12.88045697
0.589187039;-3.943907346;-13.24467995;-7.593511484;-13.05117478;-0.378588369;3.642668847;-25.44456977;-40.18320456;-40.61909749;-33.49693665;5.648826178;-10.03912748;-4.185409745;7.828318758;-1.11291465;8.819667669;16.85776483;10.61731849
-1.296269523;-5.046921577;-14.77629198;-7.938935964;-14.13623516;-0.113295651;6.115769098;-23.47701484;-38.77742944;-39.2212816;-35.09509865;4.904392472;-10.42309305;-3.943834523;10.81371385;-3.055158963;8.528249901;9.929051118;7.466777452
-2.09895245;-3.809873358;-13.66829846;-6.34580636;-14.29135327;0.003569052;14.67171487;-22.30176;-36.42509104;-36.28515133;-34.17951014;6.185469108;-9.006458818;-2.801880561;12.63972584;-3.739704369;8.796352392;-0.942768865;4.54760306
-1.478809342;-0.769073747;-9.082565393;-3.027246275;-13.22088855;0.071990727;23.74107387;-20.57976969;-32.5695253;-31.74290257;-29.36039117;10.36749328;-6.233811648;-0.876026157;13.56441196;-2.567722785;9.72631406;-11.65312116;2.991941494
0.552448111;2.758304953;-2.147754494;0.740877679;-11.76233296;0.184480103;25.32217876;-17.27233424;-27.70408125;-26.3195282;-21.79886129;16.70353587;-3.340586936;1.407677537;14.79387049;-0.114257744;10.88133548;-17.64527067;3.293334752
3.653985757;5.834830274;4.85305975;3.725807058;-11.0825744;0.326023317;15.04670764;-12.52633558;-23.0744079;-20.96480005;-14.41810285;23.17731764;-1.449427596;3.43731832;17.46118826;2.223936943;11.56789753;-16.38328664;5.026799323
7.254219027;8.435073294;10.00022927;5.61242273;-11.57922451;0.377655233;-4.036561141;-7.656069186;-19.73404768;-16.21794266;-9.758678647;27.86285046;-0.69726298;4.707173396;21.6428143;3.206469288;11.38565839;-8.80761092;7.183425571
10.69731857;10.99228777;12.79720152;6.97365203;-12.52104044;0.222495686;-22.94639987;-4.283756791;-17.71911632;-12.03202352;-8.161048629;30.2261997;-0.120518211;5.110903145;26.18684853;2.618702897;10.6282561;1.122707017;8.88920717
13.41717322;13.58;14.07757805;8.487172284;-12.76284314;-0.140034485;-32.45259984;-3.336740274;-16.05490444;-8.142835945;-7.717228669;31.31497276;1.563194207;5.033710902;29.46488942;1.376814947;10.19108299;8.593201055;9.962134748
15.09817979;15.64798011;15.02688386;10.17387645;-11.86181893;-0.574788147;-28.78573482;-4.637840296;-13.6413244;-4.588256769;-6.017187231;32.68097231;4.867218185;5.147024717;30.42919567;0.811556153;10.9979915;10.57180342;10.88318452
15.75426124;16.59398481;16.2184042;11.34637004;-10.53985493;-0.905779561;-15.41855005;-7.286084961;-10.32295969;-1.883623595;-2.26932328;34.93338816;8.995907864;5.999723376;29.1651212;1.700484581;13.33350756;7.36653705;12.23146621
15.66735702;16.5349779;17.38809958;11.27728727;-10.03692592;-1.044397973;-0.103440063;-10.39466983;-7.252893829;-0.696718445;1.924054891;37.13748149;12.2846988;7.649001344;26.60090989;3.769038694;16.56406459;2.163131537;14.06966635
15.19626961;16.37225681;17.93948624;9.947939261;-10.93266487;-1.041958764;10.23929841;-13.54878626;-6.188583955;-1.318334805;3.768423895;37.57809638;13.29250862;9.571654474;23.73492525;5.96289993;19.46303944;-1.165267188;15.79531773
14.55974459;16.9325846;17.57124587;8.181644119;-12.52574338;-1.02590295;13.10348365;-16.68681157;-8.198865358;-3.390132963;1.507005381;35.27219775;11.73704393;10.93137084;21.066798;7.187623798;20.92012714;-0.580281701;16.57269836
13.73823107;17.96542937;16.45518566;7.027561793;-13.37503382;-1.081160836;10.49899752;-19.65134523;-12.74325697;-6.107181583;-4.070638707;30.98482254;8.625483674;11.05219077;18.63672395;6.92200672;20.54941453;2.906164674;15.97364694
12.57493393;18.08378922;14.93524217;6.92758477;-12.55641372;-1.183046761;6.408281444;-21.92291997;-17.82682934;-8.700125842;-9.997473112;26.89824783;5.566913419;9.812585395;16.48733803;5.332444351;18.81161503;6.122198349;14.29719902
11.0152132;15.95288644;13.19335539;7.386861456;-10.52594455;-1.23729713;3.984886928;-22.83645642;-21.14355316;-10.79011739;-13.06340844;25.16896125;3.826945147;7.721720036;15.00532137;2.986885188;16.63950389;6.117177691;12.33135953
9.303926522;11.80256091;11.28208024;7.429447622;-8.808093474;-1.184282939;4.307456163;-22.10937125;-21.41237846;-12.36270549;-11.84790041;26.48419004;3.769978646;5.639216973;14.76778035;0.543203003;14.89616898;2.381167299;10.79589953
7.964535596;7.822097966;9.450805739;6.451019416;-8.756921519;-1.067349193;6.787890321;-20.20546563;-19.00792785;-13.45883306;-7.412074063;29.69785298;4.940385688;4.318669934;16.01986143;-1.347130535;14.0437777;-2.661045776;9.944518315
7.529556895;6.795585137;8.3134423;4.757702805;-10.45047011;-0.999975296;10.16255171;-18.17729642;-15.52967327;-13.91037811;-2.310598625;32.74892237;6.545583847;4.049754545;18.27308578;-2.027095818;14.15425922;-5.24933512;9.613697612
8.184820232;9.87504442;8.53512802;3.360159855;-12.65630588;-1.060268957;13.15947984;-17.05782792;-12.69890101;-13.37215409;1.18056616;34.08603292;7.912475476;4.589633524;20.42153066;-0.988996113;15.09479642;-2.872158157;9.580019531
9.583892012;15.33035394;10.24011939;3.210677108;-13.87054237;-1.209188472;14.80653569;-17.24412721;-11.37404967;-11.62188062;2.297126005;33.5195665;8.667329123;5.380161533;21.33051534;1.734650845;16.63348965;3.970978335;9.826449319
10.99716877;19.52176654;12.7233653;4.498842451;-13.52026696;-1.310053711;14.77559137;-18.32970362;-11.29171499;-8.875386837;1.754892658;31.9765145;8.690664779;5.880474283;20.46330287;5.249104207;18.38469176;12.04124923;10.4540123
11.73164988;19.56610655;14.85419501;6.527425248;-12.32319014;-1.238223733;13.74860463;-19.49812899;-11.57526712;-5.870350953;0.756522678;30.52517628;8.033244997;5.810186788;18.10125792;7.977823539;19.75163929;17.43156163;11.36463319
11.55307672;15.65325476;15.92007813;8.200555953;-11.56830361;-0.989371292;13.24114199;-20.16985251;-11.54389051;-3.659134005;-0.040117562;29.5287421;6.883689694;5.198457361;15.05480066;8.450343393;20.07273431;17.96439797;12.09853427
10.81902514;11.05727902;16.17280831;8.7047075;-12.00745571;-0.693136297;14.53889431;-20.41973664;-11.23199282;-3.232726876;-0.846648467;28.54184309;5.528371144;4.276358142;12.1364352;6.247659926;18.97299527;14.3043802;12.07669449
10.22027555;9.637114188;16.51906129;7.896098293;-13.31914891;-0.516728116;17.38613198;-20.87177179;-11.30812173;-5.145210712;-2.304086302;26.87681218;4.232439316;3.326854598;9.770486228;2.375702641;16.65862768;9.17796549;11.08841757
10.29993078;12.67654403;17.54934024;6.211087931;-14.53099397;-0.534502262;19.75390768;-22.17141263;-12.51687016;-9.254579374;-4.793332555;24.25032719;3.096450692;2.579143105;7.919697193;-1.343050975;13.84740475;5.439401532;9.569115085
11.07757351;17.57373126;18.75638027;4.280358948;-14.92912617;-0.667740731;19.38975159;-24.44014125;-15.06167763;-14.65421108;-8.066122533;20.96679651;2.030534863;2.153444422;6.244305253;-3.533199059;11.29201759;4.409784423;8.340144555
12.03080798;19.53804131;18.71971942;2.560415045;-14.61474862;-0.742732483;16.15859548;-27.11975387;-18.34810459;-19.87491129;-11.39007813;17.57631928;0.899923237;2.016012922;4.309872361;-4.285845115;9.223071154;5.515814133;7.952663137
12.43272039;15.10926142;16.22003906;1.165506056;-14.27159583;-0.622680818;12.97721202;-29.32578773;-21.25709407;-23.40045209;-13.99240005;14.39449585;-0.295825621;1.9338063;1.751599229;-5.130521491;7.174969411;7.190491061;8.17610757
11.79915117;4.847164071;11.38639086;-0.112151883;-14.45532245;-0.314313421;13.87882799;-30.45879601;-22.78234407;-24.36982102;-15.4554386;11.31906678;-1.423223891;1.482603547;-1.582102952;-7.906447373;4.39536223;8.14113858;8.114312968
10.14296701;-6.861780807;5.858405811;-1.675927485;-15.10473683;0.027415199;20.20608714;-30.62658305;-22.63376105;-23.10746717;-15.86180959;8.050684102;-2.442655629;0.177711388;-5.496461975;-13.32478562;0.558184216;8.039481464;6.924528402
7.895989559;-14.73340244;1.732863013;-3.922921273;-15.68713583;0.196750933;28.08108897;-30.54866011;-21.40972561;-21.05835071;-15.68896568;4.462902733;-3.638670995;-2.279413496;-9.422347259;-20.28485589;-3.796947272;7.337465187;4.576318553
5.60673545;-16.04579124;0.104708211;-6.975535906;-15.75465584;0.067494404;29.94923159;-30.97678415;-20.1910398;-19.9874866;-15.54852219;0.784207139;-5.538539247;-5.762436061;-12.61289645;-26.47079045;-7.507212017;6.629071377;1.998571871
3.660676843;-12.11544629;0.397445538;-10.44972923;-15.33028041;-0.327888372;19.91713313;-32.03318366;-19.78532045;-20.83097451;-15.86890303;-2.52710367;-8.451519674;-9.663538668;-14.5290743;-29.81039659;-9.582404208;6.189120124;0.436425265
2.204251527;-6.89155902;1.032923937;-13.46894943;-14.77561508;-0.81364077;-0.877076997;-32.9775397;-20.12250254;-22.96726184;-16.63498757;-5.059191914;-11.96355865;-13.10634664;-15.16077232;-29.74694778;-9.947673212;5.970118183;0.500109499
1.258654644;-3.966228567;0.85360612;-15.05847307;-14.34376916;-1.163603143;-23.40738153;-32.654406;-20.25772499;-24.52925227;-17.33816211;-6.6332974;-14.89196946;-15.3339131;-14.99122556;-27.43275482;-9.518504966;5.853367159;1.675622403
0.858602622;-4.336450976;0.068664821;-14.76273852;-13.92429343;-1.215465507;-35.90926272;-30.3862105;-19.04811265;-23.6884443;-17.2475616;-7.29620873;-15.90978414;-16.03696991;-14.56376217;-24.76373123;-9.496036722;5.790628098;2.719198397
1.067739427;-6.415548402;-0.078516903;-13.04366547;-13.2514448;-0.948169203;-31.75944404;-26.6949239;-16.06696015;-20.07372724;-15.91522792;-7.198863843;-14.47713059;-15.41219494;-13.97414792;-23.01025949;-10.39920345;5.714772848;2.643513806
1.874792651;-7.894694563;1.406597678;-11.0551755;-12.3323521;-0.489308927;-14.22544666;-23.26437302;-12.07626906;-15.26158936;-13.58761499;-6.497441156;-11.36007813;-13.92882234;-12.74776504;-22.04286306;-11.59372208;5.420442886;1.511021152
3.110369741;-7.69578273;4.205259593;-9.828144442;-11.59759462;-0.052764237;5.759928022;-22.03743845;-8.6346151;-11.86010184;-11.15813465;-5.327711405;-8.245395404;-11.99493602;-10.28325991;-20.65745644;-11.72047292;4.658471896;0.392392853
4.510068359;-6.463667208;6.812623596;-9.433474462;-11.5551828;0.164364243;17.33570486;-23.97701634;-7.045198836;-11.73993254;-9.589853831;-3.806044153;-6.651590608;-9.779783842;-6.540855537;-17.68260479;-9.733908895;3.416785391;0.515280688
5.895445695;-5.483097512;7.763697787;-8.83739469;-12.26486241;0.078397966;17.10321263;-28.34083831;-7.394237902;-14.66752895;-9.186039684;-2.011410964;-6.934650827;-7.30568521;-2.365060843;-13.0178168;-5.777579268;2.086202973;2.275986109
7.298779569;-5.254940754;6.873855186;-6.700078125;-13.18898533;-0.238733589;10.5219058;-33.03987365;-8.438532785;-18.38341449;-9.299490519;0.025414823;-8.159436376;-4.68616872;0.934071154;-7.864080722;-1.232350672;1.255434641;4.889332306
8.873950226;-5.099190076;5.379426494;-2.596575113;-13.64285275;-0.597512284;6.468656765;-35.91221202;-8.502353337;-20.1411618;-8.794294249;2.272077331;-8.934189623;-2.257031003;2.49724066;-4.027835655;2.11028881;1.237839755;6.937075877
10.6231186;-4.066505397;4.831510325;2.308410239;-13.46030634;-0.793303657;9.642400729;-36.06731674;-6.760535526;-18.6314218;-6.968089663;4.601947891;-8.528948537;-0.443220564;2.595546712;-2.825590756;3.152891791;1.753256551;7.371218464
12.17044743;-2.183454038;5.70800786;5.78093747;-13.21373158;-0.717693555;17.13997563;-34.36238077;-3.935508442;-14.89884318;-4.208805515;6.762262313;-7.378484392;0.546795395;2.441938482;-4.342013217;2.095768452;2.119745963;6.200895193
12.83339499;-0.760068359;6.974489073;5.974657402;-13.69939683;-0.413103185;21.8710123;-32.67493801;-1.837623808;-11.58178055;-1.812317929;8.480221393;-6.604057448;0.921753555;3.181907299;-7.493641697;0.157992504;1.86279258;4.378662371
12.02603692;-1.379285657;6.99816677;2.772677146;-15.10876799;-0.037767271;19.57596313;-32.510153;-2.055398268;-11.03205409;-1.056195197;9.634916042;-7.021971123;1.179832065;4.832724567;-10.78435781;-1.319848492;1.220964353;3.040354847
9.734369062;-4.431440917;5.024547672;-2.035285629;-16.67633852;0.234638861;13.09133296;-33.96764937;-4.773738187;-13.68;-2.262572892;10.30298672;-8.51942553;1.699026279;6.078837825;-13.20829208;-1.725989905;1.043883398;2.719165378
6.683247873;-8.526125678;1.919293514;-5.937981768;-17.22193457;0.314502784;9.900097656;-35.80788999;-8.616777206;-17.79913724;-4.621666644;10.56258903;-10.31349462;2.358809709;5.208069696;-14.71953078;-1.4280192;2.08091917;3.103874025
4.002028823;-11.38599903;-0.48824327;-7.394820356;-16.18117268;0.233140294;14.93927025;-36.51266374;-11.62316827;-20.776817;-6.914517623;10.19519727;-11.79660425;2.530223083;1.54940066;-16.02035323;-1.353578419;4.226789248;3.436023426
2.573005634;-11.5417268;-0.901740781;-6.774570703;-14.19864127;0.102300623;25.02194477;-35.48338737;-12.58707789;-20.91914879;-8.496736827;8.6208348;-13.14015026;1.504598647;-3.703244704;-17.87204018;-2.286142598;6.401122992;3.156389386
2.51824683;-9.428861682;0.399288707;-5.862408572;-12.67297307;0.034549282;30.18120681;-33.44915255;-11.73735773;-18.50019744;-9.671190421;5.291628831;-15.05665256;-0.926066283;-8.004029522;-20.4159483;-4.368956684;7.249019426;2.289846858
3.209562313;-6.964072167;1.868766226;-6.365621837;-12.56733116;0.08214824;21.46206691;-31.80820337;-10.28367461;-15.39336028;-11.11880129;0.364491969;-17.90819021;-4.176471439;-9.036553254;-22.952335;-7.063586171;6.15172492;1.338404961
3.801437487;-5.944141038;2.074033011;-8.593373248;-13.51343101;0.227781294;-1.006534335;-31.47090147;-9.269847028;-13.66806821;-12.91554314;-4.893508822;-20.98559545;-7.108222356;-6.268014555;-24.30976089;-9.464515712;3.735587425;0.853541503
3.879470359;-6.588977594;0.9365166;-11.28647343;-14.05728021;0.417844894;-26.52736641;-32.13628066;-8.698127037;-14.21047054;-14.07507259;-8.460342028;-22.68523899;-8.648945171;-1.365008481;-23.55531109;-10.69959015;1.44691284;1.052128741
3.717548823;-7.417898229;-0.245508371;-12.62914199;-12.91968989;0.603958324;-40.71;-32.54892999;-7.615140267;-16.2884624;-13.12736415;-8.632010568;-21.54679142;-8.351566729;2.829799221;-20.58295931;-10.21638983;0.517335867;1.721272453
3.942503856;-6.53248529;-0.001303758;-11.57821373;-10.21450212;0.76563507;-35.67678503;-31.48923241;-5.035382694;-18.22290477;-9.325122983;-5.139951233;-17.35288923;-6.516936384;4.045084395;-16.20450481;-7.922288739;1.139420655;2.391732237
4.884521624;-3.227157297;1.940563982;-8.501824418;-7.532020316;0.910966316;-15.69381048;-28.69986777;-0.908407491;-18.56281138;-3.468101046;0.532552657;-11.40407511;-3.858094722;1.871451345;-11.69740471;-4.228249865;2.483225561;2.59291783
6.16036311;1.3849864;4.314220834;-4.771250133;-6.736649467;1.066358904;6.171850048;-25.06357889;3.654379805;-16.92551615;2.398354186;5.964423135;-5.750534346;-1.033736751;-2.196815278;-8.119955558;0.00032845;3.476563356;2.035563254
6.865434202;5.194712333;5.316367495;-1.786513706;-8.450582461;1.261548775;17.68751782;-21.97907816;7.040458736;-14.03039007;6.227606251;9.219450027;-2.002881774;1.569476104;-5.862878202;-5.845434995;3.64632021;3.653934023;0.700036621
6.261943074;6.639487785;4.100256062;-0.240899931;-11.50848208;1.507065632;15.81353415;-20.48441783;8.129666678;-11.06618576;7.187996628;9.858028062;-0.632089529;3.702569238;-7.439399401;-4.593245746;5.712633667;3.373339086;-1.125812798
4.430572282;5.700019531;1.508448224;-0.054975116;-13.86821505;1.766881437;7.473904241;-20.77717812;6.869781607;-8.926196686;5.918799487;8.821663203;-1.179723811;5.012141995;-6.66283797;-3.870115395;5.730878813;3.289234465;-2.866637477
2.347114969;3.613637745;-0.553652277;-0.770469156;-14.22491777;1.947081857;2.70126595;-22.36610677;4.097555599;-7.807300444;3.721246749;7.367419389;-2.999362922;5.032625623;-4.526780824;-3.446505412;3.968039752;3.622946158;-3.811536832
1.273965296;1.674008818;-0.563750273;-1.894466433;-12.97495553;1.92771224;6.186248796;-24.57157506;0.882834021;-7.326917711;1.463332435;5.982544606;-5.760284861;3.508101688;-2.424010814;-3.498976978;1.264426035;3.918618589;-3.42729608
1.889898762;0.219163585;1.535317955;-2.936189147;-11.74112217;1.639359864;14.17939725;-26.91275908;-2.038406259;-6.963707253;-0.857595244;4.181383432;-9.288211123;0.771599405;-1.243187675;-4.340872958;-1.428873131;3.502625191;-1.706181081
3.798959358;-1.336088595;4.436093889;-3.338792687;-11.90975112;1.140692009;18.87809931;-29.16258412;-4.395417412;-6.489659753;-3.623391571;1.291794368;-13.03723085;-2.226427888;-0.956934769;-6.006949846;-3.524455481;2.211695156;0.697278988
5.784027426;-3.541703686;6.556984871;-2.655576894;-13.46206464;0.629821094;16.05120451;-31.21512653;-6.177855545;-6.147781617;-6.77879548;-2.541547679;-15.88683853;-4.394752454;-0.850203616;-8.073782792;-4.979940542;0.703741675;2.714228356
6.614504284;-5.992221817;7.157720095;-0.989668343;-15.08682103;0.355088213;9.071955194;-33.02892868;-7.431338384;-6.516716498;-9.563859536;-6.104433277;-16.65438075;-5.188494183;-0.165738219;-9.891754212;-6.097744775;0.03193862;3.411953286
5.812987702;-7.388224111;6.606270691;0.728723679;-15.41550633;0.466975942;5.813874219;-34.70946605;-8.244612243;-8.165600428;-11.09600343;-7.908372423;-14.9895662;-4.966022281;1.236310199;-11.04809646;-7.137654785;0.814766401;2.51519327
3.842189726;-6.646487448;5.729050296;1.088803601;-14.24540062;0.912993118;11.13111182;-36.54015521;-8.814199701;-11.28670844;-11.23877883;-7.380275139;-11.86160187;-4.68400846;2.584146448;-11.67342362;-8.059307916;2.696784428;0.542706838
1.633988573;-4.139846936;4.951057755;-0.879831197;-12.66496592;1.462637735;21.55472526;-38.7758378;-9.366241678;-15.49905016;-10.86777134;-5.40634023;-9.113218955;-5.126793685;2.474643242;-12.32271465;-8.580236455;4.556991391;-1.545275994
-0.123180319;-1.907330249;4.019297887;-4.878006459;-12.00521325;1.857972866;27.08827205;-41.29794206;-9.92339565;-19.9448832;-11.18408294;-3.724217471;-8.330451175;-6.276869255;-0.335806374;-13.50830698;-8.465561466;5.300953427;-2.946772019
-1.377983815;-2.429656696;2.490239761;-9.359494124;-12.59507393;1.984197375;19.04232499;-43.48945361;-10.17888534;-23.65795426;-12.64222839;-3.65177113;-9.87467275;-7.355832709;-6.004800664;-15.24795432;-7.782549934;4.606692685;-3.450692957
-2.528984048;-6.740181894;0.446483122;-12.53551258;-13.45815371;1.929844211;-2.334465956;-44.59235898;-9.732145159;-26.01677349;-14.48399155;-5.214705041;-12.80303455;-7.527477406;-13.1121752;-16.98061134;-6.900268775;3.064558381;-3.42515055
-3.876695902;-13.29202013;-1.272321117;-13.62783848;-13.22403571;1.887741502;-26.77441859;-44.37088405;-8.587363525;-27.01244669;-15.36735665;-7.373689928;-15.66657906;-6.688285785;-19.05795385;-17.91305428;-6.238701515;1.666393121;-3.419275436
-5.209005229;-18.5691851;-1.564925447;-13.32736699;-11.42589522;1.976104287;-40.70268685;-43.51370448;-7.448293102;-27.14850651;-14.57675228;-9.074658616;-17.4756255;-5.661550401;-21.32252463;-17.53749408;-5.978872051;1.101821274;-3.70630511
-5.874418801;-19.19310101;0.131461124;-13.02158517;-9.005875783;2.128562597;-36.78914548;-43.2938;-7.382627017;-27.02772114;-12.72026535;-10.13207841;-18.07015798;-5.581461685;-18.94644963;-15.96081167;-5.9686819;1.401325511;-4.101594673
-5.27972923;-14.15025652;3.41109174;-13.42126945;-7.557482702;2.149440207;-19.07371588;-44.59224293;-8.94928431;-26.91149324;-11.23303801;-11.15131636;-17.74286421;-6.933922963;-13.28235918;-13.86129727;-5.892213308;2.110293781;-4.150694887
-3.402843254;-5.603704925;7.165414561;-13.81027098;-7.961486183;1.893688681;0.213571017;-47.0137782;-11.46133835;-26.57456865;-11.08112509;-12.62377022;-16.64815772;-9.043183203;-7.401147333;-12.16052387;-5.559511407;2.736449489;-3.504494419
-0.910550238;2.307659925;10.27266786;-12.67282102;-9.614116883;1.421798082;9.647521709;-48.89291009;-13.12305494;-25.56471972;-11.82785732;-14.13115039;-14.65551367;-10.46679801;-4.382945819;-11.63785341;-5.087107145;3.063362927;-2.191661617
1.204506029;5.905012899;12.13429017;-9.250561018;-10.92891852;0.992975306;6.578055446;-48.34970771;-12.15294568;-23.66011977;-11.9537913;-14.51500514;-11.77592162;-10.03274083;-5.527349594;-12.6522783;-4.832080203;3.139854958;-0.61570703
2.182007106;4.039969823;12.70302559;-4.67454395;-10.68221187;0.889151194;-1.796929512;-44.67768203;-8.142770966;-21.14760102;-10.20924937;-12.95085359;-8.639670837;-7.716937533;-9.656159019;-14.99817934;-5.128463658;3.082208733;0.67898814
1.840378932;-1.507216532;12.14042508;-1.553672762;-9.045658479;1.203148936;-4.753245042;-38.98032822;-2.560512427;-18.67546237;-6.812479074;-9.949298476;-6.386280194;-4.668387348;-13.98141107;-17.87752387;-6.011780465;2.947837124;1.286316966
0.50810722;-7.439077329;10.53188062;-2.167011177;-7.431066482;1.759030914;3.288377825;-33.49414302;2.127025972;-16.77886262;-3.38679697;-7.266494315;-5.889344147;-2.36521573;-15.93879124;-20.04375538;-7.119000761;2.779854151;1.093271132
-1.326825343;-11.10359439;7.934582714;-6.658887334;-7.295605487;2.230398286;18.31639094;-30.07463543;4.141444616;-15.46226664;-1.634493348;-6.643217379;-6.958927274;-1.576841771;-14.72858141;-20.21380449;-7.835407977;2.690401292;0.261807013
-3.328624053;-11.94955136;4.632593311;-12.76521028;-8.922792373;2.366414031;29.65254426;-29.02643164;3.594748752;-14.20926559;-1.906458661;-8.393146496;-8.326773393;-1.945092149;-11.55960877;-17.70755791;-7.61274245;2.806372735;-0.899542833
-5.361589457;-11.42754607;1.238944675;-17.41431711;-11.17691234;2.153256681;27.81486503;-29.2069033;2.220342263;-12.46551308;-2.977660284;-11.10631707;-8.597416945;-2.470633297;-8.558170916;-13.00993844;-6.287628369;3.087056141;-2.079098828
-7.316516812;-11.6104939;-1.555544186;-18.99183032;-12.38425869;1.795591563;11.40463547;-29.28983074;1.810846591;-10.2490082;-3.288466784;-12.82824193;-7.454648928;-2.444714138;-7.240275285;-7.812473733;-4.223870042;3.226221182;-3.057520737
-8.951318952;-13.62347955;-3.404330778;-18.45284672;-11.5780841;1.547576904;-11.87044331;-29.095202;2.625445236;-8.394490746;-2.56203531;-12.76603842;-6.069094559;-2.024429856;-7.655493438;-4.30614685;-2.182263047;2.82750787;-3.736321301
-9.940460009;-16.9565921;-4.501021197;-18.36477462;-9.119910874;1.534781419;-30.44114272;-29.81224867;3.107843575;-8.16832137;-2.282038807;-12.02714833;-6.239698267;-1.989934759;-8.692760127;-4.007248795;-0.956453369;1.778215907;-4.107259369
-10.10664619;-19.99106242;-5.33122609;-20.65725667;-6.301741501;1.699464796;-36.34395041;-32.86610469;1.2084892;-10.44300295;-4.458624193;-12.6614487;-8.874167407;-2.941710619;-9.136081043;-6.832706904;-0.950014648;0.493639676;-4.189306112
-9.616623359;-21.20045062;-6.175965578;-24.93;-4.372178109;1.8891651;-29.63777026;-38.3518624;-3.733755088;-14.96834577;-9.647800632;-15.74923781;-13.04945573;-4.673906887;-8.585017165;-11.09897402;-1.93506055;-0.260377538;-3.980249693
-8.935101296;-20.11416815;-6.815379115;-28.7087741;-3.799177702;1.993864033;-17.09741269;-44.39269687;-10.10753801;-20.2608163;-15.96407539;-20.18042336;-16.49791456;-6.288896641;-7.611474611;-14.53445981;-3.163518559;0.084939165;-3.471806417
-8.535136336;-17.44300061;-6.721511211;-29.4173193;-4.245868538;2.014535045;-6.748797467;-48.07921104;-14.92855055;-24.25297444;-20.09362754;-23.26688522;-17.21758336;-6.954002869;-7.199827817;-15.66349572;-3.803927467;1.398580302;-2.732515385
-8.578703588;-14.44361384;-5.58841936;-26.41451261;-5.082296047;2.023306335;-2.522572059;-47.36883065;-15.86669403;-25.35416528;-19.63822669;-22.79022536;-14.95517001;-6.625976156;-8.01628808;-14.61502186;-3.454908179;2.841791104;-1.986973035
-8.819156625;-12.10274888;-3.727652967;-21.42310608;-5.885956751;2.074368161;-2.705157313;-42.51657979;-12.82114068;-23.29776968;-14.92570523;-18.81529858;-11.3728058;-6.087067089;-10.02604743;-12.81293737;-2.400853008;3.432909593;-1.583095735
-8.804451738;-10.72007813;-1.956759592;-17.06077608;-6.556707904;2.156361005;-2.706317533;-35.94288952;-7.829056078;-19.26781884;-8.776493252;-13.72151893;-8.757593709;-6.23744419;-12.57488868;-11.83588548;-1.419611135;2.777169584;-1.805119631
-8.22245155;-10.05389885;-1.04747991;-14.78092975;-7.122382761;2.221717806;0.539574127;-30.6508331;-3.446314819;-15.23037917;-4.371735793;-10.36773014;-8.30434085;-7.251664819;-14.71065225;-12.34263869;-1.255572871;1.377554284;-2.634989378
-7.12374298;-9.751620066;-1.188310144;-13.97904187;-7.568228544;2.247746813;6.130205347;-28.40115801;-0.951324731;-12.86937479;-2.943422205;-9.88824302;-9.325960061;-8.349943811;-15.51123194;-13.85330177;-2.120958938;0.255198447;-3.666320799
-5.863936515;-9.657248883;-1.906230818;-12.95417516;-7.878777608;2.257766843;10.43612687;-28.96304809;0.206055643;-12.75114125;-3.153135456;-10.95389494;-9.965033959;-8.420437305;-14.38599258;-15.44296027;-3.580804596;0.166748338;-4.310301119
-4.830228921;-9.805757837;-2.494353489;-10.77734685;-8.159047083;2.280092773;10.70453535;-30.8336843;1.392804176;-14.18461093;-2.600048828;-11.10431005;-8.75973572;-6.989525863;-11.398398;-16.65384945;-4.895386775;1.042823312;-4.208618032
-4.172518384;-10.22963617;-2.561422316;-8.336954417;-8.585787382;2.294079425;7.854461583;-32.65630742;3.224733177;-15.80637495;-0.105151762;-8.994555162;-5.77171944;-4.710424956;-7.483391098;-17.79410785;-5.544460442;2.093937313;-3.554034422
-3.73231048;-10.82986829;-2.235061377;-7.582057263;-9.158070518;2.230916568;6.013990426;-34.11812505;4.869228921;-16.47513704;3.21304302;-5.61188541;-2.416999518;-2.920609805;-4.237832444;-19.37763382;-5.520969082;2.481018553;-3.021637408
-3.193605405;-11.42828847;-1.878591794;-9.606449228;-9.515535048;2.041684019;9.030078125;-35.69184774;4.826921333;-15.88890197;4.984580479;-3.39864158;-0.243728573;-2.597453999;-3.103208819;-21.26;-5.179281607;1.988557383;-3.285445797
-2.316862773;-11.89470436;-1.620137752;-13.29;-9.111234205;1.76975917;16.71558191;-37.64238498;2.469877817;-14.55315726;3.816703837;-4.027397861;0.270108915;-3.56335308;-4.281759077;-22.33725414;-4.800168071;1.154147444;-4.448627897
-1.083532409;-12.1653386;-1.150470118;-15.79230624;-7.691715434;1.547315035;23.99258124;-39.33189904;-1.072574128;-13.19080842;0.725418333;-6.763597991;-0.066020539;-4.607909693;-6.202243607;-21.20669523;-4.275755924;0.77699171;-5.850329837
0.322896562;-12.10881894;0.010886755;-14.62345313;-5.668664926;1.500029297;23.97753982;-39.52660173;-3.541557604;-12.07956401;-1.536951115;-8.884628992;0.000870808;-4.448044328;-6.221776911;-17.33064831;-3.209700812;1.24444515;-6.469645005
1.644903401;-11.39916679;2.016047331;-9.642335664;-3.967383783;1.6345415;12.99591781;-37.46714481;-3.244160809;-10.84365453;-0.751376667;-7.880958732;1.06085187;-2.755671631;-2.402252195;-11.73042203;-1.353285701;2.243912566;-5.678805214
2.679953294;-9.602125972;4.41228292;-3.33031366;-3.374098143;1.812675611;-6.145923687;-33.7505494;-0.428860104;-8.868413668;2.809766458;-3.62349131;2.606942373;-0.42307568;4.785206382;-6.54274898;1.020879923;3.07400369;-3.775346472
3.342960025;-6.502515981;6.359297535;0.926630761;-3.898298649;1.849815632;-25.22248236;-30.19970024;2.817262932;-6.002286798;6.429159565;1.338836813;3.556083731;1.141283726;12.21893557;-3.668513934;3.179702149;3.253029045;-1.840672475
3.664309905;-2.450817813;7.183075306;1.207061072;-4.731718373;1.665590791;-35.47647601;-28.74152476;4.09937853;-2.949860158;7.027264522;3.654112448;3.185149423;1.105812504;15.84344638;-3.50415963;4.427856468;2.890068359;-0.979399972
3.753379703;1.574956384;6.814197692;-1.761590671;-4.904092069;1.361098006;-33.00335272;-30.14536184;2.455849887;-0.970408403;3.605590231;1.717156074;1.656770331;-0.186316064;13.34939881;-4.730983124;4.643610939;2.519302706;-1.50196559
3.737353318;4.313557799;5.750852403;-5.440720359;-4.109353422;1.151408378;-20.90419349;-33.59056988;-1.063313234;-1.045270978;-1.942734761;-3.162076204;-0.248658466;-1.574861997;5.908296864;-5.341240775;4.376256615;2.577716434;-2.698144976
3.670529805;4.7869207;4.585024697;-7.550039063;-2.981673133;1.202540252;-6.824716498;-37.35813325;-4.383649587;-3.138272867;-6.314572071;-7.883621013;-1.858664298;-2.067189433;-2.434218263;-4.135815829;4.372939249;3.006032912;-3.409796178
3.442137554;2.734570375;3.495623309;-7.674379844;-2.552312025;1.50455674;2.181185923;-40.05539881;-6.093703498;-6.153060282;-7.363741335;-10.01184332;-3.103990257;-1.622105193;-7.416325741;-1.584969297;4.893679122;3.320733837;-2.977028931
2.763068305;-1.330445872;2.140048828;-7.223907425;-3.339050941;1.883572896;3.743645286;-41.41386919;-6.4481445;-8.664218495;-5.69067245;-9.548998737;-4.379166704;-1.098179182;-7.383311139;0.544798143;5.391332646;3.07545998;-1.813092109
1.307272382;-6.406996019;0.047019201;-7.97918407;-4.862824157;2.138838941;0.556402001;-42.11442994;-6.927478668;-9.867655654;-4.024429777;-8.643704055;-5.973613046;-1.440337717;-4.185647994;0.459021625;4.869882978;2.28745951;-1.132937271
-1.018187062;-11.38586988;-2.800656429;-10.54910866;-6.023744004;2.187745606;-2.672675813;-42.90722544;-8.805443064;-9.988483698;-4.963440644;-9.581650599;-7.647238164;-2.806603293;-1.494227181;-2.459500267;2.685525049;1.445137434;-2.019259873
-3.838771841;-15.30742102;-5.672461008;-13.98007813;-6.010078125;2.100805094;-2.945149315;-43.8241171;-11.95654667;-9.813172333;-8.917248464;-12.78357051;-8.748249366;-4.371526812;-1.863618322;-7.325840608;-0.829703951;1.088677251;-4.536406087
-6.324803718;-17.48105832;-7.359540251;-16.66375726;-4.940177835;2.008693137;-0.512427149;-44.12887592;-14.87657619;-9.757726238;-13.84499914;-16.44578335;-8.753094226;-4.972310557;-4.838385574;-12.40656093;-4.43348161;1.331318327;-7.574995385
-7.53474256;-17.59633156;-6.864541761;-17.60743479;-3.682374108;1.973948035;2.474078733;-42.99462165;-15.85781766;-9.321448471;-16.89196075;-18.04238675;-7.736596811;-4.070441228;-7.54589861;-16.16117216;-6.712377487;1.739785678;-9.550830956
-6.933676791;-15.88978133;-4.055513979;-16.96796402;-3.045023292;1.943511037;4.458962213;-40.30693993;-14.33782848;-7.493972469;-16.54489263;-16.38822297;-6.369984864;-2.25153129;-7.223716784;-17.9327301;-6.956509768;1.683448564;-9.43739373
-4.758017724;-13.23312589;0.161722769;-15.54778418;-3.092525217;1.817566609;5.707658476;-36.92786944;-11.35922014;-3.861437168;-13.63086671;-12.58121785;-5.475369342;-0.865121117;-3.599033491;-17.96049135;-5.535559946;0.86538419;-7.385796579
-1.950878111;-10.9178617;4.281242199;-13.91571375;-3.207235904;1.561677445;7.373884479;-34.22013976;-8.839540713;0.532124075;-10.51452337;-9.140285644;-5.528143714;-1.087322783;0.797257375;-16.93761977;-3.541905603;-0.399732466;-4.533892292
0.332521773;-10.08696594;6.97669825;-12.06786301;-2.804068723;1.252462526;9.716781548;-33.2083153;-8.280310617;3.44548575;-9.282099587;-8.129550406;-6.486539137;-3.120498037;2.597430808;-15.5699519;-2.026054147;-1.382592441;-2.222898615
1.344516652;-11.09534977;7.743990656;-9.912871584;-1.981951737;1.013580462;11.54658923;-33.98951328;-9.89528977;2.84866868;-10.37550593;-9.785726012;-7.997565745;-6.10277101;0.230045776;-14.39913361;-1.414736168;-1.449118678;-1.231007971
1.085255861;-13.25769398;7.030324358;-7.992636505;-1.454039911;0.904529468;11.61367263;-35.76595948;-12.70037315;-1.484169662;-12.60904312;-12.62270679;-9.712008124;-8.734304934;-4.871781139;-13.80784669;-1.482024054;-0.486813711;-1.523631034
0.155228111;-15.24205224;5.810300895;-7.572093542;-1.795770746;0.870318601;10.48884515;-37.39848485;-15.32250186;-7.458775729;-14.32121131;-14.7319922;-11.41453174;-10.10514464;-9.365286099;-13.97967062;-1.758309912;1.057778888;-2.556583762
-0.73806803;-15.89354502;4.918743838;-9.811983533;-2.736458838;0.802727987;10.68484508;-38.05216878;-16.81482365;-11.77220468;-14.59345803;-15.11360125;-12.91617758;-10.12481133;-10.4267364;-14.74247355;-1.936169193;2.518306376;-3.763058432
-1.241704785;-14.90801298;4.586957861;-14.64025605;-3.233480415;0.657101943;14.30109365;-37.52737433;-16.92853962;-11.98070334;-13.60680505;-14.03041578;-13.90155958;-9.324076918;-7.585381926;-15.46919588;-1.925061569;3.43801643;-4.818927545
-1.468584029;-12.86014982;4.467605337;-20.32678939;-2.359583062;0.512441885;20.064753;-36.15434303;-15.84736859;-8.074612284;-12.06011969;-12.3224683;-13.94109879;-8.289664349;-2.676543967;-15.25598118;-1.597688934;3.778375198;-5.577855114
-1.73701602;-10.59712416;4.081406294;-24.26739814;-0.239531405;0.510947861;22.811221;-34.42555856;-13.81279918;-2.419244146;-10.34927304;-10.47007813;-12.68562059;-7.216274892;1.775846246;-13.37481885;-0.58373313;3.80686943;-5.885987523
-2.20535503;-8.527566547;3.317498693;-24.51061697;1.856666034;0.723579078;16.77516542;-32.65193004;-11.02702789;1.889964768;-8.280736785;-8.259309085;-10.0741813;-5.886289345;4.27385365;-9.718495514;1.585717553;3.813944611;-5.540746093
-2.71560283;-6.413177018;2.5871983;-20.94196809;2.453658954;1.060024414;0.674919818;-30.839153;-7.835244607;3.053719518;-5.501144329;-5.230556194;-6.388716406;-4.008905135;4.865702801;-4.901422153;5.041540126;3.900850736;-4.441784013
-2.94337212;-3.817188198;2.504668761;-15.28970072;1.099170277;1.30798969;-19.60319075;-28.80512398;-4.866167875;1.544322034;-2.149733206;-1.358649981;-2.149978436;-1.588344307;4.399593914;0.074864531;9.235294066;3.972553726;-2.742665793
-2.672782539;-0.764210916;3.353795608;-10.0058391;-1.182658905;1.276340085;-33.64951168;-26.42172897;-2.849459478;-0.547565097;0.933879745;2.733241592;2.022419855;0.97563519;3.523329091;4.345861675;13.06131344;3.884857581;-0.797870021
-1.921488158;2.041991806;4.796856177;-6.865462962;-2.655864881;0.927585298;-33.33259114;-23.81722943;-2.167613862;-1.139944906;2.689679277;6.215197872;5.500561877;3.101068545;2.442326064;7.519809374;15.43923539;3.591739017;1.080125447
-0.809387275;3.702180325;6.107821734;-6.212074517;-2.252662281;0.395741464;-18.87646611;-21.41040522;-2.501940695;0.528774107;2.635039997;8.700785078;7.738462919;4.358959129;1.478840773;9.628812882;15.94828428;3.179309399;2.816915464
0.667768947;3.902469043;6.779485005;-7.178950232;-0.412910126;-0.11548472;0.712900868;-19.73995305;-2.912032832;3.776093795;1.332393779;10.48376973;8.453128348;4.6856823;1.551007313;10.82347046;15.02288254;2.790505703;4.504733229
2.687569407;3.259407993;7.003205806;-8.497114451;1.329971693;-0.462066824;13.73314747;-19.17341237;-2.361773591;7.365660884;0.135166647;12.15239057;7.851166123;4.356015042;3.74648669;11.11775715;13.54691957;2.526557067;6.103200815
5.362705234;2.838758965;7.569252029;-9.229148533;1.660115344;-0.613935657;14.09343342;-19.67538901;-0.354994059;10.46599084;0.367589702;13.95921679;6.679691335;3.772922023;8.164177117;10.38628385;12.15659197;2.401701718;7.211603082
8.403508962;3.206096025;9.192868217;-9.046253782;0.564460025;-0.611075242;5.512459833;-20.81094999;2.743101426;12.85153019;2.494914002;15.53984254;5.902007171;3.221002267;13.15236771;8.555131187;10.79003906;2.361513114;7.202909906
11.02636624;3.855765419;11.78617066;-8.121519621;-0.723196297;-0.489214453;-1.77157576;-22.02156726;5.895703314;14.34926783;5.823605952;16.23907602;6.089109221;2.715249991;15.97431945;5.765556664;8.82207952;2.325844228;5.703039932
12.29705104;3.609198624;14.32023715;-6.912738415;-0.837208792;-0.259635994;0.649126379;-23.00595389;7.950888203;14.28772188;8.900434142;15.74477023;6.953151809;2.011495297;14.7321576;2.362886152;5.663055531;2.221564739;3.052539923
11.73127677;1.735858344;15.49302117;-5.9682322;0.538343107;0.041520105;12.43285074;-23.9214997;8.220687695;11.6964929;10.34466089;14.45639397;7.479811547;0.780431409;10.10485901;-1.232176417;1.35652473;2.003313982;0.325165867
9.704600808;-1.155667754;14.74278841;-5.689316361;2.44385104;0.302345553;24.46962804;-25.21783971;6.785564097;6.248031459;9.621052462;13.25845571;6.711263011;-1.11510691;5.322631343;-4.600196144;-3.261999789;1.675505765;-1.209228888
7.30510616;-3.321600325;12.78629928;-6.01721615;3.535314977;0.362270584;25.83979775;-27.18741195;4.428151236;-0.87638958;7.333698208;12.89323808;4.662949268;-3.370960077;4.089484293;-7.272436578;-6.931586443;1.310651241;-0.841520805
5.66703597;-3.163935476;11.16928731;-6.248633504;3.274167645;0.120986121;12.33559848;-29.56656329;2.287815867;-7.118978307;4.903213016;13.46603468;2.619766831;-5.196237778;7.885031859;-8.668722904;-8.571932543;1.036899918;1.143553159
5.241934533;-0.604867571;11.10204161;-5.294025996;2.361998465;-0.358980553;-10.06684295;-31.52606465;1.408891112;-9.848728616;3.816808665;14.48828606;2.435154651;-5.590566624;14.75349113;-8.206819259;-7.729396278;0.977914679;3.67952868
5.549103776;2.627487066;12.48643327;-2.42269658;2.063249415;-0.859623143;-29.37387548;-32.11225856;2.350208648;-8.009306798;4.858714538;15.40155116;5.2240475;-3.877133298;20.6460789;-5.611834791;-4.650615443;1.17054599;5.615922006
5.606639521;4.17317739;13.96176481;1.958636396;3.049741512;-1.142753097;-36.00229895;-30.8418534;4.988450642;-2.887416843;7.738219627;16.1301068;10.39255872;-0.204633718;22.38477701;-1.214278386;-0.06043956;1.519908244;6.38985872
4.730149974;2.845134759;14.00749167;6.190712263;4.803312797;-1.116442557;-28.96658182;-28.00951914;8.5947373;2.64565372;11.31571001;17.19833573;15.79066702;4.342233902;19.97992119;4.051034391;5.129016507;1.83735241;6.216070087
3.101400464;-0.35570307;12.25474473;8.241054835;6.088149874;-0.897416448;-15.41069222;-24.47496116;12.16674895;5.943330909;14.27816358;19.30333106;18.97052488;8.192834764;16.49226958;9.03303554;10.01843311;1.947548107;5.740211574
1.682204814;-2.880541647;9.921340248;7.112269072;6.043957255;-0.713962143;-4.473648406;-21.10065263;14.86763773;6.180078125;15.83457719;22.65367157;18.69110581;10.09639967;15.55401836;12.90435332;13.83397456;1.794190501;5.503060851
1.546203775;-2.500483976;8.943345995;3.73701457;4.918088567;-0.727161392;-0.717767972;-18.28194262;16.34106834;4.635036566;15.99118193;26.55793486;15.60447502;9.78651067;18.50824965;15.46660878;16.03852579;1.469860727;5.645805845
3.133180465;1.016739082;10.43309529;0.539615698;3.807024286;-0.918215208;-2.120722673;-15.91890408;16.73087834;3.539161982;15.26927877;29.57691426;11.66819802;8.049257994;23.40075222;17.01392979;16.46703829;1.150598348;6.016813826
5.966067294;5.711037477;13.68617139;-0.186366372;3.673080049;-1.132214361;-3.457654862;-13.80003906;16.42619459;4.387634582;14.14614101;30.19219167;8.773276021;6.133424871;26.55475096;17.91656557;15.40242319;0.985553394;6.482815161
8.999636792;8.851002375;16.57221359;2.049898509;4.528652227;-1.232488606;-1.491758747;-12.02502286;15.74113808;6.927362026;12.70423314;27.63163929;7.611006714;4.914437919;25.41574257;18.31532042;13.48751692;1.020449267;7.115417267
11.29967504;8.861339059;17.05782265;5.509087394;5.49359717;-1.224864617;2.60498659;-11.08007813;14.76178952;9.446932767;10.77379882;22.39245991;7.526846164;4.40947211;20.41716226;18.18865146;11.47216849;1.200403838;8.102709431
12.5479445;6.305577993;14.69613712;7.446381807;5.630411438;-1.242321868;5.236304355;-11.50170996;13.4230295;10.02447289;8.389769256;16.14067488;7.292885953;3.973612142;14.49109901;17.6756996;9.925102982;1.433897501;9.525595595
13.06085154;3.275800601;10.92679628;6.113563967;4.783207628;-1.409453036;4.370058594;-13.43383157;11.66551737;7.771168195;6.056038726;10.97014147;6.061929072;2.979273162;10.75194508;17.26147561;9.069871506;1.658245461;11.25604125
13.40573839;1.791700355;7.963778633;2.017217374;3.685681437;-1.715972633;1.586093441;-16.47424857;9.472322805;3.243765534;4.446082733;8.350104983;3.764481927;1.408850623;10.24816668;17.53189045;8.804105584;1.857595378;13.08
13.96612584;2.488726862;7.151955172;-2.539327559;3.28917642;-2.019023038;0.370073242;-19.93950931;6.753183596;-2.110810539;3.704247321;8.318920069;0.801808385;-0.121615755;11.4647681;18.62173433;8.82856702;2.032179678;14.89112081
14.7581575;4.490777455;8.057863688;-5.263448821;3.950168062;-2.173261911;2.506473523;-23.29985059;3.266917467;-6.9414771;2.98955948;9.434538613;-2.491496225;-0.907995511;11.75950783;19.83808536;8.770019531;2.159549626;16.71014978
15.53056816;6.331572928;8.937448035;-5.60177222;5.194148239;-2.166236422;6.20021779;-26.38915958;-1.197193322;-10.6820089;0.844564577;9.613456574;-6.032233201;-0.792065398;9.429072877;19.8926548;8.254871558;2.191571501;18.46407162
15.95560107;7.017502067;8.129116632;-5.038270202;6.208266355;-2.127588726;7.847340107;-29.21418178;-6.401669624;-13.55314719;-3.675234857;7.435352158;-9.683805128;-0.326076685;4.799191478;17.71206149;6.983356497;2.096179774;19.73858214
15.72421611;6.40953396;5.249721818;-5.764264238;6.5566253;-2.195812478;5.813446469;-31.5723248;-11.34757887;-16.02170103;-9.915224855;3.110505343;-12.86878805;-0.307990443;-0.28509208;13.2852802;4.855649053;1.910648735;19.81441327
14.5436376;4.847260651;1.329063819;-8.816407036;6.460838643;-2.36227391;2.509400945;-32.88395942;-14.47216596;-18.19346725;-15.54707639;-1.571670816;-14.62195031;-1.071212803;-3.878155845;7.894431506;2.101094089;1.757064696;18.08121036
12.18019262;2.600468521;-2.074861983;-13.17138143;6.447014483;-2.442701793;2.471738497;-32.46482253;-14.43011832;-19.57596994;-17.80946564;-4.355995337;-14.18562143;-2.141764844;-5.031545871;3.488092179;-0.723910263;1.793218337;14.56087198
8.634200756;-0.267831618;-3.968349868;-16.48560728;6.764837623;-2.217675691;7.864761399;-30.05957811;-11.01669637;-19.34273123;-15.3240853;-3.981787468;-11.68824652;-2.586415157;-3.894839919;1.587158603;-2.957065753;2.118178735;10.09542948
4.334014509;-3.611278043;-4.382624517;-16.85366385;7.162111209;-1.629100339;15.463867;-26.19039181;-5.538550747;-16.90454626;-9.169660122;-0.97011675;-8.280261014;-1.798634908;-1.136759317;2.464582377;-4.183057351;2.690310849;5.95898323
0.114877829;-6.970742022;-4.00801419;-14.19846048;7.206868074;-0.858898873;18.23792679;-21.99242655;-0.235659383;-12.42889172;-2.332174418;2.83713142;-5.509089637;-0.084874191;2.512905182;5.136510631;-4.4773598;3.318912009;3.105986054
-3.130587433;-9.807114853;-3.500860641;-10.273381;6.793093143;-0.209701957;10.75612148;-18.62082222;2.95525895;-6.992382243;2.161741002;5.642491475;-4.355215362;1.450652579;6.19065327;8.112132328;-4.330306801;3.751511641;1.598450635
-4.950823121;-12.02265306;-3.11113681;-7.388799005;6.292244863;0.121407219;-5.871680323;-16.66751215;3.460380857;-2.2472912;3.096068301;6.919865614;-4.663025448;1.67022132;8.649793845;10.33534731;-4.267843233;3.816625995;0.664892086
-5.603482292;-14.15807698;-2.833559426;-6.920163676;6.183012994;0.185797427;-23.80304982;-16.01524679;2.189422992;0.263711936;1.552845343;7.559610431;-5.401990792;0.240309187;8.492588111;11.68631176;-4.436871861;3.53535651;-0.624890156
-5.826797622;-16.86914957;-2.734925091;-8.683650018;6.533462969;0.216800842;-33.58631816;-16.19121099;0.644359688;-0.192048835;-0.264439645;8.846944334;-5.532163305;-2.099552771;5.045724258;12.79328488;-4.478554747;3.121320554;-2.568448628
-6.226832426;-20.02264367;-2.990935513;-11.45184922;6.881842954;0.405294061;-30.78223039;-16.88010057;-0.27827229;-3.203220182;-0.880798784;11.13605856;-4.780248459;-4.039272022;-0.773549417;14.39952051;-3.80218806;2.853960516;-4.526233004
-6.735011595;-22.29338685;-3.555815624;-13.97673888;6.682710942;0.707920019;-18.9217423;-18.15899761;-0.856312204;-7.456925394;-0.593748816;13.33830139;-3.7420786;-4.588090354;-6.534519398;16.76987149;-2.053624719;2.898801051;-5.337765069
-6.584007266;-21.86985103;-3.859764747;-15.63664011;5.912964802;0.856917295;-6.527969789;-20.29386933;-2.075441093;-11.44109378;-0.944845764;13.67493207;-3.300580034;-3.700102131;-9.60194834;19.49536718;0.590754002;3.196842996;-4.13761283
-4.861234993;-17.90359515;-2.981449653;-16.34438259;5.229259397;0.572773341;-0.684742344;-23.33344654;-4.583717603;-14.19747326;-3.170607974;11.0915696;-3.888726162;-2.222933831;-8.878739519;21.73776108;3.537184426;3.50904156;-0.951390053
-1.228282034;-11.51092676;-0.296316403;-16.0901769;5.456659517;-0.191870003;-2.302501473;-26.90086326;-7.999103307;-15.67031296;-7.005372636;6.172686156;-5.192702257;-1.278234041;-5.62926049;22.70979415;6.198230893;3.594847391;3.358228784
3.760561032;-5.293761055;3.915570778;-14.75858401;6.824484301;-1.179228665;-6.630428534;-30.38279545;-11.17737185;-16.46058165;-10.84939022;0.808976901;-6.465462596;-1.558036591;-2.597147547;22.12941851;8.38040821;3.399891865;7.708107959
8.994249193;-1.514458159;8.479724172;-12.45544831;8.649245772;-1.987981971;-8.113264134;-33.34231483;-13.19061196;-17.20283596;-13.09890734;-3.087406387;-7.102383291;-2.986167769;-1.952003188;20.45336859;10.32535975;3.11;11.46016097
13.51063718;-0.308901088;12.02966966;-9.944832235;9.804136265;-2.34200276;-5.183783327;-35.77421274;-14.11645424;-18.0339298;-13.41872589;-4.744568594;-6.964136091;-4.846785096;-3.603200441;18.77905029;12.38289412;3.021061174;14.62035336
16.9754706;0.483499453;13.8469144;-8.571509004;9.613940865;-2.254833436;-0.937313455;-37.96229209;-14.87914178;-18.52519577;-12.80769848;-4.647052656;-6.226001881;-6.158057963;-5.227544519;18.38967058;14.59126616;3.313767919;17.46238698
19.53299701;3.481884867;14.12340505;-9.47847155;8.409066183;-1.96923979;0.566282492;-40.05642045;-16.2242801;-18.07940654;-12.40700738;-3.631667276;-4.989350492;-6.021482545;-4.055025535;20.0660704;16.50260102;3.901300125;19.94135341
21.18215372;9.224571513;13.42819496;-12.6402016;7.246621353;-1.736335471;-1.261960776;-41.74330358;-17.73193887;-16.44555112;-12.16576315;-1.891721222;-3.091065173;-3.863708494;0.936873328;23.49081317;17.38188177;4.46890888;21.42343072
21.2820872;15.01930858;11.89273483;-16.55384148;7.030224328;-1.622031351;-2.603800998;-42.31549907;-17.83490427;-13.94811034;-10.66447382;1.131397391;-0.325018965;0.351799415;8.122995892;27.16804233;16.61591261;4.68075974;20.9889319
18.7328755;16.3697734;8.927147153;-19.01287568;7.788188765;-1.491335463;1.155251281;-41.1119503;-14.99573297;-11.28379862;-6.397153714;5.850233475;3.133442427;5.924814651;14.33272155;29.08809025;14.03647668;4.402542644;18.09610525
12.82499962;10.17084895;3.834341853;-18.52971653;8.725670085;-1.16312072;10.40552519;-37.99577588;-9.159553851;-9.073377904;0.533274093;11.51033863;6.539743312;11.40953905;17.10340162;27.88930335;9.975438183;3.77962497;13.0985612
4.143446231;-2.64983665;-3.141028064;-15.38312005;8.97848864;-0.588035335;19.52940728;-33.505175;-2.234592774;-7.496324413;7.856964666;16.14827572;8.893002701;15.03641925;16.3498297;23.81726499;5.098697533;3.125437145;7.212600024
-5.237120633;-17.1263375;-10.27291067;-11.46345362;8.383192541;0.103913117;20.43617693;-28.57146018;2.964536436;-6.208226315;12.42348447;17.81048809;9.579902996;15.54899145;14.19937729;18.76099531;0.19902574;2.717974877;1.936927143
-12.56159181;-27.06814782;-14.93980727;-8.958328049;7.58651884;0.715669011;8.962023518;-24.01957296;4.643453944;-4.510402091;12.49155847;16.13722077;8.862393569;13.01957113;13.19149058;15.19906422;-3.931410091;2.657991939;-1.683404312
-15.75988066;-28.76580531;-15.05313971;-8.796132211;7.428186872;1.144730986;-10.99063554;-20.19646532;3.375137493;-1.627572871;9.222597122;12.93170642;7.797120103;9.014676685;14.29422743;14.68399309;-6.583277792;2.872670432;-3.470058594
-14.47972227;-22.9903389;-10.32294102;-9.964776192;8.1814943;1.447911464;-29.17991083;-16.93792093;1.768121779;2.994592985;6.069575013;11.04588981;7.59074441;5.798953925;16.27520212;16.91660384;-7.271778291;3.222736341;-3.977945246
-10.1107053;-13.98108966;-2.429643141;-10.1943648;9.339211367;1.756588899;-35.65922107;-13.82832713;2.615996563;9.379554562;6.370328323;12.29334276;8.824842551;4.955897072;16.85433017;20.10847734;-5.946437812;3.600890328;-3.974959141
-4.829669357;-6.343583944;6.009598981;-7.517698389;10.11016044;2.124413514;-27.44581912;-10.5416488;6.877600115;16.75589817;10.91528277;15.9978003;11.09292929;6.342981031;14.66891775;22.39336952;-3.11690559;3.948343988;-3.922647343
-0.356796307;-2.20334762;12.90177636;-1.625186206;10.13821073;2.446595665;-10.25956714;-7.070406716;12.99884631;23.54312362;17.35939754;19.39620616;13.30068463;8.19100496;10.48927064;23.23221894;0.295812883;4.214348313;-3.777763314
2.763141017;-0.539452083;17.54611378;5.881162559;9.772486675;2.523810059;5.830290041;-3.778360113;18.06986638;27.81174031;21.9595597;19.68688405;14.41069734;8.381122433;6.753451441;23.73320524;3.404834107;4.33960995;-3.163092159
5.003013912;1.192215519;20.44823184;12.44307681;9.6609528;2.216924563;13.38893116;-1.312382728;19.90815567;28.17741148;22.32127206;16.18210897;14.10720162;6.032654716;5.802121733;25.64374912;5.862542621;4.304546701;-1.702868881
7.120916499;4.727133712;22.4613257;16.0255972;10.08238316;1.562660893;11.9813674;-0.418081299;18.47655298;24.67141718;19.05875177;10.88732899;12.92391719;2.226767781;8.160019531;29.82308847;8.066674321;4.192926288;0.739571445
9.490019531;9.804018699;24.0501487;16.16815535;10.66940422;0.757156185;7.008394088;-1.678537485;15.61412226;18.94053213;15.13298324;7.030650631;11.7603107;-0.721547717;12.12680077;35.41963684;10.86274136;4.180068359;4.041182901
11.93521556;14.77184805;25.17684164;14.02185951;10.7901458;0.026889999;4.530967115;-5.221971911;13.4064982;13.45749391;13.44803891;6.661585127;11.1401428;-0.948473537;14.93461183;40.40147794;14.88179686;4.415714862;7.935896783
14.02958516;18.1089491;25.65371208;11.46588541;10.21699775;-0.504497199;6.523965486;-10.52375388;12.56362536;10.12958311;14.61786435;9.158101089;10.75235808;1.56115818;14.60092906;42.98208461;19.9314063;4.883410519;12.10007813
15.4525878;19.39629843;25.42669491;9.918689733;9.424881799;-0.851961449;10.20797758;-16.46429412;12.08778318;9.233423466;16.62545898;11.76115612;9.633138267;4.920619199;11.17272038;42.76088898;24.85365577;5.369084095;16.11696494
16.06747827;19.03135254;24.46184402;9.548186531;9.203143751;-1.095327122;11.479908;-21.7051069;10.40698501;9.464735281;16.56700158;11.68337828;6.910513756;6.682081519;6.56866972;40.66575408;27.97206021;5.596390974;19.39096258
15.72836283;17.23371807;22.44;9.276031482;9.91838345;-1.27412747;9.101597275;-25.23890322;6.944158418;9.082026027;13.04073525;8.160765866;2.619177266;5.567253038;3.23377535;37.81974825;27.87919642;5.439997536;21.17552598
14.1192161;13.50487156;18.75413957;7.510283664;11.11636507;-1.34452688;5.917774278;-26.80823263;2.772972587;7.25765495;7.289262239;2.931170854;-2.014428989;2.303817301;2.584711251;34.3821734;24.12418703;5.04165386;20.81207228
10.88853738;7.162268937;13.03460467;3.182244946;11.8613881;-1.227230601;6.108695948;-26.92284261;-0.184510676;4.571828547;2.250276661;-1.116201721;-5.111746752;-1.008359162;4.260288618;29.43947295;17.45171041;4.717998578;18.0947473
6.026449435;-1.552472137;5.848402335;-3.457665921;11.53824805;-0.893569072;10.94036085;-26.44710153;-0.721067636;2.304375792;0.340602511;-1.998424589;-5.245794311;-2.448340423;6.566414713;22.11056852;9.522123044;4.720811853;13.52211247
0.147319724;-10.91725747;-1.099378397;-10.70409781;10.40456206;-0.409486011;16.77959723;-26.01380109;0.673544249;1.220380643;1.756090099;0.15490188;-2.403174469;-1.530183819;7.709864737;12.94690319;2.302869946;5.042997652;8.210265216
-5.632350602;-18.39931258;-5.627214958;-16.03353957;9.389580731;0.098220915;17.28621895;-25.63918941;2.26929449;0.995077989;4.58827246;3.537585267;1.896420423;0.740063477;6.974648653;4.372272257;-2.577619573;5.434401172;3.441660754
-10.20416387;-22.11812348;-6.258233801;-17.25225919;9.30805327;0.518431979;8.267515307;-24.77592269;2.639885994;0.834658756;6.571225172;6.242335869;5.504769911;2.918299462;5.127625896;-0.376162033;-4.280935389;5.617175941;0.082595107
-13.00945005;-21.92476979;-3.080261592;-13.60663726;10.18394578;0.807474366;-8.528335012;-22.74667017;2.00996565;0.698858234;6.989283132;7.677683367;7.0325905;4.340215642;3.881211223;0.849463652;-2.905940112;5.519154337;-1.771216273
-14.20680555;-19.22139329;2.374906771;-6.26505223;11.2787198;0.97869552;-25.67563021;-19.26037341;2.242435228;1.860477828;7.203309447;8.784347614;6.768057351;5.506704739;4.814643296;7.71752245;0.669475128;5.327018006;-2.681458464
-14.35309916;-15.7203466;8.15243633;2.143848422;11.78325893;1.052304197;-34.37285475;-14.68152924;5.393374865;6.036540292;9.406043688;11.02140073;6.429397951;7.395163279;8.431162346;17.54304536;5.17888802;5.31679167;-3.35319684
-13.8725;-12.2288914;13.02658101;8.759571302;11.5399457;1.021211505;-29.83954059;-9.89843682;11.94442674;13.65198964;14.6457837;15.02430491;7.861614685;10.35999783;13.89205949;26.82688758;9.453547044;5.611797059;-4.070881386
-12.742094;-8.457770921;16.95293005;11.86262133;11.14812918;0.867149229;-14.19225811;-5.884644402;20.13489152;22.78371825;21.72699104;19.99836841;11.58688159;13.59606369;19.53951336;33.12728941;12.82349612;6.078012995;-4.483712397
-10.62161935;-3.888798733;20.5912523;11.65108452;11.37714589;0.60828753;4.911097521;-3.214781009;26.98968562;29.9907811;27.88193089;24.26079562;16.29028266;15.63064863;23.85583726;36.0652299;15.27304368;6.442085125;-3.897581151
-7.280820031;1.220678485;24.41062753;9.992912649;12.4395711;0.325338467;18.67399818;-1.805543363;30.31757434;32.69486471;30.70284343;26.44674773;19.67666283;15.43731021;26.263838;37.00773464;17.30100993;6.521162849;-1.859486547
-2.950129631;5.706762036;28.15042034;9.302910825;13.79139873;0.129138498;21.66281127;-1.024426879;30.17961236;31.29151063;29.84363949;26.43456584;20.10913842;13.2577023;27.28381495;37.91256259;19.58882655;6.361813059;1.407474215
1.68351907;8.402918461;31.01437713;11.18856864;14.63055913;0.084678943;13.86377669;-0.115306563;28.71505081;29.11093261;27.19506231;25.31630279;17.81160895;10.47082282;27.96686105;40.2256637;22.66838585;6.176131407;5.06291884
5.801645296;9.237364292;32.31298799;15.62020049;14.62330345;0.149034482;-0.321300227;1.285641776;28.46265418;29.95010535;25.42656915;24.48124095;14.70412096;8.62081084;28.9877396;44.40330357;26.73635525;6.148571519;8.180742691
8.819264376;9.448663272;31.93082239;21.04941519;14.18868588;0.17711332;-14.88939651;2.848438747;30.45696316;34.94825865;26.02997327;24.52566509;12.96385802;8.359483712;30.01559467;50.00502366;31.62339051;6.295263334;10.36718588
10.52865452;10.60889982;30.24076571;25.34217373;14.08907162;0.001904481;-24.99413646;3.686267249;33.53123068;41.33505154;28.34225021;24.80440288;13.39212876;9.07812683;29.81931042;55.96088325;36.8219366;6.493256609;11.99599946
10.99523774;13.23172938;27.64055982;26.95032287;14.71550847;-0.458199105;-28.44288799;2.915649268;35.31792549;44.26417925;30.23604468;23.95858731;14.84003906;9.430930641;27.08574095;60.77298701;41.50124033;6.628181116;13.86539377
10.39278735;16.17526636;24.22075748;25.66558379;15.72913205;-1.13322037;-25.79652086;0.335287352;34.14518579;40.49783682;29.88555014;21.04514566;15.14502979;8.288037551;21.43583574;62.76876466;44.55904205;6.699929996;16.5132405
8.963785991;17.41929869;19.89881482;22.59489274;16.38027804;-1.819212469;-19.55177966;-3.227080349;30.37936167;31.11077853;27.23252288;16.44811905;12.86801535;5.416999902;13.95413207;60.621608;44.83452757;6.780695836;19.68907232
7.099279934;15.63424238;14.86946711;19.46133566;16.19880293;-2.270574994;-12.88833234;-6.201079654;26.23468662;21.02495535;24.06519486;11.87696928;8.505170625;1.49983394;6.837270491;54.05297717;41.52340898;6.880950805;22.37204724
5.360702283;11.27257909;9.900019531;17.69189801;15.41518196;-2.314948486;-8.291209559;-7.088813423;24.26205959;15.64372242;22.71775579;9.381516012;4.258903243;-2.372814062;2.33685931;44.25091916;34.63484049;6.883610969;23.32704136
4.299446753;6.300506967;6.136830156;17.81354262;14.73382415;-1.928847137;-6.426383619;-5.303751168;25.70133128;17.16512231;24.43329358;10.02507433;2.559256842;-5.274835956;1.635381488;33.53941683;25.19273527;6.644103567;21.81077077
4.146399297;2.814606524;4.538708485;19.43839305;14.68472462;-1.237312444;-5.849606082;-1.453729991;29.90138629;23.41104688;28.62458349;13.15614271;4.453927272;-6.727185684;4.330741376;24.32622714;14.97298148;6.178232643;17.96044339
4.629456358;1.686060627;5.383692099;21.74190143;15.16236621;-0.443434999;-3.99085901;3.146265309;35.11288456;29.97169756;33.50964292;16.8510279;9.023232836;-6.6636025;8.795561892;17.9605591;5.860078125;5.743680824;12.66023297
5.13;2.286641073;8.208635099;24.05684781;15.57228855;0.269885918;0.867519445;7.374569452;39.8865475;33.79690351;37.52022906;19.27025062;14.14109342;-5.288105471;13.11799745;14.29226369;-0.815761221;5.692151143;7.060798785
5.119924262;3.384452886;12.14701639;26.18625891;15.4315059;0.811161327;7.803930678;10.92578712;43.9144892;35.26957911;40.33063229;19.95799839;17.89467589;-2.999054278;16.01318142;12.23553018;-4.575380005;6.179392905;2.12466004
4.55902554;4.314568694;16.32029606;28.28;14.84886662;1.187500037;13.10181755;14.17153461;47.71124321;37.16595535;42.7359139;20.08152967;19.58495608;-0.363566671;17.21337598;10.86878495;-5.604474723;6.97863878;-1.543452337
3.927785233;5.378288195;19.99687605;30.45172283;14.43339575;1.450117454;12.27843181;17.39918668;51.54911957;41.56944065;45.58232563;21.36255412;19.70047558;1.98259538;17.26346735;10.19139273;-4.32458063;7.588804007;-3.612157502
3.852709571;7.20034423;22.56209893;32.49685444;14.72065431;1.619924282;3.253308583;20.11878458;54.68885155;47.50859366;48.72067689;24.48390449;19.12429163;3.547656458;17.02389296;10.96357446;-1.108074852;7.588661382;-3.915027991
4.623646959;9.753418027;23.57167031;33.9681124;15.65816057;1.649122881;-11.51525857;21.12216253;55.67041549;51.41111067;50.90333704;28.25563131;18.36335298;4.178857725;17.24939077;13.82537871;3.658973616;6.965467926;-2.494748345
6.001878766;12.05767185;23.02838696;34.54593699;16.6318019;1.450616628;-25.71972048;19.36822903;53.48956746;50.01161642;50.73391242;30.31856427;17.39818721;4.064930641;18.3865852;18.47339536;9.313886372;6.144684283;0.252140885
7.473238987;12.91783117;21.65606077;34.36104377;17.00760711;0.976871155;-32.66739871;15.02603599;48.67132199;43.22900994;47.87766871;28.95324767;16.09605841;3.520436601;20.4783298;23.58862733;14.8077004;5.683033952;3.549142759
8.710946876;12.06047113;20.75211794;33.93205677;16.68582278;0.288141272;-29.39769337;9.765185301;43.25389386;34.54173522;43.49335653;24.58342498;14.63310063;2.728343773;23.0355675;27.55666952;18.97367551;5.865015251;6.484854261
9.817852749;10.59089778;21.46023711;33.7020935;16.16076214;-0.449333167;-18.62156923;5.900983819;39.54207887;28.50202723;39.46559766;19.67109981;13.44941778;1.661812302;24.94942346;29.3813326;21.04626643;6.523181358;8.432402514
11.10160527;10.22512813;23.85316937;33.54707981;16.04603357;-1.046094873;-6.991332465;4.910499909;38.50803145;27.42306248;37.00714475;16.92543614;12.78565666;0.235001459;24.71406198;29.10059599;21.04134679;7.213193799;9.345703148
12.55636415;11.82295983;26.55078136;32.73784417;16.51834091;-1.400753545;-0.752641866;6.40406079;39.07818592;29.91818961;35.75458384;17.16799106;12.29828158;-1.491264679;21.13236221;27.49667305;19.67962019;7.578836126;9.682770356
13.52140242;14.42313542;27.33284732;30.51532986;17.19353887;-1.558627094;-1.747068517;8.367739437;38.92612681;32.36556659;34.13039297;18.619411;11.20357284;-3.272797205;14.26221286;25.4762351;17.88762344;7.595372531;9.984775051
12.88847339;15.65427168;24.46660451;26.89805607;17.52849295;-1.669533454;-6.558315625;8.5563899;36.25103254;31.93323122;30.7461161;18.33468622;8.912490255;-4.85433704;5.954130263;23.66333569;16.24207564;7.504163402;10.41920019
9.793418758;13.31097187;17.84519699;23.03493006;17.34582166;-1.870280145;-9.378414283;6.041146418;31.24518585;28.61225616;25.76611287;14.75996564;5.648544624;-6.154999051;-0.642294058;22.40547101;14.74850009;7.529723548;10.63342211
4.305019853;6.936605529;9.087369995;20.66757617;16.97559668;-2.175901887;-6.498081881;1.799889912;26.15576233;24.71758664;21.13384296;9.345093967;2.519182552;-7.233730538;-2.622461886;21.93457898;13.05070009;7.653017516;10.02069435
-2.426670892;-1.772960744;0.504118927;20.9564562;16.88966398;-2.459540816;0.838690707;-2.022187862;23.88034486;22.56217305;19.41944886;5.770536359;0.952928564;-8.026609361;0.88932639;22.32211697;10.8211244;7.64486316;8.175743155
-8.717995001;-10.01850525;-6.289136912;23.52589983;17.2;-2.535159371;7.266632834;-3.557019862;26.11;22.50436177;22.11485137;7.23946441;1.921489209;-8.12591798;7.936598326;23.20619553;7.986143155;7.314110432;5.183173618
-13.23012991;-15.57312593;-11.06741554;26.55625531;17.52545305;-2.280926503;7.179778128;-2.273867885;32.33174619;23.05701584;28.63854652;13.9344092;5.499752336;-6.907120081;14.67192747;23.66627134;4.658096826;6.728150502;1.543736031
-15.56749472;-17.85109635;-14.52833387;28.01787358;17.37192292;-1.714188248;-1.162252819;1.028199168;40.31826727;22.77370835;36.76862341;22.7292244;10.99024829;-4.018135728;17.66165354;22.61219276;0.950511751;6.19490065;-2.149004548
-16.2093323;-17.70763218;-17.15176709;27.21779393;16.66468109;-0.971176687;-14.22289363;5.086282597;47.62477041;22.00208609;44.12757157;29.48532764;17.37423274;0.134852587;16.11421736;19.57568024;-3.053835872;6.019430084;-5.485584366
-15.89891816;-16.33874028;-18.42276361;25.46470009;15.90455133;-0.219310025;-25.39233835;9.066445047;52.93632836;22.76256788;49.56186845;32.13731466;23.66642851;4.371351425;12.45854971;15.28485934;-7.114144866;6.254851963;-8.26518677
-15.00557204;-14.28645269;-17.12533482;25.22426423;15.76433017;0.424538969;-29.15591718;12.78169475;56.35558523;26.78270317;53.40371769;32.0627326;28.97386385;7.328420009;10.72617967;11.41111673;-10.64033147;6.668569704;-10.32547843
-13.34458525;-11.32065348;-12.48439079;28.27454825;16.47662776;0.914270739;-24.31590607;16.23082679;58.62915574;33.47031215;56.53861061;32.5954938;32.43178299;8.28509278;13.73683578;9.505814846;-12.78588125;6.946776485;-11.4194463
-10.53459279;-7.133959826;-5.179857017;34.20956997;17.58255734;1.237938257;-14.22763306;19.06253561;60.12435746;39.7519285;59.16474257;35.90815474;33.32651908;7.594419379;21.03075172;9.891062292;-12.8670374;6.949253375;-11.31335051
-6.533108226;-2.091883946;2.685083423;40.47393937;18.29451926;1.37595583;-4.230623814;20.55941569;60.44954726;42.09695239;60.34167731;40.88665015;31.47787195;6.366880601;29.06094094;11.43952719;-10.81221858;6.794175703;-10.02902074
-1.871335255;2.705606862;8.751600141;43.99908718;18.16165507;1.299853278;1.68402305;20.16548885;58.95547286;39.11484038;58.7267357;43.83691616;27.58109693;5.64146409;33.575978;12.5281438;-7.248904077;6.71867491;-7.966399718
2.612260526;6.137332491;11.87758606;43.27938473;17.43992275;1.008822513;2.718950397;18.01528176;55.5587047;32.56478484;53.87267724;41.50133204;23.09063663;5.697274157;32.51506817;12.46606313;-3.108315879;6.862612676;-5.714158686
6.309477899;7.932546454;12.81656325;39.34678436;16.83371756;0.559356892;0.765255306;14.90301193;51.072385;25.94092694;46.9578859;33.89081701;19.5313425;6.029555973;27.32364505;12.22267255;0.952269998;7.173741821;-3.642609233
9.194947952;8.93515835;13.5971627;34.91106397;16.85170501;0.048762443;-1.558475221;11.67214429;46.70809101;21.83418864;40.25943254;24.53985822;17.61996326;5.941542508;21.7451847;13.78285355;4.830644277;7.496643292;-1.6164449
11.69245888;10.49771647;16.06345972;32.32799888;17.37129343;-0.439405927;-2.643739475;8.587790061;43.18405253;20.2568777;35.70631479;17.91902835;16.83446583;5.18798978;19.02635247;18.57166491;8.736502812;7.727663751;0.877343682
14.151772;13.44936374;20.61767152;31.95272495;17.80497958;-0.877607784;-2.330485662;5.308322257;40.25244251;19.22258913;33.62546055;16.11601437;15.82078334;4.104825412;19.65782565;26.19411393;12.67295742;7.870141695;4.217946404
16.34840213;17.40566787;25.98675757;32.11858948;17.69529084;-1.279999437;-1.234115446;1.518821042;37.10278218;16.91770455;32.67531342;17.50651876;13.42937356;3.167645604;21.33120105;34.5231939;16.15939827;7.947622073;8.135187582
17.40644506;20.89533082;30.04392628;30.69627281;17.16470759;-1.639730852;0.065015362;-2.371569928;33.31171742;13.49226958;31.03201619;18.4512774;9.681815726;2.467135966;21.04876438;41.0856507;18.50333428;7.894603788;11.62985491
16.2263048;22.15206667;30.99965031;26.9502418;16.79;-1.877145063;1.243830937;-5.201757849;29.48040931;10.93400762;27.89406637;16.50444936;5.969487685;1.658247869;17.64152873;44.6403368;19.40805771;7.574525639;13.46049431
12.13114015;19.98163345;28.15282511;22.20007813;17.02302058;-1.857615832;1.996376616;-5.869364108;26.9157399;11.22278774;24.11;12.38035481;4.296295326;0.45825766;12.67065198;45.71359341;19.34374442;6.937396306;12.88083221
5.30410254;14.17737956;21.86497226;18.77171226;17.71918516;-1.480449136;1.982954735;-4.356069344;26.52608809;14.44601797;21.43092177;9.056439023;6.03032715;-0.811661841;9.040039063;45.76139723;19.26866738;6.162471575;10.09286914
-3.242530855;5.39422573;13.03793561;18.09885733;18.24127603;-0.773954578;1.295574599;-2.040981313;27.84114908;18.52348002;20.99483359;8.905343248;10.96653939;-1.256364594;8.542173813;45.78708551;19.85942156;5.611738735;6.080561507
-12.0980806;-5.212481115;2.644383611;19.51097268;18.05995319;0.083850111;0.963897942;-0.885833698;29.07647605;20.74505527;22.28637209;11.4629169;17.30599489;-0.11474841;10.43969871;45.65228262;20.89114628;5.585241063;1.958421441
-19.98076341;-16.23913863;-8.362468419;20.68950624;17.28863262;0.846509998;2.649515951;-2.012140151;28.37464332;19.78254884;23.45712986;13.85699587;22.57917877;2.42963674;12.30599342;44.62834163;21.34049433;6.070375349;-1.666590747
-26.06515284;-26.11748253;-18.87741085;19.44829929;16.63174716;1.330324569;7.271707873;-4.762841804;25.36486807;16.5237007;22.81639474;13.54462696;24.96550658;5.114954755;12.40837745;42.5660953;20.18113359;6.71530867;-4.85565654
-30.01357473;-33.25353837;-27.58384751;15.45263583;16.76634251;1.50350248;13.46169651;-7.033980005;21.79974078;13.17681533;20.33996589;10.90850321;24.2353099;6.398962147;11.53401179;40.46473768;17.21648287;7.077026656;-7.957230966
-31.82694939;-36.43262961;-33.25131558;10.54687878;17.71573731;1.474646074;17.36399385;-6.6919838;20.61648277;11.55942;17.96437401;9.299878094;21.77452281;5.610305342;12.53093724;39.75187763;13.21931854;6.95059539;-11.05640411
-31.69682981;-35.39311639;-35.26714248;7.442920739;18.7999403;1.399802146;14.59585265;-3.041714858;23.93501345;12.02857962;18.32060775;12.29660634;19.69107762;3.485783674;17.73378795;40.7999519;9.231957527;6.503725378;-13.74160247
-29.94572641;-31.16301855;-34.00510436;7.765949618;19.22363605;1.384321819;3.461106872;2.726489758;31.3705941;13.75675869;22.75587691;20.40933457;19.53772077;1.582551259;26.33113348;42.02242714;5.637445372;6.105185507;-15.38380595
-27.003957;-25.76540719;-30.68617604;10.9050226;18.76997349;1.446982392;-12.86747023;8.382362769;39.91947955;15.80274422;30.0874038;30.07639729;21.41987337;1.009163285;34.00453652;40.54741042;1.863078724;6.00427527;-15.67428611
-23.3238314;-21.28746569;-26.72806883;14.47035196;17.96263214;1.552729376;-27.22202983;12.08776305;45.61394524;17.84211775;37.06325952;35.96928824;24.04296295;1.542404132;35.49211971;34.18592192;-2.94306246;6.146535325;-14.93752439
-19.21453925;-18.80078528;-22.95586814;15.96077677;17.54752734;1.664296177;-32.37971187;13.3360489;45.89340149;19.9615272;40.29920649;34.89044284;25.68315519;1.904666277;28.37185816;23.25844504;-8.798633875;6.278843737;-13.9178914
-14.7088273;-17.82318135;-19.18397087;14.41420493;17.77962617;1.760053711;-25.68154881;12.80807962;41.11105904;21.95947696;38.39392112;28.18538121;25.45633823;0.981320586;15.21773517;10.81478327;-14.33916672;6.22677336;-13.18163365
-9.614620404;-16.72671376;-14.47739813;10.92485974;18.18631676;1.812206394;-11.06045844;11.45073587;34.17930211;23.08155098;32.77514493;20.75451551;24.0091094;-1.081925143;2.345487007;0.955721467;-17.44295662;6.071275266;-12.61383111
-3.798326558;-13.88735876;-7.97869134;7.793420336;18.03524749;1.766332247;3.247912383;9.638372515;28.63418797;22.59628291;26.70654621;17.46218374;23.08833904;-2.886045321;-4.118578953;-3.586682745;-16.66352774;6.056923995;-11.44214203
2.44408794;-8.857504109;0.196912998;7.017560592;17.06978152;1.563466104;10.00296378;7.080140159;26.46;20.651103;23.15935919;19.75821107;24.21220528;-2.917301511;-2.077611027;-2.894231478;-12.36763222;6.329297418;-8.816683926
8.197865526;-2.794121828;8.596349364;9.164325873;15.81263357;1.19858969;7.643849068;3.427991968;27.12148469;18.44246459;23.01735361;25.03703532;27.36344054;-0.835853749;5.515879159;0.616436869;-6.629473379;6.768743413;-4.534874909
12.13140128;2.153087151;14.91873664;13.25147953;15.13296146;0.762484825;0.987344617;-1.042093963;28.35930656;17.34348317;24.80801627;28.99607935;30.71576052;2.221842544;13.0960935;4.092887217;-1.892730208;7.094494268;0.63127546
13.06058562;4.105940476;17.16537927;17.51165306;15.46393984;0.415965858;-2.642049444;-5.294842121;28.07544503;17.69297336;26.05331992;28.9431847;31.7317531;4.600617801;16.48045481;6.082774711;0.595598549;7.142696878;5.265991556
10.57978101;2.552388866;14.79;20.39472645;16.39917384;0.300521596;0.923565097;-8.045575027;25.92624669;18.40707344;25.20345429;25.48745678;28.95718667;5.492397599;15.49031455;7.042095869;1.38027791;7.037720118;8.080164525
5.363136072;-1.436961412;9.100313086;21.17795625;17.05728707;0.449240967;9.407011669;-8.480772487;23.52219807;17.90671578;22.7518226;21.58089772;23.23319655;5.485700054;13.44151872;8.393345464;2.001060969;7.067340223;8.589778065
-1.093921341;-5.986825774;2.570480542;19.96518709;16.88960732;0.770068359;15.65491757;-6.653015322;23.15323478;15.61809404;20.76461868;20.02956535;17.36970162;5.81319356;14.1585519;11.09596388;3.499846428;7.364320766;7.253037362
-7.173971994;-9.633067356;-2.573269795;17.2906236;16.18161075;1.117723683;12.95983218;-3.360800752;25.98388874;12.65957869;21.21605628;21.57382426;14.40407265;7.01291304;18.91877066;14.88326905;5.46373912;7.709810879;5.021596518
-11.85638376;-12.12764986;-5.597773664;13.70711059;15.77135422;1.396849501;0.216501874;0.254281343;30.99458104;10.95755822;24.36661829;24.81839021;15.62441734;8.284648042;25.56315639;18.59240007;6.360725592;7.686497529;2.678463845
-15.0025141;-14.28376328;-7.486153189;9.608667757;16.23666508;1.612126473;-16.91475346;3.044627917;35.39871755;11.45003906;28.36538905;27.60915259;19.74771875;8.202437664;30.20238888;21.08537088;4.849842912;7.080816808;0.457978918
-17.04134037;-17.0069022;-9.954948068;5.294031708;17.31133856;1.826339129;-29.70900804;4.010205775;36.25635881;12.97101064;30.36378925;28.43556537;23.81504029;6.165444967;30.00758002;21.91334945;0.969681646;6.16662548;-1.805457669
-18.31127581;-20.26152488;-13.9428653;1.118157857;18.09415437;2.06725185;-32.21476942;2.428778501;32.23078578;12.94723503;28.35476305;26.82430088;25.11752282;3.201520043;24.968828;21.2950327;-3.74944738;5.567361513;-4.173744742
-18.56759371;-22.79175344;-18.67178874;-2.428236356;17.88;2.268918633;-24.9749661;-1.86678071;24.38693654;9.497235378;22.46414913;22.87946194;22.75772161;1.237888805;17.53091487;19.66570683;-7.301979625;5.761897917;-6.193679297
-17.04866023;-22.87109883;-22.00250273;-4.779727352;16.84745516;2.303253062;-14.05166581;-8.161756203;15.58968645;3.222228029;14.84256855;16.87635427;17.81443503;1.342222165;10.69720407;17.35132228;-8.51617485;6.647715526;-6.950321563
-13.07321869;-19.57327785;-21.86016233;-5.465909018;15.94417257;2.078623516;-6.331485732;-14.82700187;8.947066276;-2.896280512;8.300308483;9.470166319;12.19221358;2.482849334;6.179252989;14.62743014;-7.662149425;7.570143113;-5.595502693
-6.721193683;-13.61281194;-17.68787684;-4.29921532;16.04371053;1.622611467;-4.785231371;-19.84049645;6.275317642;-5.560181505;4.66491272;2.132946154;7.192878954;2.058575559;3.831338419;11.92003906;-6.005080661;7.839797255;-1.983573677
0.941278175;-7.063475684;-10.844877;-1.482797909;17.13099691;1.077714663;-7.16066275;-21.71435218;7.439970679;-3.599601421;3.941994176;-3.037407215;2.908970183;-2.030123849;2.429921926;9.743209882;-4.793893358;7.318349131;3.065660394
8.305373454;-2.07592085;-3.661010625;2.421176775;18.27544242;0.611412746;-8.74627899;-20.2833691;10.8012167;1.145586427;4.707470298;-4.430505752;-1.263961813;-9.406220932;0.890070801;8.306224428;-4.518640413;6.557483273;8.113975238
14.03586354;0.506203492;2.113287036;6.651011068;18.4443752;0.312696961;-6.65475164;-16.80183165;14.31840804;5.202329807;5.280905123;-2.198046445;-5.638279788;-17.04717474;-1.050441694;7.188998288;-4.897585209;6.338614229;11.86946983
17.66913055;1.59673192;6.274486196;10.45150297;17.43631284;0.155714897;-2.053456189;-13.23142516;16.57544489;5.980796611;4.773728706;1.517624341;-9.704061523;-21.21715144;-2.96154116;5.547859144;-5.380413219;6.982617198;13.86759424
