Channel 1 - P4;Channel 2 - O2;Channel 3 - P8;Channel 4 - T8;Channel 5 - C4;Channel 6 - Cz;Channel 7 - Fz;Channel 8 - F4;Channel 9 - Fp2;Channel 10 - F8;Channel 11 - Fp1;Channel 12 - F7;Channel 13 - F3;Channel 14 - C3;Channel 15 - T7;Channel 16 - P7;Channel 17 - P3;Channel 18 - O1;Channel 19 - Pz
-0.645510624;13.27487877;-45.65759087;13.00316612;-115.440999;5.423221666;-131.9037552;2.587940517;-2.994464471;-7.411492575;-7.018996093;-25.54698221;-31.67266323;5.237252126;-13.69944148;-28.04613486;5.43237532;-119.1257347;2.608168343
-0.231709084;4.992563137;-64.56611604;2.13366746;-137.3662742;2.326387376;-159.3294791;-9.060950199;-11.72965983;-20.23392185;-27.18971492;-46.23524753;-40.63384292;1.297199274;-21.38430704;-37.72329915;2.359306676;-130.8689296;2.856037985
-1.949336213;-9.681849294;-61.76059049;-14.29330455;-98.01080097;-1.067370876;-120.3878654;-14.41816184;-13.96150837;-26.59373998;-37.90956342;-51.90347948;-34.598839;-2.816766724;-22.91990832;-34.3307972;-0.717914527;-86.66706498;1.191323148
-4.525352161;-23.5159384;-42.59794209;-29.81681946;-22.64483222;-2.886871658;-42.82145741;-13.20860803;-10.68570467;-25.64011063;-35.32162673;-41.69048054;-17.93403687;-4.37862621;-17.34515957;-19.97915822;-1.597609447;-14.13735711;-0.958936006
-6.660202789;-29.72908876;-21.30841841;-38.25616862;42.80493426;-2.426084709;24.79748471;-9.211800085;-5.86719732;-20.59376623;-23.2979645;-24.1159915;-1.147131961;-2.623457553;-8.062852929;-3.525852479;0.14556168;42.24202127;-2.212203814
-7.695625888;-26.30771823;-10.84885404;-37.44243294;64.04278937;-0.565158468;47.17817534;-6.976397479;-3.187055781;-16.12809158;-10.70217809;-10.78411198;6.546257967;0.77482545;-0.413434614;5.79972293;3.09877957;52.85829259;-1.938104
-7.692037161;-17.0705015;-14.55485725;-30.10372864;40.56538013;0.995370828;24.28370357;-8.366019037;-3.59577868;-15.07051035;-5.408275742;-8.535542604;3.201625358;3.023796892;1.944301227;4.644453811;5.234286358;22.45778446;-0.470015869
-7.03553356;-8.793105099;-25.39239043;-21.5247964;1.843365603;1.057914311;-13.9359769;-11.55708952;-5.338123982;-16.86081828;-9.283640335;-15.71077;-5.526347956;2.280711259;-0.839698615;-2.916753307;5.372913257;-16.83441011;1.213796505
-5.995278372;-6.498342066;-32.55877803;-15.92409903;-17.93730068;-0.228734477;-33.64786817;-13.02645429;-5.989318517;-18.66965321;-17.58803455;-24.73825983;-11.44449855;-1.094640377;-5.57769593;-9.282395503;3.800717549;-32.18299795;2.109901131
-4.57343079;-10.25007813;-29.78424375;-14.17320636;-5.969087286;-1.621797169;-22.42279826;-10.67822496;-4.545954642;-17.97773896;-22.9516866;-28.42235915;-10.03114175;-4.963793731;-8.820278219;-9.269564285;1.734021677;-14.62670229;1.762742182
-2.668575305;-15.5895137;-19.04007813;-14.17383677;22.16229313;-1.860132692;5.343674076;-5.491754145;-1.877712183;-14.44813793;-20.78876911;-24.87527666;-3.087765345;-7.056349052;-9.292750719;-3.452435406;0.24039046;17.26203711;0.493031545
-0.311864123;-17.06452722;-7.565224242;-13.1192461;38.29;-0.66238731;24.63440591;-0.463506379;0.541543708;-9.763428261;-12.17191605;-17.67907072;3.718215445;-6.508511735;-8.156865675;3.298386267;-0.460409847;35.6662141;-0.830833318
2.268864063;-12.14026972;-1.463028299;-9.671226942;25.94177644;1.130561085;22.14689413;2.078017336;2.227054981;-5.901857232;-2.361775128;-11.92992487;5.91298873;-4.172353537;-7.210210476;6.327825176;-0.846002101;27.18934999;-1.341195905
4.795798175;-2.694368963;-1.310450029;-4.550691667;-6.876611208;2.311770548;5.885605987;2.42043622;4.093780401;-3.525628125;3.455001589;-9.897191609;3.644754559;-1.627436197;-6.840901079;4.831022616;-1.386710904;2.27691214;-0.707290354
7.134121119;6.750219068;-2.882081596;0.463625463;-35.68709044;2.285317596;-4.642683164;3.05927214;7.395508092;-1.81980845;3.75547187;-9.803773191;0.992851913;0.168418384;-5.614363065;1.841479374;-1.996667112;-16.02204591;0.684845571
9.339145451;12.46555026;-1.597487899;3.951480776;-40.25780331;1.462960411;2.457789907;6.370118849;12.27514024;0.308711599;1.031377998;-8.240431529;2.186907064;1.480824469;-1.813188631;1.059636342;-2.116480959;-12.77651177;2.034384694
11.51120433;13.94939111;3.488555554;5.508547696;-20.2958863;0.814092639;20.27820902;12.39327731;17.31483884;2.952458991;-0.888860156;-3.678302368;8.097194834;3.26826744;4.526551754;3.523514106;-1.290930585;6.855152558;2.700589349
13.58434276;13.64371566;9.361939457;5.414413918;6.221213591;1.014253602;29.26415488;18.59137082;20.51339909;5.059256162;-0.025356586;2.067484605;15.76525927;6.094592899;11.00045815;6.914912612;0.325744171;23.86776558;2.627056842
15.22926164;14.42905733;12.12278061;3.978924638;19.31863339;1.927969905;14.81864543;21.73042926;20.81604402;5.478831577;2.641868279;5.494687146;21.00287172;9.461895498;14.3302095;7.802587628;2.002619928;23.11127219;2.287797639
15.96034391;17.05362139;10.39020512;1.317128941;13.36538738;2.820714321;-19.15889612;20.2849809;18.85443203;4.127542299;4.695472726;4.496815437;21.63160325;12.10820065;12.8137253;4.639070718;2.968369301;6.309748791;2.197999459
15.38881732;19.56166863;6.111081111;-2.343776352;-0.010436444;3.05160683;-52.37184785;15.42965131;16.29753935;2.127731315;4.749035572;0.106301352;18.72189223;12.97098862;7.71213349;-1.07614175;2.979907937;-10.62736424;2.399322018
13.46893211;19.08970797;2.448561717;-6.352998954;-3.747392344;2.614185829;-63.90521587;9.946823285;14.45155809;0.782368801;3.581421021;-4.495729969;15.14369134;11.98794001;2.399851601;-6.243951981;2.448465896;-12.63638554;2.377047015
10.58922411;14.48739157;0.975680261;-9.830809453;9.220477597;2.073703471;-48.37277035;6.097524476;13.3585973;0.358793131;3.069441251;-6.658800015;13.01222155;10.09760712;-0.066263463;-8.726012666;2.047044758;1.133148898;1.516941561
7.442889913;7.588982556;0.701471312;-12.28539564;30.32522389;2.003697664;-19.32170909;4.22041618;12.11765148;-0.15949705;4.090097656;-6.244637504;12.2877923;8.497678847;0.965475575;-8.761953621;2.155380818;17.38210815;-0.270695784
4.72014236;2.06378658;-0.492130305;-14.04455821;43.67636534;2.453394203;2.203821281;3.033913603;10.01185852;-2.097488357;5.417579367;-5.326071193;11.49157875;7.805709796;3.584358396;-8.238197973;2.598583037;21.39432707;-2.327432012
2.760781783;0.706407391;-3.652030892;-16.00056781;40.2637502;2.918852296;3.913227934;1.11510354;7.323260432;-5.781687311;4.640462283;-6.099833927;9.554287399;7.777838529;5.060663976;-8.773358412;2.851964769;10.4093012;-3.691847136
1.353107597;3.267717327;-7.927260541;-18.81738946;25.39185117;2.822403936;-9.865991484;-1.857133816;5.064562748;-10.12243295;0.257204408;-8.982641611;6.957531712;7.722647613;3.947516734;-10.47767607;2.493223272;-4.431843938;-3.901046978
-0.172754955;6.523561984;-11.72037403;-22.3072811;13.2515015;2.05454315;-24.10394771;-5.094712278;3.900914472;-13.50916578;-6.933525593;-12.51023722;5.183019742;7.177428988;0.839264441;-12.37657988;1.520145462;-8.851081331;-3.466716588
-2.551611036;6.56681656;-14.47127614;-25.58137234;14.0494902;1.091439394;-26.5769249;-7.711413371;3.301153961;-15.24180755;-14.36167527;-14.93826942;5.131553582;6.264334106;-2.656671767;-13.81264794;0.321156563;1.346348349;-3.544878635
-6.081525028;1.623084177;-17.20386299;-27.87711892;25.36219273;0.588429168;-17.24821195;-9.660039063;1.75475676;-16.2092175;-19.63003906;-15.95320278;6.082927988;5.488754017;-5.630557818;-15.26737256;-0.603399605;16.73256298;-4.977038724
-10.32940736;-6.684639351;-21.27823033;-29.31042487;35.13743409;0.811964898;-6.387115721;-11.70942205;-2.077630515;-18.17190242;-22.16445024;-16.92274563;6.187919469;5.237008384;-8.653149302;-17.73849578;-0.904066308;23.35070523;-7.461784768
-14.2847138;-14.50668879;-26.60870681;-30.82024604;33.16419562;1.406038834;-4.330159235;-14.57027583;-8.253322786;-22.23675411;-23.20863348;-19.52250195;4.039034666;5.443501823;-12.9438957;-21.33128784;-0.457470298;15.77261308;-9.597133115
-16.92465909;-18.44165338;-31.17829263;-33.28384117;20.41662005;1.690646066;-12.43549135;-18.08207252;-15.40797064;-27.82881965;-24.32920135;-24.04236429;-0.095999302;5.684476983;-18.74094122;-24.578696;0.697289167;2.018790352;-9.868355385
-17.84423812;-17.72689668;-32.47489741;-36.55264403;7.909609089;1.231912309;-22.77385689;-21.24915397;-21.65535512;-33.03400581;-25.88893061;-28.91111359;-4.446579946;5.551899922;-24.44224791;-25.36210359;2.397169119;-4.051019672;-7.858272972
-17.50569942;-14.41728801;-29.64305767;-39.28611796;6.343509634;0.203263849;-25.91184593;-23.04460906;-25.71101675;-35.99807541;-26.86576589;-31.84649014;-7.114524203;4.94012156;-27.4357362;-22.75739115;4.296321164;4.32955882;-4.700897073
-16.89514568;-11.58801306;-24.4060646;-39.80609777;16.11617555;-0.749874333;-19.27669208;-23.15557355;-27.31470657;-36.17826378;-26.07223274;-31.60592823;-7.431295942;4.012203345;-26.05081574;-18.13983209;5.817910618;20.58313218;-2.34566302
-16.80238818;-11.03417145;-19.85840725;-37.3197571;26.84402471;-1.007317975;-8.790155748;-21.94241505;-26.75480127;-34.42782947;-23.52021682;-28.84200279;-6.186574289;2.941670477;-21.03144056;-14.41164312;6.285186562;30.91275282;-2.142911332
-17.24268354;-12.18177212;-18.10440635;-32.52872629;26.85263576;-0.415037549;-2.939925366;-19.708617;-24.15366854;-31.95825183;-20.58076955;-25.40654025;-4.67718138;1.728456717;-15.24708321;-13.84045166;5.254686091;27.00081964;-3.83630454
-17.45726349;-12.87051333;-18.72957729;-27.14111101;14.02594285;0.667196319;-5.101350718;-16.10416168;-19.34421416;-29.20007813;-18.76541831;-22.79299988;-3.532515975;0.285835994;-11.76897021;-16.27127405;2.849956092;13.45447405;-5.761115302
-16.49758696;-11.21051943;-19.3482499;-22.69535826;-1.897065891;1.699028992;-10.96557924;-10.38247112;-12.49998026;-25.60666127;-18.2859226;-21.07188071;-2.349401613;-1.29679676;-11.76947067;-19.23903312;-0.185553049;3.143391475;-6.105916465
-13.94458314;-6.995313913;-17.6720195;-19.62760576;-7.830846721;2.35876554;-12.9201088;-2.373252091;-4.824757725;-20.52483353;-17.78477126;-19.14224054;-0.332573517;-2.605785531;-13.85409456;-19.9349105;-2.827712275;4.901572896;-4.255876955
-10.20857116;-1.664156668;-13.2998613;-17.25084003;0.863612946;2.686096452;-7.009087352;6.75620663;1.586641897;-14.25125974;-15.5458033;-15.94350473;2.782835214;-3.072149506;-15.29772801;-17.42502006;-4.317292178;15.2074443;-1.184035068
-6.197065573;2.953708026;-7.798922239;-14.53741656;15.93012578;2.90710788;3.804904141;14.80521462;4.891023204;-8.221327244;-11.10121544;-11.50524885;6.416469406;-2.369377773;-14.17435509;-13.32634093;-4.55161497;21.73790798;1.367086642
-2.653360751;5.951642049;-3.212478841;-10.99286286;23.30828994;3.157334518;12.62134026;19.8309957;4.814958926;-4.087817741;-5.754289913;-6.973370862;9.653310943;-0.72555099;-10.73629823;-10.46258712;-4.065021389;15.50904416;2.209657308
0.271681696;7.652003622;-0.452858428;-6.958385046;15.63112476;3.369816218;14.70909057;21.39602971;2.974838251;-2.490925064;-1.52583212;-3.715281251;11.98273277;1.120154452;-7.076474934;-10.69527008;-3.64153027;0.076793698;1.477365328
2.872844385;8.80478445;1.027799957;-3.257045992;-1.010742172;3.401586432;11.16128121;20.67904738;1.740198259;-2.639726042;0.49791098;-2.373950849;13.495821;2.308480043;-5.484826419;-13.72154343;-3.854824152;-11.2107451;0.288696563
5.342936176;9.540927248;2.183834624;-0.638412963;-12.27191025;3.234780927;7.16136231;19.31003906;2.409524019;-3.117785972;0.863897465;-2.66793911;14.37299058;2.320009766;-6.856638673;-17.69280968;-4.835867929;-7.760219347;-0.30723195
7.36185359;9.09528419;3.100700551;0.484098716;-8.339654565;3.030523088;6.926718847;17.93182024;4.147113673;-3.223867336;0.83648282;-3.975308611;14.25494338;1.188293095;-10.31823458;-20.91709493;-6.346724219;7.578390899;-0.161087889
8.242858107;6.56321971;2.76195219;-0.077120709;7.007256199;2.975791262;10.1323064;15.77164996;4.611228936;-3.656955336;0.764859668;-6.036984026;12.24917359;-0.637704778;-14.16156992;-23.06866707;-7.999835215;20.14613561;0.04257007
7.546547378;1.981908823;0.047496622;-2.443911035;19.33292111;3.078559307;12.83699242;11.62374609;1.851389131;-5.914590183;-0.606104548;-9.092625281;7.707809963;-2.619559587;-17.16420547;-24.9242373;-9.409689777;16.68950157;-0.403264341
5.613093883;-3.30983038;-5.038489085;-6.570132385;16.19369241;3.125263737;11.60443072;5.346500398;-4.024208428;-10.90694109;-5.035938444;-13.37647028;1.102385495;-4.383801858;-19.21946371;-27.06882517;-10.21570749;-1.692694491;-1.466422138
3.475742419;-7.479610967;-11.10850598;-11.94744745;-1.572117462;2.862137087;6.739222156;-1.54951933;-10.78571129;-17.9923015;-12.77226765;-18.53475723;-5.891497833;-5.770159421;-20.93574113;-28.95124231;-10.09637152;-19.25675464;-2.372336738
2.127441541;-9.594923916;-16.36747374;-17.51294649;-20.12336416;2.24425864;1.739615433;-6.882163181;-15.72982786;-25.28650238;-21.5354885;-23.5893289;-11.349618;-6.744089522;-22.77430873;-29.28667529;-8.911051068;-19.26282171;-2.351778417
1.700019531;-10.44472728;-19.94119189;-22.04512372;-24.63738975;1.519906164;-0.184147453;-9.576615733;-17.75440241;-30.99651367;-27.73077233;-27.53415246;-14.40094799;-7.333497847;-24.59519267;-27.47988004;-6.933614661;0.162162305;-1.438569302
1.265241479;-12.02296036;-22.38287431;-24.86446214;-12.72076988;1.057137969;0.991147707;-10.65433916;-18.20209916;-34.64443448;-29.16668564;-30.03798449;-15.79132498;-7.659536071;-25.97781053;-24.70160032;-4.955293381;22.59271742;-0.563483142
-0.488326797;-15.96976972;-24.97631228;-26.27881872;2.788027853;1.049169197;2.47998424;-12.42735029;-19.77824323;-37.15373391;-27.04480183;-31.60989356;-17.18229942;-7.977643164;-26.89587147;-23.45692954;-4.043895239;26.46225546;-0.819638773
-4.162585756;-22.13818503;-28.54829077;-27.33622056;4.626707857;1.347040919;1.71992737;-16.44288318;-24.3701695;-39.76455592;-25.33860326;-33.06268637;-19.72029221;-8.599660051;-27.98724208;-25.78303366;-4.992746284;3.939247301;-2.521578949
-8.986189403;-28.41760383;-32.87308109;-29.01126106;-13.4689575;1.561712697;-1.088142805;-21.90671682;-31.45414784;-42.75354814;-27.76397284;-34.73806794;-23.06441959;-9.686872541;-30.06145029;-31.47338688;-7.786818517;-31.38926995;-4.880009766
-13.13990683;-32.01309467;-37.09985002;-31.46109766;-40.19086008;1.348924737;-3.417069687;-26.04646428;-38.30052787;-45.08051939;-34.65734086;-36.17120649;-25.72031189;-11.07016912;-33.24315967;-37.83435059;-11.48911353;-55.90745675;-6.588819877
-14.88187293;-31.28016146;-40.63496402;-33.96048541;-55.11923102;0.641492503;-3.233591399;-26.297935;-41.78900594;-45.25737341;-42.3685606;-36.49166867;-26.45031179;-12.28925393;-36.55684106;-41.31147248;-14.70010679;-57.47709384;-6.831949229
-13.66234774;-26.80110144;-43.53582455;-35.55274413;-45.42982397;-0.34879845;-1.197017918;-22.60434643;-40.45026477;-42.66935538;-45.86106142;-35.22764334;-25.60822125;-12.88468283;-38.42908239;-39.83839946;-16.33159095;-48.19096603;-5.856545425
-10.42240404;-20.96173957;-46.05153542;-35.83208788;-16.63605703;-1.333328649;0.114326398;-17.88256676;-35.27023688;-38.20046741;-42.59275262;-32.84386876;-25.24982107;-12.74809243;-37.79208003;-34.18060726;-16.18275158;-55.85489064;-4.637104799
-6.895377093;-16.379744;-47.87085716;-35.16509756;12.01644854;-2.160536775;-0.790453583;-16.10139066;-28.81500859;-33.63285748;-34.60564364;-30.56580497;-27.80668402;-12.24541415;-34.90791512;-27.32386628;-14.92611272;-99.65117164;-3.940229883
-4.471492015;-14.3131228;-47.97310343;-34.17536255;23.70178415;-2.862800621;-2.276111853;-19.33605472;-23.48810167;-30.34466576;-27.09787214;-29.60906115;-34.23224757;-11.97851527;-31.20819071;-22.43491656;-13.53108332;-169.868706;-3.6080914
-3.462179003;-14.09792081;-45.37656505;-32.99716094;17.74795364;-3.524938212;-0.994848792;-26.04293318;-20.24169877;-28.40341923;-24.54470724;-30.37079619;-42.9586136;-12.33700643;-28.23616127;-20.91546612;-12.55876267;-229.6862844;-2.679054808
-3.221623592;-13.86438833;-40.12808705;-31.03;8.89655628;-4.123959746;4.164689157;-31.90503138;-18.52549029;-26.76956425;-27.40126756;-32.1293631;-50.4357135;-13.17842601;-26.52894613;-21.85546267;-11.84267158;-239.5879262;-0.241481458
-2.890283195;-11.90736681;-33.53138938;-27.47707215;12.67414151;-4.500384849;9.395788908;-32.64285137;-17.21564126;-24.35296974;-31.94316293;-33.4085307;-52.93043982;-13.89541268;-25.34358358;-23.04433028;-10.76489161;-186.2447585;3.700487896
-2.088534375;-7.755970956;-27.2614562;-22.21871147;29.95737888;-4.483134861;7.779969754;-26.72724182;-15.59582728;-20.96243403;-33.27670163;-32.73362457;-48.46176385;-13.83333288;-23.43653448;-22.58789691;-8.882047728;-93.33154201;8.064472309
-1.031563429;-2.337649901;-22.07977042;-16.22246105;45.01854253;-4.040226574;-5.082676738;-16.09688741;-13.63289255;-17.34516986;-29.05314123;-29.33545994;-37.7577836;-12.74446793;-20.219447;-19.92892402;-6.398259805;-5.66834329;11.34840657
-0.087510817;2.700797979;-17.3272746;-11.05129073;39.69480793;-3.307047428;-26.11569986;-4.568944157;-11.53653928;-14.35408222;-20.97385471;-23.48125184;-23.82023944;-10.93129092;-16.28178914;-15.73283824;-4.111938157;41.03012777;12.56805496
0.731832005;5.97329687;-11.73305265;-7.808927408;11.63747831;-2.466699916;-45.13930487;4.675176834;-9.216216621;-12.04685964;-13.07336579;-16.35414777;-10.50260916;-8.973072328;-12.79551104;-11.0226737;-2.871318542;41.72197503;11.75995182
1.856501136;7.055229583;-4.871749184;-6.37034178;-20.14156022;-1.601411933;-51.17781665;10.65437533;-6.240078125;-9.551507268;-8.383476112;-9.584812319;-0.925406874;-7.256498326;-10.28769393;-6.38778231;-2.946245716;19.6714656;9.753628963
3.753023256;6.612937082;2.06246674;-5.535317334;-29.14126494;-0.661352046;-40.27111999;14.29774959;-2.343829834;-5.831448761;-6.758317579;-4.619394925;3.561019681;-5.683779348;-7.879058308;-1.819617061;-3.786345258;4.368638614;7.518870802
6.414563844;6.001907398;6.964073434;-3.984894422;-4.466344686;0.418190916;-18.68536878;16.91493109;2.024675531;-0.685615539;-5.497061121;-2.147183439;3.562954674;-3.791996078;-3.794195296;2.887049517;-4.354231451;8.808617523;5.65713861
9.220891663;6.565383972;8.497773347;-1.265312712;36.33531732;1.567942581;1.240804414;18.8642639;5.704616214;4.882963277;-2.008234309;-1.830715777;1.067023382;-1.197320674;3.068335374;7.634416169;-3.813601954;23.70381951;4.353423923
11.30960483;8.924974775;7.322290031;1.97079697;57.15933793;2.559103071;9.611456632;19.43093948;7.476867823;9.252080647;3.8422956;-2.514183794;-1.577370817;1.97359198;11.67070657;11.83240245;-2.110149194;30.7036916;3.629583124
12.15533859;12.56038955;5.74195528;4.590483978;30.05568247;3.145741896;5.387106232;17.77084175;6.906745067;11.24350951;9.604709552;-2.872907841;-2.694930039;4.996701676;18.73708046;14.58916943;-0.064972379;20.98722548;3.504553083
11.88408032;15.922447;5.989968879;5.880714972;-41.84647937;3.260838547;-4.03942562;13.92650752;4.713647554;10.82197614;12.26070328;-2.184867542;-1.916820773;6.889383879;20.37096924;15.08360084;1.071894694;2.719177065;3.864588438
11.08481275;17.13216613;8.526599921;5.952117872;-124.1586065;3.091803935;-9.35989385;9.02360816;2.351721969;8.931643723;10.55059724;-0.763096605;-0.125142912;6.954727168;14.45576339;12.90293995;0.321124065;-7.825811914;4.240261385
10.29888173;14.98806544;11.7404071;5.363344512;-175.2510907;2.958915613;-6.507841247;4.57800214;1.080167022;6.69355633;5.705445699;0.249187459;1.256118538;5.176915105;2.220024414;8.251523354;-2.492857494;-1.943950267;3.856003421
9.608310855;9.720058594;13.26262582;4.384450336;-176.4010987;3.089969297;1.127154561;1.587667906;1.17490928;4.662181668;0.196597418;-0.38835568;1.210358057;2.228027639;-12.18137999;2.004337178;-6.662492351;13.72964365;2.073719646
8.624166595;2.961798706;11.77058109;2.616796517;-144.4957733;3.474739931;6.651377534;0.139595483;1.815182163;2.698957744;-4.198756422;-3.226969841;-0.276034371;-0.89028448;-23.8902606;-4.453738645;-10.97346403;23.92218264;-1.076257754
6.829028089;-3.143175625;7.813173684;-0.657237705;-117.1592545;3.912748076;5.946286928;-0.300048218;1.687225134;0.443198719;-7.320768898;-7.800019531;-2.352013891;-3.32727829;-29.95189398;-9.661335871;-14.29;19.01751759;-4.765469142
3.963366689;-7.179741231;3.09912371;-5.684861582;-122.0236496;4.200315554;0.872479134;-0.330705792;-0.13823109;-2.128271979;-9.957594068;-12.92824154;-4.038476223;-4.705238773;-30.63445873;-12.69184488;-16.02578381;3.591530945;-7.846614252
0.169789992;-9.215938091;-0.988634928;-11.70315443;-154.5207705;4.287117584;-2.988335557;-0.31097976;-3.642272684;-4.563371341;-12.50536053;-17.39259154;-4.982210431;-5.144381233;-28.70571229;-13.62597285;-16.28624034;-8.297983465;-9.625696659
-4.141124771;-10.53484266;-4.313386613;-17.14317523;-181.7369783;4.269216625;-1.645706805;-0.432719989;-7.936953244;-6.298077903;-14.38732708;-20.50169027;-5.642061914;-5.05194004;-27.31847189;-13.51968753;-15.6705416;-6.230770002;-10.31442375
-8.511223847;-12.53514698;-7.62668624;-20.47071952;-169.0395566;4.238184921;3.769567286;-0.901318383;-11.87149916;-7.150324742;-14.78282968;-22.2460927;-6.791774029;-4.857533351;-28.03473923;-13.77141028;-14.89199624;7.283766974;-10.77349108
-12.53636654;-15.6194446;-11.42059823;-21.06261407;-108.1667899;4.135668907;8.24;-1.922496154;-14.72801303;-7.492592295;-13.85289454;-23.08758353;-8.794214791;-4.856906289;-30.26772982;-15.23421714;-14.43242377;19.59955207;-11.7351849
-15.82232821;-18.90445853;-15.15370665;-19.51675962;-24.67961253;3.754866507;7.528496886;-3.516806634;-16.55966937;-7.969399072;-13.11742618;-23.65757977;-11.28807235;-5.207651354;-32.2931652;-17.67127126;-14.38346955;19.77191824;-13.13501372
-17.94029153;-20.95017885;-17.58857369;-17.23964221;40.57934356;2.895678937;2.003349248;-5.453529987;-17.99763831;-9.029473044;-14.43995132;-24.57106251;-13.55762052;-6.002349364;-32.85829682;-19.95666105;-14.50392627;8.303267273;-14.10058831
-18.52329572;-20.90945984;-17.8975387;-15.65401443;60.87957152;1.541977303;-3.748379979;-7.492957337;-19.71035372;-10.6769764;-18.44652169;-26.33089598;-15.24012437;-7.307705322;-32.12095412;-20.8866557;-14.41398862;-3.995646484;-13.60495354
-17.47963115;-19.18527;-16.47687332;-15.54636589;40.90706104;-0.089928531;-5.080199284;-9.746619308;-21.91029912;-12.62310015;-23.83982154;-29.17633037;-16.70635483;-9.115737982;-31.32473149;-20.00745289;-13.80650586;-6.524853024;-11.25153251
-15.1451538;-17.10238633;-14.69918935;-16.86739392;9.636222112;-1.669930195;-1.46590549;-12.72955137;-24.24349601;-14.66177387;-28.33675569;-32.85281758;-18.72564618;-11.25094481;-31.65634859;-17.86572676;-12.58427623;1.286763022;-7.573166172
-12.21089746;-15.90179912;-13.82639399;-18.95057771;-3.851027657;-2.937772003;3.016675959;-16.8938328;-26.11211958;-16.91270774;-30.49475987;-36.50166281;-21.67282915;-13.33720489;-33.30074766;-15.55157505;-10.8934222;9.9760244;-3.652481505
-9.436289762;-15.88484361;-14.06290717;-20.90775426;8.444583577;-3.805400308;3.350249569;-21.94927015;-27.16303783;-19.70216777;-30.83268074;-38.90929337;-24.98143579;-14.90120398;-35.41058299;-13.94290525;-9.070039063;9.577352932;-0.422821525
-7.330845989;-16.35431298;-14.56347154;-21.98178636;31.21593558;-4.31627049;-1.772608727;-26.59875632;-27.54744798;-23.15465475;-31.21222578;-39.10286866;-27.38011852;-15.58938156;-36.867371;-13.23298192;-7.530307253;-0.52277546;1.782947724
-6.002957768;-16.30281888;-14.30816073;-21.76180654;42.13857381;-4.529531784;-8.355524249;-29.07273612;-27.72473392;-26.79752897;-32.96794028;-36.9296732;-27.78457724;-15.37267503;-37.07306605;-13.01558142;-6.628103442;-10.81383356;3.151112414
-5.229071867;-15.19583925;-12.97950749;-20.24530418;31.53691317;-4.45248458;-10.05039317;-28.18464087;-27.94402582;-29.4817075;-35.41680167;-33.15937108;-26.1234594;-14.58835838;-36.09205861;-12.71900803;-6.508868022;-10.73483279;3.973796505
-4.633352944;-13.19400023;-11.03984095;-17.7428535;9.116442391;-4.080709762;-3.369105354;-24.12038963;-27.82504624;-29.72886064;-36.11037076;-28.95969711;-23.38484476;-13.75464706;-34.13742782;-11.95411335;-7.011996062;0.987009551;4.348340873
-3.833372184;-10.72186764;-9.021481522;-14.65163814;-6.32202182;-3.488647058;8.998838255;-18.31102423;-26.43315311;-26.3762567;-32.71519411;-25.09905449;-20.80237787;-13.24565915;-31.02569793;-10.53854279;-7.690550299;14.60489056;4.243705426
-2.510501382;-7.891067592;-6.815599098;-11.21546346;-3.778582288;-2.857518813;19.42347246;-12.45592532;-22.88289926;-19.23190253;-24.99198212;-21.48932111;-18.83277442;-13.02835546;-26.23577631;-8.341859235;-7.985461068;18.09623958;3.780253985
-0.475387485;-4.383258272;-3.738246558;-7.454560354;11.3862094;-2.385893109;20.25635124;-7.466551472;-17.06584586;-9.42101024;-15.21989096;-17.43708026;-16.7801402;-12.64797941;-19.5929701;-5.266917645;-7.504159504;8.380127499;3.349576921
2.210594915;0.077284283;0.626175001;-3.362740997;23.74843359;-2.1457729;8.857245014;-3.168468938;-9.939153922;0.803135875;-6.692511971;-12.39494793;-13.40670131;-11.49745387;-11.92621198;-1.476146869;-6.260178053;-5.496707285;3.376945842
5.120195371;5.127288042;5.609240039;0.759063122;22.22452467;-2.012352564;-10.73505407;1.047541212;-3.100404789;8.806253779;-1.502007554;-6.582476783;-8.055359123;-9.214247782;-4.956873176;2.385174126;-4.711172411;-10.39747842;3.918915938
7.507538035;9.666661974;9.532374472;4.14416705;9.39093164;-1.744019664;-30.34052526;5.246635855;2.079927252;12.62323497;0.619077799;-0.954844745;-1.377629986;-5.951873168;-0.305639509;5.327144674;-3.532239149;-1.104688682;4.501668762
8.604484276;12.44615652;10.76029278;5.810331745;-2.034319846;-1.162926047;-42.32674064;8.536781919;5.126891061;11.82536436;1.552803799;3.442746531;4.926479957;-2.349170018;1.668591632;6.574351788;-3.234139352;14.81352942;4.418629656
8.044062622;12.89362524;8.919649774;5.121964221;-1.492990237;-0.296398245;-43.3099239;9.60981411;6.424212852;7.708260527;2.88607544;6.170615301;9.154797567;0.778826989;2.200179459;6.152645548;-3.862586132;23.93615229;3.280645832
6.122960005;11.48223498;5.261541035;2.253242483;9.872236334;0.634265783;-34.93836286;7.787127969;6.534995108;2.613560791;4.478348096;7.548385791;10.61784379;2.82303402;3.199167133;4.95927399;-4.986590485;19.42238897;1.348736294
3.670888681;9.317943477;1.838364272;-1.844046024;20.83478666;1.369856492;-22.03439336;3.682120424;5.492714979;-1.29299092;4.660518678;8.173059548;9.86833132;3.59980859;5.686580121;4.137076798;-5.997275878;7.351492434;-0.659400313
1.568612244;7.295338695;0.147573546;-5.977618492;20.83046771;1.792876942;-9.82323437;-1.074525835;2.729302949;-3.080358857;1.8195042;8.282787941;8.057950827;3.310029297;8.807055318;4.185328925;-6.516193842;0.853626987;-2.14104086
0.238556799;5.539217177;0.305798719;-9.326801521;9.698818323;1.996671571;-1.888887335;-4.805265178;-2.222401852;-3.297512604;-3.985712159;7.577095142;6.030039063;2.332473868;10.29907793;4.549751291;-6.621618859;7.331835342;-3.06857012
-0.523970668;3.580589059;1.319346267;-11.62554086;-2.389728956;2.202750705;0.56927154;-6.659278361;-8.814987941;-3.279834305;-10.67675;5.664852092;3.907682375;1.040330395;8.198606666;4.107076515;-6.725090385;20.8666245;-3.939665603
-1.265931309;1.04931447;2.08259989;-12.81901014;-4.446474735;2.600954966;-1.47624176;-6.754711872;-15.20066841;-4.042359586;-15.31060214;2.702748684;1.446800452;-0.241228306;2.538826046;2.213412177;-7.19012474;27.45842583;-5.270472043
-2.383247609;-1.798390009;2.193512687;-12.63638901;5.280644506;3.232480403;-5.552988663;-5.640325651;-18.98714912;-5.574278601;-15.83910113;-0.424273628;-1.260382414;-1.180294429;-4.288630018;-0.552956199;-7.988399244;18.78392232;-7.091919399
-3.827252491;-4.239235601;1.959200773;-10.66332224;17.83952726;3.984596533;-8.653809232;-3.696860886;-18.62618489;-7.029001056;-12.25946259;-2.62938781;-3.438868237;-1.432174204;-8.903876504;-2.651960572;-8.673580765;1.583632085;-8.902400286
-5.241812886;-5.805948223;1.751699129;-7.02726083;21.81145278;4.673818711;-8.472649843;-1.046336782;-14.46599658;-7.60020629;-6.540751845;-3.443320787;-4.013455569;-0.774797235;-9.14844504;-2.744180968;-8.717788929;-7.008316062;-10.11263804
-6.386616484;-6.90149551;1.423827721;-3.097982655;13.56889703;5.141142009;-4.573567232;2.046954629;-8.677056248;-7.334521689;-1.58837912;-3.395948779;-2.437805256;0.683887559;-5.5909671;-0.868497074;-7.970936178;4.83993677;-10.56876272
-7.446380187;-8.679061487;0.345466142;-1.337469245;0.241894053;5.301387599;1.219031277;4.831927511;-4.059850755;-7.192324053;0.044357302;-3.572439114;0.723350695;2.41647252;-1.260596902;1.35003418;-6.887050455;30.90747028;-10.66740998
-8.914375656;-12.18069011;-2.017255984;-3.986616481;-7.074141386;5.144139835;5.751972864;6.28866628;-2.536790912;-8.28777307;-2.858886967;-4.679778504;3.97680519;3.649341685;0.222851526;1.73013305;-6.312364885;49.80196833;-10.94985751
-11.10679355;-17.38315086;-5.548702532;-11.30510285;-3.415520402;4.717407196;6.511212602;5.835380271;-4.29971641;-10.9165434;-9.686855874;-6.420019531;5.761966087;3.749902343;-3.126349596;-0.908489184;-6.945362659;42.8006281;-11.54258462
-13.70557035;-22.92203136;-9.436812613;-20.7191715;5.947018184;4.113307383;3.440384628;3.897615612;-8.031059331;-14.1614667;-18.04340542;-7.731580881;5.375437568;2.591141465;-10.49349178;-5.819778234;-8.829001322;11.86747812;-11.96165405
-15.74858715;-26.74712471;-12.60102894;-27.81464034;10.98535891;3.446210795;-0.734705989;1.744266548;-11.83014492;-16.40655959;-24.43015925;-7.709506898;3.312166391;0.638377304;-18.7780308;-10.7408276;-11.23338163;-18.87973441;-11.4794494
-16.155688;-27.24584279;-14.17123546;-28.81030906;6.643685692;2.810815139;-2.141715043;0.624918832;-14.09859775;-16.37196169;-25.6042086;-6.403190748;0.840540703;-1.313985527;-24.30811402;-13.33500247;-13.02969497;-21.86276958;-9.751303817
-14.45533339;-24.05177153;-13.68522169;-22.93025452;-2.385017646;2.237825255;1.547091914;0.904852815;-13.91159742;-13.89430471;-20.21447127;-4.769784265;-0.80687972;-2.578947675;-24.63966178;-12.61118509;-13.32508232;9.224218429;-7.167231626
-11.19722393;-18.06448522;-11.07851246;-12.98144359;-6.33404748;1.690502271;9.134199044;1.953281394;-10.98176261;-9.917778924;-9.818394527;-3.789413192;-1.027362452;-2.891069702;-19.49439874;-9.335620045;-11.95519329;49.72229062;-4.635432216
-7.743194316;-10.83513931;-6.765998481;-3.636855147;-0.06647596;1.125328942;16.06546867;2.894967558;-5.627914252;-5.799541336;1.593003507;-3.501363657;0.110041809;-2.408839308;-10.58250468;-5.261911281;-9.531787697;59.59199369;-2.995280813
-5.560474335;-3.873162755;-1.883252296;1.429527206;11.46605378;0.579909328;16.8424569;3.542155413;1.074635996;-2.523753929;9.604809621;-2.834365366;2.228180742;-1.459921711;-0.691139022;-1.878887509;-7.038447511;13.87914956;-2.554009282
-5.471155509;1.689719662;1.671809114;1.577822652;17.47417374;0.206778089;8.308012997;4.615108553;7.26405461;-0.378005513;11.81474072;-0.456711493;4.974887039;-0.268070565;7.383072947;0.363438953;-5.251841576;-75.75327638;-3.087209929
-7.3088774;5.086339887;1.834923621;-0.92752439;11.67693227;0.197609044;-8.178504325;6.97211345;10.83600382;0.830526666;9.070864387;3.999291324;8.012644029;1.120277447;11.67284168;1.886903356;-4.354003147;-166.6080943;-4.201217746
-10.13144859;5.870893232;-2.457197805;-2.928101209;-0.864843499;0.632391132;-27.03533546;10.49655182;10.57316055;1.394118412;4.595980483;9.339625204;10.74952096;2.689582768;11.53100102;3.203057375;-3.951547038;-214.8007775;-5.647626827
-12.78102122;4.066659257;-10.28189521;-2.647119488;-7.237314115;1.369400274;-41.13048835;13.69958639;7.180115929;1.567023641;1.618691591;13.37163216;12.20507907;4.269609676;7.753826905;4.269944901;-3.446617406;-206.8165137;-7.289874077
-14.4197809;0.372493653;-18.83656725;-0.579842126;2.022789721;2.084298933;-45.35846746;14.57415355;3.291253455;1.715614682;1.291675516;14.25734534;11.3460935;5.523218883;2.288929236;4.513557811;-2.492882585;-168.0965352;-8.826993733
-14.76876811;-3.906757703;-24.84411844;1.442485798;23.77042519;2.45988899;-39.13697547;12.17212558;2.097621319;2.433928432;2.453083257;11.68596281;7.829715006;6.158648864;-2.478619071;3.418669084;-1.242439875;-141.6703675;-9.670373813
-14.01480825;-7.352690308;-26.39410599;2.033056816;43.82151408;2.401253205;-26.46393663;7.668671593;5.308526176;4.3146975;3.27703178;7.064488811;2.668289604;6.203889338;-4.664019523;1.129670957;-0.244082284;-153.46013;-9.241496082
-12.53834207;-9.086341579;-23.85880091;1.38271374;48.49446722;2.11249126;-13.55901106;3.96370494;11.85896775;7.454119561;3.285395054;2.683053722;-1.76828777;6.100455977;-3.625665268;-1.449934837;-0.079496691;-191.4916859;-7.514975243
-10.65483788;-9.104327496;-19.1577517;0.966639125;36.26379988;1.964151087;-5.472312516;3.966164986;18.42174716;11.14297757;3.903789256;0.514202307;-2.64823247;6.498869612;-0.104371402;-3.117993708;-0.981179609;-215.3048678;-5.299998878
-8.488224534;-8.044308986;-13.98410731;2.275094443;19.08730138;2.238692803;-3.607751084;8.740491243;21.52840831;14.15097155;7.034343428;1.420118905;1.883710231;7.868125113;4.326858538;-3.017901817;-2.676887931;-188.105039;-3.88839902
-5.999133245;-6.605533083;-8.518345178;5.712835561;11.79915449;2.93866058;-5.540078125;16.8278742;19.87360301;15.5244211;12.91032899;5.076730853;11.51784792;10.18;8.155711424;-1.018723072;-4.558337924;-106.5362921;-4.22795371
-3.129199584;-5.135270301;-1.776625451;10.47453828;18.61431897;3.796822341;-7.107930988;25.18117845;15.16253383;15.30708483;19.22847677;10.36122745;23.59964372;12.87932692;10.61218406;2.334434836;-6.067813968;-5.168738822;-6.243604455
0.011895979;-3.699603957;6.697079832;15.26156942;28.75315705;4.472957282;-5.364353016;30.97745508;10.88840681;14.55127982;22.53015527;15.77215434;34.18806261;15.14849224;11.77391726;6.130844129;-7.056880041;67.32197926;-8.882847019
3.017330179;-2.462097553;15.36744848;19.05022646;25.51271294;4.781923986;-0.450050049;33.01787501;9.935631133;14.51688183;20.84923286;19.71288955;39.85974314;16.28172155;12.16143458;9.396182299;-7.881958024;81.74915796;-10.8959909
5.214646595;-1.879947861;20.99357536;21.28421181;1.24658639;4.78369697;4.801735469;31.87434643;12.73428667;15.64424128;15.44247671;20.79797051;39.29594311;15.94343894;12.2154626;11.27254572;-9.161742545;46.72379684;-11.74369069
5.896613465;-2.421566254;20.73417908;21.57561864;-34.90601472;4.68507385;7.160787368;28.95838141;17.21355378;17.13514923;10.05674202;18.3438964;33.77936814;14.20556091;12.03071838;11.15465181;-11.33853083;-0.625027754;-11.89836934
4.66315497;-4.043871336;14.48159997;19.506476;-63.84229014;4.652909976;5.502251915;25.42374922;20.42286567;17.52813409;8.189781412;12.87098022;26.34711514;11.42309624;11.42750707;8.873986379;-14.32263993;-22.66682082;-12.30729747
1.676805131;-6.009548298;5.428790806;14.93312825;-72.58738468;4.696957287;1.67990484;21.73212822;20.50682498;15.84854506;10.4943232;6.155666698;20.12435058;8.082524949;10.16522645;4.863678184;-17.45918169;-6.265995872;-13.49618632
-2.351799222;-7.384035733;-1.820884818;8.535800046;-65.92347983;4.705485739;-0.875346716;17.99237602;17.62238506;12.41891756;14.40773358;0.523452966;16.81736959;4.705330167;8.074362189;0.110668118;-19.85336212;32.57584865;-15.09562116
-6.468528567;-7.891561806;-4.293129822;1.932366481;-63.08041065;4.580452181;0.216528418;14.51;13.35459088;8.66481231;16.29011292;-2.361646328;16.18952544;1.787429423;5.074698025;-4.210402887;-20.85258703;64.95785668;-16.19437882
-9.883698898;-8.344787204;-2.508699641;-3.028434572;-81.53966968;4.339871099;4.428130763;11.91414959;9.36212801;6.060917246;14.32127637;-2.442653902;16.68930773;-0.286540228;1.216875287;-7.266786596;-20.37494183;71.48445779;-16.18722497
-12.2142718;-10.10278072;0.274696479;-5.394328014;-121.2274091;4.096350222;8.699541243;10.74065054;6.421448173;5.067095809;9.836676993;-1.2289604;16.68624715;-1.360480331;-3.161994288;-8.913014433;-18.87730073;53.76540851;-15.33882218
-13.41891961;-13.84233825;0.81254629;-5.733637634;-162.5713454;3.938985114;9.834872838;10.91888963;4.483041059;4.913745261;6.121158955;-0.714711795;15.46803015;-1.577077298;-7.287515537;-9.589595687;-17.00588036;28.64134475;-14.53333356
-13.53277105;-18.63983691;-1.592128992;-5.630279722;-180.6249713;3.833527327;7.140460318;11.70705961;3.389993829;4.394779338;5.764035776;-1.992909696;13.43374032;-1.307742037;-10.04723358;-9.843000643;-15.18982032;12.64506581;-14.41369399
-12.47165935;-22.25889302;-4.739205026;-6.355193734;-164.0832186;3.637290804;3.251707176;12.19525233;3.398305698;2.993506509;8.757136808;-4.564239505;11.53955606;-0.938944672;-10.44459421;-9.842226547;-13.46374413;10.20468845;-14.68740572
-10.10495367;-22.60091518;-5.500058594;-7.776232444;-123.804671;3.220773446;2.369395762;11.96342426;4.964478094;1.392585619;12.75178635;-6.824886334;10.54340735;-0.636543229;-8.18934101;-9.279288363;-11.61913818;13.76458248;-14.26590272
-6.540196051;-19.25150603;-2.362532729;-8.440236679;-84.01494294;2.591796568;7.038618276;11.33604164;8.048789907;0.930705471;15.0341933;-7.319000286;10.61541313;-0.255099115;-3.997378154;-7.729611694;-9.529805452;13.24622687;-12.18542997
-2.341025272;-13.85807789;3.543869159;-6.801469913;-63.53849057;1.913884748;15.75448104;11.03126415;11.67432664;2.441922905;14.45850377;-5.779236312;11.47714458;0.529512673;0.689298049;-5.166067054;-7.371377011;5.407878505;-8.54763619
1.581990306;-8.959996406;9.635463966;-2.586910762;-62.35683095;1.399892494;23.21305661;11.52159805;14.25387473;5.430777485;11.85191961;-3.197985269;12.77792132;1.94875023;4.43861346;-2.187797132;-5.555551416;-4.49213554;-4.647997296
4.40447716;-6.172123975;14.06788176;2.855414257;-64.01395992;1.165687263;23.25526906;12.64241095;14.49728815;8.278759534;8.886392032;-0.971463646;14.29060709;3.924102054;6.542192825;0.24536979;-4.442325;-8.682336289;-2.116200087
5.848339696;-5.201865846;16.97215809;7.534554377;-51.10909431;1.159115596;12.71019094;13.73600398;12.1966924;9.36122454;6.69032709;0.129371961;15.78244199;6.060278133;7.240215769;1.382146102;-4.07867646;-4.191960132;-1.72863264
6.306843821;-4.508219134;19.75215548;10.31219141;-20.55282206;1.214655865;-6.307262339;14.15474971;8.304084205;8.237500022;5.442726689;0.349013323;16.80109761;7.850175597;7.364386119;1.122210795;-4.18732527;4.826760833;-2.853749924
6.512938947;-3.008064182;23.24980583;11.67536162;13.9292806;1.182897794;-27.13688389;13.68444257;4.31774863;6.02053082;5.021338108;0.481013029;16.73360865;8.940401796;7.724819765;0.011121318;-4.415260644;10.85627361;-3.988635348
6.989144485;-1.294818098;26.57341884;13.16949797;33.47039821;1.031101379;-41.95388165;12.58780445;1.512935508;4.657206813;5.685852598;1.037783637;15.22290873;9.273778401;8.684710874;-1.178155364;-4.62824244;8.736257365;-3.954826607
7.69811645;-1.210031738;27.7218037;16.00689808;29.58102019;0.844763466;-45.79801394;11.33369684;0.547886401;5.650764602;7.843115402;1.785191525;12.61590102;9.031811153;10.12084736;-1.939778764;-4.994142723;-1.559705298;-2.789299095
8.155342202;-4.038042981;25.4550888;20.03065603;10.54534455;0.744344948;-38.93300463;10.31605407;1.528214706;9.124730049;11.06594302;1.984832454;9.974234146;8.454379258;11.62291814;-2.250542314;-5.77488603;-16.49621649;-1.63312898
7.892138198;-8.873425218;20.68785976;23.86121379;-6.033081629;0.793017735;-26.28364459;9.784119409;4.20296088;13.8267193;13.54976442;1.06426677;8.487472045;7.692994758;12.66801258;-2.403899715;-6.997678704;-32.31741464;-1.750575559
6.875817032;-12.70379094;16.06431458;26.02256901;-7.57251594;0.964787857;-14.43902496;9.931037647;7.986712457;17.97900661;12.98758088;-0.879387192;8.65629543;6.803053874;12.69051798;-2.654709358;-8.289293313;-46.7543395;-3.5037694
5.53866808;-12.38458379;13.97281148;26.04603821;4.433146371;1.183580052;-8.06940139;10.91990196;11.87595455;20.3335066;8.491760747;-3.118763301;9.893045868;5.851497265;11.20474747;-2.970113522;-9.033293891;-58.22800628;-6.097428643
4.399867586;-7.06250605;14.64909748;24.64809059;17.57982763;1.388603141;-7.817815947;12.73062624;14.60395781;20.74493095;1.941930488;-4.758906246;10.92606915;5.018451486;8.124029991;-3.045616807;-8.748779842;-64.59181;-8.236181718
3.605494347;0.894654807;15.97722162;22.93316267;20.2156371;1.57263289;-10.73189454;14.96397004;15.20831115;19.99177701;-2.715479801;-5.194402033;10.760399;4.580068359;4.127054869;-2.520191513;-7.40709393;-63.75859396;-9.09536299
2.777911066;7.307660348;15.16665584;21.39742999;11.11678271;1.774151832;-12.72838707;16.8618709;13.69952091;19.09416908;-2.074347208;-4.248895488;9.458148878;4.760259813;0.660848149;-1.204580206;-5.451597881;-56.11609586;-8.812162394
1.307018192;8.948103414;10.91594168;19.59897668;-0.732406942;2.043040378;-11.38662286;17.6463046;11.22556922;18.64019398;4.11257279;-2.051089996;8.094112532;5.546846638;-0.705100663;0.809344915;-3.523045704;-46.12596173;-8.178230459
-1.146737847;5.592716432;4.313427515;16.69939614;-5.087945243;2.409800127;-7.273013166;16.9763298;9.40809097;18.52340526;12.47881544;1.070679079;7.881173029;6.601897259;0.664469676;3.157735527;-2.118904892;-40.66011519;-7.905607111
-4.334315222;-0.123619349;-2.157334371;12.3136276;0.420871771;2.871169989;-3.06154173;15.16754264;9.218708388;18.1651322;18.31949802;4.515158936;9.140396105;7.3382991;3.741459503;5.263052168;-1.441160132;-44.52889543;-8.141035244
-7.525626851;-4.813293864;-6.554758648;6.909544232;8.974771984;3.386974927;-1.243968931;12.97785611;10.25535975;16.99623993;18.92294715;7.308760411;10.94457252;7.135475269;6.135568355;6.414886201;-1.498864432;-56.60308438;-8.592850076
-9.947868089;-6.67861394;-8.719006099;1.485547487;11.60946648;3.883864473;-2.181869813;11.11302134;11.05846621;14.86755374;15.32770022;8.279232805;11.7438616;5.594386095;5.447455019;5.920078125;-2.299716198;-70.0104778;-9.035451511
-11.22378547;-6.330867535;-9.912189778;-3.089122753;5.74335385;4.273503139;-3.94745909;9.835320274;10.28153475;12.15521914;11.10203072;6.592125751;10.49986342;2.721580308;0.8460634;3.359382491;-3.896995105;-76.74497501;-9.628464833
-11.5171838;-5.682556608;-11.39033971;-6.47177523;-2.582230407;4.492199527;-4.016032468;8.961644838;7.78841665;9.532144731;9.194865095;2.35046983;7.44775537;-1.028280148;-6.26097385;-1.12488942;-6.216378322;-73.29850505;-10.71391821
-11.34105495;-6.07331588;-13.28123536;-8.743163784;-4.47342826;4.54679568;-1.419581476;8.199880455;4.767614143;7.57306684;9.519421373;-3.227103867;3.907652465;-4.866563684;-13.01709831;-6.695876443;-8.829737207;-62.90754592;-12.29851534
-11.21709073;-7.260710628;-14.70616247;-10.07700742;3.573852758;4.528464102;2.417170453;7.497050183;2.76800518;6.456261147;9.302924861;-8.293739594;1.324500066;-7.908444585;-16.85091053;-12.00899102;-10.94453334;-52.68717399;-13.76620378
-11.41668117;-7.976580897;-14.85305144;-10.59041598;16.47311889;4.563679731;4.891998396;7.098102962;2.484287733;5.967214537;5.866849599;-11.27204706;0.307215159;-9.463112017;-16.9215302;-15.70210152;-11.72721724;-48.07486892;-14.17521672
-11.87756219;-7.316638004;-13.84781309;-10.45100506;25.08514913;4.717429054;4.519239544;7.301129257;3.332867496;5.810938892;-0.596922701;-11.57264857;0.390350072;-9.276974132;-14.27720444;-16.95334509;-10.78710215;-49.10674287;-12.94546167
-12.24193268;-5.572607233;-12.54713658;-9.933415856;24.17794927;4.914602413;2.348181057;8.170140803;4.148281411;6.003362022;-6.710404073;-9.673601606;0.622390287;-7.626722761;-10.7441031;-15.78717981;-8.461545971;-51.35577379;-10.34478226
-11.94082273;-3.761598354;-11.48199533;-9.154201487;16.62285689;4.95213197;1.18543537;9.481962792;4.317811591;7.005703141;-8.417565226;-6.592875929;0.426898807;-5.202184692;-7.528971477;-12.94536286;-5.642171113;-50.38590346;-7.315497325
-10.33584092;-2.403543741;-10.0517214;-7.671036302;10.29599261;4.617436361;3.140009766;10.94242758;4.277428663;9.410524551;-4.254484286;-3.224287529;0.02287663;-2.810122386;-4.645519632;-9.411245527;-3.214218425;-45.7296239;-4.746692821
-6.978254667;-0.829170253;-6.876958689;-4.500704563;10.7991465;3.844278809;7.559811012;12.44937529;4.898036354;13.33297671;3.359565019;-0.029690974;0.122086142;-1.030202256;-1.483312829;-5.892467444;-1.493536919;-41.03535424;-2.79748039
-1.952345327;2.204986818;-1.133562254;1.115672336;16.69048549;2.793630598;11.29639609;14.14875134;6.363830642;17.96426954;9.902153824;2.801463004;1.24019061;0.001639995;2.163582247;-2.57700576;-0.081085733;-40.47923495;-0.859878071
3.899630694;7.091245443;6.291373359;8.618784515;21.35068459;1.788354225;11.35700226;16.24204604;7.688084409;21.73253884;12.12599412;5.036354891;3.235701167;0.563294603;5.629555447;0.72047494;1.736150341;-44.75943144;1.785872749
9.128980253;12.49015182;12.93938453;15.70709949;19.45225476;1.133629863;7.841042919;18.74263961;7.473483938;23.12021154;10.26852881;6.323580984;5.427155487;1.088621332;7.897633113;4.167576922;4.317640622;-50.25232065;5.170251475
12.27936228;15.97067778;16.27188164;19.30519538;11.92677388;0.942749131;4.493374009;21.41274953;5.339855576;21.65703412;7.380039063;6.454392266;7.112582279;1.839397587;8.569937686;7.573712968;7.231079662;-52.08035806;8.37865693
12.66284644;15.8211829;15.40203068;17.55017924;4.93429059;1.088993952;5.934354093;23.91837994;2.69096906;18.36456278;6.515873379;5.678536703;8.004852584;2.713164166;8.31510951;10.34408109;9.391430586;-48.42085681;10.09074606
10.81931641;12.57023912;11.70516228;11.37572567;3.980739677;1.31352908;13.42682453;26.02065836;1.931953189;15.22833957;8.274853491;4.707561133;8.248190657;3.311466196;8.315649807;11.76807192;9.715603851;-42.30212957;9.509546883
8.287838011;8.872236406;7.831034147;4.286364187;8.756697736;1.404985849;22.62170881;27.60295462;4.585797079;13.96065467;10.72308012;4.326506133;8.1086478;3.227725561;9.208323327;11.46359456;7.858766198;-39.26614713;6.956397925
6.757203211;7.711395318;5.906930744;0.186638529;13.48674064;1.317578833;25.58367133;28.53307835;9.838173613;14.88651039;11.56996615;4.917031151;7.715201515;2.369845994;10.54;9.697334178;4.532313696;-42.7796471;3.684124173
7.112274134;10.27671873;6.30596893;0.733200211;12.41818865;1.148864215;16.17962244;28.56830943;14.84765404;16.7665304;10.49794244;6.299903564;7.114661733;1.104097443;11.32003906;7.368063883;1.184855308;-51.19969205;1.085659896
8.99953823;15.16598295;7.811695423;4.248676391;5.336011584;1.011238743;-4.935730591;27.4966163;16.75118939;17.72055085;9.494818385;8.023558934;6.531688264;0.114668502;11.20630127;5.630482178;-0.752140359;-58.86464117;-0.078502692
11.18896906;19.51638185;8.854241779;7.150942007;-2.010630993;0.912396458;-29.61806798;25.45713576;14.82842587;16.59872347;10.90068541;9.817715981;6.478649951;0.050348539;11.17696689;5.342788844;-0.586887587;-60.53;0.104889724
12.45175287;21.11841305;8.714530015;6.867073401;-3.005161923;0.745703791;-46.75837585;23.13461125;11.0511641;13.79472771;14.9802861;11.78230217;7.492887025;1.164554438;12.9043949;6.629695182;1.35503406;-55.63925854;1.08012109
12.32215843;19.8317969;7.787641778;3.925495703;3.831173204;0.396058474;-49.1080714;21.54524665;8.516686706;10.90347742;19.30038474;14.13883588;9.669754386;3.16301511;17.20772561;8.801533146;4.004793095;-48.98902283;2.360966239
11.23165811;17.27554483;6.895380754;1.483784293;13.37076133;-0.130713784;-37.6535798;21.45569158;9.017106775;9.496591117;20.61215334;16.79802417;12.42491936;5.350479032;22.90615124;10.68148578;6.152227972;-47.13530006;3.752983438
9.994219635;15.21735969;6.410927136;2.594854999;18.28999873;-0.667608713;-20.49130927;22.8354252;11.7383935;9.951774377;17.69719688;19.19103889;14.77871984;6.99061651;27.22105424;11.1685059;7.006524543;-53.17809901;5.15747309
9.098316721;14.10103906;5.975048263;7.40514936;15.41462515;-0.976504655;-7.141445662;24.79729673;14.14550894;11.21215425;12.7024546;20.58051936;16.00767339;7.670647398;27.63435731;9.734515793;6.442380623;-63.84333978;6.274198489
8.361781794;12.90596762;4.934519448;12.62716092;8.355237007;-0.904648133;-2.482795352;26.13739876;14.26395138;11.62299859;9.699571512;20.61534967;16.15387604;7.46720753;23.82007813;6.60271557;4.886337;-71.12095649;6.596228851
7.175897587;10.30945846;2.975660791;13.84395677;4.154295335;-0.489298406;-4.545337612;26.10570979;12.38741302;10.17493126;11.53866117;19.63918858;15.95970769;6.835634142;18.06300666;2.551272904;2.991930013;-67.42071063;5.768671941
5.088825722;6.014461676;0.342389453;8.903076061;7.014501303;0.069141465;-7.314572773;24.83052365;10.75040624;7.209419152;17.53504568;18.45208746;16.26;6.310192449;13.71459112;-1.495532942;1.311123801;-50.70613485;3.980357302
2.23628777;1.050822511;-2.484089026;-0.275896251;14.70153233;0.545268093;-5.950039063;23.07873728;11.47365311;4.099178227;23.88034049;17.69695578;17.31838024;6.204796044;12.81498866;-4.832907005;0.104329684;-26.10977015;1.964762043
-0.710283219;-3.156712506;-5.23369847;-8.937211395;20.71691888;0.835128041;-0.287939942;21.56050896;14.58830765;2.209783301;26.45190068;17.37305338;18.6377128;6.483110788;14.71238296;-7.126330543;-0.677244001;-2.98142095;0.508910512
-3.00280253;-6.049028621;-7.947971903;-12.83399422;20.15023715;1.005315537;5.784144827;20.34509866;17.86737638;1.948375526;23.76434284;16.86663393;19.36645779;6.844931752;16.72750708;-8.358790551;-1.28254441;10.6178645;-0.173419316
-4.300451303;-8.360039063;-10.67722491;-11.12079816;13.92338492;1.215821762;8.075712933;18.84652686;18.60602137;2.55714174;17.75064856;15.43694459;18.92216421;6.938339138;16.27379086;-8.71656214;-1.999418563;12.38421164;-0.672250325
-4.82;-11.33880302;-13.16935551;-6.660957063;7.728868588;1.582921939;5.63274162;16.35953344;15.78932535;2.694758673;11.87855055;12.71682138;17.30129803;6.545392387;12.71077254;-8.536767434;-3.011430505;6.469909227;-1.970580089
-5.095242633;-15.49419342;-14.96190974;-3.696484884;6.795763458;2.089400695;1.238724072;12.68412106;10.76679608;1.29170322;8.259392596;8.822270275;14.86319757;5.636539427;7.510171155;-8.308304377;-4.324920008;0.255692009;-4.671788315
-5.59473645;-20.01566543;-15.85693502;-4.832822523;11.29304262;2.607497333;-1.236893917;8.333777899;5.897886372;-1.923006856;6.13147928;4.066829229;11.86442631;4.300338933;2.764901183;-8.611717461;-5.789136173;-0.465021174;-8.465055956
-6.511584356;-23.41041893;-16.31596043;-9.629691325;16.45012989;3.009991188;-0.175886355;4.191069834;2.443226547;-6.461939529;2.870504372;-1.347344904;8.228488956;2.6429019;-0.575510471;-9.916978899;-7.190764324;5.258521139;-12.26303389
-7.837773265;-24.80950681;-17.31712371;-15.60793431;17.1163619;3.276699839;2.605658208;0.922226185;-0.370346728;-11.4798912;-3.423859137;-7.303257964;3.779376282;0.752795922;-3.235681046;-12.31106148;-8.365143215;13.71524742;-14.9190852
-9.570182448;-24.79829602;-19.6921428;-20.51349932;12.50140345;3.508625971;3.683410169;-1.385239662;-4.282352203;-16.16897817;-11.96077502;-13.43869638;-1.306161968;-1.249198786;-6.561886451;-15.35520163;-9.256951812;19.65032685;-15.97194289
-11.79877116;-25.03568698;-23.46642349;-23.8566698;6.799791321;3.835056356;1.150555144;-3.135196625;-9.968647327;-19.95710316;-19.53741769;-18.91908798;-6.311129672;-3.140131166;-10.93235415;-18.23378424;-9.89660692;19.97167525;-15.84860703
-14.56745602;-26.96484969;-27.77164426;-26.62616549;5.236471324;4.283866864;-3.670169266;-4.841787303;-16.02199219;-22.57294506;-22.85060933;-22.68752427;-10.30678275;-4.589431093;-15.09668059;-20.15207518;-10.31523278;15.54483169;-15.39235564
-17.63186349;-30.67360361;-31.4185857;-29.75796159;9.228029521;4.717404459;-7.344015047;-6.798163916;-20.02209513;-24.1012697;-21.02487962;-24.1105652;-12.75172875;-5.245326782;-17.02983974;-20.72744846;-10.4593955;10.09820944;-15.11423
-20.35258819;-34.79802239;-33.63862808;-32.92;15.08095794;4.890620768;-7.267880112;-9.004286108;-20.81163559;-25.00105324;-16.40506745;-23.47729971;-13.82165491;-4.860164493;-15.52297182;-20.08942693;-10.15957754;7.311523478;-14.7669568
-21.86290265;-37.46115184;-34.36007813;-34.68881629;17.36424057;4.597914838;-3.928679921;-11.28351544;-19.84361725;-25.92674679;-13.00874655;-21.81524829;-14.1333578;-3.37132136;-11.10279518;-18.61033929;-9.165601143;8.302462406;-13.56230654
-21.43145167;-37.41087254;-33.82174485;-33.80830299;13.8443913;3.807531328;-0.563476899;-13.37862684;-20.14111255;-27.29601635;-13.76258064;-20.03260967;-14.06927701;-0.899409788;-5.506926002;-16.48164561;-7.226549291;11.23187692;-10.83601051
-18.79236257;-34.47118633;-31.94910083;-30.25287426;7.506139298;2.688635896;-0.455963684;-14.93094082;-23.52449554;-28.83425207;-18.47090589;-18.03884898;-13.30269875;2.299992621;-0.241055802;-13.49093788;-4.187956807;13.07754596;-6.626611649
-14.25131591;-29.13329514;-28.15491984;-25.10116117;3.873292205;1.513045822;-4.032748886;-15.45440831;-28.47223937;-29.50068382;-23.87574049;-14.63927332;-10.99043904;5.865675739;4.470253229;-9.210139441;-0.092079643;12.05752789;-1.730109173
-8.545995129;-21.8957718;-21.8453396;-19.42870824;6.091159096;0.504296245;-8.117457417;-14.46969387;-30.68734408;-28.01249208;-25.70196533;-8.437485698;-6.52462884;9.32378331;9.443377473;-3.474833442;4.736899973;8.850772955;2.78116312
-2.589025933;-13.09693032;-13.24247664;-13.37275085;12.18958746;-0.257344788;-8.060678126;-11.78552705;-26.2406387;-23.70999208;-21.30516662;0.873226055;-0.21380257;12.10529809;15.32258932;3.22211962;9.672790128;5.82680601;6.18403176
2.761801223;-3.372935175;-3.775609058;-6.331479527;16.90933527;-0.812388232;-1.28916777;-7.691747301;-14.86917146;-17.13933709;-11.25088128;11.87069219;6.728334035;13.67015518;21.60192186;9.768612935;13.9045328;5.064841461;8.413322912
6.856049694;5.870392165;4.417731176;1.869627979;16.35986811;-1.215153332;10.26582663;-2.823926373;-0.642790504;-9.84058576;1.084011183;22.03607107;12.94456594;13.74054324;26.84849821;14.94019041;16.71872986;6.790708919;9.880987545
9.363741158;12.72198623;9.627775202;10.00545801;11.31400012;-1.442961329;20.65927463;2.266121311;10.77049517;-3.406966095;11.55871623;29.29370817;17.85350028;12.51842913;29.94847753;18.05845738;17.85729143;9.388459498;11.02107995
10.37599316;15.86029461;11.55306064;15.74392191;6.288204235;-1.407164572;23.17407324;7.482274888;16.20315504;1.514862483;17.67984078;33.33416498;21.9624995;10.70384794;31.20443347;19.35522399;17.7427838;10.81649308;11.95341892
10.43514808;15.69038095;11.41537314;17.15368546;5.395228051;-1.062833885;14.34168803;13.11499198;17.17616273;5.505544219;19.92268479;35.70087733;26.28860754;9.221471762;32.19793128;19.79213084;17.36474357;10.18219324;12.50796486
10.39015888;14.45937544;11.13231537;14.23090187;8.781788885;-0.52153498;-3.717250063;19.29745947;18.35609071;9.68757737;21.17482947;38.54489274;31.34208646;8.763209434;34.43954758;20.45583813;17.79331467;8.235970348;12.52596726
11.05;14.96431037;12.14043319;9.123822652;12.78554283;-0.054149705;-24.0514809;25.41531713;23.48327848;14.59875193;24.64017874;42.9734294;36.50494975;9.416438269;37.96552296;21.92085855;19.54853612;6.537406924;12.13017666
12.77112512;18.61171868;14.65408601;4.771935065;13.49003906;0.049629822;-38.32434069;30.04698841;32.07701555;19.52918467;31.50760975;48.22211771;40.32502565;10.6285617;41.16042203;23.96163118;22.21560863;6.132967098;11.70661865
15.224526;24.25172385;17.76042701;2.986278062;10.32163029;-0.321044261;-41.02203013;31.65152243;39.63142362;22.87600424;39.91018945;52.22882601;41.49898324;11.54663189;42.04201659;25.73752005;24.60259987;6.869542853;11.60402402
17.52895106;28.77334661;20.14251635;3.449858502;6.432309264;-0.992781712;-32.12695504;29.59915788;41.17456201;23.25309078;45.95686877;53.10984906;39.75897597;11.51137894;39.94216882;26.27540062;25.40595042;7.794626682;11.80753686
18.71553184;29.17386771;20.86455984;4.336730694;5.649877798;-1.59229724;-16.85490541;24.77204658;35.30515456;20.47694883;46.27233211;50.39608975;35.97128024;10.37702355;36.11915189;24.93975039;23.99348754;8.125352102;11.8783547
18.26425178;24.67157464;19.75180336;3.927153562;8.903751673;-1.781204328;-2.687266647;19.19786295;25.42755875;15.64914546;40.37733437;45.16088906;31.41461153;8.463544187;32.727752;21.66475814;20.79979843;7.861831559;11.2475802
16.38823943;17.32893578;17.27713483;1.863445134;13.41721532;-1.482444551;4.595488608;14.87936607;17.19902961;10.29492929;31.20625384;39.0915734;26.87157855;6.227700218;31.00042733;16.91788838;17.06625224;7.569751476;9.673112127
13.89713005;10.70953742;14.18393751;-0.876821618;15.32988276;-0.93345945;3.660219561;12.60845803;14.27911279;5.283831451;23.26227154;33.3514219;22.2854065;3.943684678;30.21034258;11.50924435;14.09871612;7.677095626;7.526554099
11.73705302;7.522324238;11.12902069;-3.063174932;13.25795495;-0.520874843;-2.319317439;11.5981033;15.79437632;0.413555753;19.60586736;28.12711767;17.22271891;1.649344668;28.34858244;6.375184227;12.54426686;8.040679687;5.677290298
10.49634227;7.931599023;8.484895404;-4.282761514;9.505031529;-0.510578826;-8.14592158;10.17947016;17.45206407;-5.040941068;19.82216349;23.08651928;11.68825221;-0.631477909;23.98225975;2.389286819;12.15766018;8.192180606;5.01012344
10.1591896;9.693484929;6.294243683;-5.088056847;7.866102808;-0.864934619;-9.962127711;7.046651915;15.23657978;-11.33153311;20.50753195;18.19366233;6.546223576;-2.630656729;17.72417405;0.188926378;12.15927715;7.951601199;5.863567678
10.20874676;9.928309822;4.333997251;-6.235345453;10.11047435;-1.274731604;-7.35973058;2.171803173;8.605782931;-17.68121284;17.98724901;14.09256406;3.147773723;-3.823050263;12.03668802;0.012391073;11.85966601;7.719746329;7.740996476
9.966435805;7.177227491;2.271436676;-7.840341311;14.39273193;-1.375674655;-3.013121987;-3.193670324;0.682531209;-22.66863304;11.26231871;11.72601477;2.438656454;-3.72977581;9.474899229;1.596781359;11.06767503;8.09586265;9.488221443
8.946022706;2.267412832;-0.124337678;-9.268145082;17.00698889;-0.988154464;-0.317330689;-7.338827071;-4.480247846;-25.24735969;2.942146135;11.55818894;4.256455611;-2.316432124;10.77729762;4.21920548;10.02186864;9.176340555;9.853780756
7.042528363;-2.534230865;-2.823582269;-9.820753661;15.81157151;-0.212608091;-0.838116925;-9.111760477;-5.120728463;-25.55459986;-2.580497734;13.10407121;7.372341958;-0.142960534;14.33881741;6.923442698;8.99541401;10.26519138;8.12413381
4.503891809;-5.321791273;-5.557851386;-9.526891667;12.15873876;0.669939878;-3.392750617;-8.490386404;-2.831887239;-24.83827204;-2.333026325;15.17701674;10.23875097;1.912563375;17.45936297;8.875473565;7.980770892;10.37126708;4.485323256
1.74842912;-5.905733842;-8.037866098;-9.268495511;9.596440258;1.397726958;-5.280809781;-6.464030031;-0.81730945;-24.55764036;3.108337876;16.642225;11.87226145;3.199632221;18.32463172;9.697589054;6.752899594;9.095778965;-0.07866605
-0.861959122;-5.750672214;-10.20280995;-10.11719307;10.59435435;1.873682343;-4.557283167;-4.44103672;-1.071969805;-25.37224438;10.16521287;17.06275729;12.25039462;3.718842608;17.14011232;9.607389032;5.237722636;7.0705577;-4.281499282
-3.194189651;-6.64352615;-12.26784923;-12.47653766;14.32300304;2.164310827;-1.519503695;-3.579675495;-2.959534106;-26.785446;14.96490364;16.7674016;12.03211255;4.095466108;15.60870097;9.261432244;3.804283628;5.458946197;-7.144987972
-5.396026982;-9.186211503;-14.48684004;-15.76961716;17.48573532;2.384607479;1.705077707;-4.323822863;-4.234082294;-27.64221975;16.0228684;16.38715429;11.93543853;5.102167721;15.32219475;9.348773969;3.134849088;4.89716101;-8.399342426
-7.799535415;-12.28685189;-16.81412822;-18.88644143;17.37171023;2.583384047;3.028504931;-6.230858541;-3.338162366;-27.00175978;14.83307051;16.32426048;12.2948112;7.070395516;16.45980559;10.13065277;3.695333746;4.834963236;-8.482546353
-10.70087432;-14.01825723;-18.7854332;-20.93770747;14.29313722;2.721855041;2.144537118;-8.099733601;-0.783664426;-24.68239043;14.08442171;16.58969811;13.06628203;9.617747242;17.81239168;11.19434728;5.221552723;3.947730952;-8.178655879
-14.11113187;-13.15673106;-19.78201389;-21.6676799;11.20622935;2.743560113;0.727407657;-8.417729047;1.575604323;-21.15236603;15.1670341;17.04681404;14.12051936;11.88391786;17.97246149;11.61600903;6.702658229;1.340764424;-8.127167301
-17.62214482;-10.20246578;-19.50003906;-21.28711267;10.94750572;2.653858072;0.97798496;-6.077113422;2.541040533;-17.03532708;17.11882617;17.72438572;15.44807487;13.09253646;16.58315377;10.51058564;6.987180986;-2.502958339;-8.484833782
-20.50342003;-7.082695151;-18.22473996;-20.05167363;13.68512225;2.52930161;3.762240073;-1.099987977;2.826450521;-12.77221098;17.82167349;18.84733993;17.06055877;13.02783733;14.59319928;7.686172477;5.622207719;-5.934769595;-8.910078125
-22.02370992;-5.738016673;-16.63660943;-18.07647078;16.91042883;2.451166322;7.884555647;5.078588785;4.30978433;-8.71816729;16.26975279;20.55659551;18.72174101;12.09956893;13.39290501;3.983017972;3.284383397;-7.424436612;-8.843788711
-21.83532468;-6.64357083;-15.27798217;-15.52236601;17.88935107;2.430648065;11.06604543;10.11389284;7.960019531;-5.443866554;13.81438993;22.61735883;19.84218784;10.98672745;13.65698915;0.997976267;1.409402367;-6.847292223;-7.896668348
-20.18430606;-8.389069199;-14.13055244;-12.82566786;16.22388309;2.398932765;11.78617125;11.92078788;12.45045713;-3.765942889;13.21263784;24.43010783;19.73351486;10.14889102;14.89039091;0.254802445;1.216287599;-5.628376096;-6.111997132
-17.79301631;-8.676871894;-12.69251172;-10.577772;14.13487983;2.271926819;10.46128591;9.853490855;14.92166349;-4.300356785;16.25015174;25.35725592;18.07336005;9.55476939;15.98534469;2.27317589;2.806548559;-5.545931601;-3.963742326
-15.46925608;-6.049778579;-10.51791031;-9.074612888;14.25788759;2.028761796;9.01418463;5.093441633;13.38623339;-6.865176066;21.98131758;25.0650249;15.19971041;8.781293574;16.20963066;6.132900363;5.0071049;-7.170990587;-2.109872854
-13.68795541;-1.096035733;-7.757459019;-8.006647548;17.07563379;1.731407402;9.223788418;-0.095302407;8.655491563;-10.33149671;27.13589539;23.5674362;11.95359342;7.358596815;15.73114147;9.873266212;6.103888851;-9.284084208;-1.053643294
-12.42070748;3.778212422;-5.2072797;-6.731579979;20.41896885;1.469334137;11.22723164;-3.786857554;3.934504765;-13.22336346;28.41894615;20.965616;9.147817323;5.091127077;15.26319629;11.53817357;4.963773264;-9.81147987;-0.903519888
-11.31860531;5.900815123;-3.784179802;-5.016698007;21.49304972;1.283680371;13.3952298;-5.509142546;2.23019845;-14.71373421;24.85097742;17.20128286;7.053026101;2.156197875;15.21257719;10.22952998;1.757148247;-7.527946455;-1.355425214
-10.09997003;4.137980695;-3.852162816;-3.574400248;19.50126828;1.143180608;13.67366943;-6.272033438;3.720327318;-15.23003906;18.29382634;12.15432551;5.291853696;-1.025345362;15.12156543;6.500781098;-2.210639866;-3.101111226;-1.894086533
-8.844536759;-0.325174485;-4.971727299;-3.749059403;16.38419532;0.992790326;11.30896599;-7.539332846;5.42546973;-16.10270443;11.84483059;6.068654743;3.212730443;-4.005087959;13.90187719;1.861258491;-5.4;1.402188947;-2.092862349
-7.967420664;-4.786235786;-6.286175144;-6.423669053;14.97490002;0.824441578;7.578277113;-9.978783159;3.639663849;-18.44215319;7.513231294;-0.100811406;0.438631176;-6.464774797;10.6702386;-2.230068359;-6.998391004;4.127044315;-1.842130535
-7.891543329;-6.838109311;-7.205572359;-11.00454927;16.31130195;0.69612016;4.928606755;-12.97104726;-2.823444515;-22.10952902;5.062431866;-4.872776183;-2.840516935;-8.269251889;5.51881636;-5.170058594;-7.272241761;4.805404284;-1.378378625
-8.672280067;-5.902700163;-7.793286474;-15.44945753;18.64664713;0.674071859;5.155958532;-15.22384635;-11.33426916;-25.64894034;2.790287724;-7.005380035;-6.042131568;-9.453490755;-0.349815962;-7.294752532;-7.132144332;4.775307766;-1.098541204
-9.871774376;-3.417307084;-8.536241895;-17.52300378;19.10587245;0.749126185;7.991257767;-15.9366109;-17.32295264;-27.32190106;-0.635264527;-6.352318031;-8.660572151;-10.18489813;-5.17844271;-9.281954364;-7.319916789;5.706378648;-1.269345255
-10.79513246;-1.604158922;-9.742054742;-16.40214629;16.44007813;0.809809656;11.17925756;-15.53044091;-17.88458327;-26.481321;-4.93314478;-4.119803389;-10.63012964;-10.69402765;-7.489298159;-11.41162792;-7.863449684;8.182070326;-1.809700975
-10.92507894;-1.785317603;-11.14306328;-13.34722172;12.27824765;0.709247969;12.07012182;-15.34211556;-14.14163237;-24.18974625;-8.511412439;-2.206250322;-12.28204397;-11.1531187;-6.701329434;-13.27456865;-8.176973063;11.3452683;-2.289754373
-10.2363542;-3.499920496;-12.08739533;-10.82540222;9.666578273;0.378277956;9.652318411;-16.54559096;-10.34174592;-22.53007813;-9.84331411;-1.998794865;-13.94064968;-11.53845019;-3.29107334;-14.109329;-7.653528804;13.82212649;-2.163359499
-9.157530152;-5.027435504;-12.13977585;-10.71544805;10.23656572;-0.109782745;5.579422335;-19.18538541;-10.35654095;-23.07449226;-8.597025979;-3.465627727;-15.50681387;-11.58045823;1.449733992;-13.42703392;-6.228749341;15.00523882;-1.102130694
-8.21328135;-4.831858225;-11.51469469;-12.99264512;12.66206758;-0.581453453;3.331775496;-22.08216517;-14.4342594;-25.66376893;-5.611857048;-5.219987889;-16.39402006;-10.88992495;5.89891741;-11.38147117;-4.461307904;15.50977457;0.776177142
-7.623554709;-2.760450239;-10.90288419;-15.91490156;13.89760719;-0.881358905;5.851989348;-23.63735253;-18.89581805;-28.44552436;-1.983907574;-5.532079246;-15.90120338;-9.224706573;8.703027171;-8.603922693;-3.091043946;16.42724508;2.936995891
-7.17065377;-0.075063925;-10.81751626;-17.50453819;12.09120768;-0.970026855;13.07779695;-22.85694947;-19.05957672;-29.1696756;1.702305915;-3.559014646;-13.75118236;-6.720965031;9.352717885;-5.700019531;-2.451416186;18.13086642;4.708424997
-6.440804904;1.647198634;-11.06278195;-17.08028645;8.453832421;-0.922780961;21.07977638;-19.81469183;-13.02643392;-26.7830934;5.279191552;0.099145336;-10.37568249;-3.892662336;8.488200044;-2.87860495;-2.205398625;19.79843514;5.64101506
-5.254470958;1.806899858;-10.85882902;-15.61610739;6.27489943;-0.837784674;23.72116995;-15.31618175;-3.257882857;-22.14775023;8.339251259;3.897791755;-6.706250824;-1.354929277;7.65431242;-0.022864032;-1.596006941;20.14084927;5.724304023
-3.940097656;1.207338961;-9.574488093;-14.74145678;7.90278669;-0.740321929;16.23117955;-10.19873712;5.295450013;-17.38754417;9.966901617;6.493123411;-3.601029453;0.550850189;8.462755161;2.917100598;0.001610798;18.68214406;5.332122029
-3.204678794;1.289960881;-7.43389751;-15.33250117;12.44232715;-0.57143803;-1.318364172;-4.921351132;8.940929448;-14.40410273;9.4076368;7.668256756;-1.318466649;1.945542712;11.56795482;5.637105764;2.648710156;16.38379295;4.949455582
-3.647435212;2.849882934;-5.518134294;-16.90192623;16.34273788;-0.271139929;-22.96308645;0.281248323;7.820135295;-13.68668619;7.14768067;8.380865652;0.57462819;3.249277606;16.15751781;7.622127147;5.826280756;14.96547385;4.873456566
-5.241196373;5.329787531;-4.958476214;-18.20324941;16.44226319;0.12155753;-39.35366662;4.991043905;5.321057596;-14.24855407;5.221960166;9.958995592;2.78830054;4.773848782;20.43556121;8.626879732;8.793560549;15.45745202;5.083043626
-7.16548813;7.302309928;-5.937090454;-18.37911194;12.76902357;0.448535963;-42.75758647;8.489056342;4.980266537;-14.62127134;6.082809913;13.09277018;5.690103103;6.38655796;22.87344532;9.046738427;11.01858776;17.25697084;5.339446444
-8.163443312;7.746821871;-7.343208343;-17.58095678;8.563641586;0.521570559;-31.65359423;10.14722289;7.542883354;-14.05435961;10.68240601;17.36374302;8.939563178;7.525933572;23.33271413;9.776364392;12.37532164;18.56596554;5.414946419
-7.248018919;7.03704419;-7.447109865;-16.58465524;7.470958803;0.253992381;-11.90482102;9.99325512;10.5891138;-12.99294537;17.34241975;21.59119303;11.65450275;7.580710989;23.13786099;11.57948019;13.02736529;17.88478723;5.26955508
-4.334168113;6.761988941;-5.134028381;-15.91126552;10.40142312;-0.271272202;6.53294935;8.866006065;10.89799796;-12.54668662;22.55679926;24.65151006;12.99961275;6.349863786;23.93600202;14.43892999;13.16612869;15.28734107;5.054987236
-0.392105845;8.452603857;-0.765832155;-15.38968794;14.85803175;-0.853056625;15.48364934;7.898023862;7.427386026;-13.47045669;23.33392288;26.1261321;12.77544867;4.224154907;26.18725102;17.42572417;12.84598623;12.36271694;4.966905819
3.003412283;12.21028146;3.99064888;-14.58263069;17.28443952;-1.30175227;13.24049745;7.67247949;2.348644938;-15.51231469;19.32360933;26.34634867;11.57836481;1.939919344;28.5410946;19.23799628;12.0284028;10.85731615;5.077909913
4.487147148;16.36700003;7.233476249;-13.56852947;16.25512731;-1.546746886;4.954491429;7.746177149;-0.714092974;-17.6239424;13.02203049;25.90911879;10.40619107;0.089424322;28.7371281;19.02781394;10.74691076;11.18729178;5.284519512
3.616927986;18.51919496;7.985619001;-13.16278391;13.59758988;-1.646415724;-1.489839072;6.974748609;0.275214366;-18.80959655;7.851133591;25.11732156;9.980367651;-1.239609633;25.43511896;16.89893947;9.208730043;12.11013346;5.401073508
1.0784262;17.18738086;6.617657811;-14.20605471;12.47334412;-1.71003418;-1.149601362;4.419198555;3.9927242;-18.90227095;5.634613336;23.77928319;10.2563852;-2.431545402;19.52201944;13.71931474;7.723275325;11.83299406;5.317027212
-1.729924813;12.83637499;4.319745052;-16.54145523;14.26314675;-1.808501897;4.808500299;0.118410691;6.696167527;-18.66212288;5.471078484;21.4571732;10.45823804;-3.967580095;13.73247229;10.43274793;6.511646374;9.578982876;5.090870695
-3.485258334;7.471836675;2.131712445;-18.75947364;17.20169276;-1.945392477;10.62657336;-4.887697267;5.073188266;-19.16060827;4.819448994;17.89765485;9.603263851;-6.01860095;10.71754271;7.431398906;5.559137088;6.237673323;4.909461619
-3.648039424;3.135252086;0.29967244;-19.18390605;18.06719054;-2.094113253;10.82765247;-9.285885806;-1.312082927;-20.96357144;1.775761551;13.29003906;7.151140176;-8.316242617;10.9991918;4.466067575;4.640197736;3.541908904;4.945488239
-2.694498135;0.475478908;-1.627647312;-17.3882788;15.36100161;-2.245617312;4.61356493;-12.3650267;-9.848086752;-23.73475007;-3.398080468;8.201618932;3.348642477;-10.36400451;12.46769478;1.113719074;3.508595563;2.518971889;5.217654002
-1.762387502;-1.499504557;-4.168751504;-14.87204461;10.97366455;-2.410934457;-3.589543894;-14.34778469;-16.94293308;-26.50739678;-8.680995328;3.319314464;-0.922240939;-11.77344427;11.95389761;-2.623052156;2.118648298;2.603536716;5.55035386
-1.937802668;-4.3331216;-7.318862054;-14.09702467;8.686307231;-2.578639738;-7.757417153;-15.97003906;-20.5437481;-28.352369;-12.10650536;-0.759293639;-4.639584037;-12.43777396;7.771385978;-6.089985863;0.719855735;2.20370018;5.656772473
-3.610215152;-8.602895328;-10.44355459;-16.49162739;10.78562696;-2.681072213;-5.106497488;-17.72308518;-21.13853281;-28.91822279;-13.29823851;-3.566704934;-7.124480826;-12.43464242;1.274889769;-8.313961617;-0.246463571;0.20685193;5.288269136
-6.271344217;-13.22846576;-12.66137428;-21.0535892;15.87909941;-2.619367356;1.733162546;-19.40722488;-20.67720465;-28.49111717;-13.42502434;-4.722796243;-8.222738559;-11.80910389;-3.856639454;-8.643088686;-0.393691045;-2.939571665;4.356437282
-8.864468614;-16.20459294;-13.36833422;-24.84459621;19.98153489;-2.337987801;6.932093466;-20.32406456;-20.57013546;-27.6305647;-13.78397635;-3.976967856;-8.149521864;-10.49019434;-4.19366789;-7.232168987;0.358857937;-5.569660609;2.957768483
-10.46217595;-16.22076665;-12.54226492;-25.1527142;19.98500789;-1.882328018;6.275599937;-19.86836812;-20.52886569;-26.73496954;-14.45432394;-1.388556245;-7.19257675;-8.449558216;0.878924857;-5.053459421;1.670146061;-6.287649832;1.291895542
-10.85504351;-13.8978457;-10.71061474;-21.65339878;16.41304844;-1.377185852;0.722496004;-17.97744981;-19.11197966;-25.86704606;-14.31347597;2.493146612;-5.517099741;-5.953350301;8.521564734;-3.448356331;2.870394564;-5.279096803;-0.474734015
-10.68807849;-11.62188022;-8.703656732;-16.79267154;12.94662813;-0.931849824;-4.151821638;-15.08729778;-15.31625933;-24.89581234;-12.35227262;6.663047293;-3.179199682;-3.629717036;14.23808812;-3.497099702;3.239307413;-4.240552922;-2.317084296
-11.05630756;-12.00109353;-7.363431898;-14.00549074;13.10592941;-0.549294051;-2.452910419;-11.7191676;-9.732670577;-23.74799744;-8.955396728;9.99228851;-0.273330757;-2.204363788;14.83584162;-5.524216024;2.356249421;-4.931392724;-4.360909318
-12.8025986;-16.01967013;-7.283651432;-15.13813212;17.06327633;-0.123780615;7.271749813;-8.130529063;-4.287459456;-22.518844;-5.823215224;11.70625282;2.942579155;-2.046337544;10.44595796;-8.932064315;0.357213672;-7.59071896;-6.773109086
-15.94718298;-22.22053318;-8.589810021;-19.09389699;21.47602438;0.459787471;20.41105303;-4.346616635;-0.867743063;-21.36910223;-4.504905069;11.71539059;6.045604117;-2.865938936;4.234307629;-12.40694621;-2.051849192;-10.62564155;-9.582373104
-19.60149008;-27.52810803;-10.8174282;-22.71962899;22.50941377;1.201479135;28.9995185;-0.487915465;-0.04187801;-20.34789001;-4.88785581;10.58406459;8.558385464;-3.832337548;0.126445029;-14.44256119;-3.878939782;-11.89048088;-12.53409908
-22.42309396;-29.16105857;-13.01653398;-23.14882461;19.31983315;1.942637984;26.75831894;2.9796137;-0.897625851;-19.34102287;-5.141152245;9.163159923;10.09235217;-4.073491031;0.23557995;-14.03485791;-4.326569984;-10.4740684;-15.08673079
-23.33792132;-26.33494226;-14.14990762;-19.72825082;14.83111663;2.446963812;12.93239916;5.353403646;-2.001257492;-18.21596058;-3.343814777;8.126442195;10.45426358;-3.225982586;3.748548028;-11.28097312;-3.233612155;-7.433108206;-16.59172526
-22.09922466;-20.64129658;-13.64374477;-14.14517465;13.0815523;2.548097561;-7.495137018;6.07768528;-2.570598259;-17.04698044;0.541673373;7.679893588;9.6889917;-1.65578812;7.843363025;-7.536584856;-1.222699552;-4.804618378;-16.59116416
-19.36728379;-14.94164905;-11.763412;-8.936006609;15.54129024;2.249883856;-26.94183972;5.040536688;-2.906398761;-16.22367562;4.126824736;7.557272226;8.05108428;-0.210611989;9.748116589;-4.901225501;0.565178936;-3.743425496;-15.07842168
-16.29907295;-11.61982376;-9.527952184;-5.802874909;19.75634657;1.705141153;-39.31457513;2.508573768;-3.877071296;-16.33222302;4.115608971;7.219300743;5.896621668;0.30162743;8.38871248;-5.160651767;1.032493178;-3.436095048;-12.56279785
-13.92955216;-11.3832907;-8.166936332;-5.063034175;21.57668319;1.099469566;-42.49270265;-1.212868627;-6.062955449;-17.86894695;-1.246285416;6.093433161;3.511749012;-0.455139114;4.597891867;-8.734237337;-0.32131924;-1.803488818;-9.876285238
-12.71851219;-13.29921786;-8.449295627;-6.327904597;18.96291187;0.541098464;-38.22151513;-6.020616427;-9.3343271;-20.95992745;-10.7535552;3.757627484;0.961462534;-2.25508082;0.040395168;-14.31568105;-3.168055682;2.560019531;-7.808268978
-12.48587606;-15.82301287;-10.30578673;-9.367258911;13.90710354;0.042539047;-30.25036666;-11.86543437;-13.106463;-25.24306372;-20.97889444;0.079852636;-1.909292512;-4.539409381;-4.103302256;-19.546695;-6.563210083;8.897350949;-6.75947189
-12.6885472;-17.92793716;-12.94454987;-14.11818162;10.69327138;-0.408755862;-22.28080061;-18.31740477;-16.85802185;-29.95691161;-28.50901156;-4.652832224;-5.250308831;-6.733871521;-7.67424844;-22.3836688;-9.455342123;14.62124157;-6.599223194
-12.79778502;-19.51650402;-15.31146413;-19.87525133;12.04541922;-0.774197909;-16.74828497;-24.28403123;-20.3369914;-34.17089133;-31.84969462;-9.666008816;-8.862197552;-8.434746009;-11.05967786;-22.28472433;-11.17734578;17.29796346;-6.792957422
-12.53751517;-20.9634819;-16.56032765;-24.73519331;16.64910641;-0.965614903;-14.49411864;-28.26311667;-23.30669322;-37.05088343;-31.60346316;-13.82087193;-12.00694347;-9.421452926;-14.31859858;-20.40408988;-11.64940091;16.65110339;-6.715196865
-11.90486743;-22.34537357;-16.29591844;-26.28396773;20.31013584;-0.927869984;-14.910687;-29.07484581;-25.22592991;-38.07585491;-29.12099507;-16.00400885;-13.62390277;-9.613885578;-16.76589889;-18.65660117;-11.2376412;14.85750533;-5.971501301
-11.06522881;-23.10450001;-14.59493599;-23.30919555;19.72295218;-0.720703964;-16.33219868;-26.56970763;-25.35355842;-37.1568424;-25.12451559;-15.66153524;-12.93246407;-9.090607824;-17.39243592;-18.33338098;-10.43446615;14.80816894;-4.569148222
-10.26101149;-22.46049379;-11.94486029;-17.12529363;15.44482831;-0.508427313;-16.74832926;-21.75677775;-23.32028631;-34.63142842;-19.63886777;-13.16512166;-10.05231707;-8.146440457;-15.74752847;-19.27970061;-9.600614815;17.73912442;-2.875635049
-9.784564123;-20.20261525;-9.163459683;-11.13180279;11.37801788;-0.445399868;-14.80565576;-16.21570465;-19.66646266;-31.12958379;-13.14066069;-9.708430082;-6.139970175;-7.255917346;-12.50896282;-20.20894048;-8.903385549;22.21306616;-1.416075154
-9.950524957;-17.13911607;-7.211888213;-8.619696167;11.22392632;-0.544808924;-10.62047711;-11.21003906;-15.75919106;-27.35303558;-7.515284356;-6.700019531;-2.80699927;-6.85740033;-9.211730881;-19.84783488;-8.406154126;25.32528503;-0.623897619
-10.98529782;-14.73929052;-6.817912103;-10.43043981;15.12503843;-0.647196485;-5.747504874;-7.146198303;-13.00122658;-23.86430263;-5.478088974;-4.980234973;-1.116919997;-7.053794988;-7.277572912;-17.97889412;-8.161871966;25.13241622;-0.657429159
-12.85293562;-14.16988539;-8.035479943;-14.39519472;19.54585132;-0.531532249;-2.132909131;-3.729922853;-11.89374462;-20.99034681;-8.573433474;-4.367574163;-0.854537487;-7.46746429;-7.049356512;-15.56749938;-8.207582984;22.2569046;-1.35016313
-15.15454246;-15.45541149;-10.07432928;-17.11922146;20.50200299;-0.093337053;-0.722291715;-0.60769678;-11.7159804;-18.87535611;-15.39709709;-3.865916829;-0.663155693;-7.430160105;-7.561744899;-13.92859262;-8.487659655;19.3148232;-2.304617118
-17.23940841;-17.44017091;-11.66416825;-16.71660856;17.19654293;0.548465365;-0.807658302;2.085726864;-11.12520811;-17.60512004;-21.82663343;-2.425402375;0.949428766;-6.444403273;-7.258974995;-13.66812166;-8.820955284;18.67310635;-3.084767913
-18.51756129;-18.6204922;-11.83298586;-14.24196923;12.74323768;1.105319694;-0.687152541;3.726188581;-9.237465544;-17.26642356;-23.5187651;0.242710356;4.409366112;-4.610386438;-5.186015365;-14.28748174;-8.98990394;20.4739116;-3.418359624
-18.77852977;-18.22664092;-10.5749962;-12.62143034;11.30552087;1.299037903;0.872373834;3.707734513;-6.356452476;-17.86712779;-18.97544001;3.352226583;8.570601083;-2.685956944;-1.821168589;-14.75056477;-8.904633755;22.62739114;-3.304797964
-18.27089966;-16.72202421;-8.856837317;-14.00885046;14.2535317;1.035438496;3.591613397;1.992904967;-3.805560946;-19.18987124;-10.79496743;5.448422583;11.33630428;-1.68665389;1.061526854;-14.48793879;-8.702023751;22.76110363;-2.960386504
-17.45622172;-15.33758627;-7.874295843;-17.86096967;18.85624709;0.44595347;5.939168235;-0.77325846;-3.030538193;-20.75490839;-3.998958792;5.265749579;11.01410324;-2.268340883;1.461948996;-13.94921291;-8.672066288;20.40361941;-2.622852281
-16.61243929;-15.02362659;-8.091772676;-21.41732459;20.7334534;-0.223828344;6.45469459;-3.674827465;-4.675335825;-22.01087115;-2.589577025;2.476891639;7.445484892;-4.307078784;-1.522666891;-14.21457081;-9.043691427;17.46688662;-2.337888667
-15.60953911;-15.66737516;-8.837507194;-22.17214852;17.86612002;-0.783951566;4.974347482;-6.108812904;-8.27348074;-22.6736439;-6.901651605;-2.124710628;2.097582873;-6.960646109;-6.996587231;-15.99298339;-9.791366296;16.58033839;-1.886484389
-14.06690951;-16.2088633;-8.825773371;-20.14902745;12.52163728;-1.198827651;2.71676654;-8.064979304;-12.65223143;-22.95413089;-13.70112179;-7.069850141;-2.929461575;-9.160058594;-12.67788722;-18.87041845;-10.62540623;18.73160362;-0.933439769
-11.7914388;-15.55503564;-7.218050745;-17.91165999;9.318188415;-1.553961297;1.228547461;-9.904894081;-16.61829869;-23.43491174;-18.83523413;-10.95644603;-6.231396393;-10.19212105;-16.19333102;-21.47178509;-11.19054538;22.3106226;0.682802447
-9.132290901;-13.53492385;-4.351789646;-18.20821946;11.146973;-1.938653387;1.18586791;-11.86701117;-19.40722041;-24.60461619;-20.29795155;-13.03972694;-7.806328478;-10.00342327;-16.44091169;-22.43640395;-11.32709307;24.44482383;2.728893313
-6.9068133;-11.09901021;-1.501004136;-21.26903073;16.62012797;-2.351372943;2.091890074;-13.73291305;-20.72253204;-26.3615846;-19.37252919;-13.40208846;-8.70222176;-9.085160344;-14.15257308;-21.42479131;-11.18871443;23.48842644;4.61904256
-5.872372948;-9.58584746;0.170329258;-24.18882748;21.33896033;-2.700709569;2.999615392;-14.92851757;-20.58;-27.89521235;-19.13994398;-12.73424007;-9.990019531;-8.09177609;-11.31342528;-19.3454614;-11.1169218;20.47051191;5.739698043
-6.106197992;-9.653974653;0.602953;-23.10811198;21.82271526;-2.886004661;3.433687206;-14.96384813;-19.24166806;-28.11997642;-21.72064873;-11.94472436;-11.91213525;-7.48545944;-9.847921032;-17.63063502;-11.36472561;18.17965814;5.852049335
-6.791885104;-10.76321245;0.934956708;-16.49542498;18.53986103;-2.877471669;3.609153609;-13.85093717;-17.26874937;-26.41676783;-26.48963067;-11.80103108;-13.82343006;-7.405859453;-10.45597853;-17.15714063;-11.88565125;18.63926711;5.274256031
-6.655037913;-11.63852879;2.578805844;-6.796219764;15.32097518;-2.727171787;3.884142883;-12.1790519;-15.46932507;-23.15407228;-30.57730762;-12.68712348;-14.8504472;-7.753846768;-12.34700832;-17.66870101;-12.35552417;21.18861433;4.677633016
-4.808828867;-11.32776328;6.024572961;1.019304899;15.73778431;-2.511548075;4.236409325;-10.80423051;-14.56519224;-19.56928469;-31.1098928;-14.48742176;-14.63456909;-8.334901068;-13.97410085;-18.11279769;-12.40771795;22.91046348;4.614096177
-1.427913127;-9.95871063;10.35730404;2.9435831;19.78934611;-2.267130321;4.489843804;-10.38439907;-14.72417635;-17.04321066;-27.37259425;-16.62306496;-13.54167073;-8.929433189;-14.17589915;-17.55177666;-11.88746852;21.10563734;5.116403269
2.253276326;-8.547408281;13.89465401;-1.285408528;23.92877357;-1.980343158;5.054463737;-11.06112693;-15.35412828;-16.26428116;-21.30716719;-18.28671504;-12.24358023;-9.286029308;-12.88863759;-15.87569681;-10.91291435;15.68427769;5.689749377
4.657939015;-8.016357855;15.42824349;-8.256786025;24.37988127;-1.635568635;7.10812089;-12.44380828;-15.43349959;-16.88219327;-16.13374473;-18.84431806;-11.12014591;-9.12886378;-10.96412468;-13.76949589;-9.691405876;9.361061677;5.73320095
4.826592389;-8.274147185;15.06671419;-13.62851513;20.6640498;-1.268173538;11.47474104;-13.84187041;-14.21663051;-17.89091311;-14.23631124;-18.21523477;-10.02937455;-8.245585244;-9.329093406;-12.04346004;-8.253660309;5.440407815;5.089165783
2.968412639;-8.188136182;14.03085845;-15.24186807;16.0676887;-0.964297266;16.85513407;-14.57432785;-11.78892341;-18.4264501;-15.79109257;-16.95867659;-8.602413595;-6.616259328;-8.210886366;-10.9525177;-6.35799923;5.109490266;4.284596385
0.248288779;-6.53968287;13.62564509;-14.17048003;14.60935056;-0.80020957;19.22727652;-14.20752556;-9.018063841;-18.35393894;-18.88637604;-15.92646052;-6.72680727;-4.473236333;-7.061937711;-10.08558573;-3.695388209;6.620039063;4.226825428
-2.002049916;-3.19394238;14.26212798;-13.12710956;17.31140489;-0.773363254;13.77645439;-12.6621022;-6.928480719;-18.20605487;-20.81433676;-15.65336887;-4.736068963;-2.221581106;-5.222829238;-8.874955589;-0.274561743;7.07886478;5.524783475
-3.074125556;0.52717923;15.29493817;-13.86051362;21.24412117;-0.790299835;-1.364638252;-10.20120373;-6.00618482;-18.57371483;-19.61149007;-15.9146749;-3.135298395;-0.264126558;-2.745598623;-7.236581167;3.318727489;5.225233654;7.922172466
-3.147989347;2.673020269;15.71272733;-15.85108943;22.25753756;-0.730550565;-22.3303983;-7.335572113;-5.989163509;-19.49995386;-15.03223025;-15.83675607;-2.148082317;1.144658456;-0.651424427;-5.762816975;6.051543634;2.651180452;10.29887079
-2.928554135;2.112449662;15.02260501;-17.26832197;18.88832973;-0.540238149;-40.45186795;-4.68356186;-6.265627477;-20.41299383;-8.632062614;-14.56917353;-1.537420357;1.921786953;-0.342966786;-5.300320129;6.960756122;2.295783259;11.3142056
-3.004836503;-0.531461104;13.58850314;-17.06205085;13.80129437;-0.280813303;-47.12695582;-2.828350454;-6.476949434;-20.66071005;-3.066729103;-12.07285063;-0.883287786;2.072874888;-2.579438324;-6.280643029;5.751723346;5.536082825;10.29387833
-3.432661608;-3.238328085;12.23145326;-16.09736143;11.37698925;-0.091746309;-39.57341969;-2.209351327;-6.777227963;-20.17047632;-0.923023086;-9.415897465;-0.054573278;1.608459191;-6.800800723;-8.368042881;3.064940024;10.56200782;7.749120391
-3.802452328;-4.012296961;11.54692538;-16.22417211;13.64066471;-0.093370606;-23.14688331;-3.053916995;-7.557250517;-19.61791288;-3.507197502;-8.269154678;0.583690405;0.549816367;-11.34554912;-10.69833162;0.188676062;13.66036014;5.136198704
-3.651047562;-2.289932313;11.56924472;-18.16228696;18.32239369;-0.3023177;-8.069227769;-5.320543027;-8.95262514;-19.88518439;-10.1126594;-9.867429503;0.448601327;-0.984993116;-14.42635755;-12.47647354;-1.629711841;12.41194969;3.978723183
-2.838523158;0.751923006;12.01120753;-20.2586075;20.91673087;-0.620953489;-2.600624739;-8.635443731;-10.63931393;-21.20978022;-18.2291967;-14.12176744;-0.728888661;-2.711922532;-15.14479041;-13.42;-1.830947047;7.965672621;4.92454842
-1.602446335;3.218966399;12.74871481;-19.45752039;18.89394594;-0.905080369;-7.611031232;-12.27341858;-12.10958123;-22.74692193;-24.75193209;-19.50195208;-2.597712061;-4.219913103;-13.80500554;-13.7067918;-0.724431131;4.229714488;7.369216102
-0.307730607;4.04230729;14.03051064;-13.83929291;14.14017478;-1.057429539;-16.64184246;-15.29406708;-13.13007813;-22.99674359;-27.60336045;-23.79355175;-4.395809978;-5.118625358;-11.34841874;-13.53871324;0.893107894;4.525338427;9.897215653
0.844717839;3.82906058;16.21293022;-4.589835715;11.25865401;-1.08068636;-21.36500615;-16.8957332;-13.90120381;-20.8697334;-26.76569163;-25.25162565;-5.51157352;-5.205867932;-8.432255374;-12.76822497;2.369335601;8.606276508;11.23355042
1.896974333;4.357761512;19.30284063;4.384375112;13.19703638;-1.058927215;-18.11410793;-16.87287461;-14.75071476;-16.61759327;-23.99425326;-23.44638018;-5.928945055;-4.555488899;-4.95283182;-10.96445755;3.590029297;12.77257207;11.05267725
2.970875694;7.113006686;22.76417418;9.050690608;18.25379056;-1.089183906;-10.34238544;-15.88327101;-15.69498018;-11.8961461;-21.39454408;-19.35758729;-6.199456175;-3.493183696;-0.436473904;-7.89477263;4.845084058;13.12345873;10.10116807
4.052410811;11.98764828;25.7620589;8.041613222;21.38749759;-1.215216835;-5.202955302;-15.24075694;-16.371489;-8.848125191;-19.93120339;-14.78380043;-6.998559064;-2.497718202;5.023921438;-4.011119317;6.308760818;9.125540761;9.574520807
4.936386152;17.13658949;27.59186623;3.430689286;18.82424191;-1.405530771;-7.251134365;-16.22294612;-16.47740346;-8.824573317;-19.02332493;-11.49826708;-8.656007031;-2.074536231;10.12639657;-0.487716309;7.605751064;4.242334325;10.20503238
5.36926179;20.08717696;27.90255538;-1.07790751;11.79732611;-1.58109987;-14.57190135;-19.26344218;-16.27817844;-11.63563884;-17.49882374;-10.58990608;-11.01167328;-2.610281738;12.70414669;1.307574272;7.886496325;2.907090809;11.70598708
5.233057447;19.2941575;26.59520771;-3.025752036;5.848169543;-1.665138379;-20.51526086;-23.57604395;-16.56694455;-15.82331467;-15.01675963;-12.17747544;-13.60933361;-4.202138691;11.00762411;0.583439249;6.425038622;6.453842015;12.95277116
4.582501205;15.05486428;23.65029022;-2.831370475;6.075296465;-1.619087699;-19.45602971;-27.53028438;-17.92211552;-19.69339776;-12.63313435;-15.45255801;-15.94883688;-6.509263835;5.085690504;-2.387851888;3.292141979;11.72549407;12.7583628
3.503514537;9.222913547;19.19676507;-2.991227656;12.50402066;-1.445785559;-11.60171097;-29.57644016;-19.8519495;-22.31681623;-11.92318474;-18.9597802;-17.55011222;-8.747023573;-2.791166109;-6.401160418;-0.472640599;13.80402757;10.69003906
1.948617108;4.025437432;13.80142483;-5.700231408;19.84223961;-1.166234674;-2.725854351;-29.09375348;-20.70970063;-23.80305033;-13.39038134;-21.08318182;-17.87728892;-9.932515355;-9.14674132;-9.975979304;-3.422947437;10.55735035;7.360178874
-0.260478703;0.844295987;8.585801911;-10.95698204;22.04332848;-0.79277477;0.921782599;-26.57216838;-18.72032209;-24.7577231;-15.62306842;-20.68135013;-16.39097086;-9.341282987;-11.23301755;-12.10753634;-4.655535383;4.855863114;4.004781791
-3.230871373;-0.284670611;4.814313599;-16.65339936;17.70087816;-0.320806822;-1.884749376;-23.0478406;-13.45604425;-25.4650482;-16.0922387;-17.64220204;-12.87793701;-6.936743425;-8.64620061;-12.65324634;-4.442009172;2.216430857;1.66476647
-6.771238194;-0.295424417;3.093166724;-20.38431656;11.38214374;0.25333578;-6.230300231;-19.30275159;-6.524587546;-25.49902936;-13.05068254;-12.99336004;-7.845585807;-3.463748318;-3.511162872;-12.17670036;-4.014099221;5.766234496;0.547765128
-10.37038942;-0.270391418;2.82240329;-21.30884228;9.55039181;0.899876915;-5.363997204;-15.51246661;-0.711970755;-24.07087734;-6.9527001;-8.353982261;-2.547686524;-0.069942185;0.950572399;-11.43552239;-4.59839514;13.08511972;0.001678255
-13.45226114;-0.789859976;2.501857015;-20.51127793;14.64302809;1.533101319;3.227297351;-11.61129035;1.925011724;-20.80939514;-0.143688892;-4.963715204;1.577429026;2.348856159;2.538830902;-10.89481483;-6.402346837;18.07395461;-0.913294952
-15.73180918;-1.806607786;0.820726894;-19.73666203;22.69063299;2.022398854;15.24141196;-7.974102243;1.5309162;-16.33185536;4.950874365;-2.945722968;3.74955042;3.640264001;1.438120083;-10.56732718;-8.350039063;16.49788878;-2.684476141
-17.38350387;-2.971108626;-2.292371616;-19.79172732;26.78948524;2.242480403;22.84515276;-5.675006213;0.208715637;-12.13429324;7.569588095;-1.423964072;4.306805049;4.356917699;-0.121642226;-10.2145578;-8.833792665;10.22657739;-4.967134979
-18.86662217;-4.060584249;-5.587699865;-20.07298425;23.41892564;2.141048331;21.19852686;-5.912048898;0.1471107;-9.842563357;8.764729792;0.491430507;4.332387132;5.199899634;0.334173508;-9.689923142;-6.962936758;5.936233637;-6.817220533
-20.52827106;-5.183882076;-7.554845185;-19.53652221;15.84516703;1.782320949;12.74297579;-8.949523873;1.640440133;-10.31164554;9.878951442;2.602560897;4.68160874;6.3685011;3.562235296;-9.132461251;-3.363550925;8.89;-7.347184377
-22.29345797;-6.650877632;-7.77094315;-18.05618264;11.32152679;1.329988127;5.510267687;-13.47516571;2.762093069;-13.13131899;10.85344068;3.416028699;5.223977406;7.347170662;7.928563596;-8.85852273;0.127235335;17.23984339;-6.329963982
-23.68762589;-8.626868448;-7.314861335;-16.77816598;14.42348698;0.967209555;6.627029381;-17.07558459;1.155115073;-16.79728111;10.10640393;1.238890985;5.023209914;7.338398166;10.57118152;-9.040122177;1.704945804;22.53939428;-4.33953522
-24.17018902;-10.81427527;-7.753995543;-17.05664184;22.5745701;0.795751657;16.21322945;-17.67908557;-3.442195447;-19.40150672;6.287382119;-4.111329975;3.398089746;6.025625438;9.594425748;-9.431555142;0.878310598;17.02412136;-2.363841557
-23.51091236;-12.39037713;-9.496245934;-18.93630997;28.08341456;0.779156035;26.6624802;-14.9694823;-8.14708954;-19.46033729;0.338656458;-10.38865308;0.966592971;4.041802182;5.67674504;-9.389098347;-1.179471195;1.799111091;-1.192913133
-21.92034741;-12.30720991;-11.01666322;-20.66213293;25.15376342;0.773397169;28.02373696;-10.66649261;-8.557660265;-16.51871481;-4.269707929;-13.82456371;-0.356862661;2.702916689;1.82792764;-8.227506028;-2.494012355;-11.83105785;-1.009818628
-19.86241133;-9.86654624;-9.878671998;-19.85086572;15.5677129;0.631066317;15.37827456;-7.363270908;-2.087951764;-11.33436314;-3.833240166;-11.54960718;1.351836823;3.130570073;1.352619711;-5.704722694;-1.734581829;-10.65845631;-1.425869263
-17.7402514;-5.285554507;-4.947692421;-15.47796542;7.57434079;0.310321107;-7.392540548;-6.72636434;9.528028329;-5.607929609;2.380433686;-3.896920783;6.342400312;5.397838618;5.42808939;-2.30184554;0.838877886;8.088912539;-1.866008916
-15.729658;0.117566212;1.995065471;-9.020402201;8.519527944;-0.089628041;-30.13619808;-8.405197732;20.71790841;-1.337070948;10.78121908;5.239990269;12.4911455;8.367653763;12.0741248;0.927645979;3.626673631;30.64619728;-1.982371032
-13.87374719;4.352838948;6.783929469;-3.691391254;17.68870236;-0.396179333;-43.09910262;-10.49152706;25.51127743;0.018929189;15.51970439;10.56449083;16.33310518;10.39545074;17.3531555;2.882581682;4.921713561;33.52761529;-1.807315478
-12.30039913;5.68826742;5.463435589;-2.238108725;26.1770435;-0.488790793;-42.70295943;-11.17170773;21.59440114;-1.747261149;12.75451621;8.748983859;15.23723283;10.41015248;18.0288629;2.989423176;4.164281518;0.055845859;-1.595888845
-11.31049797;3.595666086;-2.871588412;-4.969387444;24.60918576;-0.390733414;-32.55851686;-10.26071898;12.03179915;-5.362543674;3.869679995;0.673217757;9.174903707;8.586423928;13.8061565;1.4538622;2.267683214;-65.13105378;-1.54672638
-11.21308009;-0.881615132;-15.182578;-9.536707292;12.24883314;-0.255959084;-19.78167137;-9.368209025;3.354409871;-8.544163441;-5.086170488;-9.145457864;0.767105066;6.123390721;7.520529295;-0.967850007;0.805651504;-135.252443;-1.64714525
-12.03563938;-5.634432705;-26.33204393;-12.62415462;-0.916354058;-0.255243026;-10.03522761;-10.50327505;1.368417818;-9.026896393;-7.599663156;-15.60925768;-6.41145713;4.321463559;3.103730803;-3.496370253;0.738085004;-176.4467065;-1.742232708
-13.38104681;-8.606364907;-32.34632925;-12.23025224;-1.901984679;-0.441656256;-4.971952043;-14.16382309;7.655679738;-5.635745915;-1.435999058;-16.42274976;-9.971085365;3.671174159;2.772634425;-5.76741127;1.685315351;-168.9722781;-1.72227291
-14.59807496;-8.838108451;-32.66077653;-8.825562713;13.67780096;-0.694453253;-3.156292291;-18.40942094;19.10218508;1.201181708;9.752458348;-13.37780566;-9.714612281;3.630123806;5.468212107;-7.879108864;2.295668512;-119.6529593;-1.634622665
-15.16437323;-6.791537313;-29.72996017;-4.621460038;36.26676598;-0.78648989;-2.625443894;-19.72214955;30.47241585;9.794770629;19.24795749;-10.67705787;-6.931797786;3.207236233;7.667095211;-10.06339789;1.375400722;-56.67431194;-1.617948847
-14.98584808;-3.813881461;-26.4934383;-1.67458506;48.8353223;-0.531888089;-2.461935153;-15.14429494;37.89420653;18.14869922;22.32542931;-11.64155985;-2.817377784;1.847713451;5.960427076;-12.29257227;-1.13428554;-10.64816306;-1.733847417
-14.37478313;-1.203347911;-23.86747109;-0.380901922;40.73697292;0.087394171;-2.389538142;-4.239505951;40.74804998;24.89972438;19.58375694;-16.31490563;2.500175725;-0.09032575;-0.47726038;-14.17003906;-4.092687401;4.291564199;-1.871148469
-13.73884394;0.42971308;-20.31465309;0.522101758;17.52290334;0.902852735;-1.608042285;10.45442522;40.98413748;29.68696403;15.9994621;-21.71264341;9.485823282;-1.615575422;-9.288557128;-15.20380234;-6.02347728;-3.771811758;-1.83388442
-13.26014426;1.122074484;-13.74604967;2.596954244;-2.303686383;1.659641053;1.2981932;24.7531845;40.94032969;32.85797719;16.60344702;-24.38987064;17.82063024;-1.875737768;-16.5676297;-15.22967242;-6.201815456;-14.69678182;-1.553727748
-12.84505857;1.039567787;-4.042044626;6.196082763;-2.117891147;2.165526962;6.958725295;35.01424083;41.64386626;34.90786426;22.35364344;-23.24072459;25.54423199;-0.791937514;-19.4815112;-14.62011055;-5.124723815;-13.20035578;-1.242171113
-12.37168675;0.054273464;6.029893656;10.03801684;17.99629584;2.389269421;13.80068575;39.78850969;42.77384709;36.16594852;29.50654549;-20.35041342;29.74656933;0.921757367;-17.99187712;-14.08753152;-4.048108776;0.769403811;-1.328418284
-11.97447683;-2.159001248;12.37342727;12.17645951;38.99957539;2.44955458;18.47745689;40.03717667;43.82955403;36.91575137;32.8556277;-19.30968053;28.47919065;2.315621089;-14.54571132;-14.22682197;-4.004512206;15.17494591;-2.19475554
-12.04872625;-5.604972162;12.41259856;11.56565527;36.22903998;2.513008221;18.35903678;38.03666335;45.07592879;37.66944758;30.06342856;-22.37933029;22.39744036;2.859516062;-12.12173196;-15.1489547;-5.070527079;18.30130372;-3.888108379
-12.90157708;-9.55398055;6.988207892;9.003390568;-1.442052679;2.677817951;14.12700631;35.87577659;47.29123939;39.15;23.53681642;-28.71347052;14.70780934;2.695144385;-12.14545675;-16.46838649;-6.389295724;9.279427475;-6.020078125
-14.32087508;-12.70537026;-0.163338722;6.749929842;-61.76121112;2.920117181;9.944554927;34.50636031;50.66811842;41.8304304;18.43506099;-34.93937878;9.277641656;2.359159492;-13.73423725;-17.607931;-6.836687973;-1.836892877;-7.94123746
-15.47026405;-13.90840599;-4.890682048;7.111887808;-116.9127109;3.128894535;10.47195574;33.73919577;54.11770816;45.37458475;18.59186278;-37.54905927;8.227853504;2.28027533;-14.64935087;-18.14337316;-5.766899493;-3.637718673;-9.086015548
-15.29892144;-12.91458124;-5.141403271;10.98567357;-143.4404939;3.192637371;16.77230445;32.89057032;55.85791506;48.55205032;23.71468665;-35.25537016;10.76531144;2.482120096;-13.10269105;-17.93155232;-3.314341674;6.267617959;-9.27178473
-13.23257488;-10.56115783;-1.716026703;17.31260942;-138.8921582;3.07132488;24.4776991;31.46600326;54.89643379;49.88608614;29.98066262;-29.65457254;14.0567024;2.680646744;-9.086719027;-17.00980998;-0.158855977;19.07444589;-8.772606424
-9.636038955;-8.217900587;3.017209451;23.72687455;-122.1527003;2.807155848;26.13115827;29.43702939;52.05725797;48.66955565;33.25883124;-23.93864573;15.38087192;2.59972593;-4.405373286;-15.47677182;2.924970572;22.43869839;-8.136709567
-5.658832266;-6.905422003;7.154161597;27.90548936;-117.2983419;2.476943331;16.38470392;27.07908339;49.48195274;45.57217536;32.13894513;-20.82463134;13.88624382;2.170821657;-1.568045056;-13.54618953;5.349786869;11.21406612;-7.868093674
-2.528589114;-6.733266344;10.37125587;28.76409813;-133.8880934;2.130430402;-3.695460387;24.64539353;48.863848;42.27616469;28.38068962;-21.23081782;10.72116491;1.449744643;-2.398190567;-11.725375;6.717601852;-7.838252204;-8.154906639
-0.79255284;-7.023297147;13.46360024;26.84222398;-159.3621839;1.763690277;-26.54746253;22.17679168;49.87234464;40.30873405;24.77379928;-24.39883804;7.673719471;0.391887079;-7.192140834;-10.85299921;6.73489558;-21.14528936;-8.781321268
-0.068787943;-6.937741413;17.03411106;23.77056012;-169.4178522;1.345304835;-42.53907149;19.56079619;50.1934141;39.91903886;22.56926515;-28.95862101;5.600993728;-1.224351827;-14.7297266;-11.78080525;5.274254633;-18.79392666;-9.252628892
0.512072754;-6.083567613;20.64943511;21.23567059;-147.834246;0.870723816;-45.84584438;16.74607743;47.31100804;39.89293128;20.76779934;-33.86406976;3.94433189;-3.587121723;-22.89837675;-14.79879011;2.582617847;-1.801626028;-9.059861865
1.527418998;-4.675443979;23.16479465;20.07348378;-99.83304398;0.398434488;-37.68434493;13.92924194;40.66637947;38.51710279;17.67484465;-38.53770321;1.592933803;-6.518129055;-29.50551508;-19.21308429;-0.608272372;19.3023532;-7.952207281
2.762443095;-3.258136067;23.77626171;19.97127129;-48.50933786;0.035390956;-24.81742261;11.57441938;32.43794581;35.00250613;13.0381115;-42.43571913;-1.794730805;-9.344711552;-32.98217453;-23.4820784;-3.298709099;32.75851492;-6.085234934
3.384511878;-2.321152341;22.74317974;19.87178833;-17.53136857;-0.122275642;-14.70551124;10.23869941;26.24974582;30.27557898;8.655214903;-44.74540859;-5.212321882;-11.16128774;-32.84604884;-25.9432184;-4.70985066;33.65191789;-3.967237873
2.651115267;-2.115485075;21.12574996;18.77678569;-14.0533285;-0.052293892;-10.92207044;10.29125108;24.77032909;26.4916077;6.880993784;-44.66019362;-6.94820884;-11.33078243;-29.82057371;-25.69714237;-4.700383064;25.66170475;-2.220651856
0.583981901;-2.692065324;19.84519129;16.4449349;-25.10653709;0.173516456;-11.89443236;11.6874102;28.03611672;25.59162977;8.489096168;-41.99096589;-5.859421493;-9.849772632;-25.49275046;-23.04898254;-3.766037482;16.16716022;-1.276110888
-1.934586439;-3.951841628;18.97577984;13.57062848;-29.55841352;0.429716041;-13.31340066;13.95572689;33.71660918;27.9602319;11.96129783;-37.46992995;-2.196634789;-7.292130887;-21.5365567;-19.20551137;-2.599400981;9.770533822;-1.167819168
-3.732521285;-5.559827475;17.89703738;11.35954921;-15.3834082;0.613333516;-11.89736859;16.45163645;38.97383219;32.16830755;14.92516774;-32.36907566;2.647858308;-4.386375024;-18.84220332;-15.47162262;-1.561767851;5.80936972;-1.55398011
-4.151760455;-6.838055555;16.08963456;10.78991879;11.61620528;0.704188055;-7.572095782;18.75473469;42.363424;35.96352707;16.40043432;-27.71378733;7.162068921;-1.57912119;-17.10629425;-12.54420733;-0.504838018;1.167571532;-1.95290781
-3.472477423;-6.900526982;13.76639888;12.03346934;33.90362053;0.768287984;-2.766899074;20.94567401;44.3409502;37.75019926;17.68114329;-23.77434448;10.61162159;1.068847248;-15.24978931;-10.37940253;0.917886089;-5.167712305;-2.042833715
-2.647080602;-5.11925893;11.72785473;14.38749534;37.23358847;0.903320941;0.089502099;23.52576618;46.19973769;37.48914826;20.90154164;-20.26793239;13.1414568;3.612057859;-12.4514371;-8.6206684;2.742461959;-10.49386857;-1.825927266
-2.567874982;-1.646220066;10.59941478;16.72411055;22.02;1.166190934;0.584573059;26.97308933;48.56;36.45367655;26.53976103;-17.03185913;15.1729534;5.869029486;-9.034714054;-7.135057978;4.464619033;-11.1506645;-1.552325835
-3.434865857;2.470965091;10.20359994;18.13614014;2.24447749;1.533723825;0.313529256;31.22523143;50.77585104;36.15906244;32.26935708;-14.47387417;16.77495171;7.352574042;-6.438446415;-6.176841416;5.325073217;-6.711844622;-1.47699688
-4.68130957;5.804147721;9.689353883;18.37319756;-6.3064089;1.920686282;1.177545268;35.50007813;51.69091143;37.33509619;34.51266134;-13.31266592;17.6029392;7.582119683;-6.159337436;-6.082036901;4.884159328;-1.301140398;-1.646450991
-5.4610825;7.398675098;8.318972542;17.85213286;1.724273568;2.235274025;3.666355889;38.66499875;50.93237422;39.64191862;31.60316793;-13.81633774;17.3843466;6.515160445;-8.419086518;-6.838573243;3.382856256;-0.487284723;-1.881252838
-5.277594905;7.326220429;6.185330674;17.32304207;18.33407726;2.425955012;6.598570385;39.94713448;49.47319936;42.1527283;25.78641154;-15.28324634;16.38603905;4.695388021;-11.65774192;-7.980666132;1.55212026;-6.427304465;-1.954567235
-4.269308193;6.469602825;4.183218378;17.44880056;30.03252804;2.485638575;8.37587191;39.46424465;48.88515078;44.04267966;21.99371436;-16.36238755;15.33204648;2.93455998;-13.41431327;-8.938802302;0.009207472;-15.66207593;-1.802369896
-2.986065265;5.678452849;3.238188134;18.51764697;29.17227075;2.418787486;8.483157504;38.13080485;49.9043429;44.89384558;23.99063324;-16.07016282;14.79195178;1.745534619;-12.07524654;-9.535294382;-1.245039583;-21.65614423;-1.577931086
-1.908029931;4.977943533;3.477028277;20.35069089;19.26328678;2.210240792;7.852573214;36.95370847;51.57869747;44.50208243;30.92383035;-14.67674668;14.60044468;0.981240026;-8.201551819;-10.1572948;-2.778478297;-19.96181458;-1.50405003
-1.129640976;3.509533742;4.085720121;22.3588342;10.58870297;1.832099218;7.820591485;36.23425338;51.80567647;42.57450185;37.30746076;-13.64586444;13.88655256;-0.006518313;-4.354999307;-11.41484208;-5.145520395;-11.59533;-1.659733083
-0.436334118;0.29669158;3.993275555;23.71533759;10.76568645;1.288237255;8.712892101;35.32;48.90426723;38.77377539;36.88242944;-14.56087686;11.76312832;-1.791025291;-3.437770922;-13.55739872;-8.259673107;-1.850400503;-1.90003418
0.363874052;-4.767461968;2.794636591;23.65342493;18.64809483;0.656606957;9.434795709;33.15524568;42.98917621;33.15944555;27.57185245;-17.8420273;8.127057834;-4.331596243;-6.707758467;-16.15820764;-11.27766366;4.21103171;-1.988663517
1.201948245;-10.52961656;1.125286171;21.84703745;26.37963163;0.083415403;8.528832923;29.24284966;36.05247127;26.59968351;13.60628968;-22.29860608;3.886314016;-6.916382647;-12.91789839;-18.36198361;-13.14104477;5.578909582;-1.825466682
1.831266297;-15.14117464;0.183368301;18.69081048;27.06247279;-0.280958158;5.788668357;24.26404345;30.67429166;20.64752165;2.889736289;-25.92788634;0.385711935;-8.658506729;-19.20173251;-19.50828257;-13.36853985;5.273949027;-1.555241205
2.136387934;-17.17590742;0.816822595;15.22585287;20.90323314;-0.364885566;2.905272095;19.8238061;28.33584218;16.7982716;1.357213839;-27.37171861;-1.540163845;-9.174758763;-23.02397266;-19.61325934;-12.46330264;6.896622426;-1.444535763
2.343417064;-16.46753834;2.92463519;12.62088532;14.56059806;-0.216795165;2.359305001;17.45666512;28.56543609;15.6104376;8.53511527;-26.89814226;-2.153521352;-8.918942835;-23.75130574;-19.30760912;-11.59189442;11.13396272;-1.627719687
2.890921987;-14.08016675;5.610159596;11.46508165;14.71246098;0.027862253;5.304235367;17.61648576;29.46245737;16.37191055;17.74479954;-26.14324721;-2.59379784;-8.896426359;-22.7542949;-19.2898943;-11.76833345;15.38409711;-1.957514398
4.042650853;-11.51599384;7.886853675;11.37899972;21.87852049;0.230813504;10.22048297;19.40909387;29.11179191;17.61913241;20.91416172;-26.82700437;-4.030404819;-9.953498606;-22.10940361;-19.76150244;-13.16424749;16.60164806;-2.116424911
5.591825561;-9.811838007;9.336498857;11.31901545;30.00133574;0.324652286;13.69923516;21.26669948;26.82949456;18.15590621;14.45880221;-29.44700015;-6.817102414;-12.15387029;-22.99585391;-20.31227269;-15.05396928;14.48888848;-1.910740633
6.964580577;-9.148743683;10.25606604;10.44605226;31.95870058;0.325385123;13.03860659;22.04749195;23.43643505;17.81546341;1.879349247;-32.92892911;-10.22669073;-14.68805599;-24.99271522;-20.32976462;-16.39620854;11.96826997;-1.485120313
7.690781179;-9.088118825;11.3059789;8.921376678;25.92771562;0.284522982;8.699426359;21.73796447;20.5386209;17.40553969;-8.792137393;-35.4275386;-12.88858843;-16.37291786;-26.66481905;-19.55939254;-16.57292935;12.53080049;-1.239753139
7.860386632;-9.048035632;13.03268966;7.941229108;16.92962358;0.229485046;4.473366099;21.27184896;19.45436144;17.917994;-10.72063849;-35.59130286;-13.57997173;-16.38743651;-26.80241382;-18.32889382;-15.73019541;17.00755111;-1.48421516
8.141426967;-8.573477376;15.60634964;8.862339463;12.29110903;0.145296832;4.810999535;21.67341448;20.52379979;19.65099802;-2.936902901;-33.32923407;-11.86679716;-14.7519502;-25.27185368;-17.25241021;-14.52432644;22.81190952;-2.109787023
9.27087333;-7.313636969;18.81791465;12.02510716;15.1392889;0.008508042;11.04296562;23.22511753;23.12054512;21.92970148;9.323606962;-29.6120891;-8.284397814;-12.26595342;-22.89555537;-16.67240232;-13.54817676;26.33920611;-2.579044636
11.38357036;-4.980882548;22.16728185;16.2220738;21.68048278;-0.165923112;19.40995631;25.27726714;26.16965599;23.60716563;18.56675461;-25.63348947;-4.061826813;-9.995849029;-20.63532134;-16.30245924;-12.91344504;26.23910108;-2.282576065
13.73301955;-1.544365439;24.93719385;19.33551183;24.59097095;-0.316973248;22.79874841;26.76643871;28.73780695;23.90698872;20.16061673;-22.08260258;-0.59264259;-8.675178657;-18.86059695;-15.34779644;-12.26966885;24.47468251;-0.998166195
15.09473811;2.460417738;26.34215569;19.75491069;19.48901977;-0.384708535;15.41966677;26.962566;30.36868793;22.93364277;14.95588144;-19.0420148;1.119034988;-8.382185703;-17.27212381;-12.99087725;-11.15858194;24.17957319;0.920014648
14.6114851;5.925374548;25.87284778;17.51329517;8.852738584;-0.373991261;-2.715716132;25.85423092;31.0907654;21.4904049;7.880433195;-16.40709504;0.855392332;-8.635160398;-15.3976004;-8.87652086;-9.368976941;26.3483439;2.789253065
12.46078907;7.732138169;23.72703951;14.24169084;0.061467386;-0.374409357;-24.86024003;23.94981369;31.20358055;20.41824871;4.014261545;-14.2972551;-0.722992322;-8.777082178;-13.1001257;-3.298130804;-7.037115673;28.52309731;4.093213459
9.819002196;7.606304939;20.9639926;11.95720741;-0.667751898;-0.508066719;-41.16232916;21.7672873;30.99177815;20.02118214;5.239097351;-13.03768357;-2.382729273;-8.380492258;-10.63605409;2.939005327;-4.506495378;26.81410047;4.825885953
8.112142105;6.560180607;19.07815992;11.64229212;6.749830631;-0.837719752;-44.62448478;19.48691376;30.49806999;20.00804871;9.694017254;-12.77245164;-2.956421365;-7.445513924;-8.307881026;8.79259094;-2.149581783;19.49495796;5.409027489
8.08744926;6.389349107;19.12097412;12.74536361;16.48787447;-1.305706211;-35.36405698;17.01733733;29.46889161;19.91097239;13.89841175;-13.14887984;-2.017752322;-6.321503324;-6.159421779;13.23037279;-0.3079992;8.902358592;6.263191277
9.381800453;8.420310265;20.96245649;13.96061056;21.80157991;-1.755379502;-20.24827103;14.31922886;27.5372146;19.55327677;15.49741215;-13.44354523;-0.170009766;-5.443544842;-4.075315962;15.44225347;0.685220396;-0.14982309;7.401234195
10.88609222;12.41252464;23.31336763;14.55715751;20.41018255;-2.024983834;-8.224183299;11.61688284;24.57379355;19.15010138;14.5112663;-13.07034957;1.31024732;-5.05815026;-2.181544606;15.08923183;0.554329878;-4.103000546;8.389506559
11.6013823;16.5404228;24.59670887;15.0534781;15.80594865;-2.04882377;-4.679492004;9.277281223;20.97285584;18.99043313;12.51051063;-12.03644696;1.308414102;-5.096385637;-1.072681631;12.55224598;-0.734676748;-3.266642405;8.706265999
11.32505933;18.6;24.05859949;16.60469088;13.69931712;-1.895867851;-8.714710455;7.480513109;17.59946974;19.03044151;10.85138651;-10.94147833;-0.369665468;-5.259467466;-1.499837799;8.975054469;-2.788870598;-1.070486914;8.189642422
10.66773405;17.59030469;22.2534492;19.62551831;16.93317512;-1.723090264;-14.91904278;6.014051229;15.32457921;18.79586819;9.615389872;-10.51620365;-2.882638594;-5.256665981;-3.667883107;5.899849628;-4.828834165;-0.74807403;7.195699005
10.44293529;14.44851304;20.50408225;22.91593017;23.25938772;-1.680108011;-17.91475162;4.409893355;14.41385101;17.70566996;7.983314463;-11.09642402;-5.001974201;-5.03660514;-6.739496947;4.556510342;-6.038784145;-2.516474907;6.337090169
10.95448327;11.33419116;19.77539315;24.20892122;27.64779667;-1.827517435;-16.1053516;2.325829412;14.24027894;15.55457172;5.407019967;-12.46526404;-6.048011579;-4.840256713;-9.084735685;5.196341142;-6.038444973;-3.774105865;6.024611438
11.75221395;9.999145291;19.90003906;21.86223168;26.83130119;-2.110345256;-12.02539295;-0.151255376;13.62981314;12.75368026;2.339111362;-14.14793322;-6.374948796;-5.004953277;-9.245878077;6.943717414;-5.134919598;-2.004809067;6.18623494
12.01820729;10.51872032;19.80273472;16.36495891;22.03477307;-2.385833502;-9.52194295;-2.531745822;11.6842944;10.13157329;-0.137827271;-15.83540922;-6.987961245;-5.622450108;-6.967441955;8.333530473;-4.139020868;2.434552635;6.370525457
11.23026438;11.37208108;18.51204336;10.34807255;17.65659034;-2.478460225;-10.37655785;-4.242750839;8.508952017;8.454240152;-1.324321879;-17.52034217;-8.563456255;-6.291169264;-3.502907907;8.209221425;-3.853273669;6.348239583;6.112839391
9.547291097;10.77022167;16.06309498;6.92426107;17.29379104;-2.238734626;-13.08618936;-4.96618247;5.271453047;8.026883417;-1.508613268;-19.22916475;-10.65349458;-6.189351183;-0.900562882;6.374345931;-4.592032273;6.625055917;5.243739731
7.622016072;8.136101183;13.48860094;7.537143238;20.7067422;-1.598151646;-14.479489;-4.740433364;3.489152296;8.639752825;-1.552416798;-20.64607015;-11.75783342;-4.506055661;-0.721730105;3.57226566;-6.062481378;3.381236477;3.911354489
6.036043649;4.556810431;11.9027069;10.95453885;24.29224023;-0.614673707;-12.48888669;-3.80774744;4.034017041;9.827467129;-1.865221214;-21.06157922;-10.29211032;-1.008134225;-3.071002343;0.881031295;-7.646511616;0.339593311;2.36860112
4.857550887;1.901892173;11.49748789;14.19427903;24.44829465;0.512469286;-7.671690031;-2.408630398;6.580573292;11.18841574;-1.801638055;-19.80204133;-5.775209931;3.622925434;-6.593835039;-0.966708687;-8.824437322;1.896869041;0.776765478
3.696712855;1.386578296;11.36937775;14.68808837;20.74471408;1.488592561;-2.410039063;-0.724563529;9.893071212;12.5308182;-0.158784456;-16.8418615;0.639075214;7.952818532;-9.404383685;-1.842507512;-9.4184504;9.3367552;-0.780279759
2.196926314;2.754479708;10.37041809;12.05754389;16.15610201;2.035885013;1.208748224;1.028138469;12.70847314;13.81873447;3.58127761;-13.07188801;6.694436444;10.42267275;-10.27242473;-1.979228242;-9.536565822;19.50604115;-2.122336625
0.525462784;4.671079751;8.263094222;8.228784552;14.31451962;2.027015193;2.857562436;2.533060599;14.53575499;15.07141433;8.389879788;-9.914989305;10.272399;10.10275519;-9.272592499;-1.579637;-9.363994565;27.18316798;-2.876802421
-0.572908016;5.896833443;6.156846826;5.93167319;16.3276401;1.557866862;3.657543481;3.49065051;15.80174554;16.35871022;12.11715332;-8.484957702;10.50750247;7.131657368;-7.528078289;-0.694054412;-9.037082613;29.16703218;-2.635277412
-0.229644187;6.222470205;5.795780158;6.82979369;19.94733978;0.897462547;4.701181404;3.85719897;17.31490194;17.86729283;13.03338257;-8.870858548;8.088949754;2.589581419;-6.314599584;0.556072294;-8.687323194;26.62732575;-1.279332663
1.936347635;6.451692685;8.244791913;10.66982776;21.68553256;0.33088077;5.99282313;3.963022256;19.52965745;19.87672227;11.28462547;-10.07795194;4.666633097;-2.094684624;-6.179585248;1.730939617;-8.52927383;23.784804;0.814477553
5.525915212;7.577370559;13.03857454;15.88988771;19.889813;-0.006951653;6.770202251;4.320678019;22.17146447;22.53953623;8.991008039;-10.69716968;1.859191655;-5.829483118;-6.651470743;2.178571669;-8.811851851;24.16257451;2.921714119
9.598838286;9.93759681;18.47045055;20.94175141;16.07270841;-0.190871633;6.678327791;5.206494358;24.417994;25.57445099;8.739160927;-9.85426596;0.510273841;-8.246697658;-6.678301646;1.510669931;-9.615307899;27.67696121;4.40696233
13.23652945;13.03480654;22.75010918;25.14661256;13.45090487;-0.413849313;6.411449431;6.347521085;25.38720787;28.15362499;11.54133538;-7.792960471;0.533996211;-9.626686827;-5.460943005;0.031384437;-10.68684846;30.98788946;5.117460965
15.98828564;16.02584375;25.0727044;28.50243105;14.11518701;-0.811957227;7.053700402;7.020442732;24.53989342;29.20044388;15.8640042;-5.706158346;1.247024658;-10.50118675;-3.121424942;-1.358076016;-11.53429844;30.62917993;5.408005491
17.89653451;18.30572364;25.78949313;30.88187583;17.33595944;-1.340205093;8.790143937;6.551432034;21.82;28.01587943;18.5829655;-4.944291029;1.847851678;-11.24093628;-0.771340235;-1.828658635;-11.77926392;26.07613435;5.771450584
19.16362985;19.63535349;25.68387969;31.57437165;20.36166928;-1.796923878;10.43795865;4.851603037;17.64504752;24.84034278;17.24071136;-6.135760436;1.770439069;-11.87961171;0.081267517;-1.3588644;-11.49839519;20.10860847;6.386888459
19.80304793;19.81729388;25.09897691;29.71051255;20.82952544;-1.978849627;10.50114267;2.547860074;12.9008558;20.90448464;11.92366386;-8.79153617;0.840702829;-12.22288726;-1.558659588;-0.87082447;-11.22690788;16.30393472;6.971681772
19.58562213;18.42288826;23.6966117;25.190434;18.59698918;-1.84467765;8.847434283;0.567659169;8.879717651;17.81920566;5.300058594;-11.63848712;-0.718000114;-12.10063697;-5.507698435;-1.551545685;-11.55569563;15.98491719;7.058225392
18.29839164;15.01510767;20.97472513;19.18581818;15.49434008;-1.556128301;7.256657998;-0.520095215;6.921162778;16.62060754;0.728405547;-13.46398878;-2.403476401;-11.56024728;-10.42943992;-3.857124645;-12.62166611;17.28589172;6.439358229
16.04943842;9.752131403;16.96178142;13.61507331;13.44294693;-1.361264219;7.990292056;-0.887095606;7.683223541;17.08349535;-0.178702495;-13.94164246;-3.684936497;-10.87623656;-14.58724114;-7.044247615;-13.93534737;17.00647875;5.373154387
13.32231855;3.759475452;12.3895955;9.912547388;12.77869148;-1.408932546;11.48766904;-1.232875436;10.41916274;17.80564685;1.291515233;-13.91441042;-4.322801698;-10.38465107;-16.87420737;-9.69490374;-14.74445212;13.46903404;4.351506888
10.71976173;-1.251342747;8.19334203;8.094486788;12.26872005;-1.636381328;15.4384324;-2.132381263;12.93351553;17.08636941;1.964185735;-14.92169888;-4.566320515;-10.25031672;-17.43121637;-10.86551229;-14.67417214;7.851203395;3.633502454
8.616866886;-3.989518371;4.853056029;6.938943868;10.64654459;-1.812948237;16.51149492;-3.458608595;12.61921544;14.08694665;-0.777836825;-18.20062087;-5.020943029;-10.30165662;-17.3891053;-10.90655086;-14.10602116;2.971029274;2.970178832
7.018342394;-4.459347477;2.23391483;5.17830619;8.098087653;-1.701203016;13.56742601;-4.345676895;8.181649744;9.53438085;-6.91714779;-23.73105037;-6.178994425;-10.03232802;-17.87340905;-11.2057586;-13.92603422;0.78834881;1.792713358
5.723596334;-3.942403638;0.071192517;2.734429571;6.258714104;-1.211652389;9.437485636;-3.736787572;0.924602693;5.481955331;-13.61839272;-29.93;-7.908189936;-8.796918054;-18.98695016;-12.98820229;-14.78370116;0.891129774;-0.271052937
4.626137601;-4.014632442;-1.421686867;0.958925613;6.736837419;-0.443194956;9.148075841;-1.108340928;-5.503322789;4.221327785;-17.06642904;-34.2759354;-9.320113909;-6.138098303;-19.57680183;-16.13831936;-16.43895987;1.170727085;-2.988997876
3.860621451;-5.333140722;-1.510190555;1.645597649;9.571930606;0.40140689;15.46283367;3.164797009;-7.056987818;6.980508629;-14.99432236;-34.5983047;-9.219475479;-2.098704269;-18.05187803;-19.06490995;-17.75486588;-0.140597388;-5.588194022
3.660521653;-7.149573806;0.375671387;5.589291741;13.08520266;1.142274833;25.33257828;8.049798032;-1.828740143;13.1916173;-8.119161402;-30.31919746;-6.887064798;2.660872368;-13.6978159;-19.81295919;-17.40605041;-3.010228382;-7.257419597
4.063277352;-7.931372175;3.80813249;11.83921577;15.28088891;1.693373819;30.7208826;12.49063664;8.544976555;20.77192638;0.448556541;-22.87776723;-2.63376517;7.054167395;-7.474204066;-17.5877644;-14.80275031;-5.9419388;-7.684779805
4.749198333;-6.579179091;7.216486717;18.23512114;15.5296407;2.04541959;24.00394502;15.96010971;19.68916135;27.24396387;7.287450115;-15.01911465;2.323358422;10.02039663;-1.599656471;-13.4695749;-10.5450584;-7.576386132;-7.201634925
5.189563147;-3.27305394;8.741573288;22.79516229;15.01910484;2.208929981;4.213782486;18.56540445;27.08778596;31.01378376;10.71038993;-9.334816477;6.613754878;11.0109027;1.848348864;-9.713597455;-6.078792765;-7.924583091;-6.445537926
5.005279309;0.669629636;7.521892253;24.87838;15.59013847;2.188169163;-20.84912906;20.71088345;28.75524868;32.048185;11.40478245;-6.949799814;9.54745761;10.22240497;2.27781465;-8.1646394;-2.832461032;-8.113450542;-5.859281795
4.242743998;3.715817959;4.38538812;25.27185182;18.03351181;2.007500662;-38.82220846;22.63541265;26.16892072;31.58655874;11.4133673;-7.178556326;11.40112788;8.418103907;0.812662938;-9.033048992;-1.479679643;-9.039119789;-5.454902717
3.331031458;5.026655876;1.324573748;25.22927339;21.37901146;1.744949032;-40.67150086;24.17342359;22.87378829;31.13505379;12.3841465;-8.32842588;12.95080368;6.439690648;-0.790503487;-10.97784693;-1.810890699;-10.34614528;-5.001003328
2.745915609;4.69093018;0.092799029;25.28856835;23.78010609;1.512783152;-26.6127373;24.86117113;21.82354849;31.42629523;14.41470191;-9.040161938;14.64504496;4.731369602;-1.664156967;-12.36915306;-3.174491051;-10.73938862;-4.394550199
2.646489181;3.273174828;0.975381978;24.80445094;24.15446373;1.379378292;-5.728771823;24.24239527;23.38;32.01041716;16.2207259;-9.196149612;16.09846631;3.199041697;-2.517832279;-12.64776594;-5.016925255;-9.268314816;-3.822016451
2.765887038;1.227426697;2.655721398;22.51814418;23.09248236;1.298478172;10.33858733;22.1316915;25.33428436;31.69515695;16.31076571;-9.773861033;16.32233065;1.489381692;-4.880804918;-12.6566994;-7.06572602;-6.272384979;-3.542762356
2.622560055;-1.28895724;3.227022803;17.6795772;22.24875757;1.127128076;14.86736621;18.70080015;24.79243686;29.482053;14.16506971;-11.82849996;14.51075768;-0.541768368;-9.506648919;-13.71291356;-9.107654755;-3.052582658;-3.5242338
1.862847386;-4.170131057;1.523818127;10.85964294;22.81218968;0.746512523;9.357401274;14.42101633;20.44594203;25.33823006;10.55564384;-15.44506454;10.75624562;-2.554187134;-15.31268594;-16.2583271;-10.72155622;-0.625681656;-3.342826522
0.464395554;-7.106429487;-2.224658297;3.87142179;24.45085908;0.202817278;0.830829063;9.963667005;13.5788839;20.29744855;6.903221335;-19.50003906;6.131395121;-3.882231126;-19.85555807;-19.27747848;-11.35501636;1.172793795;-2.541340397
-1.323476341;-9.69518938;-6.792083711;-1.124086545;25.65269096;-0.254096361;-4.057001275;6.099035425;7.19829771;15.87325638;4.299004197;-22.41750281;2.077886489;-4.028185853;-21.08594246;-21.01122769;-10.76429671;3.340373464;-1.186774363
-3.197933199;-11.82697795;-10.92779923;-2.729753621;25.10445499;-0.292453492;-3.285982148;3.548714466;4.057588657;13.23198302;2.972202847;-23.31032326;-0.430447605;-3.108852182;-19.00606478;-20.39480792;-9.420078125;6.48708263;-0.111326836
-4.96944077;-13.87750375;-14.07069388;-0.981109045;22.84374859;0.285932488;0.689417147;2.756679992;5.037442162;12.68568376;2.512223299;-22.59795101;-1.349844335;-1.878491824;-15.83447613;-18.03018999;-8.42234516;10.01234051;-0.51548182
-6.563265829;-16.37217347;-16.33986305;2.743084591;20.17738863;1.388728726;4.373485605;3.655090249;8.92043798;13.76947094;2.502163814;-21.61693074;-1.384639602;-1.253590348;-14.43530699;-15.87543563;-8.852346774;12.56551617;-3.136499649
-7.927027267;-19.34347858;-18.02979339;6.433584372;18.50321983;2.65783107;6.35666159;5.594729485;13.48816554;15.71669742;2.931173674;-21.54755358;-1.38570809;-1.644892636;-16.17625701;-15.87330989;-10.99852379;13.37354752;-7.599738285
