Channel 1 - P4;Channel 2 - O2;Channel 3 - P8;Channel 4 - T8;Channel 5 - C4;Channel 6 - Cz;Channel 7 - Fz;Channel 8 - F4;Channel 9 - Fp2;Channel 10 - F8;Channel 11 - Fp1;Channel 12 - F7;Channel 13 - F3;Channel 14 - C3;Channel 15 - T7;Channel 16 - P7;Channel 17 - P3;Channel 18 - O1;Channel 19 - Pz
-3.202534778;-10.62260081;13.05985518;-19.12922159;75.46732666;-6.159719458;138.4483869;4.873591704;30.56296266;-1.637715701;38.05820288;39.9918112;40.94316239;2.012751556;12.48199009;35.03739199;-5.095618902;121.9461014;-2.999660079
10.29608615;5.08380696;33.02151162;-0.803601834;7.983292131;-4.439097142;126.3598042;5.764218387;34.70972044;9.216595381;43.62577299;47.87946946;39.14774277;11.79275174;25.2684774;49.79855909;5.300107103;53.21683031;3.917084659
19.07964585;21.33727252;46.06550564;20.62136354;-60.92491335;-1.744669362;65.73593931;6.125120867;32.57736891;18.08948636;39.1866634;42.25391482;26.64500647;19.76277577;32.99558215;51.17213977;13.40647404;-50.03555047;8.999467189
20.35388208;31.55118329;47.98424047;35.95894342;-91.920797;-0.1027938;-4.16585881;6.437927988;27.63290044;22.06007813;30.70224169;29.24666308;12.29247217;22.63999568;33.86039256;41.60767207;15.2065577;-131.2445609;10.19948479
15.53034197;32.43396785;40.21962581;39.58692161;-72.92269046;-0.398605608;-41.702735;6.985285823;25.13711569;21.24153971;26.23588294;18.73374943;5.021439934;20.42824123;30.11594875;29.17834482;10.80273139;-151.7693728;7.775699416
8.916621145;25.9488545;28.51678644;32.4644979;-25.76399576;-1.981413502;-31.85301475;7.30215947;27.67541313;18.08545227;29.69125229;16.89687049;7.507799102;15.83332993;26.05883856;21.61193435;3.911502814;-117.3134833;3.985889869
4.641705978;17.75983136;19.01469418;20.90426383;11.87531175;-3.411767763;6.146118509;6.30891559;32.91592465;15.20606751;38.17018291;22.21080232;14.87942059;11.99657763;24.83300686;21.28933262;-1.032499974;-69.66064895;1.47998347
4.108897635;13.30412517;14.57667699;12.15652521;14.46410019;-3.654439649;37.01088882;3.207283489;35.51350066;13.56261614;44.76937963;27.66522538;19.16249746;10.35673836;26.41192976;24.63193847;-1.911959353;-51.64452358;1.570788644
5.71184366;14.34743076;13.81384398;9.950824656;-14.91434285;-2.763601925;37.73493964;-1.502665148;31.63804131;12.36611991;44.27087987;26.99366532;15.70876368;10.1353933;28.09548601;25.7934833;0.071450961;-74.37244011;3.580191682
6.726062321;18.43168775;13.13460827;12.90899854;-50.7565548;-1.612908024;13.39147963;-5.806062362;22.40984387;10.52759389;37.081335;19.68346244;6.524872446;9.544436816;26.90152834;21.44051489;1.907589652;-112.6180212;5.607739208
5.672725369;21.36140151;9.939191836;16.50003906;-66.92111092;-1.026594988;-10.85093938;-7.176782098;13.39758875;8.18362173;28.4926418;10.88678082;-1.841828932;7.509951558;21.88270654;12.97526549;1.36935618;-130.1492729;6.024391408
3.28198685;20.58103837;4.450777861;16.70866808;-55.74458076;-1.099768454;-13.09804329;-4.252023157;10.53608459;6.879576657;24.25065662;6.729051785;-3.787408854;4.491655595;14.65254708;4.899815956;-1.39131384;-112.1206947;4.547084584
1.489216316;16.78106104;-0.99333121;12.65545009;-30.36544411;-1.243782884;6.65093468;2.031086169;15.69724268;8.252687657;26.23421925;9.200757581;1.06606166;1.897886243;7.953342672;1.08150191;-4.311919854;-76.95369771;2.189394723
1.534708595;12.69287888;-4.253547438;6.554243203;-10.93067258;-0.827865689;27.54394007;8.790420378;25.36659808;12.40567516;31.58958555;14.85499677;8.059964392;0.7931774;3.630548583;2.04033467;-5.297947181;-58.58944311;0.302680249
2.8680558;10.40519397;-5.192872634;1.542365555;-7.945158183;0.201060406;26.49455363;12.93429792;33.34023957;17.44113129;35.58556855;18.10602002;11.62;1.07506688;1.675944925;5.180907947;-3.840629392;-75.40758056;-0.425234628
3.742665094;9.669262265;-5.499492123;-0.639499146;-16.44735584;1.259690726;-1.96788158;13.09130762;35.20388288;20.6343146;35.48271871;16.06482406;9.681870024;1.749603543;0.922408196;7.355370908;-1.127793905;-112.9390533;-0.239690606
2.890068359;8.635456021;-6.850831668;-0.396146982;-23.91685011;1.639725708;-41.03259891;10.33606435;31.12831682;20.33793825;32.24317715;10.77504152;4.868680726;1.92721113;0.515624355;7.406672897;1.221702735;-135.1365892;0.22483189
0.767428345;6.201531395;-9.150606844;0.748840324;-22.99265046;1.104702518;-65.20764055;7.184943536;25.07;17.11152332;29.05856051;7.147267537;1.800864494;1.585588956;0.710495094;6.673835278;2.556321024;-114.5097236;0.704217466
-0.710906184;3.645505095;-10.43465914;1.742301742;-17.24314379;0.050286669;-60.23988517;5.642370369;21.37670569;13.21995844;28.38190359;8.591736034;3.098029213;1.449287276;2.288626471;7.333710494;3.5178736;-55.75486258;1.566523692
0.27395786;3.815772915;-8.544117114;2.733762857;-15.82520047;-0.877436495;-33.0667986;5.792182702;21.6564642;10.95972403;30.1117952;14.15019281;7.445774205;2.175951696;5.248624135;10.21371471;5.137283382;6.581065276;3.363722975
3.922630353;8.381484424;-3.116912968;4.526323448;-23.2645703;-1.333538287;-4.681197895;5.976456007;24.21423415;11.14478365;32.2066553;19.4382687;11.08143842;3.644222553;8.148410242;13.94515368;7.626471583;34.05435921;6.115824313
8.591545422;15.56654752;3.839100658;7.516358173;-34.41405882;-1.503665121;6.973016275;4.3436253;26.07027811;12.84703927;32.76120406;20.38245372;11.11583728;4.998052628;8.914943553;16.02933182;9.991827944;12.51098533;9.013737227
12.03609425;20.64665622;9.3373696;11.23219378;-39.08768507;-1.837720993;-0.347983906;0.487147649;25.57440152;14.41955741;31.49558622;16.47773776;7.766695829;5.390203312;6.571906468;14.78430923;10.80587147;-39.61223521;10.86526307
13.09480401;19.25984823;11.66626838;14.86468346;-31.63220677;-2.564340719;-14.38727861;-4.124248494;23.47097157;14.85961284;29.4831396;10.92662051;3.801535972;4.744048024;2.389679538;10.55513171;9.440378787;-87.81178489;10.96181727
12.46661303;11.08102677;11.67749052;18.16130391;-16.34941255;-3.440794024;-20.67174125;-7.213725447;21.84956812;14.44802922;27.74782601;7.813621789;2.004626921;3.859694929;-0.684566019;5.345654184;6.686076528;-107.8536971;9.663417586
12.01209804;0.801769893;12.06391337;21.70421598;-3.851139541;-3.957162923;-14.47702693;-7.351383694;22.21534803;14.31784627;26.33844855;8.912781813;3.043064316;3.787101527;-0.050092163;1.36493983;4.242862801;-100.6279435;8.203681707
13.20211909;-4.700384303;15.20461408;26.21872785;-1.875242458;-3.794268845;-2.761476251;-4.871148796;24.42248358;15.47462361;24.8015837;12.78077327;5.473385172;5.021711974;4.613829833;-0.271508136;3.527588716;-85.63842339;7.833609156
15.96497836;-1.101836645;21.28227246;31.54833779;-8.963760951;-3.112944713;4.05488994;-1.392024876;27.19057391;18.10071131;23.41753949;16.59511047;7.558559278;7.194072331;11.07097305;0.203036013;4.774467505;-81.46161148;8.946668283
18.78448987;10.2560181;28.11734544;36.3359168;-16.48185918;-2.416507585;1.97967611;1.553159228;29.45023304;21.57707624;23.70754465;18.81024002;8.99641243;9.455071883;16.17083719;1.89257828;7.084597784;-90.91350368;10.83889309
19.86882281;23.27651026;32.77202481;38.85954205;-16.74518705;-2.117224267;-3.872049079;3.597321891;31.17043124;25.00497203;27.40607036;20.19867678;10.93926681;11.15103692;18.1072442;4.049595087;9.25097062;-102.3573364;12.25936524
18.40994681;31.35425328;33.60788626;38.40018302;-9.691883366;-2.197352206;-5.312414782;5.475808162;33.00733533;27.69147254;34.6539979;22.51676339;14.41949528;12.17934563;17.4802174;6.303556267;10.58527187;-103.463701;12.30607371
14.99222447;31.72026759;31.21414969;35.94586295;-2.259102002;-2.26025047;0.646246601;7.98768454;35.30567086;29.27110773;43.09336853;26.25680329;18.81823973;12.76693157;16.34832287;8.295617495;11.08756126;-93.51267428;10.99065971
10.9696158;26.66423188;27.60513105;33.52222515;-1.499078377;-1.913551074;9.221913239;10.97011769;37.53676287;29.56692488;48.90900822;29.70703564;21.94150538;12.96905486;16.14511928;9.288188674;10.96204716;-83.26985233;9.092113142
7.436757018;20.96083394;24.46528627;32.60202002;-8.044625396;-1.135389986;13.05259695;13.21835893;38.72553847;28.50097873;49.19833047;30.23675091;21.72758637;12.42878925;16.28785763;8.278095559;10.06632488;-83.74999255;7.482828777
4.631361702;17.81352772;21.88902548;32.88042218;-15.84401185;-0.300271959;9.760574532;13.43545345;38.39528431;26.19239083;43.85355299;26.62613612;18.06054957;10.66087933;14.71015239;4.59553827;7.880625995;-95.18190903;6.488532718
2.132652462;16.6391129;18.54978656;32.45897665;-18.06765411;0.150260334;4.406114409;11.40031564;37.0523374;23.07693059;35.49493706;20.29578921;13.02914761;7.60182255;9.888738554;-1.526485475;4.042848867;-106.5270155;5.759655825
-0.46933312;14.30213461;13.03392215;29.33415941;-13.46240561;0.095633166;4.338621028;8.35436158;35.70518492;19.8019345;27.58938611;14.29744954;9.353453991;3.892771839;2.605870178;-8.922651287;-1.065075205;-105.6394326;4.688712757
-3.082188312;8.471748016;5.185760264;23.00385291;-7.292969429;-0.156157691;11.26762861;6.257433982;34.8772797;16.88638005;22.31817699;10.94715085;8.330981515;0.587639681;-4.166225011;-16.05143593;-6.265195198;-90.39759502;2.980983424
-5.191446881;0.079347988;-3.599047607;14.91208767;-6.239564858;-0.128114432;18.218298;6.482485364;34.09;14.42981197;19.79817297;10.17633508;9.060559228;-1.503911451;-7.338966557;-21.70888752;-10.18552531;-70.6242591;0.906935777
-6.361868757;-7.237130759;-11.28119508;7.428246615;-12.20339333;0.428579359;14.76878234;8.942462461;32.36393456;12.17221555;18.95944182;9.995638852;9.542155386;-2.294771181;-6.153741648;-25.4033068;-12.06231138;-59.31447693;-0.933587695
-6.66263931;-10.15604205;-16.48856904;2.261931056;-20.77689034;1.334858227;-3.580068359;12.25933973;29.31176459;9.893477126;18.96563311;8.56258086;8.589043634;-2.32931498;-3.008942837;-27.24191167;-12.11538193;-61.34678432;-2.094824223
-6.635538367;-8.497736496;-19.19610204;-0.38100724;-25.60920666;2.133228155;-30.08767008;14.75957081;25.79788503;7.79014937;19.78933561;5.944275025;6.816069556;-2.232070388;-1.895677696;-27.5860754;-11.23203291;-69.77735234;-2.593887961
-6.851792337;-5.394257405;-20.33409386;-1.317501956;-24.39624114;2.440301884;-50.54456243;15.50403934;23.48007813;6.440968475;21.57529863;4.003182478;5.861243162;-2.198471596;-5.548467602;-26.83029719;-10.26017674;-72.65893191;-2.800660334
-7.450322196;-4.651719976;-20.76693487;-1.187931894;-20.85178521;2.204961642;-53.50395082;14.65636005;23.54804437;6.334981126;23.69702051;4.563895116;6.625094331;-1.964928015;-13.44242404;-25.4152164;-9.491025252;-63.88787573;-3.03486388
-8.04;-7.56612008;-20.5388338;0.253756795;-20.91289193;1.685114493;-38.7929323;13.09448834;25.72135024;7.366009839;24.70714841;7.566390752;8.201357002;-1.238904103;-22.12191253;-23.88777458;-8.692377915;-48.34972611;-3.244488457
-8.029497482;-11.91481101;-18.9918163;3.665241971;-26.85294994;1.209167527;-17.44405745;11.72478032;28.38914542;8.777966229;23.43611999;10.89987681;8.535120176;-0.143228931;-27.56;-22.78252144;-7.562085717;-37.15330171;-3.063824758
-7.110643546;-13.98274926;-15.61207126;8.916636154;-34.87266122;0.952772261;-3.213957087;11.03455211;29.80607556;9.666669382;20.24068304;12.08284204;6.265812134;0.776726017;-27.75288398;-22.34211658;-6.146034817;-37.67395523;-2.218185193
-5.53064905;-11.89385231;-10.8691921;14.3753386;-38.43686746;0.905230089;-2.604111458;11.05790253;29.35014997;9.62987019;17.08459048;10.29956187;2.11089727;1.014450673;-23.70105373;-22.34973617;-4.862751808;-47.39824342;-0.931628234
-3.976048371;-7.400157519;-6.323213413;17.52710029;-34.27230001;0.999245323;-11.1860498;11.53902583;27.79434889;8.986643956;16.11749381;6.996535825;-1.494226201;0.604766303;-18.28411619;-22.32117656;-4.166757942;-56.67678828;0.038750598
-3.174979153;-4.571912597;-3.842966356;16.60924064;-25.50118316;1.231065885;-18.56945867;12.01965745;26.39477434;8.348355621;17.8358692;4.534656138;-2.278270422;0.169137949;-14.14259348;-21.98748501;-4.195296299;-57.36722568;-0.161730904
-3.486244766;-6.436245296;-4.453691206;11.96616282;-19.04426099;1.63672478;-17.33689634;11.83799944;25.61876171;7.917553062;20.43908366;4.113121819;0.016717784;0.401902796;-12.26490072;-21.68074297;-4.714161867;-49.418025;-1.862651343
-4.706076284;-12.34706693;-7.617318814;5.957766909;-19.65994663;2.161634633;-8.521780345;10.26693342;24.64905786;7.180917653;21.07879101;4.800911648;3.374416154;1.411484329;-12.16482131;-22.23987164;-5.372460201;-39.85385957;-4.522341421
-6.165968125;-18.29569193;-11.46200728;1.399657842;-25.97918243;2.588396458;0.338251622;6.939298885;22.13796451;5.354001698;18.08952172;4.502347295;5.062188227;2.499412259;-13.11652521;-24.42321805;-5.997927991;-35.74881662;-6.955808935
-7.046109933;-19.9776381;-13.84201895;-0.272504411;-31.98774451;2.642514575;2.189980261;2.35753412;17.60916083;2.263285105;12.39127247;1.961982772;3.731981859;2.613412684;-15.11677694;-28.25105793;-6.663387609;-37.96556525;-8.032013172
-6.755201326;-16.19253682;-13.56575024;0.313551405;-32.45323373;2.218510162;-3.702326221;-1.974618839;12.31756498;-1.103726231;6.886689913;-1.99253964;0.372979342;1.137069037;-18.68674934;-32.81659106;-7.503347137;-41.19934425;-7.388865659
-5.217827338;-9.88450228;-11.02900227;1.404983537;-27.34851491;1.529874927;-11.67572838;-4.109424725;8.766805764;-2.960858035;4.321905129;-5.079828402;-2.585324915;-1.624844848;-23.82987955;-36.76871064;-8.501085556;-39.73912541;-5.678716182
-2.939015216;-6.008240201;-7.878278476;1.808633059;-21.43264628;1.024074725;-14.76639583;-2.702355634;9.133350433;-1.860314191;5.338043554;-5.518737473;-3.203355985;-4.667779321;-29.31043361;-39.13987883;-9.471091267;-33.17986917;-4.165299303
-0.787644509;-7.882253289;-5.94239763;1.859942464;-19.64414217;1.094885725;-10.28934835;2.106417625;13.71657979;2.201612951;8.243202399;-3.598780847;-1.411314083;-7.033525971;-33.14369469;-39.90252332;-10.24161049;-26.71665928;-3.930494193
0.432810209;-14.79654236;-6.118967356;2.879181966;-22.66190471;1.802571738;-1.391237108;8.616633305;20.54971775;7.57;10.57502964;-1.496513254;1.177909637;-8.465802843;-34.04068327;-39.83484322;-10.82724472;-25.94419316;-5.209336142
0.4184597;-22.57947312;-7.908404805;5.656071846;-26.6024094;2.819026889;6.103385894;14.41145835;26.47575829;11.83540905;11.06730474;-1.484304874;2.698098079;-9.447387064;-32.56586255;-39.81119721;-11.38955765;-31.19855504;-7.276071885
-0.454682735;-26.53872727;-9.855444068;9.358365037;-26.88275398;3.641083237;8.378354838;17.58885447;28.96193415;13.25384392;10.4038151;-4.044741079;2.424946251;-10.62125883;-30.86359213;-40.07743444;-12.00768925;-36.76598544;-8.926996855
-1.347088926;-24.50791346;-10.56761741;11.89593128;-22.51064933;3.908255128;5.969996179;17.59645797;27.45131567;11.70177222;10.27249014;-7.456957818;1.047368454;-12.11611085;-30.9740045;-40.07527445;-12.49702056;-35.70259847;-9.215947527
-1.467545232;-17.87879196;-9.617807427;11.5059476;-16.86665975;3.593238639;2.446725047;15.21291161;23.42991469;8.543862918;11.69195148;-9.156450114;-0.214936129;-13.36229218;-33.02722146;-38.945453;-12.49797561;-25.91648153;-7.962434963
-0.568282459;-10.18914348;-7.74439675;8.248382895;-14.43012386;2.951656734;1.246512986;11.84459931;19.29078284;5.590019531;14.11255788;-7.703522102;-0.719608768;-13.55031464;-34.86442727;-36.31337245;-11.80523553;-12.15662133;-5.746468637
0.898307324;-4.626063136;-6.263679827;4.13890676;-16.62458428;2.310273713;3.485431605;8.727772239;16.84070882;3.936303388;16.00111933;-3.765628424;-0.751374128;-12.32973162;-33.57912123;-32.74876701;-10.64991883;-2.324368843;-3.468380605
2.063048538;-2.337841302;-6.15289791;1.765447726;-20.61836967;1.875994733;7.975131499;6.545008996;16.42387209;3.478460619;16.27069671;0.573632829;-0.929406766;-10.14570294;-27.90164483;-29.54048985;-9.637840596;-1.465526516;-1.81885155
2.168804381;-2.501529547;-7.459864939;2.48091016;-22.05289156;1.689587029;12.49265236;5.522124748;17.11666241;3.320510827;15.21889515;3.463866827;-1.361864464;-7.926256516;-19.54812356;-27.93215846;-9.323205648;-8.498887908;-0.999288598
0.998069613;-3.617025172;-9.409152287;5.588155006;-19.05471137;1.702139475;14.70116911;5.687357083;17.69500376;2.646662453;14.16140568;4.488312908;-1.403697127;-6.384540206;-12.33843361;-28.34252901;-9.730963221;-17.9611436;-0.795376495
-1.047291906;-4.717845236;-11.03331788;9.083208787;-13.84233068;1.858874225;12.31571273;6.961902031;17.60779936;1.369289138;14.16447209;4.545495928;-0.239896048;-5.514308777;-9.589047109;-30.08590445;-10.23326899;-24.62030508;-0.843843002
-3.202379938;-5.595892077;-11.78708349;11.24370879;-10.58956519;2.108200298;3.485280382;9.052248011;17.2817613;0.134568217;15.07915796;4.746268426;2.28890874;-4.676495554;-11.68614102;-31.75090093;-9.932579436;-26.76251295;-0.845643854
-4.714281887;-6.194988663;-11.68977798;11.72612201;-11.64947025;2.361107056;-11.800329;11.39048232;17.61962935;-0.212920654;15.76879273;5.443282557;5.430528898;-3.170691184;-15.70839238;-31.96718913;-8.299565253;-25.81503692;-0.605937319
-5.111135478;-6.045792316;-10.99481756;11.36010225;-15.59986949;2.488896974;-30.08773658;13.33634153;19.14349431;0.752379327;15.31422712;6.234419811;8.108876056;-0.79590087;-17.46757981;-30.08121994;-5.591588188;-23.59539998;0.020253752
-4.293627027;-4.427829949;-9.802667967;11.00096526;-18.73468239;2.401466226;-44.64370324;14.5563161;21.47458502;2.769767896;14.08536762;6.783594954;9.836487032;2.047624499;-14.49920267;-26.37812972;-2.727858235;-20.35703061;1.117969542
-2.521499429;-1.133107763;-8.0441362;10.58699443;-18.44743564;2.144838571;-48.58021693;15.24615001;23.57285948;5.090910489;13.67103917;7.531281846;11.1159566;4.743421841;-7.788351825;-21.80452743;-0.706082687;-15.4085928;2.58626612
-0.372017724;2.938629602;-5.853868318;9.283302849;-15.38765389;1.908435455;-39.43644362;15.93916358;24.57277039;6.932879752;15.65500237;9.510078125;12.93911513;6.944984321;-0.957067509;-17.43492742;0.012615516;-9.133083181;4.025414042
1.356616878;6.026178732;-3.906923811;6.547329401;-12.61151404;1.900140447;-21.74059047;17.00391973;24.56470301;7.859357592;20.23541181;13.36570925;15.79860741;8.725727787;2.441110418;-14.01445985;-0.284881956;-3.790419201;4.829113057
1.882867113;6.544704723;-3.243863825;3.068382771;-12.76113661;2.174611737;-4.913090274;18.25013085;24.65721341;7.884397417;25.8425639;18.4747334;19.07544764;10.29144246;1.453309503;-11.78969317;-0.872353338;-1.914631354;4.526700438
0.811663274;4.16540993;-4.556301412;0.602186368;-15.93324634;2.564498479;2.659376103;19.01642355;26.16541986;7.310127396;30.09922376;23.02151428;21.36190335;11.56392003;-1.80559781;-10.62593112;-1.144804056;-3.828967255;3.171475265
-1.556358525;0.107151877;-7.472385211;0.687938853;-19.98112773;2.792769407;-0.790500313;18.71272666;29.46206663;6.462449373;31.38699742;25.07853751;21.48663095;12.06096769;-4.019046096;-10.25065451;-1.008537744;-6.953260637;1.447751096
-4.247700243;-3.600779952;-10.53221164;3.260909938;-22.62207984;2.689833931;-9.521105894;17.37423102;33.37446476;5.505105354;29.82160409;23.86106379;19.41082772;11.22299364;-3.337289379;-10.44057808;-0.849735468;-7.931764381;0.320544914
-6.079117315;-5.362801348;-12.06121106;6.362509776;-23.21640025;2.337724341;-14.95745932;15.73205025;35.69431713;4.421074984;26.94015149;20.167534;16.26500314;8.920243063;-0.747620275;-11.06581287;-1.165182601;-5.768250872;0.399091422
-6.342215466;-4.907787356;-11.38290782;7.317419445;-22.72709944;2.012643681;-12.33948601;14.6897824;34.55973145;3.127072994;24.41598779;15.69602794;13.49933883;5.689730654;0.868123545;-12.03170659;-2.168441227;-2.97101832;1.458876021
-5.260773592;-3.272682743;-9.419197961;4.571824432;-22.29794656;1.963043472;-4.070901098;14.60080104;29.75778595;1.60340761;22.82198973;11.83923902;11.83027766;2.463032538;-0.85609294;-13.22560589;-3.654118359;-3.459947475;2.517894953
-3.865840224;-1.990413189;-8.11026474;-1.168269749;-22.10996121;2.202847475;2.84049081;14.93359365;22.9615708;-0.078219437;21.34797762;8.925113323;10.80274706;-0.026455888;-5.879457571;-14.54371426;-5.173564721;-9.070772731;2.4828785
-3.328222829;-2.102469186;-9.004353537;-7.346890203;-21.59824495;2.49337188;2.974536163;14.61644156;16.65380501;-1.857750964;18.60233741;6.413925101;9.266942078;-1.692849831;-11.88942123;-15.9776135;-6.347214145;-17.93391802;0.938896358
-4.196202578;-3.638086778;-12.08041817;-11.20483016;-20.52586824;2.534072011;-2.955900247;12.80971181;12.4801166;-3.822383266;13.82893207;3.728149452;6.344158683;-3.050697748;-16.27344313;-17.66276706;-7.07614522;-26.32992571;-1.497959481
-6.077629586;-5.799389568;-15.74564434;-11.4648855;-19.55193433;2.209882251;-9.013451459;9.516935541;10.24799608;-6.20775617;7.628241554;0.915300304;2.116827145;-4.719376286;-18.21929199;-19.80152678;-7.530131798;-32.32991449;-3.55959206
-7.985038777;-7.607597068;-18.03749574;-8.904867207;-19.63430398;1.696586356;-9.480678595;5.590177759;8.330885835;-9.171340785;1.694632113;-1.399415371;-2.438105954;-6.880281308;-19.14795035;-22.47227275;-7.962937581;-37.73157225;-4.196769901
-9.066796355;-8.528265508;-18.0815295;-5.550153872;-20.99866899;1.342288785;-3.993599088;2.176883795;5.164915204;-12.44516301;-2.200519454;-2.613560694;-6.124817561;-9.106709922;-21.10951793;-25.44955518;-8.506047517;-46.28561822;-3.32033805
-9.164183976;-8.700078125;-16.63462327;-3.207241764;-22.90163686;1.42208182;2.199054224;0.074788897;0.66891044;-15.15712586;-3.254928586;-2.657525244;-8.222618419;-10.6704832;-24.53942978;-28.18891516;-9.073361811;-59.69075682;-1.866712087
-8.787647716;-8.700395859;-15.29288601;-2.417948599;-24.46200339;1.955686574;3.12310984;-0.530827135;-3.529659479;-16.08865708;-2.011471859;-1.9199395;-8.683183268;-11.05343465;-27.39421737;-30.03288689;-9.418502651;-75.09194804;-1.132997261
-8.56990387;-9.064277976;-15.05640007;-2.456907224;-25.52619006;2.714577302;-2.206397086;0.148546565;-5.239097327;-14.35342333;0.158171875;-0.702619492;-7.794629391;-10.26170113;-26.59291434;-30.53201652;-9.297834152;-86.66364308;-1.867063825
-8.656808063;-9.881370277;-15.47980834;-2.167932686;-26.43038078;3.38930874;-8.420186742;1.882263276;-3.308947033;-10.1077646;2.089164673;1.201725101;-5.72679684;-8.738982091;-20.73300564;-29.67277102;-8.646512919;-90.22201654;-3.773636745
-8.524395415;-10.70630245;-15.1284226;-0.892360552;-26.88189234;3.773572466;-8.238517491;4.555132839;1.566333127;-4.746968121;3.66121448;4.318587312;-2.42381585;-7.009420857;-11.84303402;-27.85544888;-7.671405013;-86.9406674;-5.774605638
-7.357828505;-10.81722604;-12.92580741;1.173313363;-25.5284641;3.835436163;0.959634339;7.944571328;7.442366871;-0.301636951;5.837384399;8.790058594;2.051047913;-5.36642299;-4.539545679;-25.64390291;-6.7942939;-82.78657532;-6.792549404
-4.691602712;-9.655673468;-9.194847596;3.31653446;-21.39752238;3.658816313;14.21151415;11.41233483;12.57852765;1.694142405;9.825468483;13.80208945;7.058450274;-3.828318603;-2.975042035;-23.47852628;-6.442345323;-83.87365748;-6.451786507
-0.833428467;-7.180592423;-5.452946817;4.951177527;-16.28117268;3.341307237;22.54936585;13.90710153;16.53946956;1.138826758;15.9082612;17.75568873;11.30066698;-2.322210811;-7.803378242;-21.56268643;-6.772404828;-91.46619626;-5.192928275
3.21135349;-3.922040683;-3.119835096;6.031299348;-15.38730371;2.943175394;20.3882835;14.4199868;20.0758666;-0.578798112;22.80370073;19.20097258;13.32405766;-0.875507199;-15.5290907;-19.97594661;-7.488120613;-100.7870903;-3.778256655
6.221485012;-0.702616935;-2.284879584;6.963261371;-24.37722023;2.506632656;10.54735929;12.62392545;23.97113136;-1.508326966;28.1446934;17.88088487;12.3385471;0.363528156;-20.85387997;-18.86070733;-7.898527585;-104.7247665;-2.635180403
7.303880106;1.79651171;-1.676502379;8.140401904;-44.1697444;2.088993109;2.40452005;9.217976445;27.9169585;-0.447745832;29.90573137;15.06265232;8.788101521;1.25749595;-20.32790156;-18.45297021;-7.243785417;-99.57438539;-1.57533734
6.196160697;3.34933448;0.057957398;9.471492668;-67.7999471;1.750894335;4.28701686;5.673276362;30.44384321;2.275966347;27.84051301;12.83119004;4.227258982;1.793798373;-14.58551033;-18.8646908;-5.134751829;-88.34365358;-0.084664001
3.259838287;4.190200949;2.844754194;10.25130587;-83.0365806;1.504860778;16.12569497;3.49927965;30.02344474;5.100605602;23.83169276;12.79420355;0.519555487;2.046007207;-7.537189223;-19.77509526;-1.842352062;-79.07403194;2.100274379
-0.704872952;4.741726926;4.828891126;9.49437562;-80.09043526;1.286758307;28.49738351;3.483618072;26.44955239;6.361301113;20.73372486;15.09213783;-1.157355539;2.02313101;-3.251911996;-20.33800583;1.768458282;-79.36237478;4.6381228
-4.67867606;5.288323831;3.642872051;6.570245822;-58.99064197;0.999556179;29.22767314;5.360078125;21.33990412;5.425057319;20.4133202;18.38080307;-0.873259371;1.581481878;-3.019037762;-19.50803749;4.651657933;-90.86951261;6.755018887
-7.649453033;5.835610094;-1.618138569;1.778408702;-30.48480457;0.605597484;12.67596261;8.054788508;17.29439377;3.029782317;22.41779641;20.75360779;0.268316083;0.528053525;-4.833371807;-16.67647386;6.102122496;-107.3546965;7.798647181
-8.88672641;6.228288306;-9.321833958;-3.519401449;-8.965589163;0.184358226;-15.43319001;10.3;16.31145713;0.663932938;24.37264577;20.93597451;0.949251894;-1.145032094;-5.527537468;-12.21729667;6.069912262;-117.3061531;7.712971135
-8.229356069;6.387082942;-16.09780088;-7.391736338;-2.47757073;-0.108326127;-41.40297539;11.23859456;18.62892367;-0.464003103;23.94402062;18.96651827;0.504215555;-3.108847257;-3.643355987;-7.517540036;5.08593942;-109.5680766;7.045619374
-6.215765448;6.444919951;-19.00472802;-8.274962528;-7.672052006;-0.157184547;-52.66023248;10.73071523;22.78523096;-0.082482798;20.917397;16.00542304;-0.726437593;-4.804704657;-0.622230389;-4.363197141;3.874090919;-79.07439595;6.491728489
-3.876220899;6.672894214;-17.44582823;-5.842874156;-13.80469116;0.01665943;-45.80111796;9.294541217;26.7356912;1.253371448;17.69730796;13.51421599;-1.752839571;-5.773494899;0.613091948;-3.98568416;2.918610946;-30.0727331;6.357273922
-2.206416311;7.27912221;-13.38988318;-1.240954703;-12.34783403;0.268149287;-27.89165503;7.785446423;29.1046422;2.786455077;17.64585209;12.39665846;-1.714094615;-5.965056493;-1.610142289;-6.338437972;2.255748021;24.64474762;6.379092345
-1.617699796;8.262162008;-9.789440629;3.537080697;-3.948682154;0.444585092;-10.63397816;6.980301481;29.68130148;4.09075293;22.37719192;12.59894556;-0.52534528;-5.772831835;-6.056979052;-10.06757312;1.581724297;68.53940292;6.031207166
-1.757436477;9.424233152;-8.486481169;6.777563844;3.246159447;0.508393007;-2.247684892;7.22129995;28.97504154;5.107361663;30.07706749;13.29592628;1.042552348;-5.744287313;-9.448394711;-13.22031092;0.555978987;88.52753241;5.040328359
-1.871648666;10.48574066;-9.222524517;7.93062517;2.186947276;0.560001221;-3.077311037;8.251757727;27.39969199;5.799960208;36.28454069;13.44409179;1.881751671;-6.175426679;-9.134615601;-14.27697995;-0.921798539;81.38781467;3.66606273
-1.47167833;11.1609064;-10.38940843;7.635514254;-5.641790642;0.740190896;-7.466372152;9.337816355;24.85224665;5.896004431;36.75336176;12.35995864;1.29155731;-6.893243831;-5.316285587;-12.89984829;-2.623375337;55.71849257;2.507308639
-0.793212168;11.13728345;-10.71668959;6.90996134;-11.17855934;1.096627246;-9.441359026;9.666409038;21.00273868;5.051536292;30.38647515;10.06781741;-0.55558676;-7.382748145;-0.918686247;-9.984734705;-4.108900555;27.54592416;1.998811313
-0.653688336;10.05843726;-10.3940319;6.195395004;-6.725975104;1.530297197;-7.255952482;8.844945612;15.96195486;3.315788177;20.10161631;7.313620356;-2.71733969;-7.147805373;0.803662294;-7.041240398;-4.947152015;11.40832046;2.025163195
-1.770938191;7.658871516;-10.71670263;5.084447422;5.273896446;1.86652214;-3.527287445;7.207539089;10.69021757;1.423473801;10.98432918;5.259455276;-4.057826606;-6.026887057;-1.058212799;-5.323276283;-4.910475077;12.17494058;1.987358387
-4.055979572;4.057227184;-12.66924506;2.981448432;12.38593982;1.986170608;-1.729138905;5.689660755;6.750378801;0.541310831;7.069046064;4.958315095;-3.91092039;-4.245586358;-4.346442731;-5.238777694;-4.062656652;23.10261964;1.287202871
-6.464115035;-0.008389367;-15.77613291;0.094141532;2.377621542;1.902964908;-2.661801243;5.288669726;5.53133691;1.560014648;9.027668784;6.801868803;-2.429120126;-2.212256999;-5.671462947;-6.342112725;-2.721032781;31.69254523;-0.149457826
-7.593058926;-3.29278899;-18.28522429;-2.236070137;-24.82482563;1.725235645;-3.993769138;6.425858399;7.441070862;4.438870845;14.25277183;10.20991837;-0.44927378;-0.255554895;-3.2742347;-7.82286569;-1.317475803;29.2197204;-1.730212255
-6.642064375;-4.591263848;-18.56697718;-2.371196607;-54.33126661;1.545394859;-2.885499679;8.633416262;11.55569413;8.10746776;18.99068213;13.7914259;0.997467487;1.49081878;1.464983908;-9.107282592;-0.210253338;16.79947729;-2.56031568
-4.038907165;-3.450844912;-16.54075517;0.150991071;-66.38711114;1.362041612;1.050462328;10.79266904;15.91052829;11.01216355;20.77601573;15.98971478;1.232731402;3.014013679;5.12187208;-10.16229714;0.477918557;3.363854943;-2.048542182
-1.254014686;-0.554603089;-13.89156693;3.75812923;-51.91245677;1.103764195;5.275525891;11.77167436;18.29;11.92405469;19.47417642;15.91163703;0.255905452;4.288453975;5.023382895;-11.33287204;0.91399948;-2.6117487;-0.308030158
0.096480157;2.564870568;-12.84345546;5.541340635;-20.54974721;0.7260321;6.703506026;11.03320229;17.18485968;10.48502619;16.54507128;13.84805875;-1.286179502;5.238943956;1.453205843;-12.87961117;1.45826938;-0.534163981;1.932094246
-0.75675624;4.373340934;-14.45332831;3.248199311;6.131332152;0.284298677;4.647591027;8.823631593;12.53474841;7.231082728;13.51972076;11.11055466;-2.45177217;5.826568557;-2.515578164;-14.59027011;2.458762205;2.251341902;3.819244206
-3.322639797;4.204931859;-17.78402523;-2.85840198;11.25650499;-0.09011215;1.577633846;5.875220191;5.909085186;3.223663746;11.03109335;9.220569099;-2.520182896;6.134027824;-3.402670792;-15.78019341;4.054190851;-2.022697012;4.902032429
-6.258434864;2.557063543;-20.60226254;-9.811156701;-4.535430267;-0.292725382;0.967352614;2.899337716;-0.076711219;-0.399275758;8.946454488;8.936374345;-1.437591804;6.311222214;-0.003791299;-15.7124582;6.103247439;-13.13825713;5.320667998
-8.258650826;0.604267851;-21.03647917;-13.78121157;-24.83977331;-0.333975884;4.165092511;0.248648478;-2.990958989;-2.758795774;7.074064246;9.760610756;0.050801699;6.38404357;5.702828085;-14.1514399;8.266725574;-21.61736199;5.569905688
-8.778598798;-0.710375225;-18.90737094;-12.71581184;-32.26184363;-0.330966247;9.111539997;-2.072154468;-1.916276256;-3.469710229;5.550039063;10.28698538;0.725441526;6.098104284;10.02632708;-11.63769533;10.15549725;-16.74730909;6.057505734
-8.130140806;-1.334052207;-15.75266777;-7.802285345;-23.42866456;-0.407980229;12.0880609;-4.170009766;1.913204572;-2.82125307;4.57217918;9.185604836;-0.41402667;4.994582536;10.16587667;-9.241072903;11.42463427;2.345783048;6.802142173
-6.985776074;-2.024034833;-13.60120088;-2.595363108;-11.14494846;-0.592727006;10.98625653;-6.068637926;5.720835293;-1.79246589;3.960824382;6.176458822;-3.446894824;2.74646316;5.975369507;-7.913030488;11.77877309;22.47604136;7.47055652
-5.749005572;-3.590126162;-13.46349569;-0.421641129;-11.83130212;-0.798073991;7.222356942;-7.709343746;6.854285012;-1.688162267;3.2302913;2.32652144;-7.298582908;-0.454536329;-0.229374132;-7.867485014;10.97693512;24.09353959;7.67997588
-4.289981578;-6.034880347;-14.62527104;-2.024670408;-29.52383925;-0.901708847;4.575482271;-9.071902989;4.523169663;-3.37274826;2.247300424;-0.547826693;-10.24909653;-3.773278845;-5.360457238;-8.438536992;8.952201608;-3.899413545;7.306456928
-2.210638521;-8.265665473;-15.16159152;-5.231439269;-51.1378315;-0.850501483;5.900994429;-10.22680321;0.400508055;-6.493545676;1.783351146;-0.989786722;-10.976512;-6.040113285;-7.314746339;-8.552139608;6.035121231;-53.7459254;6.569957556
0.623470199;-8.663178516;-13.22390107;-6.824269602;-58.00574643;-0.6994665;10.54679107;-11.2356056;-2.454789284;-9.335411575;3.181670829;1.199804187;-9.48432454;-6.363148238;-5.674645032;-7.509882594;3.087894828;-101.9329611;5.862757598
3.739959938;-6.186092591;-8.22758213;-5.070976578;-44.03446508;-0.55903576;14.75970874;-12.01645775;-1.721246457;-9.677122959;7.147429477;4.843993766;-7.2227285;-4.673579379;-1.324802771;-5.533894969;1.309104639;-124.6228223;5.481108268
6.194863762;-1.287006081;-1.279487052;-0.903958868;-24.07937529;-0.506672778;14.85481694;-12.3647403;2.479416872;-6.293549316;12.63076824;8.092010016;-6.205618409;-1.841687104;4.241777265;-3.663478453;1.663643193;-114.2515928;5.466152537
7.10338016;4.016944534;5.265916973;3.090736728;-23.72087661;-0.543429311;10.54562129;-12.16926023;7.550502786;-0.103289626;16.94415237;9.456974538;-7.653318226;0.737563194;9.290987872;-3.047145286;4.223084709;-84.63209737;5.645407528
6.191022053;7.074077468;8.790877077;4.896786619;-57.58453773;-0.623990021;5.591237826;-11.63062525;10.14621608;6.000141578;17.34269434;8.533544454;-11.10936138;1.855925043;11.99049279;-4.117423531;7.895934936;-60.43689268;5.801001804
3.982128896;6.058079518;7.482913461;4.578978361;-114.0834322;-0.714504346;5.027130843;-11.21853133;8.449379502;8.755616173;13.0149955;6.01316244;-14.70990939;1.088164031;10.87347918;-6.237737114;10.86557979;-58.880853;5.809249483
1.502388932;1.116324109;1.120620391;3.854362941;-160.3549308;-0.809911277;11.0030617;-11.31066973;3.379228478;6.617607526;5.919698972;3.105231359;-16.46221651;-1.051096331;5.784216609;-8.081902306;11.58429488;-77.3111583;5.648940461
-0.301290292;-5.518910824;-8.677471297;4.214523029;-165.0368589;-0.892876411;20.44717142;-11.77945932;-2.097422036;0.872629511;-0.306482161;0.825272348;-15.6168529;-3.436392731;-1.357933935;-8.481726311;9.721706802;-95.65775273;5.302412878
-1.052107087;-10.62046757;-18.8980822;5.349719384;-121.60097;-0.887669442;26.47783858;-11.92545948;-4.979844927;-5.074201757;-2.643742035;-0.395394501;-13.11588967;-4.917157607;-6.965864728;-7.145924277;6.407198224;-91.2582222;4.663513701
-1.060469709;-11.71324381;-26.23680306;5.342473722;-53.82;-0.679096909;22.72948404;-10.92377552;-4.076458777;-7.82596057;-0.498857936;-0.631909359;-10.78701609;-4.823276132;-7.637778215;-4.761993384;3.543508345;-54.58077324;3.551826208
-1.040172202;-8.487338737;-28.48990554;2.517814607;1.155748308;-0.205424114;7.651722184;-8.503132568;-0.419428302;-6.083541857;4.264176856;-0.118401821;-9.916226316;-3.149361124;-2.442592864;-2.455250114;2.618479731;5.362518316;1.835344692
-1.644661175;-3.003267959;-25.56946686;-2.672351742;18.97073826;0.449819473;-14.10561774;-5.298677794;3.85283726;-1.261449694;8.944872407;1.04152938;-10.30561797;-0.384803221;6.082346452;-1.040406552;3.819205865;68.44578773;-0.431045691
-3.12496962;1.509672579;-19.52411147;-7.471375134;3.337778964;1.064391774;-34.06696951;-2.49781506;7.125891579;3.734055963;11.90140213;2.91736835;-10.51855293;2.856848887;13.26298038;-0.613292971;6.049792493;116.5547374;-2.961621583
-5.290818628;2.589163009;-13.45160558;-8.676531177;-20.52591382;1.406801536;-44.4536287;-0.94963449;9.200444865;6.604338564;13.2884965;5.603761445;-9.055675792;6.179982579;15.28526497;-0.72441535;7.800536039;142.1611758;-5.332786954
-7.733343075;0.018240768;-9.880353273;-5.104637525;-27.65363754;1.402111591;-42.06154123;-0.40191221;10.93984997;7.099144857;14.31228219;9.072750666;-5.478462892;9.538504779;11.79166516;-0.909366601;8.201179171;147.2795529;-7.158545897
-10.09835726;-4.118017442;-9.570320682;1.369819323;-12.16022025;1.19839563;-29.3949944;0.473135573;13.19971806;6.842671439;15.91949304;13.15097913;-0.598928764;13.10214412;6.135950046;-1.096568539;7.486114087;136.1345767;-8.240954361
-12.19515832;-6.861287745;-11.41400339;7.139134489;11.29784075;1.064959493;-12.79611948;3.165293779;16.03;7.837283193;18.1433534;17.58171416;4.316377398;16.94841514;3.03265147;-1.560164219;6.583597859;109.3736385;-8.611861404
-13.88322345;-6.349318557;-13.36998036;9.564753412;22.80785921;1.189161326;1.024480463;8.14081379;18.74322976;10.87807939;20.52;22.04711276;8.543056171;20.77439916;5.300479974;-2.49660959;6.229575968;65.07173111;-8.45821599
-14.87904013;-2.977601485;-13.69724279;8.92;15.05214433;1.529865731;8.076791122;14.2918262;20.62806429;15.05731053;22.90476833;26.10576622;12.19045612;23.83100594;12.08308975;-3.63255047;6.354750443;5.018871881;-7.993804238
-14.71305347;1.049855436;-11.68152536;8.015827896;-1.452618021;1.849276431;8.382141751;19.51678744;21.58806284;18.60476781;25.69341202;29.15211909;15.57478687;25.17297963;19.77061198;-4.251086285;6.232294438;-60.12265433;-7.360078125
-12.96188034;3.428571823;-7.572618075;9.803824969;-9.252321755;1.903942198;5.158004602;22.08855633;22.16669945;20.27818064;29.1613516;30.550706;18.34316935;24.12770833;24.7628835;-3.675855998;5.225864096;-112.3491759;-6.603723171
-9.646000436;3.434822442;-2.100389704;14.87036301;-0.614016743;1.644307954;2.594613277;21.8366537;23.02419449;20.1805587;32.63519907;29.956129;19.28886282;20.71965801;25.87285049;-1.863261036;3.475180792;-134.6209654;-5.721307831
-5.493717716;2.306723433;3.850946422;20.81443962;14.85137197;1.260979712;3.456470255;20.2574012;24.37297536;19.43478332;34.49438221;27.60967307;17.18702813;15.7672932;24.60657974;0.364475922;1.907889354;-120.6175123;-4.723894681
-1.794753725;2.045073492;9.193296801;23.99780594;18.13532235;1.037366624;7.718676126;19.43499626;25.80949829;19.08548114;33.24045489;24.32529411;12.00920669;10.54383545;23.35300701;1.666912435;1.526544941;-79.35837634;-3.67487426
0.176342361;3.592729695;12.53069101;22.29285183;-2.543249894;1.124305707;12.90672628;20.53823268;26.56188351;19.16902478;28.77642115;21.06530348;5.416213542;6.173343699;23.16747163;0.917937915;2.53003418;-31.47127965;-2.684457109
-0.140759835;5.865817388;12.47558464;16.71018671;-40.48452219;1.415175065;15.90630448;22.98;25.85397722;18.68885863;22.68421715;18.34497218;-0.061125474;3.129418979;23.01391814;-2.146603984;3.992188439;0.960002441;-1.875175262
-2.229223688;6.46213822;8.4424173;10.70286138;-73.95394018;1.61943899;15.12517548;24.83933398;23.13577932;16.47515728;17.09459349;15.90930099;-2.654057862;1.156103323;20.97544403;-6.775417082;4.401597083;5.534570154;-1.344374162
-4.755578698;3.5395608;1.366585831;7.734295148;-81.53197834;1.476040505;11.57332338;24.21436285;18.19862044;12.2143099;13.02948171;12.97808926;-2.556264393;-0.353997617;16.24792097;-11.6196195;2.697119814;-14.02680177;-1.140492125
-6.335602784;-2.609135815;-6.387250892;8.943950885;-57.28781803;0.94281675;8.048594181;20.50799616;11.32099841;6.822453543;9.671203039;8.924899895;-1.716464747;-1.816579689;10.11687126;-15.44441949;-0.960187084;-39.4076768;-1.255166561
-6.328390615;-9.565580371;-12.15012862;12.54512591;-14.47942741;0.225060677;6.933516186;14.73379603;3.421510579;1.854190855;5.275654082;3.876594237;-2.347437411;-3.159902174;5.046265358;-17.71419672;-5.251713628;-46.82567921;-1.627982671
-5.142507594;-14.43035784;-14.4823885;15.21579081;24.08595071;-0.363780435;8.241706294;8.691815452;-4.042341103;-1.629015151;-1.01003418;-1.268408459;-5.304725675;-3.993312817;2.644575161;-18.75908849;-8.56011121;-19.85977654;-2.165871611
-3.869279717;-15.85652496;-14.03443961;14.32995591;40.96128227;-0.592959303;9.544937242;3.70108459;-9.633928876;-3.891449419;-8.041212875;-5.463241549;-9.582827868;-4.081807682;2.232162121;-19.50414856;-10.00816264;40.26733054;-2.781688668
-3.528332942;-14.90689872;-13.04185498;9.460133337;33.40496944;-0.419211424;8.060600082;-0.141120635;-12.74216092;-6.402728168;-13.35106623;-8.297670624;-13.25316908;-3.70666019;1.242900206;-20.96835945;-9.956654975;112.9879195;-3.444159937
-4.470188559;-14.09782324;-13.75300272;2.32114484;11.88561047;0.046367829;3.384595939;-3.665675449;-14.01424278;-10.76082665;-15.12515205;-10.28455797;-15.00155785;-3.566140323;-2.802265499;-23.80449676;-9.652679812;167.6159649;-4.209060889
-6.331605552;-15.42377168;-16.90378829;-4.49820683;-9.092353431;0.64961739;-1.438080022;-7.62089667;-14.89862364;-17.33687853;-13.78625127;-12.35776241;-14.98782674;-4.242286021;-10.27031485;-28.06468016;-10.32290082;179.6247008;-5.192217358
-8.497176568;-18.93495791;-21.32507664;-8.975378127;-20.14893648;1.278311969;-1.769271901;-11.80377113;-16.45573668;-24.58369534;-11.7465677;-14.94839864;-14.39082982;-5.642030728;-18.88905522;-33.23244803;-12.35868364;144.8237577;-6.4707678
-10.63344003;-22.93974325;-24.90134382;-10.39992724;-20.41574095;1.864678873;4.857147288;-15.04581244;-18.32516121;-29.59965404;-11.43234382;-17.40994646;-14.14513092;-6.895133376;-25.10085941;-38.44741857;-15.11791849;82.1865971;-7.955619349
-12.83658966;-25.5493909;-26.0860892;-9.258550388;-14.87123093;2.335641444;15.86232815;-16.06801024;-18.81175762;-29.75409821;-13.21599182;-18.34080638;-14.03532901;-6.869014858;-26.28245221;-42.7985701;-17.40443735;22.59124224;-9.326285018
-15.28861397;-26.19761237;-24.82453585;-6.667717637;-9.396785886;2.585158137;24.17564718;-14.524879;-16.24322205;-24.43021528;-15.04876074;-16.63717784;-12.94246205;-4.973713637;-22.25689431;-45.57020551;-18.23503502;-9.746643597;-10.11
-17.75637773;-25.8428808;-22.28796462;-3.834923809;-7.367017667;2.511029523;22.38475155;-11.40383425;-10.63318349;-15.73092866;-14.18359027;-12.46573975;-9.986804122;-1.662954151;-15.14612942;-46.3714853;-17.3681934;-10.73606629;-9.903890078
-19.42553523;-25.72037377;-19.79232617;-1.733073819;-8.949571555;2.087838386;7.86563881;-8.441510018;-4.228460716;-7.540783939;-9.586775418;-7.327280829;-5.512331848;1.777572855;-7.84489818;-45.14580015;-15.29641956;4.448645755;-8.625750542
-19.29600616;-25.77586495;-17.85333406;-0.904350956;-12.05279446;1.407253128;-14.75846511;-6.972345759;-0.248706764;-3.375447715;-2.998470967;-3.057846178;-1.001581327;4.043375613;-2.288149276;-42.11237392;-12.79530552;15.33819931;-6.622117765
-16.88811107;-24.22516277;-16.08812784;-1.309545818;-13.66105722;0.642991363;-35.80957918;-7.057268104;-0.571989751;-4.323327525;2.309524512;-0.474758599;2.044783795;4.650957061;1.345664494;-37.70660373;-10.39888937;12.13556481;-4.524196969
-12.71308167;-18.7741423;-13.88547279;-2.301665074;-11.24656999;-0.036376464;-46.12511088;-7.528159369;-4.116085135;-8.445854761;4.112941418;1.276600603;3.315199497;4.188693505;4.146522682;-32.54542225;-8.169281204;1.242298655;-2.90610554
-8.104162547;-8.648270452;-11.13997667;-2.861627246;-4.27434048;-0.539372151;-42.30636853;-6.898426922;-7.306796772;-12.10439944;3.049021241;4.101115134;3.94176978;3.792816745;7.248111611;-27.38115753;-5.884512071;-3.349543306;-1.956489733
-4.485017606;4.152885292;-8.392702452;-2.074910776;4.892584168;-0.857241549;-28.18870941;-4.455902814;-6.481389668;-12.3685984;2.160355857;9.451984118;5.563329656;4.24310565;10.80481008;-22.98345082;-3.463803896;5.380648467;-1.398063619
-2.588996041;15.4485007;-6.333357743;0.393835512;11.84082948;-1.011947182;-11.80100395;-0.744754318;-0.533991287;-8.863878295;4.492841552;17.04731978;8.954711182;5.360139724;13.83516686;-19.94088966;-1.283365489;20.14349292;-0.735369441
-2.181676227;21.04056548;-5.207603135;4.114146809;12.84057998;-1.003427461;-0.213027517;2.875277531;8.168712929;-3.777704606;10.62246705;24.78027661;13.32944063;6.156341801;14.95390793;-18.46828605;-0.10934434;25.95574048;0.329042673
-2.445193834;19.04003906;-4.712512988;8.08041346;7.682346555;-0.807908404;4.121104531;5.210661962;15.31216187;-0.073933074;18.01641407;29.92747077;16.85612913;5.620747165;13.45168608;-18.35254534;-0.640643235;14.79534851;1.618246713
-2.673320927;10.86595766;-4.455270589;11.11925308;0.082041576;-0.427897802;3.392706429;5.997495683;17.48166536;0.703151669;22.68112831;30.81113835;17.95172771;3.540516865;10.00023601;-19.10342372;-2.946590578;-5.432717751;2.577292497
-2.712252575;0.386096021;-4.492159399;12.2807039;-5.158383262;0.05552673;1.548280071;5.897256;14.2630503;-0.641327973;21.83060115;27.76424512;16.34383396;0.742205548;6.501752305;-20.22686814;-6.207950703;-16.9569953;2.705162188
-2.831116337;-8.115947261;-5.379163104;11.11328218;-6.051706659;0.482797807;1.118150915;5.791062075;8.177032752;-1.948192949;15.66113285;22.7926336;13.15488614;-1.420730332;5.1050376;-21.43038119;-9.0174288;-9.11971996;2.011194186
-3.20430812;-11.87177315;-7.625332572;7.861147754;-4.836937226;0.680697608;2.072368307;5.973771015;2.71087038;-1.728884165;7.127140585;18.27240803;10.06545463;-1.947815272;6.919938844;-22.61359406;-10.13323567;8.733774775;1.126260813
-3.516818307;-10.50248531;-11.01666967;3.572970339;-5.36306487;0.551930804;2.979415904;5.895563012;0.054834663;-0.486634683;0.098275957;15.63655227;8.265018048;-0.801123055;11.20770448;-23.68099586;-9.233323818;11.59809534;0.929042453
-3.088932085;-5.702045663;-14.44114212;-0.063881206;-8.802147981;0.129832192;2.868713073;4.638139417;0.139840522;-0.199546584;-2.741549559;14.87296419;7.912101478;1.161783252;15.62851167;-24.38763862;-7.146190916;-20.68018469;1.915715077
-1.455484454;-0.230529544;-16.44301894;-1.371746489;-12.10150868;-0.435399123;1.995792959;1.722569679;1.356138457;-2.406357458;-1.019330311;14.96734374;8.305555371;2.823711653;17.52483035;-24.42258987;-5.337553531;-82.74994679;3.768880934
1.08342025;3.189714034;-16.12219317;0.303432648;-11.35770245;-0.945325163;1.107678818;-2.40500307;2.022792156;-6.577320751;3.526262083;14.77067818;8.436473997;3.510719579;15.52741671;-23.71922838;-4.944000195;-141.4122648;5.473900582
3.441262522;2.760486568;-13.70557222;3.816855911;-7.364717055;-1.231779448;0.346516708;-6.58633564;1.342417116;-10.2728683;8.101628179;13.63280169;7.473101041;3.27197609;10.45810581;-22.7230485;-6.007930222;-156.5167761;5.942223658
4.345647088;-1.805008098;-10.38967795;6.453097843;-7.571340451;-1.203830997;-0.841367356;-9.670521026;-0.660043945;-11.07875897;10.09020209;11.51883415;5.00350635;2.61970522;4.871369139;-22.28977496;-7.482939495;-110.8159414;4.71434157
3.146370398;-9.095802451;-7.630240961;5.407505717;-21.03760955;-0.850238988;-2.639166585;-11.15371943;-3.691438101;-8.712513618;8.036161096;8.798906627;1.147909917;2.02910036;1.467215691;-23.13486605;-8.051831331;-25.55415146;2.232718874
0.228765703;-16.41673171;-6.434683272;-0.203418017;-49.36263941;-0.212861136;-3.8842343;-11.25027048;-7.401857511;-5.419696879;2.218312601;6.054847319;-3.349840839;1.633734162;1.424449017;-25.15274853;-7.186032713;51.79604648;-0.519763528
-3.280512384;-20.8652567;-7.102252537;-8.210989319;-81.39912885;0.642933614;-2.570450952;-10.40402963;-11.02475638;-4.14913309;-5.329305496;4.024712186;-7.164177327;1.328846646;3.812354408;-27.14392566;-5.643873786;79.89837745;-2.74617326
-6.289560092;-20.71188244;-9.40952073;-14.23933723;-97.87383365;1.642432237;2.161771848;-8.724855835;-13.04161844;-5.920815826;-11.52025729;3.51666057;-8.780078125;1.124710417;6.486660358;-27.29610296;-4.975446571;52.18948169;-4.376905671
-8.415001384;-16.34129869;-12.88977308;-14.32255356;-84.25057011;2.69719553;8.20128157;-5.885833584;-11.61377316;-8.63143517;-13.56047852;5.106552241;-7.224553498;1.386255803;7.779853854;-24.24093289;-6.339032114;0.368571252;-6.015477168
-10.07130649;-10.09173152;-16.90432556;-7.674900898;-42.52942314;3.692263462;10.78160617;-1.595559991;-5.7874328;-8.480019531;-10.3524703;8.715294789;-2.736405702;2.70842674;7.694689618;-18.02539932;-9.491487031;-29.41925645;-8.338337178
-11.96308728;-4.962166436;-20.55333238;2.391932674;7.88393271;4.482142982;5.364650159;3.776984636;3.439176419;-3.033950483;-3.086709594;13.43319538;3.164193805;5.495701764;7.69974143;-10.2930066;-12.74345532;-9.136676662;-11.42422681
-14.42193418;-2.93477774;-22.74049205;10.29243321;42.20193355;4.9114482;-8.728012827;9.033503767;13.24769384;6.515736331;5.487196577;17.88686456;8.397929569;9.567175966;9.328417844;-3.458631954;-13.98548094;54.10468372;-14.54438022
-17.11146722;-3.977341703;-22.60028959;11.68349655;46.77472725;4.863833904;-26.77804511;12.6953566;20.50586839;15.84279139;12.70843328;21.02061422;11.42640728;14.09544009;12.73069862;0.637076923;-12.09192401;127.3471498;-16.58371112
-19.290821;-6.353055521;-20.10161528;6.296693461;27.58472965;4.321561972;-40.81672524;13.92253557;23.62520603;20.48137329;17.42034827;22.74724461;11.97635581;17.93475551;16.35584469;1.708698701;-7.707671701;177.3152177;-16.77031331
-20.36980947;-7.965913033;-16.33990915;-1.932005015;4.213043865;3.39967742;-44.33578494;13.09175356;23.32979099;19.02356822;20.11891299;23.92289058;10.8994445;20.11583012;18.02798678;0.982121953;-2.861860899;190.821409;-15.1578111
-20.28401195;-7.775366006;-13.14443889;-7.574030744;-5.680247455;2.321275437;-36.38048633;11.53435526;21.71602815;13.9840022;21.8041262;25.58719856;9.359141267;20.19574964;16.56012419;0.1768251;0.294940858;175.635246;-12.51440195
-19.41323538;-6.333384911;-12.1136184;-7.357740624;1.196357154;1.331584227;-22.11534597;10.57950106;20.39220799;9.648654581;22.59964831;28.01178996;8.048052045;18.29679034;12.64050516;0.251338821;0.719478101;145.3885726;-9.747703349
-18.17255572;-5.18079694;-13.66162508;-2.183621504;14.03652118;0.592615755;-9.437754096;10.61271436;19.26492488;8.661933495;21.42546269;30.30435268;7.030580307;14.90349809;8.333419092;0.801788245;-1.154974917;105.1053318;-7.345749852
-16.66807285;-5.642426453;-16.71648826;3.842605754;19.64333257;0.123010504;-4.035812846;10.87398174;16.97592023;10.11488973;17.09103751;30.91861285;6.182503381;10.61926232;5.638015038;0.508307321;-4.042377962;51.10244905;-5.259710229
-14.71651301;-7.895824317;-19.28946861;6.51510437;14.69364992;-0.175768348;-6.302648785;10.15001953;12.54838166;10.63512865;9.870472042;28.72252099;5.645821366;6.030863173;5.235680306;-1.748930757;-6.818998428;-16.18895449;-3.252525138
-12.1799406;-10.8810585;-19.55892054;4.426476417;7.684893971;-0.425591141;-12.01516995;7.809027364;6.732451886;7.493621842;2.079216438;23.84261037;5.759028836;1.676767755;6.306249378;-5.956834249;-9.122475854;-81.11696815;-1.338623265
-9.280217052;-12.98652138;-16.80918871;-0.392199532;9.245783669;-0.680731358;-15.89554632;4.353982523;1.795315883;1.103702339;-3.067350375;17.68264492;6.520763938;-1.981912711;7.383500156;-10.90271367;-11.17234811;-116.9928118;0.115094655
-6.583493504;-12.98241288;-11.7255426;-4.349554079;20.15319358;-0.909146158;-15.24848351;1.059079763;-0.128716093;-5.155267752;-3.568919694;12.1493919;7.210177466;-4.649436231;7.447033077;-14.98674846;-13.13429754;-104.7057998;0.725634116
-4.652122149;-10.64645628;-5.993875017;-5.082901184;28.65350541;-1.055922059;-11.16281243;-1.008383175;1.270068359;-7.599981008;-0.074707152;8.679716868;6.729895271;-6.288939971;6.418414219;-17.2723055;-14.69366169;-50.28792143;0.544566588
-3.669770212;-6.826640234;-1.534282688;-3.020372143;20.37696162;-1.127298623;-6.852401041;-1.789556938;4.201666682;-5.155512386;4.548002067;7.712172474;4.547984479;-7.110471173;4.865135696;-17.98467999;-15.24355108;15.16862676;0.167121657
-3.376105917;-3.014496854;0.218085039;-0.694230098;-7.498288061;-1.212049587;-4.842424764;-2.224589776;6.156028943;-0.145151491;7.207619192;8.800221335;1.424033878;-7.414591988;3.383742862;-18.12083147;-14.49257546;55.64959103;0.331077888
-3.370299631;-0.665022829;-1.263063013;-0.572309001;-40.72849002;-1.409393163;-5.279613683;-3.46538114;5.753004791;3.586070342;6.587865803;11.05497683;-0.880181712;-7.391774165;2.256581447;-18.52238041;-12.89939187;55.36512104;1.303093986
-3.50536538;-0.5219138;-5.511092071;-3.21609665;-57.13054736;-1.718904613;-6.422367833;-5.969529057;3.509738606;3.55812479;3.64673458;13.47499873;-0.883524628;-7.043939934;1.543649367;-19.16033451;-11.49099618;28.59727686;2.582285915
-4.005199903;-2.20372195;-11.27467209;-7.133916401;-43.69848044;-1.993061241;-6.518087602;-9.205665575;0.973973473;0.181382758;0.401726267;15.02583756;1.313005074;-6.304879363;1.287732164;-19.19031688;-11.17289872;6.070039063;3.222935853
-5.184688492;-4.288567258;-16.96137518;-10.24878335;-7.633839735;-2.011339471;-5.312118097;-12.16975383;-0.867174469;-4.150670254;-1.808320727;14.71365634;3.87527158;-5.2541432;1.471126679;-17.72245166;-12.09542346;9.195269505;2.561384805
-7.026908025;-4.990328726;-21.21731686;-11.65758267;28.27402106;-1.634103744;-3.990274153;-14.23308243;-2.389836107;-7.360229027;-3.086691924;11.93802894;4.552266366;-4.208808912;1.762335087;-14.69;-13.59780605;33.71930519;0.764330645
-9.03188339;-3.193266502;-23.43824987;-12.26526105;42.59691575;-0.918518437;-3.800155425;-15.58630451;-4.626816753;-9.257688974;-4.273019174;7.043909144;2.522864482;-3.558807276;1.456402633;-11.12192392;-14.75440494;56.12154784;-1.270133939
-10.53467791;0.726690082;-23.9523358;-13.89319537;30.88859078;-0.097134473;-4.671574524;-16.91759505;-7.788761475;-11.10366702;-5.641590871;1.587333456;-0.73846536;-3.439323085;-0.100546211;-8.578146231;-15.04112797;56.424498;-2.601759064
-11.26517163;4.899446193;-23.73973052;-17.68390188;7.422178173;0.574680383;-5.049773926;-18.63945854;-10.52648552;-13.79170318;-6.366324884;-2.157717281;-2.408316381;-3.51840758;-2.839254785;-8.143139412;-14.57208238;36.84141056;-2.967265103
-11.65833035;6.941670525;-23.83279957;-23.08703855;-7.846214848;0.987810472;-3.076584474;-20.37587076;-10.80285239;-16.52750985;-5.309742021;-2.392000605;-0.452484257;-3.139752741;-5.68624255;-9.707066872;-13.77566025;19.39736312;-2.925092463
-12.57788483;5.393015693;-24.76663998;-28.14461737;-5.70682384;1.231541104;1.851341978;-21.19763445;-7.729725367;-17.35192652;-2.369031884;1.025391527;4.698342437;-1.794380512;-7.105798302;-12.05255135;-12.89573263;24.32663523;-3.296768415
-14.5937017;0.657922786;-26.41207182;-30.75547878;6.280306778;1.487320849;8.391577446;-20.43835036;-2.718329988;-15.06925721;0.984235389;6.292393484;10.30133587;0.401589515;-6.177049101;-13.67215374;-11.8414598;48.54059848;-4.381405249
-17.36593793;-5.239155404;-28.22351917;-29.93842529;12.59669946;1.852367974;13.98369132;-18.3966214;1.246449823;-10.75126949;2.631722517;10.6316224;13.22170454;2.61899671;-3.333612104;-13.71744;-10.53988388;64.32028753;-5.634598885
-19.67228214;-9.945821799;-29.61796856;-26.2665381;4.915868248;2.240365989;16.48422466;-16.28850918;1.801590429;-7.280879643;1.494905871;11.95866108;12.14507394;3.764961533;-0.058502355;-12.41159301;-9.411239399;41.33166072;-6.120960236
-20.14257603;-12.1897339;-30.15037418;-21.35764743;-10.16088123;2.44291568;15.55881317;-15.42204493;-0.886783533;-7.1439338;-1.501390076;10.1279854;8.373881203;3.20748076;2.301858175;-10.68267108;-9.397661326;-25.58392103;-5.374992854
-18.19681297;-12.27223197;-29.41468713;-16.94314283;-17.66025699;2.300462704;12.87500749;-16.22093883;-4.150058594;-10.31422687;-4.109914169;6.881493873;4.644274873;1.257643652;3.605540308;-9.361590836;-11.34338076;-106.7496561;-3.914034815
-14.48202903;-11.34091567;-26.92628749;-14.1505542;-9.074696079;1.838432992;10.96911738;-17.87859636;-4.874146637;-14.11374989;-4.582720112;4.543293677;2.974740862;-0.984377245;4.86905532;-8.591481828;-15.15051075;-156.0393047;-2.900207993
-10.45704129;-10.12325342;-22.29833342;-13.28120716;8.087294906;1.252901905;11.54351463;-18.9392926;-1.982705621;-15.28220673;-3.106922414;4.406086883;3.269791842;-2.366657953;7.050770403;-7.891898416;-19.45427938;-144.1274476;-3.165588224
-7.420912014;-8.238995472;-15.71917271;-13.95177529;15.17643843;0.757196215;14.32719074;-18.37111576;2.657180935;-12.57644283;-1.630362378;5.95253398;3.700395621;-2.503228592;9.706957885;-6.781065258;-22.24081834;-80.5133834;-4.400818353
-5.710969024;-4.701324664;-8.336978701;-15.33996221;-1.780479963;0.41877488;17.28182111;-16.30912594;5.648468044;-7.724136806;-2.227485368;7.408469051;2.401470228;-2.066391481;10.81585723;-5.407540871;-22.08369886;-6.59710874;-5.242859242
-4.659906009;0.833671071;-2.066551171;-16.42552264;-38.66706844;0.123794222;18.06780886;-13.91568066;4.659500412;-3.936495071;-5.394485756;7.142777232;-0.983031594;-2.299477499;8.147412655;-4.633109108;-19.11330462;34.87763307;-4.291145404
-3.301486115;7.213336637;1.283671895;-16.28220899;-74.09799901;-0.302365266;15.81791266;-12.50265768;0.134733719;-3.260833974;-9.685908759;4.856236477;-5.119438456;-4.064768821;1.191489838;-5.449203808;-14.95460458;29.91191036;-1.292394132
-1.23051189;12.20033425;1.077564797;-14.44138582;-84.579141;-0.923538113;11.96197688;-12.62104311;-5.17537914;-5.029019434;-12.91928596;1.735436286;-8.160841954;-7.108569909;-7.961989068;-8.154321165;-11.62361533;-0.333676212;2.473648604
1.07490359;13.9549788;-1.664573743;-11.17065437;-62.09596567;-1.618353357;9.385673301;-13.80676721;-8.37412477;-6.688366931;-13.84945319;-0.446185207;-9.180039063;-10.10264163;-15.65680328;-11.93853333;-10.1767044;-20.36483445;4.991019519
2.697235713;12.42268508;-4.818763378;-7.432416093;-20.07003906;-2.16736774;10.34661636;-15.11517232;-8.477619128;-6.23436245;-12.90740131;-0.559615597;-8.688996073;-11.477262;-18.93984578;-15.23425635;-10.11085532;-10.04396544;4.935193613
3.078437663;9.435729401;-6.465211323;-4.457403112;16.9017979;-2.427272497;14.58465543;-15.94792976;-6.807622605;-4.094811226;-11.52239727;1.183138839;-7.984582359;-10.48420684;-17.3407329;-16.6170696;-9.939721863;21.38482178;2.64688626
2.476887458;7.337530444;-6.082622283;-3.16681279;31.03633191;-2.442759448;19.15136041;-16.47987791;-5.616913307;-2.820561194;-10.8101473;3.460058594;-8.068877897;-7.743072192;-12.81086157;-15.62381836;-8.468239597;47.18948052;-0.112471035
1.690403425;7.165831654;-4.80539026;-3.819558674;22.7880174;-2.39976119;20.38710902;-17.36280131;-6.2530636;-4.860068359;-10.86268581;4.722275715;-9.11389776;-4.875774495;-7.982768643;-12.92326272;-5.771025051;48.98779941;-1.448629156
1.293181224;7.859160133;-4.584156969;-6.085522051;7.417922253;-2.459378382;16.82391015;-18.99226828;-8.359271411;-10.35269943;-11.16143405;4.088460151;-10.77163456;-3.472677891;-4.27410344;-9.77155573;-3.146270423;33.24007813;-0.676711559
1.069518198;7.179717203;-6.86242367;-9.390963397;0.813099663;-2.614102347;10.81179652;-20.97162147;-10.5465772;-16.83889985;-11.49187296;1.735129414;-12.78203084;-4.098609217;-1.397842393;-7.215378472;-2.135253136;24.00652492;1.305263726
0.182006054;3.666429361;-11.6713235;-13.17666045;6.957335379;-2.690145967;7.290832766;-22.22961185;-11.68194399;-21.11366966;-12.27957704;-1.316556662;-15.12684134;-6.005607968;1.475602034;-5.650103661;-3.405123424;38.73166227;2.859089797
-2.006892316;-1.937694668;-17.66265271;-16.85784712;17.03200841;-2.497399567;10.15793213;-21.71402335;-11.55885376;-21.61683428;-13.92350382;-3.763955676;-17.57224194;-7.711382468;4.159320783;-4.994643386;-6.340785733;68.95564468;2.953481774
-5.124329923;-6.969714624;-22.89659094;-19.64485396;19.61327769;-2.00510876;18.70744199;-19.13361161;-10.48996344;-19.34564188;-15.81667209;-4.596558693;-19.20266135;-8.004420868;5.090744353;-5.205773365;-9.581204797;83.97020804;1.931911994
-7.705172291;-8.688116833;-25.7455581;-20.60546692;12.08284018;-1.399425782;27.00411547;-15.19961811;-8.471515995;-16.61;-16.19953586;-3.464118362;-18.67490909;-6.676880937;2.633903021;-6.577857298;-11.99029522;55.78414768;1.122006029
-8.010606133;-6.271174999;-25.37595373;-19.16280521;2.99138408;-0.974527363;27.20464086;-11.21107942;-4.947607039;-14.82831345;-13.28322642;-0.77186739;-15.23645365;-4.529797096;-3.095888845;-9.493609164;-13.27178464;-14.97767414;1.662518177
-5.199133166;-1.421479711;-21.74017015;-15.74564934;3.567292164;-0.940817262;14.93049173;-8.3028713;0.481696808;-13.33793436;-6.827042622;2.49674792;-9.689976139;-2.7344903;-9.631087955;-13.82059381;-13.80889461;-94.45656497;3.544668741
0.01389926;2.901366128;-15.38706625;-11.97738872;16.24393341;-1.294366849;-7.019646872;-6.871231159;7.118491766;-10.22668321;1.249812043;5.196786829;-4.313087843;-2.061779656;-13.53701052;-18.52736535;-13.98348035;-137.5546425;5.653272887
5.719501337;4.648417724;-7.372413937;-9.980907212;30.66473178;-1.837079392;-29.49932769;-6.501333961;13.07630759;-4.368577952;7.947737407;6.559030596;-1.524241494;-2.511373184;-12.79810519;-21.97636889;-13.63549425;-120.1364391;6.742551934
9.95858556;4.091874843;0.768351264;-11.03839025;31.12452831;-2.318639017;-42.186433;-6.342731942;16.40751274;3.207608406;11.23161293;6.60464225;-2.194957378;-3.515264605;-8.258140194;-22.80678195;-12.14970336;-56.39692792;6.505335551
11.83425412;3.425044798;7.249962296;-14.47879357;9.569991324;-2.587424992;-39.7602156;-5.617313043;16.63229314;9.868615917;11.39737668;6.165531645;-4.951178252;-4.455938759;-2.8849955;-20.79230044;-9.084807602;12.06212658;5.830881688
11.83228477;4.903745058;10.60391816;-17.70719;-26.53476091;-2.649271784;-24.92549571;-3.960576706;15.31288292;13.37953227;10.6080007;6.415851011;-7.119983798;-5.062164921;0.550494814;-17.00215509;-4.786284383;46.61949471;6.03497551
11.20402532;8.98836893;10.34324221;-17.59334545;-58.0836512;-2.617852723;-6.315643416;-1.503649385;14.99448231;13.60994836;10.97944521;8.138780106;-6.679664565;-5.423241661;1.44843377;-13.08959059;-0.433037522;37.79021862;7.705407656
10.95228599;13.91520638;7.254987701;-12.45112866;-67.15920895;-2.620367282;7.096235666;1.215217126;17.21181712;12.46787058;12.84379791;11.18177471;-3.741248899;-5.712205237;1.394121731;-10.2018695;2.572004064;7.75713155;10.12543855
11.19307602;17.01251855;3.030955729;-3.304979685;-49.10014486;-2.734785773;11.12954482;3.402083591;21.14861886;12.150909;14.66010563;14.48007813;-0.439089444;-5.930158153;2.321433734;-8.309945415;3.438132418;-10.70994019;11.76333024
11.29918862;16.75364095;-0.576345154;6.48582581;-15.00681715;-2.984090489;7.761405621;4.209196281;24.11483921;13.26581357;14.59308217;16.66147266;0.643499533;-5.911895189;4.545986321;-6.437741405;2.454222374;-0.570160179;11.44829038
10.59547665;14.0003067;-2.525187384;13.09494203;16.52161702;-3.356426571;2.379837711;3.02650664;23.56212813;14.44503853;12.30552737;16.8403389;-1.726208207;-5.559106145;6.461722788;-3.576547563;0.780073242;28.95761691;9.30392835
8.985840621;11.50319754;-2.717200773;14.40591933;31.69561478;-3.810667966;-0.506457436;-0.181716685;19.07744193;13.73856899;9.326269327;15.07752743;-6.727432645;-5.046079519;6.155990606;0.446098148;-0.259093263;54.28805892;6.713597471
7.028603883;12.00101983;-1.674992032;11.08102594;28.96786503;-4.264538757;0.144328399;-4.684554516;12.76139431;10.49092832;7.642238856;12.22876192;-12.24653235;-4.767729063;3.419376162;4.801667219;0.110105176;59.64403645;5.361227037
5.47804364;16.2527999;-0.060483759;5.855517054;17.25988206;-4.599672303;2.438549241;-9.157542742;7.668971451;6.009369143;7.785994653;9.342525835;-16.32888203;-5.042003322;0.217639245;8.269817703;1.798239909;49.82878377;6.094114104
4.735382147;22.36500205;1.55995603;1.601505903;7.780917252;-4.71048557;4.006240742;-12.26092889;5.536962013;2.42889267;8.193820169;7.060450389;-18.16587603;-5.818840628;-0.940180663;10.0764588;4.038511657;43.25680766;8.441894162
4.664245545;26.86835748;2.662245842;-0.48219534;6.254337205;-4.57558651;3.982096486;-13.3609432;5.586777103;0.796976938;6.51699414;5.412301189;-18.05358217;-6.66870677;0.646415102;10.27559526;5.850816282;52.51586705;11.06960052
4.857297337;26.82762751;2.731917985;-1.349104984;10.76991947;-4.290981016;3.065776196;-12.94448741;5.325645503;0.106606118;1.82207153;4.061432582;-16.69772115;-7.09833078;2.954957397;9.420503155;6.481481069;70.42276926;12.72522499
5.041848743;21.6249871;1.523367788;-3.030540339;15.4022745;-4.019829122;2.219809287;-12.3925512;2.688723572;-1.816189739;-4.241450968;2.729169873;-14.66536162;-6.956758283;2.757887558;7.890194943;5.641155572;74.45371282;12.93657476
5.230184817;13.32446114;-0.521007993;-6.879685853;15.59030369;-3.879616453;1.687266391;-13.16536086;-2.162309108;-6.290633646;-8.413082362;1.453599674;-12.39706002;-6.595046442;-1.574515116;5.51734028;3.535302137;46.26845547;12.01503431
5.503528823;5.462047364;-2.173735211;-12.4361454;10.97395649;-3.84882114;1.329388679;-15.8608214;-6.758802683;-12.35834642;-8.232246559;0.534458053;-10.479146;-6.622139059;-8.379729197;1.873379084;0.758866932;-10.26256806;10.52763997
5.690694987;1.07340101;-2.005499203;-17.70030684;4.35144514;-3.773173368;1.634211061;-19.73955573;-7.993016043;-17.21646666;-3.943390072;0.281281819;-9.590922142;-7.420703559;-13.7042513;-3.035835689;-1.895981076;-68.30949312;8.78521228
5.318137276;1.168974273;0.575966145;-20.55513073;-1.323559273;-3.479658274;3.870117294;-23.04680086;-4.272237613;-18.2140019;1.653651724;0.794766434;-9.966786312;-8.791689884;-14.34018523;-8.303137523;-3.697992819;-96.22678281;6.775955903
3.959403899;4.500227813;4.600972373;-20.25478428;-5.013703179;-2.919525771;8.704091361;-23.96419288;3.374630637;-14.81981504;5.261313726;1.915119552;-10.88691979;-10.01571313;-10.44867242;-12.36423996;-4.244291986;-80.58320091;4.509943407
1.72039565;8.616004484;7.847210603;-17.89287619;-7.383482908;-2.231832577;14.39639025;-21.62499955;11.91222405;-9.008585539;5.360308269;3.297170765;-10.88999608;-10.31034038;-5.558848591;-13.85637204;-3.6176833;-35.92316182;2.362207145
-0.583810553;11.43629441;8.177684341;-15.54414532;-9.172525627;-1.674114307;16.61281578;-16.5927449;18.0672179;-3.818380693;2.920934098;4.493097756;-8.812642226;-9.363123655;-3.85561206;-12.47576697;-2.320230011;6.325114814;1.028853972
-1.798316291;12.33608214;5.037499361;-14.75176641;-9.995383131;-1.465187934;10.83741652;-10.55095969;19.99762123;-1.284729273;0.15085747;4.99059386;-4.907567768;-7.560333813;-6.921162764;-9.188669939;-0.986573309;20.93327311;1.086596585
-1.144864143;12.13952367;-0.02037674;-15.49047794;-8.617835145;-1.649855622;-3.961519171;-5.438758192;17.88412062;-1.355335586;-1.489582749;4.264530209;-1.015511075;-5.75303214;-12.57415;-5.631751048;-0.035520917;6.104690518;2.519883148
1.221271796;12.17474862;-4.267286681;-16.35051668;-4.263359477;-2.077057675;-23.31447211;-2.570058594;13.33605951;-2.475092441;-2.289659333;1.916716908;0.56239513;-4.733075099;-16.73656751;-3.137735026;0.520566201;-17.66754685;4.625642212
4.238389267;13.13111939;-5.581350926;-15.75852556;2.323514244;-2.498966909;-38.98424261;-2.215065776;8.250750082;-3.144252308;-3.600472637;-2.125823292;-1.269235432;-4.784836662;-16.77773938;-2.068665494;0.989621147;-24.91579212;6.399048633
6.556796812;14.5176393;-3.796292768;-13.27565064;8.973297767;-2.715553384;-43.77966361;-3.7783526;3.907520913;-3.068407211;-6.288196683;-7.498142733;-5.530538388;-5.601976537;-13.60293268;-1.864613914;1.712129439;-4.462597868;7.120128301
7.328098274;15.0372715;-0.643886679;-9.968832477;13.2649554;-2.668071618;-36.21092929;-6.336608131;0.686009773;-3.039547059;-9.853994728;-13.50401621;-9.880703553;-6.58658041;-10.83474813;-1.670499269;2.783301369;33.74130055;6.720662529
6.634318236;13.53;1.610386702;-7.571122019;13.93937653;-2.433632399;-21.56664748;-9.144909928;-1.697105087;-3.86687072;-13.02640952;-19.42172186;-12.4216791;-7.289756174;-11.8434686;-1.024835125;3.970078125;67.76505026;5.706966288
5.304829699;9.771616583;1.760339554;-7.088232971;11.65234032;-2.146216674;-8.505644453;-11.84631292;-3.768410279;-5.456785056;-15.20549499;-24.81776213;-13.15512721;-7.687403792;-17.09983498;-0.141437748;4.849105649;80.07455491;4.756799614
4.308816209;4.588555403;0.296917889;-7.953972305;8.63453333;-1.910565538;-3.553381784;-14.38579525;-5.953169195;-6.890760534;-17.31990742;-29.64887675;-13.89176774;-8.134775843;-23.9590441;0.313560452;5.035719435;68.28047189;4.31214647
4.176878834;-0.700616908;-1.269490484;-8.43340292;7.426127526;-1.761757419;-7.382070548;-16.82018462;-8.387669355;-7.369429578;-21.18328088;-34.08785444;-16.67208246;-9.07705997;-28.9158484;-0.313548387;4.341317902;43.65247924;4.419653084
4.821140348;-5.020912399;-1.713833808;-7.008572504;9.318297974;-1.677815601;-15.29273393;-19.20758002;-10.88366891;-7.093082738;-27.81725457;-38.22395812;-21.99536228;-10.73943983;-30.37;-2.304942631;2.790473286;21.04098922;4.834596445
5.790883177;-7.904448447;-0.926047433;-3.68701901;13.35392406;-1.616741622;-21.13243417;-21.60444252;-13.04310403;-7.225434628;-36.19488532;-41.8812697;-28.31624388;-12.99481438;-29.64783401;-5.479897886;0.551069274;9.385796908;5.224474725
6.694169321;-9.320624357;0.320927096;-0.173307561;16.59942613;-1.546011126;-21.50903542;-24.06030703;-14.49700226;-8.927308087;-43.56152938;-44.68814009;-33.20615905;-15.45774394;-29.58527965;-9.300078125;-2.127601218;9.229212075;5.313539731
7.453144233;-9.286664412;1.301367743;1.325627927;15.79649663;-1.45256655;-17.35593208;-26.50932455;-15.14539073;-12.2790438;-47.16681712;-46.31429824;-35.18867713;-17.70139648;-32.00289082;-13.02465928;-4.928946751;16.43410902;4.939728927
8.247210671;-7.721261574;2.048249937;-0.165970786;9.600019531;-1.339729178;-12.24711596;-28.60067959;-15.20788553;-16.01131865;-46.04864912;-46.65722436;-34.71899003;-19.43961456;-36.19459271;-15.8582294;-7.473452399;26.62474635;4.090221408
9.254039645;-4.708983814;3.214346963;-3.425217739;-0.030629929;-1.219993145;-9.306249229;-29.6433429;-14.98946399;-18.27805956;-41.47688644;-45.82072756;-33.53479405;-20.57370878;-39.55695431;-17.1348974;-9.368437412;36.3070723;2.95069324
10.42392126;-0.883919236;5.270776012;-5.63822252;-8.460599752;-1.105863268;-9.194002796;-28.81902768;-14.50346584;-17.85135893;-35.79647958;-43.92726568;-32.99682562;-21.11316366;-39.65736275;-16.55270172;-10.30440494;41.5795719;1.907383536
11.4531502;2.548650844;7.833648002;-4.25512822;-10.95669828;-0.999033923;-10.29501861;-25.62504693;-13.27394157;-14.81828213;-30.71101224;-40.96218686;-32.87126966;-21.06175976;-35.95962853;-14.34863689;-10.14003906;38.19149814;1.414991541
11.94968102;4.354495128;9.77493135;1.182307209;-5.677327621;-0.884518877;-10.31718646;-20.28728051;-10.55818158;-10.31852428;-26.4105212;-36.82153511;-31.58848202;-20.36945382;-29.9149719;-11.2430148;-8.920832141;24.56538722;1.744756927
11.65651059;4.056406073;10.05552117;8.560439642;4.982986036;-0.739666419;-7.729168668;-13.82416024;-5.899820182;-5.638019199;-22.11162622;-31.54564173;-27.72740026;-18.99064211;-23.61862305;-8.097751935;-6.836800387;4.892289886;2.767734116
10.59298771;2.345976187;8.577517861;14.46693736;15.74834133;-0.557832735;-2.201618458;-7.628882441;0.39485356;-1.407388778;-17.32216344;-25.53286549;-21.43344858;-17.00354998;-18.3650833;-5.457211447;-4.175548499;-12.18137354;3.958034317
9.058361913;0.726983573;6.349177845;16.40003906;21.66203273;-0.368768872;5.560815389;-2.762216933;7.272243455;2.556853245;-12.57117756;-19.50936711;-14.55281264;-14.68740062;-14.28381755;-3.271969236;-1.305226068;-20.02513611;4.660915462
7.528015853;0.589126796;4.859144998;14.43817333;20.92288953;-0.232101728;13.83160223;0.618336461;13.49668074;6.818762919;-8.921609178;-14.21029736;-9.360520081;-12.4641017;-11.07915187;-1.003214692;1.347077996;-20.62128637;4.464616143
6.504598161;2.381224282;5.20258252;11.25920121;15.45165655;-0.199188841;19.69176361;3.310058594;18.37395402;11.77294574;-6.754081734;-9.968817611;-6.923726141;-10.69467178;-8.873393788;1.967657293;3.391578053;-24.46816851;3.422251257
6.372511089;5.488370904;7.625778798;10.50810098;9.031821201;-0.270079346;19.50863041;6.526704276;22.08103738;17.40021806;-5.022305291;-6.519118392;-6.407359418;-9.435352079;-8.186450632;5.918078674;4.656346573;-41.99327426;1.980244498
7.28538239;8.852486834;11.69883796;14.576479;4.649418502;-0.386252173;10.69459636;11.07900468;25.33933116;23.36708952;-1.807286995;-3.200517912;-5.823439761;-8.326903574;-9.070589096;10.62519319;5.345501857;-72.730684;0.693436938
9.112123628;11.7792388;16.75858187;23.17;3.036697484;-0.476217905;-5.951029167;16.77225837;28.68964085;29.20612926;4.134072913;0.524991544;-3.568640924;-6.745323325;-10.36747758;15.51039507;6.013207168;-102.1014951;-0.047064068
11.4627677;14.25420268;22.12163424;33.45784716;3.188036135;-0.523826228;-25.21203099;22.3894656;31.95221436;34.35933657;12.04556393;4.569110983;0.455320148;-4.183121212;-10.04186278;19.9021464;7.283854328;-110.4376681;-0.098862373
13.7908565;16.55192824;26.94609344;41.59031155;3.923840975;-0.599293313;-39.28108773;26.27057711;34.30821418;38.14309811;19.21136531;8.087132979;4.902995487;-0.648995991;-6.564259898;23.20826477;9.445390663;-88.40974988;0.519609421
15.53377206;18.56481507;30.09935549;44.62350519;4.909632136;-0.81371614;-41.96686307;27.14788929;34.93446262;39.86255429;22.4775679;9.869503842;8.017504862;3.193168974;-0.268038397;24.96406323;12.18634063;-46.26307486;1.731440068
16.2382572;19.54140955;30.45451218;41.81;6.367542689;-1.220041504;-32.65049488;24.7718613;33.67504997;39.16268948;20.23822023;9.072063946;8.750699984;6.296850903;6.524585692;24.89461871;14.69513699;-7.968007219;3.390932123
15.64229806;18.56712837;27.58990601;34.72074654;8.132817601;-1.73717705;-17.01744593;20.014608;31.20848902;36.39294508;13.50477938;5.858050133;7.202142615;7.801090619;10.86463963;23.10190025;16.10055084;6.496588552;5.19636784
13.72240797;15.44369218;22.33708414;26.32967669;9.312062226;-2.168418265;-3.671170654;14.44637254;28.58230672;32.62039877;5.338189805;1.531248924;4.281410505;7.551869203;11.06022411;20.27485563;15.97700813;-3.121123834;6.681861738
10.72344224;11.21208861;16.56955591;19.63366536;9.048135476;-2.316398327;1.216826163;9.646330144;26.49423122;29.14592367;-0.929849652;-1.986072911;1.081780716;6.226601837;7.673627186;17.65028698;14.57389975;-17.01199996;7.388949626
7.153463218;7.786669983;12.185953;16.44112861;7.599204435;-2.115813892;-2.517150949;6.5975315;24.88914575;26.79672455;-3.481552983;-3.083038055;-1.510604932;4.957205619;2.939306815;16.54828463;12.61834144;-11.68487141;7.131042873
3.690746399;6.858543886;9.961571014;16.77661364;6.455266637;-1.681419733;-9.706550567;5.419515432;23.1727383;25.50745384;-2.700612125;-1.275522775;-2.858384147;4.686752003;-0.836391421;17.65030916;10.84628199;19.79551026;6.130039063
0.973774796;8.821972585;9.160617885;19.06668251;7.102646298;-1.228008327;-14.0773508;5.501565009;20.84803032;24.51736034;-0.478589515;2.582790681;-2.528261757;5.680625712;-2.602406871;20.49698419;9.600867417;60.63541749;4.874669065
-0.662490992;12.49334841;8.258172436;20.99657366;9.476094211;-0.918607116;-12.70783116;5.922006668;18.05908475;23.03489668;1.24072576;6.834352555;-0.406979702;7.498484506;-2.693277991;23.64369592;8.759769069;82.93425891;3.783574895
-1.350529229;15.82156622;6.229967685;20.67928596;11.66167381;-0.756391018;-7.45699894;5.938957092;15.6169472;20.85624849;1.670452953;9.973219755;3.094144244;9.397120915;-1.922605673;25.48163215;7.986370948;70.3423895;2.945505686
-1.612230763;17.09129807;3.384832088;17.617518;11.38732774;-0.603590062;-2.659154835;5.331127727;14.49003906;18.48400508;1.430192419;11.42282715;7.04432656;10.83134308;-0.632709994;25.21716274;7.06338878;32.06176007;2.161987441
-2.040356202;15.82790629;1.075260824;12.97767881;8.126495614;-0.31023683;-1.315282336;4.443640863;15.13619049;16.71832722;1.815904365;11.6532401;10.3675734;11.68333904;1.415243511;23.3283981;6.044224112;-3.87570244;1.256425119
-2.926178068;12.89834307;0.542910043;8.998732653;3.876131266;0.151873617;-2.944398246;3.929824533;17.14697767;16.10836717;3.681482884;11.6069426;12.37546858;12.10254696;4.311023332;21.16367837;5.143560451;-12.98197457;0.361403411
-4.09243332;9.882092422;1.862951002;7.817680002;1.707233188;0.656954835;-4.578939399;4.329743208;19.4357245;16.70219135;6.703482884;11.88324966;13.04084294;12.16619688;7.252643903;19.96995237;4.509596945;6.084921041;-0.105710767
-5.063419777;8.200361823;3.846109067;10.33767426;3.199260622;1.016858556;-3.670358753;5.718858723;20.82910347;18.20486019;9.496854378;12.29057379;12.7929665;11.70210648;8.64777484;20.05454265;4.089681913;31.1569901;0.204814561
-5.451748965;8.494604619;4.94024331;15.74838951;7.02021435;1.11762549;-0.240336219;7.631451265;20.69096996;20.27477638;10.48265654;12.08268244;12.04733107;10.44354263;7.140885235;20.66138776;3.68132883;35.89509853;1.195897785
-5.260640344;10.45794105;4.353967687;21.92067176;10.03417263;0.988953892;3.45051346;9.309322908;19.23149685;22.61615415;8.924830693;10.66047782;10.92328538;8.364198447;2.772758964;20.58495553;3.082657687;12.60409331;2.286364727
-4.853387738;13.0488091;2.497682069;26.39845836;10.07545865;0.755673534;5.14086998;10.12893218;17.36959004;24.81222347;5.442634224;8.155311234;9.396216899;5.855231915;-2.722430763;19.00360015;2.188761843;-20.82493147;2.812835594
-4.60686868;14.93406991;0.477092224;27.43541302;7.926550435;0.52160389;4.554706913;9.94632889;16.25527566;26.18747701;1.647048954;5.408061047;7.666650517;3.528653909;-6.831272272;15.91334155;0.972264131;-35.8518158;2.574136107
-4.536940684;15.04488392;-0.814029678;24.61628152;6.61975753;0.29034141;3.416005621;9.150949007;16.69632175;26.02112162;-0.8572842;3.352687364;6.27356051;1.766725517;-7.790194373;11.93;-0.571758096;-17.49956209;2.053250973
-4.228279772;13.10821405;-1.190709128;18.91834437;8.557593055;-0.010705098;3.679735095;8.40536692;18.74386669;24.08603309;-1.411388579;2.309281352;5.719793351;0.394755762;-5.663207858;7.749028262;-2.398703085;22.74542057;2.082861793
-3.161835924;9.908725591;-0.932913973;12.32820939;13.02351202;-0.431738222;5.737768848;8.240734392;21.61328896;21.07256851;-0.520902964;1.778028428;5.911558107;-1.204391806;-2.253744626;3.768987186;-4.298868018;56.32836467;3.180562523
-1.19208722;7.014036035;-0.20919606;7.185097806;16.48059021;-0.923174242;8.222843147;8.747539635;23.98860691;18.40022692;0.770545851;0.916106207;6.011716828;-3.566391805;0.019511291;0.148813269;-5.833443591;61.22970265;5.082462896
1.230562152;5.938708924;1.137560599;5.369976131;15.63265541;-1.35472596;9.44390268;9.51530139;24.60487511;17.3554467;1.812265653;-0.697814166;5.015278712;-6.604142628;-0.509407357;-2.873123794;-6.478054633;39.52839566;6.874878888
3.318290566;7.154532632;3.181390209;7.496252566;10.62795464;-1.616829028;8.989062374;9.813983501;22.86052565;18.09901155;2.776059689;-2.66837178;2.675055611;-9.500497731;-3.967232298;-4.807580815;-5.96372157;13.97181201;7.648424175
4.520966793;9.628133486;5.345234675;12.42226495;5.396506795;-1.712120492;7.990577407;8.894380025;19.15158828;19.33139704;4.182181326;-4.124107415;-0.04387947;-11.17342271;-9.059192998;-5.1353943;-4.586927149;6.859038184;7.165343653
4.96546502;11.34894397;6.422353868;17.49127868;4.455542443;-1.749217519;7.90439628;6.273550405;14.71209307;19.0102921;5.917833204;-4.541000053;-1.536461718;-11.00350144;-13.83855486;-3.76873814;-3.198442515;19.96711991;6.007473707
5.373036344;10.63818824;5.441429077;19.65588014;8.68021594;-1.836937423;9.067044952;1.927252738;10.98679922;15.72974647;6.682065874;-4.36015261;-0.866423844;-9.289713982;-16.62103404;-1.343438106;-2.77192438;33.34643704;5.089492521
6.463202349;7.375721073;2.759746499;17.07449734;13.74297798;-1.969768757;10.42695498;-3.643267195;8.840846706;9.804696435;4.551207128;-4.836296077;1.204897206;-7.087502479;-16.64129669;0.954478876;-3.777815985;24.19823377;4.938320648
8.275860148;3.209676166;0.340959237;10.26777726;12.95930919;-2.011372955;10.64076278;-9.498571956;8.052578262;3.240078125;-1.556998861;-7.159672602;2.416052816;-5.541361273;-14.27772949;1.952006058;-5.788642148;-10.89705555;5.32452478
9.95304427;0.483403694;0.679308217;1.982874549;2.636752601;-1.803557886;9.391320098;-14.52403028;7.421594521;-1.456270843;-10.61766112;-11.49419092;0.472070559;-5.194054202;-10.82211056;1.065808049;-7.633857326;-50.62;5.531249675
10.21014624;0.576160942;4.945439118;-4.333725485;-14.26451244;-1.318411331;7.621915348;-17.82304935;5.486873246;-2.810678733;-19.58164116;-16.67593506;-5.221297544;-5.751566445;-7.854830585;-1.464879231;-8.057383744;-66.25390311;5.014487515
8.215610481;2.860444422;11.72857331;-6.563949079;-29.2811816;-0.725568557;6.521590737;-19.08216203;1.475307111;-1.202048679;-25.02222716;-20.82777585;-12.87214975;-6.42328294;-6.428547045;-4.759359774;-6.470696563;-47.4695433;3.892090116
4.273893597;5.085688198;17.49149088;-5.091080529;-33.85277461;-0.307853531;6.385038586;-18.69156427;-4.077953436;1.576944687;-25.30728846;-22.4578144;-19.25938514;-6.535053549;-6.461017945;-7.683944262;-3.310787814;-13.96979648;2.858292143
-0.181252018;4.960103843;18.63961365;-2.280160095;-25.0851003;-0.279645224;6.596167669;-17.50003906;-9.447243375;3.636580439;-21.70612914;-21.26826829;-21.70381808;-5.954320777;-6.784112176;-9.202732908;0.226044878;-1.516453653;2.611777223
-3.306677642;1.80475411;13.8515207;-0.632109647;-7.6509827;-0.643945352;6.777200843;-16.31311521;-12.56752182;4.198404849;-17.51913616;-18.16037237;-19.66578884;-5.067244859;-5.985715067;-8.61671959;2.886131605;-32.45026799;3.288433464
-3.824437037;-2.90633266;5.031909154;-0.973653916;9.453504824;-1.197680072;7.790019531;-15.44834063;-12.16706941;3.857223592;-15.77737937;-14.54271953;-14.88022493;-4.414103751;-3.603785161;-5.765987338;4.033828862;-94.66376245;4.369594284
-1.641556229;-6.48309165;-3.805214114;-2.028549006;18.75689488;-1.680328515;11.19998987;-14.65976279;-8.524499855;3.815838476;-17.17209574;-11.52369216;-10.04298907;-4.317486786;-0.814834544;-1.217547524;3.890859822;-147.0948219;5.123882561
2.227428231;-6.732238176;-8.944067242;-1.652704377;18.5114354;-1.95100957;17.26766781;-13.4926876;-3.377800203;4.773545472;-19.73561364;-9.541492419;-7.089277406;-4.76986297;0.055909324;3.721041117;3.24830057;-148.6763283;5.19660123
6.309377755;-3.248363741;-9.010272041;1.278088574;12.57170865;-2.061853235;23.24;-11.80182613;0.994463696;6.342125828;-20.47913803;-8.54273286;-6.279206226;-5.584203073;-2.926577373;7.380805428;2.902429955;-88.65224286;4.858916714
9.436371516;2.51126059;-5.351839059;5.832691346;6.687122088;-2.182237;23.96221865;-10.021393;2.987256004;7.382648955;-17.72024011;-8.376800209;-6.568925632;-6.600909317;-9.723787457;8.493237292;3.201266386;5.091981337;4.73900103
11.17772103;8.239989511;-0.719543856;9.63930733;4.403631521;-2.446147685;15.10565917;-8.953647349;2.443375026;6.920898808;-12.35612968;-8.993125759;-6.753064005;-7.754149966;-17.91922717;6.946632428;3.95730976;85.63421906;5.296439874
11.78266563;12.05335434;2.627953479;10.61828136;5.518169144;-2.848151586;-3.083596268;-9.220398358;0.517632576;4.890736612;-7.206624444;-10.32111666;-6.402526087;-8.983717207;-23.97841161;3.977756441;4.711561139;118.84723;6.491675981
11.80164854;13.19469472;4.048712595;8.436163691;7.606847282;-3.263451091;-24.56850024;-10.79960204;-1.251269159;2.156781558;-5.036759551;-12.05939367;-5.967745449;-10.13896954;-25.43022865;1.524921051;5.121160455;103.3262976;7.898436259
11.69483032;11.93910314;4.301337041;4.577696479;8.733029363;-3.561454667;-40.33554569;-13.01200901;-2.014294551;-0.131637585;-6.787215035;-13.67258705;-6.17554734;-11.00831734;-22.44585381;1.071781116;5.209112986;65.17755259;9.109479036
11.64735701;9.071670558;4.476149762;1.104037451;8.920412685;-3.710311624;-43.71280003;-14.96825882;-2.08932238;-1.305971835;-11.22258658;-14.65166951;-7.354217129;-11.4519403;-17.63358672;2.762587478;5.342662287;34.77252916;10.05044333
11.615721;5.470834936;5.064998304;-0.79046233;9.46574481;-3.788233248;-34.5546167;-16.12467997;-2.531450311;-1.4935544;-16.01530998;-14.80331765;-9.222843245;-11.48772051;-14.15340269;5.449293625;5.986782672;25.42361447;10.93684845
11.48913736;2.009020378;5.816806318;-1.260056152;11.14707172;-3.903636772;-19.25829993;-16.52793084;-4.152571219;-1.33138843;-19.24566457;-14.29211425;-11.1793243;-11.21778434;-13.52544406;7.659425716;7.399973583;29.63852641;11.95540605
11.23337441;-0.420797235;6.25279209;-1.096893328;13.15868883;-4.102366709;-6.54459103;-16.60719444;-6.760168172;-1.40544413;-20.21332822;-13.40432919;-12.71599977;-10.65241342;-14.75690177;8.751736134;9.451834669;32.31742922;12.99933478
10.94727956;-1.041464162;6.210039063;-0.653888739;13.71245087;-4.342377641;-1.996993139;-16.7515447;-9.218768513;-1.892228441;-19.2467829;-12.28128049;-13.60333029;-9.616965036;-15.40638595;9.350316385;11.66185123;26.59426338;13.71795796
10.8235875;0.469713123;5.912277623;0.524506505;11.66979735;-4.548049715;-5.148572597;-17.05732769;-10.2957952;-2.622526741;-17.06154103;-10.89553981;-13.80205516;-7.873181526;-13.70486866;10.70266419;13.43696335;18.12441956;13.83015548
11.03339197;3.697751508;5.609702781;3.036706435;7.719130445;-4.68269887;-10.87247591;-17.42373641;-9.623647658;-3.388619391;-14.39568881;-9.280354487;-13.32604944;-5.38191843;-10.03580476;13.47787856;14.37915162;15.93629803;13.39424048
11.57428216;7.54956567;5.241679904;6.625937392;4.098057969;-4.76551809;-13.63477267;-17.81538616;-7.996189532;-4.133821235;-12.09550759;-7.733714006;-12.24073147;-2.469087368;-6.600764873;17.00385489;14.49314417;20.5469801;12.76333041
12.16032455;10.6827363;4.502079472;9.905080365;3.106503435;-4.817478666;-11.28696161;-18.34453171;-6.733881196;-4.836384952;-11.18714387;-6.708742689;-10.74479334;0.297711156;-5.555395508;19.62077331;14.17515404;21.67152791;12.25155489
12.2586405;12.04392617;3.25100582;11.20504911;5.56481432;-4.794458919;-5.816516508;-19.0236001;-6.60347583;-5.243552432;-12.44104338;-6.411645273;-9.143631464;2.472486423;-7.134824312;19.9344374;13.98829512;7.857032734;11.81807678
11.33059851;11.21548735;1.85823772;9.884166961;10.29227258;-4.585470718;-1.024305921;-19.42483033;-7.160171511;-4.794764284;-15.56371375;-6.471040333;-7.647117067;4.051147921;-9.308175036;17.99905836;14.35950483;-21.40287251;11.07903851
9.199976034;8.47476305;1.114088191;6.949551847;14.84950361;-4.0980563;0.662866215;-18.67881379;-7.065990265;-2.917978481;-18.79104803;-6.065558265;-6.172307693;5.459563357;-9.285431731;15.4636717;15.37918478;-53.06467481;9.67
6.327059629;4.680572098;1.735526361;4.400078125;16.9482729;-3.36891426;-0.245956638;-16.01271792;-5.16366636;0.476558868;-19.58671376;-4.526800868;-4.409732145;7.172861868;-5.714531878;14.49654378;16.80812956;-70.58966453;7.656562298
3.749366144;1.098904805;3.856670745;3.815397837;15.64596717;-2.600945598;-1.244851366;-11.52366007;-1.473111392;4.71755409;-16.2870669;-1.978357839;-2.190714403;9.242148211;0.160841178;16.25065769;18.24743817;-67.92153831;5.62182229
2.623038593;-0.884475964;6.903106686;5.374762425;11.72522324;-2.075794575;-0.137979702;-6.544510398;2.67040001;8.604274666;-9.582942691;0.545323159;0.136019436;11.11029591;5.306325178;20.00470536;19.3206714;-54.74425825;4.317839609
3.577846406;-0.279897867;9.923235027;8.083186852;7.1636507;-1.988941399;3.241287718;-3.142698321;5.441231909;11.04786503;-2.580990886;1.682992461;1.708763725;11.89320436;7.04944835;23.61842145;19.7410995;-48.04608964;4.136215728
6.281843685;2.856509048;12.09504546;10.87503811;4.014181613;-2.322723973;7.083834861;-2.927290393;5.672411601;11.67390144;0.888014823;0.641818412;1.649959093;10.94397025;4.915634113;24.96810186;19.26944414;-57.28873303;4.815351366
9.533749177;7.059886638;13.04533941;13.48026114;3.251792304;-2.852791541;9.126698228;-5.942148096;3.483151006;10.94130993;-1.294529198;-2.269529816;-0.271636916;8.295504261;0.753750155;23.32573417;17.68705304;-76.24835759;5.617598107
11.87922756;9.86100723;12.8395554;16.2182571;4.195176497;-3.287727915;8.368660628;-10.47619929;0.014682055;9.702749885;-8.043147837;-5.871084054;-3.341385606;4.671617451;-2.877561489;19.72847377;14.89684726;-88.67798397;5.835126824
12.39376027;9.009970194;11.78438374;18.98473029;4.912628637;-3.444118297;5.816112908;-14.01854484;-3.372296469;8.570691581;-15.62972257;-8.899192111;-6.239694292;1.084855425;-4.723895933;16.15293612;11.11810091;-82.68415152;5.233021791
11.14841787;3.891477108;10.27196535;20.57771742;3.51308592;-3.336157633;3.915532269;-14.75467776;-5.738789894;7.59592395;-19.96494466;-10.72147946;-7.794706972;-1.669539358;-5.627163019;14.15647057;6.993643769;-61.08300788;4.11322041
9.080180381;-3.851570835;8.744956307;19.28520229;-0.407898722;-3.1265271;5.108457234;-12.58399885;-6.642894744;6.48694602;-19.05432478;-11.4673453;-7.591751899;-3.286789489;-7.491191468;13.95722767;3.434752623;-38.72655989;3.00461663
7.38523469;-11.08031181;7.670582994;14.45162621;-5.190817935;-2.988626788;10.26787583;-8.978643229;-5.859130299;5.129913725;-14.01075062;-11.60113787;-6.024730337;-3.887070628;-11.31421511;14.52470208;1.218951065;-29.41585798;2.272325428
6.856184831;-14.94353785;7.393785353;7.640351104;-7.993318898;-2.98860808;17.73665471;-5.84933616;-3.278652218;3.907468515;-8.08389941;-11.43084262;-3.850854725;-3.775914531;-15.95741034;14.49900613;0.583703004;-34.13501764;1.958111332
7.578074602;-14.50899526;7.910939963;2.105923835;-6.696538903;-3.067624209;23.51857757;-4.284765141;0.752529886;3.490606067;-4.537434783;-11.02134796;-1.692435039;-3.274631775;-18.74504283;13.21690967;1.11681081;-40.93296358;1.922648104
9.104301418;-11.10503896;8.772867829;0.649253439;-1.520290666;-3.119057932;22.85433445;-4.054703209;5.00904314;4.250048828;-4.855858255;-10.5123949;0.115251217;-2.713458265;-17.51469561;11.13993286;2.049542804;-36.28606693;2.088434215
10.88697791;-7.169372084;9.28654924;3.434225059;4.922163903;-3.084043974;12.78244752;-4.124182214;7.532875214;5.79991052;-8.31521707;-10.39174643;1.33140191;-2.470492415;-12.52442052;9.465465121;2.748363164;-17.63323002;2.519608882
12.59842587;-4.528013111;8.940592277;7.624477724;9.301654479;-2.98615348;-5.533228456;-3.64901739;6.623314431;7.119427841;-12.88132985;-11.29420623;1.626771895;-2.88599552;-6.649302152;9.263922007;3.034723649;4.075212954;3.261957218
14.13520104;-3.430877393;7.748580673;9.361257785;9.798483759;-2.88754645;-26.31695026;-2.624140352;2.128632031;7.231307413;-16.56806464;-13.39051754;0.721877828;-4.036488004;-3.571516786;10.74682161;3.09849804;13.96900552;4.118936607
15.39327382;-2.999660812;6.219826032;6.671624137;7.199697369;-2.817739831;-41.44834918;-1.733070446;-4.008673814;5.927845268;-18.33481692;-15.93070672;-1.236269614;-5.557787103;-5.217832298;13.11654223;3.11335388;6.407047799;4.621753982
16.09044362;-2.544545762;4.948312186;1.00699001;4.050945995;-2.744427961;-44.68944128;-1.643502386;-8.641673171;3.946926438;-18.18505733;-17.50204804;-3.485158347;-6.742598901;-10.3302097;15.04223295;2.923269106;-9.907994659;4.286880538
15.84352695;-2.488735507;4.12946804;-3.891177161;2.602336093;-2.612069152;-35.43667114;-2.420073242;-9.371215425;2.409980725;-16.760267;-16.98605905;-4.990486909;-6.93986932;-15.26836692;15.42841678;2.110741606;-19.25802166;2.989145253
14.45692277;-4.023339887;3.391817772;-4.956324463;3.243680056;-2.409825535;-19.38975882;-3.552822563;-6.251393598;1.927964737;-14.9220846;-14.53064249;-5.188252713;-6.009181411;-16.51901073;14.002143;0.410673037;-12.21338936;1.148073927
12.16903154;-7.780199646;2.087655249;-2.219931106;4.649990031;-2.20263362;-5.325862048;-4.518537806;-1.947947311;2.075789302;-13.56153266;-11.70994962;-4.544748453;-4.483874168;-13.14056182;11.38562169;-1.905983166;6.589463791;-0.452672356
9.615782097;-12.74948552;-0.179447586;1.281049938;5.352519388;-2.090963241;0.135599121;-5.322628866;-0.099227264;1.675576145;-13.52404453;-10.61846416;-4.388558652;-3.284425081;-7.426975286;8.640406895;-4.075343999;22.71201065;-1.115967378
7.496257294;-16.54486757;-3.198668852;2.039255085;5.230019531;-2.127803995;-3.691838432;-6.508121246;-2.9525677;-0.293806489;-15.43764889;-12.49749067;-6.01846943;-3.162492934;-3.367390606;6.585519609;-5.358933654;24.3354028;-0.648259108
6.174303138;-16.99780544;-6.233169405;-1.029852815;5.5565281;-2.261347753;-11.81483057;-8.610278777;-9.909924756;-3.838910711;-19.41510849;-16.90506807;-9.711802742;-4.267825352;-4.031512991;5.329073811;-5.64922529;12.21967973;0.536921817
5.513485567;-13.88062214;-8.46054537;-5.710906414;7.609135616;-2.354854022;-17.53629376;-11.53925387;-17.96026966;-7.797380724;-24.82931628;-22.04270763;-14.40218684;-6.134324812;-9.688781213;4.32029559;-5.635479921;-0.945964467;1.683569761
5.06691007;-9.334415534;-9.434711851;-8.317649838;11.18773598;-2.275252283;-17.15073756;-14.45216697;-23.61117069;-10.51192616;-30.39229798;-25.95664224;-18.30552869;-8.054394852;-17.83321704;2.88563439;-6.317143639;-0.816041996;2.134938441
4.471263257;-6.540058594;-9.250890633;-6.670019531;14.4913951;-1.987842386;-11.94887097;-16.26728665;-24.91726338;-10.84524152;-34.57952962;-27.67839673;-20.03703851;-9.523414051;-24.88511644;0.866974368;-8.188023075;17.46656808;1.672411396
3.74510056;-7.548580621;-8.347443677;-1.73865295;15.54245142;-1.588655217;-6.336198979;-16.42864038;-22.28380934;-8.822595594;-36.21118077;-27.49286321;-19.39123745;-10.42233068;-28.24650993;-1.120682953;-10.72799068;46.06115474;0.577165129
3.279495028;-11.85639724;-7.13895372;3.356190826;13.89633952;-1.251550299;-3.917865914;-15.30820439;-17.74519496;-5.500715557;-34.91201103;-26.28858451;-17.25466432;-10.86240175;-27.35530157;-2.042077197;-12.64464188;70.88837192;-0.566681999
3.554520676;-16.73683545;-5.748867015;6.053353661;11.07055855;-1.127248133;-4.822938637;-13.9153232;-13.5058351;-2.238562022;-31.25208864;-24.67967164;-14.82273293;-10.90929479;-23.30939354;-1.178460597;-12.73414214;81.74847749;-1.173427726
4.814898292;-19.00895504;-3.98451802;6.412374264;9.270112508;-1.26124097;-6.248681943;-13.13244101;-10.85102547;0.068203101;-26.52266002;-22.67267109;-12.80219153;-10.47913442;-17.70642926;1.302014918;-10.73332777;78.05422614;-0.89783103
6.937657861;-16.92074131;-1.516953266;6.780147345;9.539803546;-1.578675309;-5.386174034;-13.06715182;-9.971317763;1.297350047;-22.2312318;-20.06003906;-11.19370402;-9.502150262;-11.7386481;4.403862642;-7.523392584;66.75295346;0.267781926
9.541974368;-10.90118816;1.862570544;9.403348294;11.00272114;-1.936093976;-1.970976526;-13.0155477;-10.41441358;1.87265153;-19.49336728;-17.02606837;-9.689873946;-8.169490871;-6.098007524;6.986782251;-4.538189824;55.60577148;2.041039954
12.19409467;-2.926298231;6.018602246;14.09964898;11.84851697;-2.199749834;1.735105202;-12.0604119;-11.524771;2.301260524;-18.56914297;-14.28637728;-8.20978908;-6.975938557;-1.411578209;8.561560835;-2.832987642;47.88802688;3.993709675
14.51745015;4.741993501;10.34647309;18.04945836;11.12430371;-2.303216593;3.292962025;-9.853743849;-12.55465264;2.849963116;-18.79438805;-12.57889934;-7.056573589;-6.444244692;1.506001804;9.571993554;-2.499854368;42.05076756;5.727857302
16.15465234;10.4545632;13.8128145;17.95640411;9.645948863;-2.260119339;2.444334434;-7.008321933;-12.67440707;3.507120326;-19.00722197;-11.98754914;-6.60600505;-6.714615715;1.996764328;10.93211331;-2.803248443;35.06835226;7.012796957
16.70685781;13.32665742;15.23408593;12.80531403;9.177527434;-2.138122285;1.266509612;-4.815680351;-11.25903803;4.109686282;-18.27682406;-11.78003906;-6.885854672;-7.338786543;0.221735704;13.19969073;-2.831271415;25.62174627;7.82086612
15.82115219;13.02408087;13.78605356;4.928445897;10.6573824;-2.016946403;2.047892538;-4.480297888;-8.429109408;4.448035607;-16.48567255;-10.97627896;-7.473293026;-7.485213794;-2.550748984;16.08561651;-2.096596642;14.64596303;8.246772928
13.45283673;9.764776686;9.558137146;-1.513763646;13.16019903;-1.951922292;4.974630721;-6.373212249;-5.330375651;4.302783463;-14.34599595;-9.169367834;-7.796938717;-6.442901719;-4.463731475;18.73296577;-0.652549677;3.931824868;8.37214714
10.11819244;4.63260744;3.815411602;-3.422854275;14.61331068;-1.955006712;7.901507583;-9.771692476;-3.644190603;3.515516364;-12.81360048;-6.85579888;-7.539794272;-4.070438776;-4.127214965;20.54550693;1.239574287;-4.97998901;8.188193061
6.873425495;-0.300055542;-1.315474034;-0.748746937;13.64391044;-1.997124442;8.496434555;-13.22815266;-4.444795863;2.16334834;-12.34500957;-4.958727727;-6.776961889;-0.873273919;-1.43011057;21.84929613;3.478118338;-10.61034139;7.653704055
4.90946319;-2.58714982;-3.714730968;3.884192824;10.85276505;-2.030141317;6.730399161;-15.33417156;-7.224498101;0.723466103;-12.61117862;-3.971496711;-5.780880746;2.32646743;2.519119521;23.77267952;6.147426216;-11.17578907;6.847401477
4.944667095;-0.676869948;-2.286641786;7.427658232;8.314051561;-2.019466173;5.226827359;-15.44054785;-9.98165796;-0.004338638;-12.92442924;-3.515993387;-4.761622476;4.868058177;6.252427471;27.37161108;9.213718076;-5.534811786;6.064029788
6.798711414;4.984142674;2.453727985;8.629397515;7.738952273;-1.96960235;6.909824964;-13.95063052;-10.51328294;0.679336573;-13.00337635;-2.746745221;-3.834725025;6.539942341;8.892174977;32.67811029;12.25613587;4.895060539;5.713945271
9.460734214;11.93180272;8.597669999;8.525222035;8.989560506;-1.923356381;12.00160787;-12.05625467;-8.045665142;2.815524465;-13.34656901;-1.251080141;-3.20908058;7.51940656;10.45403699;38.44980864;14.58038995;15.44963432;6.039146266
11.64816195;16.95460662;13.76206549;9.049087734;10.31214436;-1.928894596;17.2741439;-11.08242704;-3.951442026;5.524952052;-14.7847601;0.388875987;-3.293204502;8.079700758;11.36567092;42.84685097;15.68503634;20.45233575;6.844483838
12.51389791;17.87363717;16.19;11.11778824;10.05609689;-1.993122968;18.60547807;-11.7985464;-0.938255632;7.352643214;-17.53968188;0.935430337;-4.466648604;8.32529056;11.75088487;44.51903579;15.67175816;17.28034848;7.493517884
12.05392037;14.63762838;15.43979723;13.80456358;8.251871329;-2.056871542;14.83804187;-14.05332913;-1.273931391;7.102262809;-20.66820314;-0.50316426;-6.638910797;8.141068036;11.19264059;43.28196153;15.18400638;8.836130952;7.255799547
10.97888801;9.056735702;12.37195411;15.14699327;6.553596054;-2.019024101;9.429171622;-16.90386053;-5.359331518;4.633788221;-22.54868475;-3.661898047;-9.041344916;7.34209035;9.194505872;39.9467877;14.86033984;1.762985136;5.816500683
10.18492874;3.52048926;8.576856577;13.76255054;6.601241958;-1.803118506;7.973255117;-19.13586387;-11.64433101;1.057940472;-22.16475179;-7.214498536;-10.59222458;5.865185696;5.871697776;35.59064173;14.75069761;1.349067673;3.588521848
10.21290984;-0.280893042;5.640347776;9.922736094;8.371085009;-1.424047506;13.21975463;-19.86498044;-17.78467416;-1.841941527;-20.1207295;-9.712520074;-10.66748535;3.854040463;2.160312989;30.96925883;14.23445553;7.279930562;1.562129967
11.04176198;-1.809079907;4.595697574;5.364394154;10.12;-1.004159107;21.70941304;-18.89108791;-22.00654544;-2.589763572;-18.37999751;-10.57920263;-9.654416704;1.608691888;-0.729774032;26.52457823;12.57934751;14.01858173;0.744387414
12.27527856;-1.296228008;5.683512778;2.196055653;10.02621201;-0.718640781;25.27776301;-16.65870813;-23.65952114;-0.764805915;-18.73579602;-10.34494441;-8.7378738;-0.527662018;-2.172399353;22.78660492;9.711884562;15.64284209;1.54815369
13.49235022;0.813056651;8.36445536;1.822811333;7.990240295;-0.69986347;16.87867919;-13.93092227;-22.81525773;2.906791502;-21.19581452;-10.00213484;-8.98796773;-2.265748377;-2.516425834;20.54971465;6.531178526;10.94177336;3.545775305
14.46184451;3.994454815;11.51404352;4.510789437;5.851344161;-0.961798717;-3.526458006;-11.43277444;-19.65547168;7.054622291;-23.72410179;-10.12705574;-10.46942057;-3.431779937;-2.626403022;20.44220232;4.427917542;4.250756805;5.75155799
15.10388552;7.387525165;13.78983137;9.51886939;5.73719747;-1.393229945;-27.7459524;-9.665903637;-14.45670425;10.33487304;-23.77023097;-10.564092;-12.16126641;-4.011452557;-2.970777008;22.19745151;4.321570424;1.336085442;7.225527313
15.32942937;9.718826032;14.14180258;15.37872743;8.048941005;-1.820698337;-44.1729753;-8.905490879;-8.187435305;11.86605263;-20.47871776;-10.87413331;-12.8259655;-4.168952318;-3.111475184;24.40217641;5.960564881;4.156568808;7.580019531
14.98425569;9.835395643;12.29884999;20.15116824;10.99323637;-2.09558608;-45.35929338;-9.239999421;-2.889868481;11.34032028;-15.72733966;-10.99072191;-12.12308738;-4.193449894;-2.124186512;25.22212693;8.06314801;9.316771299;7.072881227
13.98753642;7.58499441;8.949157369;21.88886584;12.17003906;-2.149630701;-32.82653384;-10.53559879;-1.015200433;8.991714357;-12.94412273;-11.33709451;-10.98177636;-4.34737115;0.376180164;23.74373589;9.225214543;11.52024576;6.290974172
12.52748295;4.228851035;5.421081324;19.49653081;10.78644595;-1.99439935;-15.6054884;-12.36548237;-3.830852721;5.582553625;-14.45782202;-12.22964642;-10.83635216;-4.682830729;3.551478927;20.87400222;8.910201612;8.616840143;5.710078125
11.08089302;1.785889637;2.977456371;13.63193727;8.420779738;-1.684247297;-3.715516557;-14.06511899;-10.08833628;2.33324304;-19.46849149;-13.1831462;-12.32692247;-4.968588479;5.728583388;18.90913257;7.766376224;3.394202698;5.451410456
10.16339345;1.600068359;2.144729991;6.828855628;7.568630435;-1.282269675;-1.52536117;-15.00942872;-16.27337073;0.580040283;-24.39050643;-12.95160352;-14.60003906;-4.829204682;5.664864398;19.89558843;7.047384625;0.483245072;5.349315408
9.975638311;3.221982355;2.531178463;2.308556008;9.282182789;-0.851557748;-5.792322657;-14.98961105;-18.66010896;1.123055097;-25.47647958;-10.50627875;-15.89733155;-4.038838414;3.652290104;23.96492116;7.61051956;1.539022587;5.190206951
10.24746101;4.619192791;3.263868285;1.964480727;12.11967657;-0.460391026;-9.387703719;-14.40045846;-15.87945165;3.604691335;-21.74027217;-6.204266644;-15.02393779;-2.758519471;1.441871419;28.99249688;9.271645788;3.55842235;4.888006143
10.44999274;3.723930627;3.715322255;4.925916063;13.44780521;-0.174154461;-7.368490898;-14.02621121;-10.07991302;6.454704199;-15.84966495;-2.035441576;-12.4776118;-1.507690552;0.913880907;31.96901598;10.97805591;2.083851284;4.476312249
10.23576658;0.186138999;3.964810466;7.982694825;11.93328261;-0.024314401;-0.5517284;-14.51710452;-5.654859212;7.66453458;-12.21505217;-0.485578849;-10.22869871;-0.849490491;2.51870218;31.10810865;11.60323927;-3.894373194;3.98862855
9.744356452;-4.085276991;4.646719697;7.847165403;8.882650763;0.022372771;5.902978592;-15.93376116;-6.317034476;6.033490892;-13.7334116;-2.738054738;-10.24391916;-1.006077967;4.804130104;27.07245515;10.71253184;-10.39221593;3.386095081
9.489205963;-6.124604547;6.327231113;3.695871429;7.100625399;0.058047269;7.27714781;-17.73102812;-12.59760245;2.053067964;-19.72924712;-7.629744045;-12.92464649;-1.702060698;5.511016442;22.3631715;8.741622514;-12.08530268;2.612723912
9.882362318;-4.008339008;8.926326807;-2.006145522;8.257443178;0.179521384;3.28973918;-19.21687711;-21.57097666;-2.27969891;-26.66421348;-12.30467478;-16.75034287;-2.371982038;3.410782627;19.38097029;6.548951237;-7.713430228;1.70813204
10.78074027;1.736376352;11.65605437;-5.209819667;11.22621976;0.418006865;-1.884261761;-20.11774532;-28.95174334;-4.705251727;-30.95998022;-14.18433434;-19.44705363;-2.580048828;-0.621959686;18.7326011;4.789681939;-1.689398823;0.841606464
11.45991984;8.477459901;13.51841935;-3.345612696;13.03532791;0.70849172;-3.309697924;-20.76682041;-31.9758147;-4.184202377;-31.62998315;-12.77925131;-19.74327719;-2.324482756;-4.241725893;19.12433951;3.621899072;0.162579617;0.211416972
11.09167465;13.27170928;13.9554426;2.60333994;11.65629615;0.930773647;0.573139037;-21.73862056;-31.0035545;-1.567519575;-30.68036979;-9.943197869;-18.29343281;-1.989811862;-5.517946634;18.83631141;2.892008482;-3.129830517;-0.104774736
9.375910055;14.70584311;13.14158235;8.703571323;8.051196818;0.997950728;6.816269627;-23.24228381;-28.86513482;1.035530216;-31.14108349;-8.392703556;-17.05;-1.999270489;-4.550186981;17.43817967;2.512496186;-5.841060221;-0.203335871
6.816052329;13.44163912;11.725625;10.96815177;5.474224113;0.925625976;10.63343056;-24.82858665;-28.67149535;1.725853737;-34.49701089;-9.682376353;-17.64945773;-2.4639113;-3.450406734;16.22172361;2.623576365;-0.741679736;-0.253206684
4.386783237;11.2355807;10.28244525;8.333134677;6.531769584;0.825112461;9.507976689;-25.71920804;-31.79266677;0.042973847;-39.63134133;-13.21020286;-20.15574404;-3.116725739;-4.630321246;16.9546218;3.395862274;13.0076028;-0.332444364
2.830413621;9.407834151;8.940078125;3.397763822;10.66668981;0.822598831;5.287539165;-25.51385577;-37.30995356;-2.910465514;-43.97328941;-16.92761664;-23.14165572;-3.567147324;-8.722439401;20.04289744;4.707917767;27.03468556;-0.365062578
2.133259097;8.039064998;7.44994019;0.357271502;14.47885332;0.966906606;2.582724533;-24.65066513;-42.97711262;-5.450695404;-45.65916926;-19.02953142;-24.93146203;-3.635639025;-13.80360839;23.75025001;6.061581019;29.8054538;-0.234563477
1.602056479;6.397042028;5.565280996;1.753646838;14.74222543;1.199781776;4.861008091;-24.15220285;-46.69053056;-6.580347025;-44.79362499;-19.18168308;-24.89233448;-3.471206386;-16.59315913;25.25961625;6.866232167;17.03003906;0.017148346
0.475523404;3.984772976;3.346247503;6.557742622;11.42194152;1.41286877;11.47861302;-24.79190964;-47.41322657;-6.574127393;-42.87502942;-18.3696021;-23.72595768;-3.363694746;-14.76520624;22.7917641;6.857222988;-3.041877332;0.091537247
-1.435288646;1.142240658;1.120908289;10.99339289;7.845828399;1.544425269;18.08251833;-26.36056633;-45.2389375;-6.52446553;-41.15862133;-17.70510704;-22.65772724;-3.446315202;-8.667478168;17.05299134;6.263086493;-15.25331483;-0.449076536
-3.607727673;-1.321860792;-0.825245825;11.35648089;7.711137844;1.635543352;20.07430452;-27.70357308;-41.01288651;-7.327487359;-39.6117909;-17.38433541;-22.37076671;-3.582302247;-1.218343085;10.78803371;5.54981373;-10.20824895;-1.913237491
-5.274735596;-3.003767224;-2.507600157;6.616968219;11.57392379;1.798580734;16.3792697;-27.59354498;-36.02049006;-8.977328315;-37.41882956;-16.73364976;-22.6523383;-3.549813272;3.873729739;6.761995061;4.959511098;7.014114638;-4.258113247
-6.084222846;-4.325171113;-4.188013812;-1.070621624;16.11007813;2.122681068;10.51440639;-25.78020492;-31.80942595;-10.69756423;-34.42401639;-15.19823386;-22.96021481;-3.343416957;4.262959995;5.793166325;4.268919655;20.54302297;-7.078694511
-6.367486891;-5.999653675;-6.051129232;-8.079986204;17.02150771;2.592612731;8.032984107;-23.34052541;-29.84056101;-11.70208818;-31.94924094;-13.23551411;-23.2227239;-3.274778114;0.086898787;6.414964872;3.019543493;17.49908368;-9.808800549
-6.77245771;-8.018245276;-7.91025151;-11.72279703;13.07824428;3.085411413;12.19366782;-21.96269006;-30.8248121;-11.87420542;-31.98577603;-12.17947089;-23.99733314;-3.718965351;-6.444633254;6.393190296;1.054534349;-0.013932482;-11.98072453
-7.584584279;-9.192643794;-9.216850539;-11.54808448;7.550275544;3.445681739;21.06254101;-22.65232685;-34.11860199;-11.77848438;-35.33133515;-13.12517184;-25.78744721;-4.684428264;-12.40860991;4.794794144;-1.10022907;-15.94138841;-13.3752913
-8.361766962;-7.882079611;-9.376969559;-8.873581009;5.476156375;3.579248878;28.2443542;-24.85216746;-37.80531024;-12.02807078;-40.36792759;-15.82873493;-28.19836403;-5.587984143;-15.46697582;2.87028264;-2.38352636;-14.39169571;-14.01353487
-8.265525375;-3.459637684;-8.117525758;-5.355831686;9.013598635;3.49639733;26.86125181;-26.6878379;-39.68727528;-12.58696821;-43.77430503;-18.65413907;-29.84717124;-5.491553482;-14.49395687;3.022983844;-1.830673769;5.259583963;-14.07195724
-6.860648766;2.707441105;-5.62760339;-1.946035213;15.09025011;3.283493262;14.13567587;-26.1987446;-38.6279544;-12.63465566;-42.82882229;-19.68835968;-29.27790604;-3.687646648;-9.608560709;6.737657045;0.755523958;26.26180123;-13.82507577
-4.695700901;7.740954335;-2.418639717;1.106204686;17.77158386;3.040635067;-6.457078691;-22.66277476;-35.24916054;-11.14565981;-37.50921175;-18.11460481;-26.17046185;-0.212169995;-2.001440191;13.19603342;4.593327586;28.42465618;-13.62869683
-3.087081624;9.034835106;0.921708328;3.651233058;13.58500874;2.841422228;-26.85101452;-17.0693252;-31.39318999;-7.748443581;-30.63812943;-14.71017381;-21.77263149;4.113487207;6.28144195;19.72526799;8.329226449;6.500742566;-13.86663914
-3.163587995;6.068256101;3.881530567;5.351561015;5.144103312;2.736556992;-38.77501788;-11.45931149;-28.73635285;-3.198219144;-25.87570238;-11.11305982;-18.10120669;8.156906202;12.79030375;23.71388309;10.76746917;-23.66723469;-14.80206483
-4.883256362;0.84980306;6.059387072;6.07647583;-0.472606149;2.772615223;-38.13561308;-7.682970709;-27.65288999;0.915155132;-25.12129555;-8.567693357;-16.52839506;11.11339744;15.5252465;24.44702005;11.41605039;-38.00259528;-16.39377083
-6.850343716;-3.405587843;7.226214983;6.442542498;2.266205226;2.981827721;-26.85166063;-6.474181043;-27.22162668;3.04822929;-27.36062002;-7.253946549;-16.93279077;12.8403643;13.90756433;23.41288495;10.527319;-25.86971547;-18.23242331
-7.193247768;-4.416659729;7.514228074;7.668373644;11.79619767;3.33475091;-11.31445702;-7.383098939;-26.29019904;2.596694624;-29.78566319;-6.690058594;-18.11928391;13.67818844;9.188618378;22.8945139;8.714770571;-1.409139134;-19.70253098
-4.930882527;-2.222672558;7.602812054;10.56965696;19.29111465;3.700648721;1.314956468;-9.404787743;-24.61391637;0.238281237;-30.15992961;-6.66882136;-19.09747085;13.96528657;3.801618245;24.02863964;6.515053996;6.804133089;-20.29832776
-0.817997452;1.155019477;8.606435701;14.50261476;14.64474367;3.875256;6.678763919;-11.68365586;-23.06416173;-2.460617814;-28.46;-7.701340131;-20.04253765;13.68255115;-0.078954624;25.8894595;4.223231709;-19.64834915;-19.86989695
3.006017619;3.420544442;11.50225482;17.36423246;-5.675585782;3.688930346;4.776156803;-13.78090631;-22.76792916;-3.90974095;-26.54198816;-10.45400565;-22.04462662;12.51992105;-1.790391909;26.28685858;2.033283495;-71.12605276;-18.60610523
4.365013851;3.718646951;16.32801678;16.96525082;-34.93960895;3.13393322;-0.961590565;-15.47728977;-24.00515115;-3.318122258;-26.28057667;-14.69027431;-25.85177513;10.27842915;-2.29181285;23.60298779;0.239720876;-115.3482346;-16.7750024
2.442654387;3.076102412;21.71235489;12.83573961;-59.63490677;2.413154535;-6.094772596;-16.47462149;-25.87899771;-1.025685607;-27.85087325;-18.80023865;-30.75540034;7.231686068;-3.037064816;18.21916166;-0.768047218;-123.2633429;-14.46338538
-1.759464739;3.338373808;25.22904853;6.947927015;-67.72830718;1.854034484;-7.523218958;-16.34403316;-27.03080666;1.808733959;-29.57360842;-20.55264255;-34.70059952;4.11109286;-4.54261037;12.45982485;-0.760356236;-94.16475916;-11.5763933
-6.187383467;5.531027763;24.5564934;2.569139696;-55.85322553;1.72677236;-4.610438869;-14.74483141;-26.70177986;3.954975415;-29.34409597;-18.60950272;-35.65674521;1.702784959;-5.875902471;9.130322497;0.049225057;-57.99314612;-8.130123201
-9.111245067;8.954417923;18.81991009;1.972361358;-30.64;2.08242798;1.114038007;-11.66628081;-25.1566226;4.842619958;-26.35601817;-13.58869104;-33.16262453;0.36912628;-5.532028106;9.727087645;0.975273528;-51.17221232;-4.577483734
-10.09520945;11.68251588;9.271189098;4.764907052;-3.90106685;2.721252308;7.109101146;-7.475424668;-23.13879523;4.822191282;-21.70037462;-7.752135896;-28.75449195;-0.136893737;-2.957851472;13.53928262;1.181391715;-84.96704924;-1.816897597
-9.922736587;12.03427883;-1.169224838;8.212258597;14.400551;3.314295063;11.0875535;-2.79704736;-20.98537606;4.774153021;-17.46837467;-3.514311953;-24.89355626;-0.441505601;0.632870518;18.14601828;0.163813324;-132.8295707;-0.759652002
-9.675464521;9.874822656;-9.266231988;9.37336783;20.63833082;3.596632983;11.92261283;1.59459317;-18.35799483;5.309810435;-15.22690227;-1.939995121;-23.25610771;-1.107584031;2.954619156;20.86120996;-1.931609363;-148.4662965;-1.713824892
-9.787234216;6.777703657;-12.9281955;7.385184302;17.3695009;3.506522372;10.04559534;4.803395389;-14.90864131;6.135250505;-15.11443732;-2.379825399;-23.76031185;-2.31833301;2.361654502;20.16763484;-4.381032336;-101.2479624;-4.058963044
-9.831566231;4.94306489;-11.97708645;4.075349427;9.991825243;3.190886305;7.282003955;5.917662331;-11.19873098;6.113876148;-16.11394181;-3.402509334;-25.04518335;-3.879605625;-0.842967968;16.35451449;-6.296557805;-1.035392586;-6.523637916
-9.140279955;5.650560039;-7.938692644;2.408253698;3.265199591;2.89344017;6.052406978;4.38648264;-8.817172166;4.104498763;-17.02439492;-4.102368085;-25.8730588;-5.457375585;-4.64054759;11.1617104;-7.111570723;107.1904701;-7.932616542
-7.65180377;8.318158156;-3.152786826;4.014742356;-0.296556048;2.813115232;8.027595256;0.569560774;-9.327275298;0.036853561;-17.2062522;-4.633691104;-26.18078541;-6.80597994;-6.921363077;6.78;-6.840789455;174.2728287;-7.908788127
-6.214991468;10.79584236;0.228626079;7.796956714;-0.266560241;3.019883867;12.76805403;-3.994908107;-12.82904943;-4.617980833;-16.61114959;-5.615014171;-26.88948473;-7.815148237;-7.142008405;4.779063175;-5.988423935;178.8739704;-7.018292008
-6.047968666;10.70265056;0.936348479;10.73342803;2.41450567;3.456390088;17.26199401;-7.069057911;-17.45676608;-7.499933537;-15.38540231;-7.109677152;-28.7327642;-8.410849465;-6.594286122;5.444681959;-5.205735413;136.6729825;-6.256494267
-7.767757168;6.965374124;-1.127617168;10.24358347;5.997525959;3.992857915;17.08212008;-6.906328444;-20.45593293;-6.842454712;-13.67317869;-8.250959699;-31.2491734;-8.479398628;-7.043024449;7.765925238;-4.929562634;82.70015712;-6.274394952
-10.77897147;0.612259599;-4.933319596;6.233472711;8.557644792;4.485879148;8.938661506;-3.451490566;-20.12042256;-2.779885929;-11.86336416;-7.926533329;-32.92551369;-7.927945737;-8.918586293;10.04203672;-5.202454396;44.1754172;-6.938825442
-13.5439457;-5.670294258;-8.667685232;1.21474904;9.008202615;4.818294111;-6.762602724;1.385066794;-17.03107734;2.536216098;-10.88437102;-5.890358576;-32.4243838;-6.820964771;-10.68404502;10.82272937;-5.734756544;26.33291446;-7.545782345
-14.57282113;-8.987710826;-10.41596014;-1.580302989;7.958680731;4.928572224;-25.19278565;4.778813773;-13.53228145;6.225962557;-11.95748002;-3.212294242;-29.82280014;-5.425560277;-10.02159053;9.71202909;-6.126337467;19.50881507;-7.48288493
-13.41432326;-7.877962178;-9.076054088;-0.611849419;7.362245681;4.83921537;-39.14577411;4.78342497;-11.84556601;6.528907962;-15.71257124;-1.544428948;-26.72552048;-4.070964551;-5.900199971;7.577843054;-6.101400072;16.15786164;-6.786186063
-10.92574116;-3.192052872;-5.096234265;2.866712678;8.726249575;4.668739699;-42.95357493;1.621330987;-12.38202905;3.880337451;-21.28856004;-1.768127657;-25.06301637;-2.912407817;0.244971845;6.002427495;-5.637406372;19.26753814;-6.138852374
-8.64083684;2.336950679;-0.470949007;5.804491759;11.2744259;4.596988009;-35.84810708;-2.499739111;-13.63292839;0.419878058;-26.26570708;-3.192415583;-25.52298498;-1.804983143;5.321598731;6.276855229;-4.948171993;34.50060961;-6.324016201
-7.711827431;5.645191335;2.274886005;5.629193588;12.08181107;4.777389783;-22.42317035;-4.947143113;-13.62986022;-1.675040971;-27.72674292;-4.033248926;-26.91208717;-0.418234608;6.831058804;8.579481938;-4.357987331;56.08932021;-7.587098122
-8.183724308;5.134881065;1.699742523;2.084181275;8.721833703;5.239409644;-9.702971037;-4.454148121;-11.60524703;-1.726229356;-23.85539008;-2.7953202;-27.00114296;1.484550339;4.769518847;11.89418127;-4.143139254;63.68946226;-9.42496053
-9.080724324;1.635539834;-1.346738273;-2.668977611;2.36083664;5.852791574;-2.726329978;-1.82154445;-8.377226436;-0.776795909;-15.01697011;0.605878892;-24.20292007;3.829506152;1.614676623;14.71956263;-4.412498127;36.90189113;-10.96037827
-9.183494488;-2.100453684;-3.879730514;-5.639849564;-1.96127636;6.395262016;-1.700485241;0.921919001;-5.225440331;-0.394478367;-3.623052774;4.901201035;-18.77345781;6.257868196;0.375892087;16.05007813;-5.064774376;-24.20285221;-11.58524398
-7.90711777;-3.11;-2.449409116;-5.051658018;0.778151651;6.69012246;-2.686219566;2.140782887;-2.465704049;-1.121110984;7.054136554;8.5778044;-12.63938872;8.366215295;2.2719;15.92480434;-5.821442105;-92.63302691;-11.35480261
-5.672346134;-0.097682914;4.599280685;-1.396448087;10.04636006;6.718846936;-1.168658277;1.67351269;0.78552623;-1.913732487;14.30099842;11.01299456;-8.056034076;9.950938937;5.907186263;15.20159907;-6.312199929;-131.4743587;-10.84050587
-3.565976111;5.708460529;15.74981493;3.104138725;17.54718791;6.622839535;4.286340423;0.586560816;5.342657266;-1.066864469;16.8334258;12.65100173;-6.170078125;11.05497907;8.582738694;14.83286884;-6.188771716;-122.5276117;-10.59852384
-2.586064639;11.28221482;26.82996847;6.078908593;11.58457732;6.589206997;11.09216275;-0.027837421;10.42192928;2.174730136;14.89813155;14.17416635;-6.522798096;11.80446881;8.621875008;15.27434508;-5.248013754;-82.31792482;-10.70772455
-3.01125507;13.64660423;33.2065237;6.441511186;-13.98602703;6.706508855;15.02931626;-0.062647122;13.53278755;6.718853164;9.899246675;15.56206951;-7.699103941;12.21660456;6.770695761;16.45933425;-3.536951247;-49.94203616;-10.7417069
-4.288377201;11.65992163;32.30781848;4.759114663;-52.7946784;6.902411578;13.9113223;-0.325532129;12.26414326;10.26206031;3.905911625;16.00699243;-8.449586671;12.17643914;5.517993362;18.211823;-1.390270738;-54.88943029;-10.16056873
-5.448230899;6.620469729;24.89596171;2.493350347;-87.25276514;7.010924044;9.484540339;-1.532017607;6.602279441;10.97328707;-0.884902976;14.79407963;-8.388563191;11.60384369;6.910400317;20.57410707;0.655640062;-91.26069118;-8.769317041
-5.723660144;1.368339862;14.36411568;0.826933697;-98.63366886;6.912559667;6.006393313;-3.382427388;-0.350795358;8.832767092;-2.831811503;12.27049197;-7.886645494;10.63078666;10.68161417;23.65851252;2.082873805;-120.9935828;-6.867803472
-4.966645388;-1.467900464;4.649104173;-0.039093478;-79.44625507;6.632229116;6.708904774;-4.667415486;-4.242025195;5.511078739;-1.583994945;9.864198109;-7.493214981;9.580605306;14.25536453;27.16947734;2.662333766;-104.8915654;-5.006735795
-3.648164051;-0.949520974;-1.815007793;-0.699925593;-39.07074623;6.316376677;11.11619039;-4.384356559;-2.695642575;2.905875701;1.572973915;8.96583887;-7.512701265;8.72429425;14.65095348;30.15730791;2.607908762;-36.32398373;-3.598827905
-2.511077224;1.81453074;-4.874613922;-1.757633268;1.913069744;6.112603829;15.47481048;-2.863933253;2.66898005;1.586744903;4.216171364;9.596934777;-8.045592959;8.01992372;10.77982988;31.42325828;2.466118747;50.76975719;-2.725723555
-2.135986212;4.494575623;-5.941907926;-3.134145863;24.94263616;6.056020224;15.94762485;-1.8069666;7.222098882;0.456539602;4.067644832;10.11460076;-9.271334872;7.097446767;4.314877496;30.37970981;2.744286566;107.0226658;-2.268736902
-2.676655738;4.912869523;-6.581931682;-4.063647781;24.76580211;6.058065897;11.88547335;-3.045393577;6.71015281;-2.126246374;0.318509009;8.382554064;-11.52649701;5.558637356;-1.539555278;27.6408949;3.486983388;105.6741591;-2.181949475
-3.868425927;2.132575229;-7.50060127;-3.786210121;10.86958996;6.003015985;6.398653794;-6.988551456;0.417554568;-6.778908202;-5.940311611;3.548204786;-15;3.375976509;-4.397208967;24.71917663;4.113910997;62.29723184;-2.603218474
-5.23532758;-3.230938582;-8.504029369;-2.394221846;-1.294626408;5.862912873;3.712360038;-12.07981994;-8.422725888;-12.45665727;-12.52682642;-3.050154969;-19.32398237;1.051125875;-4.338338185;22.9255915;3.712262053;20.29898997;-3.669269798
-6.331389017;-9.446736843;-9.152393405;-1.113238562;-2.017498692;5.725390855;5.530249509;-15.81110268;-15.27984215;-17.28192172;-17.60623669;-8.673421901;-23.51366734;-0.638533334;-3.632044268;22.32007813;1.669978753;14.85735207;-5.204626792
-6.882060715;-14.48080493;-9.359211241;-1.671227744;6.925741157;5.70592117;9.531488502;-16.55510891;-17.84287013;-20.0823293;-20.64521825;-11.09827256;-26.42600624;-1.142856606;-4.817836112;21.6321865;-1.753048929;45.57213734;-6.608592489
-6.794131883;-16.78135714;-9.402465826;-5.086444666;16.01483528;5.820562047;11.3799105;-14.76723525;-17.53089198;-21.2697567;-22.2020187;-10.13638448;-27.42805356;-0.509930374;-8.655763295;19.32610504;-5.355292484;79.97924144;-7.118898513
-6.093832592;-15.78772936;-9.445291495;-10.7060138;17.03287185;5.936246853;8.641690637;-12.5907334;-17.8427663;-22.29700752;-22.90051033;-7.556400023;-26.7505219;0.665038877;-13.48172474;14.99887706;-7.571254261;83.52641041;-6.3017364
-4.874840341;-12.06360317;-9.131113912;-16.25807671;9.573876234;5.854933235;3.281922251;-12.17607607;-21.0533307;-24.19898636;-22.64697787;-5.541295998;-25.24884951;1.667819685;-16.3901848;9.932580096;-7.391439503;49.55075243;-4.391636424
-3.291467203;-7.037982141;-7.733621596;-19.02758187;0.161976437;5.474315297;0.442153562;-14.03723078;-26.10037604;-26.53079209;-20.87411898;-5.01080873;-23.78151199;2.125187555;-15.31400876;6.250992986;-5.032942793;3.864282775;-2.188003041
-1.568204669;-2.419918678;-4.81240879;-17.45788034;-4.220757084;4.896655904;4.223377599;-16.69296526;-29.41233747;-27.64810563;-17.55906872;-5.17855744;-22.70511605;2.141692209;-10.48370445;5.288521027;-1.88098706;-18.81179901;-0.553294973
0.026888727;0.510788994;-0.828230025;-12.11266259;-1.971774893;4.390346896;13.76743371;-17.78373601;-27.88376411;-26.07651359;-13.91945914;-4.589622349;-21.83600449;2.045163329;-4.280671777;6.498188376;0.312923606;-5.114797658;0.12449409
1.261452488;1.416600859;2.860645541;-5.324203942;2.829520483;4.221718692;22.91123785;-15.72195444;-21.41939164;-21.76297395;-11.88034768;-2.601481341;-20.80198371;2.00795096;0.329574868;7.857655387;0.485592269;26.40854435;0.110189819
2.026383454;0.94127356;4.734526183;0.235730056;5.142765056;4.476797412;24.01635773;-10.63958447;-12.94297515;-16.1383226;-12.53775669;0.04738003;-19.40453431;1.901884091;1.660858093;7.527157025;-1.105724043;42.93723624;0.02920785
