Channel 1 - P4;Channel 2 - O2;Channel 3 - P8;Channel 4 - T8;Channel 5 - C4;Channel 6 - Cz;Channel 7 - Fz;Channel 8 - F4;Channel 9 - Fp2;Channel 10 - F8;Channel 11 - Fp1;Channel 12 - F7;Channel 13 - F3;Channel 14 - C3;Channel 15 - T7;Channel 16 - P7;Channel 17 - P3;Channel 18 - O1;Channel 19 - Pz
-7.096275063;-27.36337519;45.62231158;-8.449168309;18.67877369;-1.275543204;191.6904085;36.72225223;106.1260747;52.9868565;98.69905221;19.72573849;47.98300716;2.026557553;-21.15050883;41.75584806;-11.92358885;313.7681675;-6.601116614
-1.224494675;-15.58423338;72.31417881;-5.825647689;6.370463734;4.624615423;152.1344617;29.77386455;93.5133076;30.99806233;97.04994608;22.67540228;43.30280423;5.743663873;-24.07203984;44.94622177;-8.722189636;250.7712532;-1.789453431
3.43;3.650729463;76.94410411;-0.09158491;-19.65133956;8.349519538;52.58091279;17.21632401;63.68717864;7.800328071;71.90048244;10.09201945;22.68016543;8.081441281;-27.55186267;43.99487446;-5.503007159;123.1571873;2.539357553
3.531654722;19.31019773;61.14489399;4.618829397;-43.30992544;8.607308128;-47.47272838;6.130019531;32.82196712;-7.495125261;38.79921773;-8.954956955;-0.182519452;8.196866416;-32.43775807;46.08529621;-3.992272167;-14.84719902;4.322543587
-1.256762542;23.74547552;35.52519753;5.739173378;-48.83474923;6.319612013;-93.92809732;2.942460865;16.07948502;-11.22825072;15.95347484;-22.8544567;-11.45645455;6.872229731;-37.58908438;55.20867406;-4.714720628;-109.7254256;3.148049559
-8.137831489;17.96397843;12.23720158;3.457553427;-31.21105026;3.781956928;-74.35760648;9.128804146;17.79787175;-6.595331403;12.32222582;-25.2492499;-6.818490813;5.807319247;-40.19565135;68.59591242;-6.724208705;-136.4686282;0.259169394
-13.18584821;10.01648577;-1.884480445;-0.406356367;0.204581362;2.948999442;-21.29091278;20.12467379;30.0329786;0.014875142;23.08501289;-18.18792191;6.574569837;6.304551589;-37.8720422;78.55764517;-8.301055253;-108.5920238;-2.426452538
-13.9813786;8.029331065;-7.252742165;-4.584789911;28.88019644;4.155999365;17.38205093;28.30538375;39.90348631;4.307895429;35.24471075;-8.773240121;16.89225958;8.367561155;-30.9716211;78.18747908;-8.119443064;-65.00304022;-3.539448568
-11.00831027;13.6163145;-8.455189468;-9.547306997;44.26162189;6.162530402;15.665937;27.94699369;39.54502229;6.58123155;38.37017627;-2.725870742;17.37829711;10.83517082;-23.09524616;66.53740285;-6.059368467;-43.18593123;-2.906869779
-6.97456264;20.90652356;-9.705296749;-16.61570447;50.15778696;7.335027762;-14.74437822;18.67637476;31.0069068;9.790078125;31.98581555;-0.385845371;11.14428369;12.34059772;-19.01439929;49.49530975;-3.121468656;-56.52706188;-1.315726904
-4.755073424;21.74907585;-12.50549394;-25.85156054;60.70479882;6.945337812;-40.05978229;5.120525374;22.98289538;15.5022434;24.38149921;1.929428609;7.491037473;12.29284296;-21.32917448;35.92588974;-0.589422724;-89.89974021;0.260360883
-5.52462064;12.69041429;-16.37565151;-34.75204539;86.67189723;5.588165859;-35.75081624;-6.676750328;22.86643421;21.74451574;24.68577001;7.112215682;13.27762092;11.15304308;-28.41796743;31.99072678;0.861453606;-114.6297111;1.31641395
-8.289527844;-1.941513835;-20.6056853;-39.20910254;123.9196043;4.515817049;-6.897863842;-13.21900943;30.89339861;24.76012486;35.10781169;13.71574059;26.71920959;9.896658005;-35.4440031;37.54751707;1.425234516;-110.865327;1.923357407
-10.86859601;-13.20620247;-24.64807762;-36.27705141;154.9860195;4.555575556;18.02747596;-15.0566199;40.74959465;22.92628164;49.46271408;16.92105547;38.65037683;9.180695598;-37.8388655;46.75016983;1.672531546;-81.24624805;2.364144473
-11.38537033;-14.30061402;-26.93501798;-26.6401287;163.7452774;5.519253394;12.65877172;-15.12716267;45.37687847;18.96553794;58.54056555;13.02907892;39.92843543;8.890885416;-34.64115971;52.02436704;1.817411664;-47.09623548;2.725325235
-9.209411692;-5.543103736;-24.1267096;-14.69433737;150.9281983;6.505732131;-24.92164065;-15.71721083;42.66110289;18.0580854;57.38829045;3.303799651;28.67781807;8.363898458;-29.07128967;48.60692115;1.43850331;-31.42511386;2.811022014
-4.940058594;6.097847569;-12.67230198;-5.922022864;136.0733747;6.726784297;-71.1250584;-16.65828833;36.37797572;23.23413286;48.54;-6.388475055;11.51297919;7.022824323;-25.88271964;36.91998355;-0.076758897;-42.17789723;2.393946646
0.208214007;12.21967229;7.89112969;-3.36778152;142.2558446;6.109727964;-96.47475436;-16.03798477;32.19470088;32.10757293;39.08763147;-9.950856365;-1.909227913;4.88048329;-27.62755654;21.76105633;-2.762596456;-67.98800691;1.515335433
5.001841653;8.741855213;32.81444518;-5.805183207;175.2391116;5.213381475;-88.53;-12.47303955;32.66116788;38.12123974;34.64970761;-5.739561315;-6.21351943;2.535334097;-32.84429016;9.271929297;-5.708460966;-88.57665323;0.543128258
8.462394372;-1.959878558;53.78832059;-8.952116044;215.1325577;4.628446826;-59.50814189;-6.761163078;35.54469343;35.660689;35.44628459;2.363158351;-3.532071528;0.716103091;-37.55158779;3.700989624;-7.517471301;-90.84819049;-0.048092668
9.959505437;-13.52421869;63.91331225;-8.788595526;229.5720401;4.449006481;-34.00299607;-1.443426102;36.55466596;24.92737458;37.35302617;8.264689824;-0.447813968;-0.239442406;-38.65903618;5.709807071;-7.307551104;-78.02941289;0.037272697
9.371943797;-20.17522439;62.35;-4.456755133;199.4878393;4.269291622;-28.67386825;1.27512855;33.61362974;12.40335652;36.3692168;8.456510192;-1.774492417;-0.587723894;-36.33900412;12.81560863;-5.462531215;-65.34197861;0.800519849
7.294421276;-19.83178224;54.74659878;1.394486591;136.7001426;3.648937067;-40.98628615;1.384328728;28.74271157;6.256484747;32.28177576;4.319757387;-6.616499405;-0.95646443;-33.38867122;21.2934315;-3.471876324;-66.52213369;2.049798963
4.983219786;-14.01940619;48.78274672;4.939664851;77.67921788;2.579288184;-54.83422615;1.101079156;26.05147709;10.21280615;28.47995615;0.310212123;-9.780058594;-1.891243988;-32.28980843;28.17941412;-2.894129426;-82.42043607;3.567855217
3.813617855;-5.63373076;48.3063534;4.250575534;56.66468541;1.522104669;-56.20120244;3.07904484;27.88014019;20.74276881;28.50136657;-0.066645999;-6.863774971;-3.484782158;-32.69978012;32.22399615;-4.188873884;-100.6681304;5.178743854
4.453434705;3.062365477;50.9301097;0.696478873;78.74948001;1.008334133;-44.62699922;8.320816528;32.65016087;29.75250456;32.65507895;3.074078812;1.614568347;-5.300058594;-31.69114524;33.53722951;-6.306425126;-106.1047356;6.696162864
6.332358996;10.76971377;51.16660457;-2.335008458;114.7093945;1.181738231;-31.51575089;15.47473443;36.26130009;30.56697848;37.69622802;6.737246241;10.53580402;-6.597160335;-26.56079506;32.62455469;-7.373241163;-92.9826341;7.878051955
7.895368688;16.34036945;46.42448331;-2.260447392;122.5894983;1.699975763;-28.48307846;21.95711723;35.64813638;22.49022121;39.62796243;8.128571702;14.41948786;-6.716019967;-17.67494157;29.83597248;-5.990660412;-68.87572992;8.493877473
7.569274877;18.37426848;40.54163268;0.635291245;79.65271695;2.064550256;-36.99786313;25.84748973;31.29858801;10.60923695;36.99958416;7.101490803;11.80226201;-5.416156192;-8.725345598;25.68267687;-2.212980093;-47.40353755;8.459961381
4.790824432;16.02450071;41.4214858;3.504384121;-0.217312625;2.066661929;-48.12664879;27.02200329;26.63287837;1.467445476;31.86408786;5.87918758;6.134836977;-3.012449957;-4.056551833;21.47844342;2.473605948;-36.25726149;7.887779002
0.352666824;10.2242762;54.33423158;3.288907677;-77.05936326;1.950933534;-51.44880479;26.8091411;24.99272479;-1.607090184;27.80320187;6.621187793;2.744715856;-0.238803709;-5.34886782;19.25646153;6.106500008;-30.78593127;6.955030659
-4.169374744;3.81758958;76.35794471;-0.803403103;-114.5424271;2.169466417;-44.33299073;26.72847185;26.9856671;0.098239673;26.96465013;9.316533773;4.664689801;2.104003703;-10.53127136;20.4932044;7.423024754;-18.50910857;5.697771068
-7.443059823;-0.022872964;96.85907711;-6.646433842;-105.2990371;2.964051305;-33.38925724;27.47036527;30.38663718;3.076749665;28.67457081;11.96936612;10.74024139;3.537119066;-15.79169883;24.46232465;6.461684825;9.431833568;3.938433349
-9.079495571;-0.026408869;104.1740334;-10.8030417;-72.79940378;4.147665782;-27.63931247;28.78908522;32.38563047;5.13248089;30.54904724;12.73264958;17.16709599;4.099725458;-18.75650355;27.84919609;4.28288051;49.75658741;1.466769535
-9.545152277;2.178685932;93.61112391;-11.05023949;-50.14953521;5.257044592;-30.30589998;30.0270822;31.95644692;6.802622307;30.78737015;11.79278027;20.69320942;4.214733342;-19.89680855;26.58701692;2.142894757;88.7674746;-1.653580807
-9.491454735;3.281703599;70.71302084;-7.846421834;-54.30462387;5.915140458;-36.65843183;30.52691413;30.25799744;9.725399713;29.50019338;11.13339816;20.67667013;4.302658324;-20.96351805;18.99270481;0.759177869;112.8026699;-4.939190755
-9.14605246;0.826970087;47.38227981;-3.714804761;-76.29879782;6.077728911;-39.22619601;29.58838757;28.97234925;13.92372281;28.07682967;12.42719768;18.64939911;4.424075367;-22.17386505;7.743599996;0.108214043;118.4297027;-7.6848562
-8.267897731;-4.983975712;33.96455431;-1.206752437;-93.39306303;5.972773886;-34.96075182;26.35373823;28.3895851;16.86508731;27.48535885;15.15414055;16.38416557;4.242172168;-21.20938117;-1.355069547;-0.264681548;113.7122783;-9.387501194
-6.610019531;-11.667314;33.25906263;-1.150152164;-90.67285713;5.830213781;-27.66904761;20.19669953;27.13339678;15.33523014;27.25276721;16.85186371;14.51657399;3.363791004;-15.44178385;-3.432639808;-0.779133762;109.7832383;-10.04730344
-4.377507632;-16.58523307;40.5064127;-2.492963171;-73.05791058;5.673253349;-23.91425944;11.57917273;23.72059693;8.419551535;26.02731813;15.35575279;12.79189504;1.795816096;-5.552450867;1.533204179;-1.545157497;110.5586094;-10.06970799
-2.214328913;-18.93802527;48.49382113;-3.637737435;-58.59861734;5.354858759;-26.68543541;2.550154399;18.34482851;-1.219991277;23.03023317;10.93521857;11.20118891;0.113464282;3.112379581;8.316431775;-2.377257708;110.0889564;-9.833887022
-0.731743818;-19.95165086;53.14270921;-3.952464988;-60.78772387;4.776334171;-32.837833;-3.977192554;13.07190708;-9.066582639;18.91106727;6.251297367;10.48297659;-0.866216859;3.550840492;10.34575018;-2.965568826;100.0783652;-9.310290545
-0.041541009;-21.27017847;55.23466902;-4.124938384;-76.51635631;4.057211637;-36.38977672;-6.060934211;10.17812552;-12.05074613;15.20611736;4.070601123;11.3651865;-0.70197061;-7.294603637;5.034381805;-3.039566207;80.50087191;-8.101052822
0.244753509;-23.16854013;57.6792913;-5.149886059;-90.06049268;3.486289296;-34.21577261;-4.367352573;10.15948256;-10.60055972;12.99881425;4.805185181;13.44864822;0.254943746;-24.94228283;-3.927236245;-2.472859271;62.67825966;-5.916630926
0.541226174;-24.29413607;61.51957337;-6.991327519;-88.46526819;3.301221156;-28.69741075;-2.061926213;11.28724409;-7.759947227;12.11050632;6.185957762;15.14421974;1.030162146;-39.38036326;-9.572230198;-1.362352728;60.37475368;-3.08834036
0.80343198;-23.166988;64.534582;-8.257034011;-73.64376083;3.505997461;-25.06559724;-2.603871986;11.16187293;-6.330838926;11.5506322;5.442033386;15.009986;0.711012835;-41.89054033;-7.730802507;-0.076302604;75.54377516;-0.623761072
0.542820129;-19.98313835;63.55059117;-7.30861516;-60.15395887;3.8929122;-26.23898762;-6.892035014;8.859338251;-6.698716982;10.68048446;2.010965847;13.27390586;-0.86669232;-31.64830349;-0.997031916;0.817878657;91.63375513;0.344211916
-0.607191264;-16.9254522;58.055124;-3.902101953;-61.14548679;4.238087649;-30.13190939;-12.06471951;5.7047359;-7.24014148;9.870325896;-1.761768801;11.91320515;-2.984166671;-16.69705178;3.178938159;0.813298591;82.58927885;-0.650499102
-2.271644344;-16.52246964;51.5462443;0.131625579;-75.82527489;4.480121173;-31.82908674;-13.24211223;3.969187867;-6.721389893;9.997611417;-2.675553975;12.94149538;-4.581983619;-8.079986003;-0.928832797;-0.186452357;32.89456443;-2.988747708
-3.2925839;-19.41683567;49.14071816;1.955321393;-90.16879861;4.718752701;-28.35529642;-7.229773803;4.702413852;-6.19561041;11.34891138;0.337776396;16.36946604;-5.044260067;-11.43521278;-11.65224343;-1.685458307;-46.43578546;-5.289450424
-2.450812069;-23.55498402;53.34553455;-0.119361124;-90.19229526;5.051205599;-21.45465886;4.54082005;6.716907044;-8.365487623;13.12375069;5.063350195;19.85428542;-4.58044721;-22.64908016;-20.49069215;-2.80149829;-119.8360581;-6.279757651
0.537001021;-25.65597168;61.58546192;-5.060111777;-75.37983019;5.420317989;-15.86840936;16.25353573;7.686404352;-14.80436294;14.14713584;7.865026287;20.64574688;-3.902265584;-31.14103805;-19.07818417;-2.805514669;-148.1266145;-5.590529913
4.553738641;-23.83271314;67.67346795;-9.490827686;-59.59761498;5.631529352;-14.91297208;21.26402658;6.370776111;-23.60069674;14.14701799;6.976219906;18.25570557;-3.508904767;-28.30865481;-6.885694161;-1.633569322;-114.457974;-3.910959993
7.617625828;-19.16399211;66.188111;-9.937670376;-58.32118046;5.525654731;-17.58464305;16.54982448;3.9139886;-29.86708865;14.28240954;4.227382923;15.36554535;-3.245342066;-14.47999686;7.304325041;0.042929705;-36.3983382;-2.425459277
8.127155172;-14.83110042;56.40791029;-5.384305201;-73.79398528;5.138329614;-19.78492314;4.833670236;2.962130454;-29.13509282;16.22543925;3.514883119;15.84778907;-2.556504171;1.137931584;12.21577169;1.300477583;45.11900068;-1.98194327
5.948142734;-13.48299636;42.86900216;1.770504685;-92.06399848;4.686755165;-18.29429279;-7.191594596;5.305149459;-21.02591805;20.47704714;7.23799751;21.3451752;-1.213980476;7.441712947;3.975392243;1.66396562;92.26258546;-2.593657717
2.552580033;-15.03188843;32.25939171;7.159553836;-95.30864119;4.390636373;-13.64721388;-13.25158958;10.10338546;-10.09238498;25.43695102;13.8672979;29.34285445;0.185934153;-0.219048829;-9.451255424;1.469173628;93.18430586;-3.568335266
0.098536111;-16.76864166;29.02833992;7.355940145;-78.74756096;4.296029418;-9.323197921;-11.34181717;14.29761307;-2.900276495;28.2105917;18.94853228;34.62941982;0.505408629;-16.84062453;-13.82677783;1.561405237;65.51562482;-4.072036317
0.097603658;-15.75271955;32.77711324;2.208136396;-56.55283992;4.270194078;-8.288151917;-4.420817175;14.92155516;-3.475103941;26.64267024;18.85076566;33.22179525;-1.009742954;-31.95352477;-0.328135186;2.532619038;39.64162512;-3.664624771
2.577848293;-11.49147814;38.95244967;-5.053624865;-50.32983988;4.170019531;-10.34709735;2.241194511;11.39323789;-10.61050258;20.94929012;14.05018432;25.62435202;-3.943911326;-37.53665837;26.27904194;4.103136561;35.74815755;-2.46314829
6.246020627;-6.621687302;42.01129446;-10.01566944;-69.27658479;4.014241196;-12.74519852;4.844892579;5.886217679;-19.06135273;13.6023266;8.981455464;16.67243008;-6.834533934;-33.28785944;50.35374779;5.181280601;51.92928426;-0.936118316
9.426610019;-4.92426292;38.81189359;-10.03429881;-99.36142838;3.979433666;-13.12950496;3.202777804;1.527103689;-23.56419983;7.572210707;8.382791421;11.95218065;-8.246379545;-25.42664168;57.44679729;4.612739738;70.54833848;0.412697849
11.06380884;-8.219742888;30.23808128;-5.888344976;-112.1088922;4.209790872;-11.70632695;0.00752914;-0.018105148;-22.48765013;4.379455165;13.14599256;13.61189109;-7.979013348;-20.66919301;45.9655441;2.068273753;75.36943642;1.231194837
11.14181022;-14.67780454;20.418086;-1.023993587;-87.12047689;4.62211058;-10.432328;-1.740383539;0.426055233;-18.41049658;3.472426101;19.25445088;18.89369892;-7.358592429;-20.77055157;28.4186426;-1.624145786;64.59093371;1.341995269
10.38179047;-20.00200796;14.27249664;1.016315572;-30.22578028;4.914568678;-10.29724702;-0.934858667;0.631753242;-15.51808947;3.231935566;20.87608445;22.48305601;-8.240539739;-22.08233957;20.69718025;-4.986008812;50.02773596;0.723059626
9.582032506;-20.66914119;14.81542241;-0.851818281;28.14262456;4.809625039;-9.886894215;1.345345604;-0.898385185;-16.1783979;2.533297846;15.1711002;20.68817664;-11.43003906;-19.99051367;28.19905333;-6.87046696;45.04954008;-0.465918305
9.117707417;-16.73579651;21.57808;-4.491022969;53.98221448;4.333281946;-7.185089219;3.258468902;-3.613472228;-19.43534522;1.484089675;4.861799126;14.09991273;-15.80899915;-13.92523488;40.87037397;-7.188891687;52.76650545;-1.86635831
8.87524593;-12.00027623;30.95720018;-6.071071922;33.95642816;3.868229224;-3.064261766;3.85059321;-5.451477303;-22.32341868;0.890070801;-3.598711008;6.798510774;-18.98942737;-8.374797554;42.09627826;-6.853906498;64.39428637;-3.02904021
8.5260262;-11.30975823;38.39100564;-2.816444741;-16.05351522;3.893255074;-2.629306802;3.57865807;-4.640289177;-22.56234555;1.224037476;-4.824743056;3.053058793;-19.10563789;-9.018903688;24.40835221;-7.01830882;68.02549066;-3.65225184
7.845464335;-16.97312729;41.23761828;4.910575739;-64.25708633;4.59537067;-12.06663963;3.55368542;-1.170842351;-20.28899276;2.218964574;1.562393017;4.334101883;-16.36997813;-17.4160892;-1.649279711;-8.214342435;59.13235873;-3.78268669
6.853503866;-26.92253902;40.56325442;13.60481654;-86.80370137;5.6740193;-32.88500452;4.454415058;3.232978905;-17.59214991;3.413929204;10.90178684;8.866011752;-13.1;-28.93160482;-14.27854318;-10.03378537;43.54773713;-3.780908318
5.755890768;-35.97806323;40.39220756;18.7097559;-83.03371724;6.520250068;-58.53566753;6.137280822;6.471655182;-16.57640549;4.905807556;17.19330051;13.61185314;-12.07572559;-35.81745369;1.347996237;-11.53287065;31.17883097;-4.034609022
4.802709868;-39.31740622;44.5135773;17.44514714;-71.01190177;6.651230284;-77.16870578;8.115557972;7.523963996;-17.76192914;7.318761061;17.42235922;16.65425545;-14.4205099;-33.02471405;37.9543176;-11.98296069;27.05278489;-4.644578761
4.170700092;-35.71190255;52.86352082;10.54055382;-68.94154402;6.064415905;-79.33118148;10.21057576;6.861422652;-20.04726762;10.86286271;13.13920439;18.00475379;-18.63992222;-22.10214409;67.46719995;-11.36475391;28.02120363;-5.367812703
3.89378913;-28.33120211;60.29875644;1.764623103;-79.28366615;5.231754633;-64.89933849;12.60988731;5.706127868;-21.9496195;14.44671751;8.391684811;18.62598328;-21.60733901;-10.15527291;59.57743415;-10.26731696;27.49957115;-5.889077128
3.8279325;-22.66900476;59.24366946;-4.435840464;-88.9626428;4.740029297;-43.57404035;15.28585274;4.965840267;-22.8232809;15.97388289;6.1035865;19.0954529;-20.79737229;-4.796154215;4.343259324;-9.353101798;22.90654604;-6.180424927
3.668664761;-23.08082763;44.84546938;-5.665494582;-84.35063199;4.862858105;-28.17354883;17.46471767;4.757734348;-23.0464407;13.89698851;6.007699501;19.35669519;-16.10474634;-9.000197626;-78.42151527;-8.869200382;18.22136164;-6.592797328
3.067234193;-30.21173737;19.01329914;-2.935653855;-66.63544869;5.393897614;-25.76335435;17.84339219;4.710336183;-23.29989619;8.767703371;5.606068397;19.54749851;-9.908747885;-19.53594363;-150.663128;-8.58781021;19.19138996;-7.542443799
1.838787138;-40.80966151;-9.931723397;0.197974325;-52.90762142;5.849963824;-33.45518113;15.51723966;4.494906071;-23.8756785;3.240547644;2.933830859;20.56358056;-5.388501126;-29.66167852;-180.404281;-8.164964373;26.17564418;-9.035314093
0.149788276;-49.76559714;-32.19552398;0.117638343;-60.97755787;5.856991573;-41.90262005;10.82631527;3.974317125;-24.72528162;0.201442251;-1.490780011;23.24439512;-4.395220214;-33.68600034;-161.23;-7.56223247;32.23270269;-10.46780885
-1.474926584;-52.89520985;-42.65447131;-4.39931693;-90.63483894;5.404418597;-43.29508432;5.301766444;2.929631627;-26.03407034;0.417928321;-5.173164906;26.68869321;-6.438292097;-30.11769727;-113.4594963;-7.153410428;29.21389305;-10.9458064
-2.38963293;-48.79012059;-43.64721768;-11.3615011;-118.1606962;4.786833866;-37.22535804;0.662221244;0.868415064;-28.48796894;1.758462093;-5.949852914;27.56539719;-9.397632553;-21.74306237;-67.72508572;-7.423911322;16.68898927;-9.918504697
-2.185845385;-38.94614498;-42.2857657;-16.89616179;-110.6930936;4.317983128;-29.95202636;-2.322940942;-2.652704099;-32.71797333;0.863417165;-3.915416224;21.8277717;-11.23626655;-13.35773489;-44.44810103;-8.507515352;4.96584073;-7.617376004
-0.923661417;-26.54426478;-44.4263977;-17.8052469;-50.77571786;4.073818048;-28.29007813;-4.131551548;-7.368759638;-38.33402253;-3.947470436;-1.294007821;8.100810979;-11.3213512;-9.098449961;-44.19414714;-9.925388326;7.969287153;-4.91525972
0.944465598;-14.89546422;-50.11872383;-13.60416057;47.59210666;3.866961624;-33.69126101;-5.703609099;-11.98705681;-43.53976716;-10.95669133;-0.508506071;-9.938233853;-10.43527674;-10.81954073;-53.80709241;-10.72935644;30.74317448;-2.695981725
2.912669063;-6.379984704;-54.14715863;-6.681189225;144.4229215;3.442000552;-41.4579718;-7.298607935;-14.7116763;-45.92694974;-16.10657574;-2.245209536;-24.65942438;-9.697974746;-17.73192972;-60.54132898;-9.962316853;61.96108896;-1.247779273
4.770608095;-2.075902696;-51.07785248;-0.533763869;197.786904;2.702206358;-45.29280271;-8.054811558;-14.37374195;-44.00116757;-16.12977116;-5.151798875;-28.97888497;-9.456538725;-26.85565924;-61.51677513;-7.155779531;78.80387606;-0.185887437
6.694983233;-1.792602895;-40.4789717;2.620498851;189.702531;1.778387046;-42.82317782;-6.691789987;-11.30614626;-38.2608648;-11.23204709;-7.230713359;-21.24271885;-9.083004238;-34.03750936;-61.8546123;-2.595740753;61.94515074;1.040036621
9.014531372;-4.234035622;-27.85755678;3.145490515;135.985773;0.908160359;-37.25758856;-2.765283386;-7.216325367;-30.94330909;-5.069499232;-7.520422505;-6.720721999;-7.740361718;-35.59700069;-65.61371907;2.754644533;9.976313352;2.507450183
11.83324657;-7.334133923;-20.50191481;3.304716217;74.08747424;0.256083051;-34.06737185;2.64434013;-4.108689674;-24.63309324;-1.96128458;-6.591791016;5.753774006;-5.3333299;-30.31742472;-69.48049194;7.616155546;-57.61769539;3.62696809
14.80333455;-8.968509936;-21.76277403;5.16388811;38.4927909;-0.167569373;-36.00930803;7.47259172;-3.090220213;-20.83971113;-3.584487115;-5.647948996;9.750335948;-2.761956226;-20.70104615;-65.44160863;10.87887871;-111.5352432;3.586258154
17.22109425;-7.978716818;-28.63562725;8.693292427;40.91236279;-0.444818171;-40.99531782;10.0512824;-3.958114578;-19.58841568;-7.843570109;-5.321402479;5.432126163;-1.267855769;-12.19913327;-49.47863502;12.02325952;-130.1431972;2.065453439
18.38073209;-4.958995317;-34.66334883;11.54011856;67.47654367;-0.635005159;-44.44659431;10.20784571;-5.767021539;-20.12256463;-10.79510338;-5.388918329;-1.150763272;-1.472305163;-10.22186191;-27.38048549;11.30291285;-111.4368659;-0.391105177
17.95266338;-2.085200422;-35.59907573;10.69868052;92.33469769;-0.728393025;-43.65314004;9.18744065;-7.750691438;-21.86997443;-9.971441862;-5.547111143;-3.043882388;-2.944196222;-16.54931371;-11.45024765;9.581121804;-72.12126695;-2.679399543
16.16655489;-1.765334084;-32.91086923;4.877426042;96.37614772;-0.701080663;-40.04708883;8.488728349;-9.766326631;-24.73045133;-6.334691461;-6.242455133;2.24327338;-4.632294668;-27.72764463;-10.52425908;7.855749979;-35.83248832;-3.879031748
13.73052506;-4.821479229;-32.12029683;-4.194508048;78.30322421;-0.592517844;-37.4784938;8.605005798;-11.98585619;-28.53174783;-3.320484312;-8.488550711;11.07022558;-5.73192947;-36.99430004;-22.24376382;6.696148312;-19.37436414;-3.834984808
11.56799043;-9.527362893;-37.4884631;-12.54076199;52.50131796;-0.504738232;-38.35852941;8.716323293;-14.31056927;-32.38583464;-3.905777735;-12.69151218;16.79585992;-6.212529792;-38.73766813;-34.84406752;5.929607065;-25.62523799;-3.131704933
10.50404468;-12.46217537;-47.75628201;-16.31490743;37.56924943;-0.508428588;-41.38603816;7.560393803;-16.20598251;-34.79716289;-8.223827575;-17.64937122;15.06127622;-6.58685545;-32.41337936;-37.27367847;4.821282036;-45.79826082;-2.538300753
10.99916814;-10.86318005;-56.72401737;-14.14656368;44.25785839;-0.546553472;-42.90886194;4.729483672;-17.15015959;-34.61291425;-13.63956378;-20.90983632;7.060433303;-7.206211966;-23.01504466;-28.84049839;2.685575923;-67.31983852;-2.432780911
12.99056764;-4.865027415;-58.22499169;-7.842961584;69.81369888;-0.443748459;-40.48918346;1.313190993;-17.18491741;-31.99680383;-17.00822831;-20.4507407;-1.568731395;-7.777841647;-17.66615876;-19.74160464;-0.465898145;-81.25860307;-2.677895551
15.90081296;2.19045186;-51.20986801;-1.00353669;100.3022205;-0.036904522;-35.23376439;-0.632530508;-16.88507939;-28.44688595;-17.0268765;-16.30387109;-5.074505562;-7.565964732;-20.77461931;-21.77786997;-3.727991912;-85.46079007;-2.975509239
18.8628921;5.922160534;-40.56384625;3.437585082;117.9537633;0.675356412;-30.7190321;0.629965023;-16.63298977;-25.67122192;-14.70169519;-10.59505372;-1.606623992;-6.090358238;-31.19293118;-37.31;-5.771697925;-83.3468847;-3.288990798
21.12263149;4.173455364;-32.99685668;5.028234434;109.2967739;1.496703258;-29.59904823;5.442000371;-15.87032222;-24.19023696;-11.79095413;-5.784441319;6.062583374;-3.671224199;-43.2003098;-56.28986967;-5.709124625;-80.54640069;-3.891535403
22.43191823;-1.094550498;-31.60753561;5.784482602;70.97831421;2.152090958;-31.14210103;12.59291172;-13.19944217;-22.87913707;-8.923160735;-2.550216966;13.2639616;-1.303052799;-50.25659405;-64.3066097;-3.745986837;-81.45817996;-4.989155794
23.16660243;-4.958532014;-33.80077924;8.474376511;11.6382999;2.470029297;-32.01602709;20.0586963;-7.530314238;-19.93626517;-5.269665076;0.759803862;17.08230022;0.05578868;-48.68673137;-54.96111544;-1.114117538;-86.86308749;-6.30622383
24.01906119;-3.154758698;-34.22603585;14.47477853;-50.89909656;2.480701647;-29.56040832;26.01100628;0.542666107;-14.55858616;-0.055913806;6.430136575;17.98992361;0.165380711;-39.00671072;-35.91288181;0.718525742;-93.28430608;-7.091445028
25.40668685;4.467548;-29.98329549;22.67579171;-96.77654445;2.355338522;-24.45383246;29.45371679;8.368939662;-7.961408626;5.663352979;14.73733477;18.47487196;-0.429369806;-24.73394807;-23.14996125;1.01715845;-94.69183977;-6.627475241
27.00060788;13.42734817;-23.4075294;30.09723143;-113.2319655;2.249419472;-20.2615241;30.29;12.46319423;-2.864666065;8.914036045;22.67042062;20.20847942;-0.985961107;-10.27007813;-27.99843043;0.226030838;-86.27419073;-4.846077286
27.77217613;17.69447827;-19.95867206;33.70186537;-101.2450177;2.191212143;-20.25748416;29.06154614;10.64666472;-1.785097923;6.845666784;25.37672688;22.31486144;-1.260580516;0.54797506;-47.60442563;-0.438539879;-68.23700597;-2.507309365
26.61810564;14.21476581;-23.11506004;32.16635285;-75.27262026;2.108812418;-24.43438652;26.67160153;3.595089824;-5.409500198;-0.687279306;19.50854877;22.13419916;-1.675138049;4.96544164;-66.81840599;0.05932832;-46.5542934;-0.741066758
23.17633935;5.407779364;-30.826672;26.52724603;-55.07647393;1.95801896;-29.42733619;24.16498443;-5.398455801;-12.22448423;-10.31464149;5.995039306;17.67404198;-2.797053192;1.719050609;-70.01261335;1.795723015;-29.10285652;-0.283248277
18.23814297;-2.442217293;-36.71611073;19.44107217;-53.91479807;1.819202047;-31.3985117;22.43452859;-12.35952837;-19.57145909;-17.08136506;-9.955084252;9.597739883;-4.60437198;-8.129884976;-53.29676255;3.861433671;-19.31870359;-1.000861288
13.40132975;-3.832331481;-35.06839891;13.66438301;-70.63289131;1.859257779;-29.25658461;21.81531698;-14.94304706;-25.24128475;-17.79700065;-21.78071474;1.112612829;-6.230297807;-20.63310212;-27.48585137;5.086942045;-12.46171987;-2.063493608
10.15263772;1.805605043;-25.38422096;10.72137127;-91.32226983;2.180526764;-25.35657672;21.8009532;-13.56159088;-28.45313229;-13.20798694;-25.40627866;-4.097844915;-6.48908568;-29.98;-9.834450331;4.939179196;1.437784181;-2.59319212
9.00684481;9.713688258;-12.7045991;10.45053031;-99.80503585;2.689809035;-23.18542763;21.22638488;-10.69052008;-29.6992271;-7.274518422;-21.34805574;-4.244630561;-4.808402584;-31.43073398;-11.42103122;3.892615696;28.98716851;-2.264449486
9.309927274;13.55432546;-3.580311407;11.49831201;-89.67698558;3.116377573;-24.25799056;18.99418556;-9.016827705;-29.86234613;-4.151534918;-13.80242697;-0.368926466;-1.810293154;-24.54643578;-29.94557708;3.001970434;65.604237;-1.42207963
9.827417825;10.38753667;-1.195551846;12.29731209;-69.10926376;3.187571041;-27.0363671;14.94793193;-9.793996244;-29.45497368;-5.286906261;-7.626500588;4.661522039;0.973578703;-14.11664273;-52.72799556;3.031933484;95.57589263;-0.718769847
9.656596764;2.949412865;-3.640322366;11.91198154;-54.67593012;2.834674706;-28.68645014;10.24730733;-12.41092015;-28.51776516;-8.854112044;-5.454948204;8.160407488;2.090352662;-7.438321914;-66.49361437;3.837407432;101.6356187;-0.645147581
8.779965011;-2.576018746;-6.399082831;10.35038411;-58.63347172;2.265715809;-27.84061644;6.864075212;-15.18992351;-27.03763665;-11.74361097;-6.775328713;9.157311095;1.138429523;-9.411827696;-65.91767041;4.479079992;77.85382041;-1.32405168
7.890793785;-1.49751429;-6.5;8.314509566;-79.15846491;1.838032516;-25.71783913;6.447738706;-16.62501163;-25.32969262;-12.26228949;-9.144510955;8.572248614;-0.987674826;-18.97493964;-55.0880216;3.978503162;35.95356379;-2.620819497
7.71063681;5.695465523;-4.629495335;6.656703236;-101.0070961;1.815798853;-24.65269729;9.311539565;-16.19208571;-23.97573561;-11.26059673;-10.25464932;8.2169773;-2.737652308;-29.74223839;-42.37964803;2.122503303;-0.691423305;-4.322596181
8.401745414;13.82525913;-3.679810036;5.896966395;-106.2781863;2.185858098;-25.6112934;14.24044368;-14.38549759;-23.39782884;-10.89891878;-9.292786033;9.499740632;-2.938877794;-34.59663905;-34.04310608;-0.303612399;-11.85950799;-6.148632225
9.547640816;17.2202789;-5.514122272;6.043101318;-87.32497055;2.662746885;-27.19607091;19.24039812;-12.21456492;-23.48986854;-12.32507219;-6.929114697;12.64758785;-1.485161247;-30.83270867;-31.48468567;-2.031309403;6.514248107;-7.62970454
10.65630722;14.15025344;-9.152164306;6.740961976;-52.22656081;2.877342589;-27.10985819;22.68554028;-10.59991296;-23.65657855;-14.39338178;-4.393522752;16.72283028;0.747396131;-21.92292715;-32.97386998;-2.183509896;40.70059982;-8.122033385
11.68158061;7.925394647;-11.94629997;7.589902526;-18.84686312;2.617850005;-24.57962628;24.08804853;-9.951955954;-23.2455729;-14.54565444;-2.562101684;20.21781514;2.604283733;-14.61791608;-36.68681604;-0.859432226;69.87840015;-7.131640128
13.05335232;3.89441359;-12.33282338;8.387479068;-2.039602652;1.965081765;-21.25411796;24.0624892;-9.999138849;-22.0520627;-11.04817977;-1.617158824;21.84163038;3.425623869;-13.78268089;-41.82493884;0.992059387;80.79294626;-4.779663442
15.15953768;4.952564368;-11.28223259;9.149720916;-3.485472977;1.244784252;-19.57906345;23.66724641;-9.879562806;-20.55519808;-4.623295845;-1.208528698;21.17243523;3.382011895;-19.06838204;-47.45810401;2.303464607;75.37192407;-1.984826266
17.73984799;9.307488009;-10.97102251;9.93275136;-11.34942955;0.841082429;-20.20103626;23.6890777;-8.5379543;-19.75560863;1.920377136;-0.745713889;18.93437987;3.245205217;-25.8424314;-51.38210752;2.683512633;66.3755105;-0.07470473
19.77774526;12.25252139;-12.0407724;10.63528881;-9.422493789;0.992721831;-21.05335444;24.33915585;-5.369493697;-20.71446277;5.726216775;0.384227668;16.72934272;3.847686129;-29.22290441;-51.01813;2.703471438;65.73572629;-0.001556641
20.08493092;10.30504724;-12.31481851;10.97470408;11.43726967;1.686692508;-19.2548654;25.41155418;-0.797567687;-24.00681834;5.888486351;2.60753508;16.23372542;5.608760784;-27.64255117;-45.77589156;3.475496849;75.4499306;-1.7307112
18.17911;4.154173661;-8.513615392;10.68389972;47.82619518;2.692420676;-14.15723355;26.60825987;3.679068183;-29.31420017;3.82180613;5.892347458;18.19820742;8.359172002;-23.09793233;-38.29569208;5.821802562;87.80564557;-4.305377272
14.76159493;-2.00995591;0.42839206;9.780525758;87.43470699;3.698202165;-8.504565563;27.72066189;6.203703278;-35.35734716;1.840690725;9.577413507;21.85321587;11.46555951;-18.34825386;-32.80681437;9.608599335;93.45544357;-6.57356684
11.37098064;-4.085785464;11.58137757;8.675383481;118.0107678;4.465937156;-6.21613399;28.60788773;5.717505957;-40.29167588;1.257215538;12.57964584;25.21406175;14.12100076;-14.00203256;-31.73820569;13.69634801;89.64077217;-8.013321523
9.422415068;-1.446893042;19.71022951;7.99641311;134.4850245;4.924902554;-8.529116662;29.14014592;2.774757555;-42.48713811;1.587066862;14.01085779;26.22955172;15.66296027;-8.318645258;-33.72388244;16.54015236;81.66877697;-8.996431578
9.3320096;2.690848426;21.23644476;8.231795743;139.5274007;5.166721382;-12.15717129;29.26539099;-0.648648022;-41.3313439;1.398081625;13.80286064;24.07495672;15.82164622;0.159407804;-35.07592506;17.05135622;77.25605051;-10.29630727
10.3734576;4.068403432;17.07943167;9.454388652;138.5404322;5.356786622;-11.71524132;29.15702374;-2.322784813;-37.54681325;-0.083355981;12.78701784;19.68837437;14.81963318;9.819001431;-33.50957002;15.17920085;79.5011934;-12.28546796
11.35483305;0.832712566;11.82842874;11.33807645;134.2638805;5.618132834;-4.878701894;29.24314591;-1.117337104;-32.72571333;-2.066934921;12.05395848;15.13571478;13.26029313;16.00231379;-30.56615067;11.8741716;84.78589426;-14.52672564
11.57968356;-5.263551328;9.903536759;13.44596515;125.6037671;5.954592348;4.132754398;29.98128198;2.423464371;-28.31841253;-2.767452346;12.05986786;12.24497943;11.82164561;14.29572543;-30.20898014;8.503045386;86.89653705;-16.10757778
11.35706885;-10.69766064;12.05230258;15.55003906;110.97289;6.254871242;6.350182804;31.47579266;6.649909416;-24.7818864;-0.93540064;12.25163003;11.50298819;10.90594026;4.44470146;-34.68793196;6.123952541;83.02119922;-16.4072852
11.69539244;-13.1824831;15.22649681;17.72185703;92.32857083;6.369444439;-5.451216944;33.21760493;9.990600944;-21.55275842;2.950443541;11.59934677;11.99047896;10.4721939;-8.589717533;-41.59506745;5.079236908;76.06270808;-15.60417342
13.44982561;-13.13144547;15.82652177;20.13429931;75.70376447;6.20665188;-30.34017681;34.18201327;11.78840365;-17.88188142;6.813321227;9.625982337;12.30412557;10.18597588;-17.67091808;-45.23508676;5.105299162;71.59378259;-14.46862719
16.59366353;-12.4846807;13.257221;22.76642413;67.44;5.784020634;-58.22730294;33.2806661;12.21904682;-13.81779868;8.337934528;7.019010847;11.65370231;9.782982831;-18.41050511;-41.51520433;5.783097039;72.79275018;-13.63503888
20.15628897;-12.30136491;10.49644448;25.28096004;69.35764885;5.205291318;-75.71696595;29.92500275;11.57671867;-10.4248245;6.531202188;5.20323326;10.25594317;9.345166377;-12.09961394;-32.06617613;6.930622783;78.17074623;-13.02315862
22.84409597;-11.59811352;11.17197431;27.18453561;77.16393371;4.589125899;-74.88368443;24.39737393;9.748298969;-8.936371401;2.364117018;5.150039063;8.809837015;9.227038075;-4.363059574;-23.60968968;8.627504962;83.79604462;-11.95237561
23.86124751;-8.604681953;15.90812238;28.12396487;83.63088816;4.009384024;-58.5285334;17.85493573;6.435342557;-9.518066883;-1.902165567;6.423710509;7.643968133;9.657787593;-0.749596076;-22.67089343;10.88904425;87.32921289;-9.867139952
23.34545439;-3.177456043;21.41426405;28.0557599;83.96645408;3.491517118;-37.96992139;11.98083759;1.880779655;-10.78626739;-4.184416457;7.346482909;6.375076941;10.35882897;-2.888570449;-30.02949404;13.31539376;89.75393915;-7.02488344
22.16580559;2.135950782;23.25713068;27.15698364;78.95562894;3.057536864;-25.05122235;8.421463175;-2.713047625;-10.68592266;-3.858961572;6.2511012;4.405334318;10.56769519;-8.157865653;-39.84341995;15.08106779;93.35897622;-4.502459845
21.30090204;3.729640456;19.8115498;25.60094482;73.42756714;2.767850765;-24.36620025;8.190699786;-5.66062725;-8.147390776;-2.092432012;2.847611253;1.781408126;9.555481622;-12.70241583;-44.46475648;15.35676625;98.41914084;-3.461282866
21.26373273;0.065929134;13.73837987;23.45504771;71.62565618;2.711333236;-31.32314818;11.23903264;-5.905333976;-4.13172604;-1.085477177;-1.414875697;-0.435570128;7.286581149;-14.86134639;-40.94682871;13.88080087;102.2314453;-4.265074097
21.91995832;-6.502261634;9.613266325;20.83086615;73.60604313;2.943823312;-36.98756075;16.39132041;-3.832757755;-1.03438158;-2.699531444;-4.311168276;-0.741671584;4.671344109;-15.98333706;-33.60059901;11.23044354;101.6031496;-6.190039063
22.71175635;-11.09036044;9.950511432;18.13668861;75.70197474;3.426886305;-35.46434816;21.78023999;-1.009449198;-0.761319126;-7.230404724;-4.372797083;1.675296586;3.115116386;-18.18275163;-30.27976906;8.540350164;96.26304953;-7.973412772
23.03701367;-9.968257439;13.43026643;16.12061432;74.40417342;4.025795105;-27.97698172;25.67883706;1.023674139;-3.013256507;-13.00962829;-1.797555028;6.157297076;3.609742741;-21.43619277;-35.52402448;6.836152233;89.6725976;-8.743081531
22.51767207;-3.572743603;17.08079077;15.53175936;69.9978565;4.579261704;-20.84444967;27.34574672;1.919279749;-5.302516948;-17.12300111;1.902882525;10.84212169;6.015917365;-22.98172485;-46.47400456;6.458551769;86.32414442;-8.56942015
21.06615925;3.748977482;20.30997013;16.57864313;66.58732799;4.992434251;-19.57905262;27.36837293;2.657078088;-4.871619582;-16.96440942;5.110943469;13.84015755;9.09604261;-19.78794119;-55.09879261;6.985816044;88.13488449;-8.230612738
18.83089829;7.154104334;26.64607276;18.61919273;68.42018486;5.282431923;-24.22494085;27.21398176;4.528837059;-1.058018092;-11.81344526;7.128455039;14.45472151;11.31298939;-11.91221516;-54.80986731;7.664871928;93.36921;-8.462199968
16.12975955;5.070752087;40.92568331;20.41570597;75.76783307;5.542552714;-29.65107515;28.2095318;7.869685782;3.849398658;-3.456855225;8.267085446;13.53802901;11.82682652;-3.546968662;-45.77925723;7.961802084;98.82278394;-9.369278537
13.38921683;0.183892598;63.95527103;20.86635359;84.07756689;5.856085714;-30.202446;30.61713527;11.65852837;6.084504868;4.690429774;9.137783672;12.75067444;10.96676839;-0.430464797;-34.51039104;7.782360683;102.6222471;-10.47608542
11.03344459;-3.12701266;89.48207214;19.71416771;87.293535;6.228295858;-24.56065054;33.46932467;14.33765017;3.149173414;9.581439942;9.937192183;13.3264485;9.861001493;-5.473489231;-28.27340405;7.245424708;104.552623;-11.28532032
9.306987583;-2.644214076;106.8525311;17.69407671;82.62961825;6.58538235;-16.71615242;35.304233;15.11265739;-4.297979513;10.40864851;10.40247241;15.27385526;9.551752149;-16.15479711;-29.39286177;6.320603751;103.8904522;-11.77576018
8.124385491;-0.145825577;107.9836993;15.97936346;72.81511503;6.832317335;-12.38156841;35.25803458;14.57019206;-12.87300645;9.012670901;10.37124151;17.54477424;10.29222043;-25.94639062;-34.24029051;4.768934955;98.01275245;-12.37126479
7.088348312;0.290613583;93.29109748;15.32952486;63.98638064;6.917983703;-14.01304936;33.67573458;14.07824023;-18.82472728;8.40800165;10.27022765;18.93362301;11.5297668;-28.7952161;-37.39908748;2.514682129;84.6977754;-13.44316559
5.723829789;-4.053388329;71.63934104;15.58366948;61.05201145;6.860285046;-18.68657799;31.76657645;14.5416144;-20.42903878;10.397957;10.94402363;18.95812418;12.50113468;-23.22110948;-36.87245737;0.09598047;66.79210586;-14.8533548
3.800540509;-12.13834602;54.10552839;15.87835362;64.35455699;6.72489332;-20.60366025;30.59495444;15.6592228;-18.62963019;14.06591869;12.91673617;18.08012275;12.88479269;-12.93787586;-35.51454959;-1.347451234;53.98064679;-15.9933593
1.51733416;-20.06199985;46.44852756;15.40108065;70.15508743;6.587084901;-16.10464834;30.24312098;16.34189644;-15.69103857;16.41040696;15.78022816;17.19876573;12.95969803;-3.728616052;-37.57594179;-0.754366087;57.50616989;-16.28718357
-0.596742963;-24.35132457;46.25699822;14.07753082;74.14251954;6.506095132;-6.972240317;29.84158258;15.85189229;-13.25869583;14.78207806;18.33267504;16.89482704;13.18151959;0.772612246;-43.86473636;1.930272962;80.0536139;-15.67446709
-2.000611152;-24.69011434;46.79540466;12.66291368;74.76961638;6.514599964;0.800413022;28.43439219;14.5433028;-11.52607189;9.277160589;19.40740788;17.01626262;13.60055691;1.096127994;-50.2844841;5.363582278;109.1714464;-14.60902447
-2.449489444;-23.72801706;43.93255517;12.19589853;73.73132944;6.607861871;1.884507272;25.93493306;13.46742888;-10.00545562;3.102914605;18.68433041;16.85485703;13.67594706;0.478301954;-51.30413782;7.444916236;121.9845365;-13.58055485
-2.08477762;-24.29935115;40.06797545;13.2697622;73.65495126;6.729706499;-3.788972522;23.34316084;13.2154816;-8.846601258;0.414531307;16.78703378;15.70131743;12.68886768;1.537554458;-45.23966952;6.692551934;100.4294859;-12.64106105
-1.283256351;-26.70145421;41.77668171;15.68012434;75.4649916;6.778855105;-10.53925469;22.02215263;13.1602825;-9.183407333;3.154872624;14.63512803;13.34445417;10.43063332;4.018925385;-36.40981498;3.388534294;46.3158335;-11.42807673
-0.430272661;-28.55984163;53.4788273;18.66228392;77.82381434;6.660586855;-11.20666076;22.6391912;11.94778229;-12.01931827;9.373458081;12.70910477;10.20880087;7.584657988;5.35170818;-31.96049724;-0.432949201;-16.65492825;-9.694335868
0.194279652;-27.37557074;72.89291997;21.44956235;78.8120864;6.369123158;-3.061981964;24.66543057;8.909277439;-16.69967736;14.48858967;10.92942008;7.126060534;5.444013507;3.244286092;-35.95826161;-2.268940443;-57.73123687;-7.826651218
0.378509257;-23.32958706;92.34555309;23.67449408;77.87;6.037293971;9.210581542;26.84104396;5.092054942;-20.59320301;14.67463846;9.200734101;4.946660529;5.121272336;-2.107926433;-45.87074582;-0.839198752;-60.76494571;-6.782477508
-0.077132645;-19.61364723;104.7423699;25.34547084;76.00754022;5.88741622;15.98049454;28.17139318;2.794121365;-20.62021325;9.794720362;7.957866027;4.201617783;6.800507971;-8.092277498;-54.50999529;3.040078125;-35.67961087;-7.384032077
-1.2819587;-19.77758604;108.8756059;26.53987032;74.27485351;6.083924298;9.094516663;28.56711599;3.768305578;-15.57101371;3.532831898;7.996746881;4.907819958;9.555606955;-11.82126748;-55.76679914;7.045460131;-9.73510136;-9.542171806
-3.055852316;-24.35232161;109.4281575;27.1830883;72.36475039;6.580645069;-12.22502807;28.58688577;7.538396184;-7.296495318;0.527056046;9.590714519;6.527427135;11.8581565;-12.37501438;-49.26162141;8.950296833;-4.833112673;-12.14003906
-4.81161358;-29.82326932;111.8802164;27.14144019;69.01960707;7.091125344;-40.21773922;28.58572916;11.36803956;0.338057838;2.709176243;11.72287881;8.100587993;12.44088279;-11.2132279;-40.15737048;8.050666004;-19.30630604;-13.7933135
-5.734334775;-31.09818304;117.1393952;26.50515184;63.83707541;7.240058594;-63.03756277;28.15132812;12.14810665;4.014161916;7.77107932;12.36885835;8.587064916;10.98991306;-10.52384226;-34.66952551;5.410988725;-29.79919505;-13.93176442
-5.251382043;-25.58276581;120.9129682;25.72460119;58.3035917;6.816331595;-71.76428634;26.47350108;8.840597121;3.043112678;11.05699344;9.922167004;7.369577261;8.297312495;-11.07823864;-35.35046178;2.883218759;-12.3487797;-13.29791439
-3.497684384;-15.49307423;118.4224331;25.39719506;54.47487379;5.950422522;-65.24099658;23.40913874;3.528190682;-0.620613223;9.452947622;4.744496838;4.70199154;5.847616755;-11.5238006;-39.96387183;1.782420979;34.9252131;-13.3804779
-1.389862439;-6.416892675;110.0248409;25.85608669;52.33504882;5.071171047;-49.72994486;20.25541833;0.127893418;-4.296460855;4.179938857;-0.532720421;1.782157951;5.094941291;-9.727041516;-44.23491254;2.257253047;87.44690485;-15.17657773
-0.156963961;-3.223685412;102.2687975;26.93984755;48.87329136;4.649540578;-34.12707672;19.34538024;1.652042114;-6.723960866;0.169220014;-2.486588054;0.253434379;6.780315341;-4.979961098;-45.41376892;3.696484344;113.1237556;-18.27215661
-0.58829965;-6.587078314;102.9286227;28.18639681;40.87213155;4.899011071;-24.43178074;22.53270333;8.055216529;-8.665838479;2.354076887;0.748438522;1.287896098;10.5704383;0.861150466;-43.45583795;5.601799099;99.43338867;-21.01975036
-2.522382654;-12.81740036;114.0998018;29.29819833;29.68872676;5.643689699;-21.23282203;29.66538099;16.25177688;-11.61542259;11.67741727;8.010733;4.761343491;15.15968583;4.340831274;-39.49354702;8.02652238;65.4025369;-21.72386482
-4.972334774;-16.95187512;129.5003432;30.43406084;23.28410265;6.446920875;-21.3144964;38.34372175;22.21346249;-15.8810952;23.92916107;15.7302745;9.103419196;18.8149512;2.779955077;-34.06063614;11.1872201;46.93179936;-19.92610358
-6.824196946;-16.4845114;138.7188745;31.99289272;31.8605486;6.902724857;-21.33057312;45.35051746;23.52716093;-19.7558965;32.41175089;20.27464464;12.06113835;20.1625927;-3.755524878;-27.38412377;14.70726429;66.33381795;-16.79116449
-7.600253861;-12.84012608;135.1601715;34.00946026;58.7446501;6.87744426;-20.30376621;48.79816429;20.59827139;-20.44140912;32.51811954;20.30170325;12.01934004;18.85969411;-12.35899486;-21.23728218;17.35304774;111.2409994;-14.30372957
-7.71186893;-9.770323652;121.1184069;35.69418952;93.47791023;6.53765488;-19.23982254;49.35682182;15.87177372;-15.89140977;24.85266765;17.37105938;9.07292328;15.77152757;-19.06512767;-19.47192501;17.69270768;141.5087596;-13.90868894
-8.01300089;-10.35943421;105.7368433;35.62909443;114.3115801;6.169746971;-18.9010928;49.53568318;11.95314674;-6.099145369;14.64229599;14.42238054;5.099665661;12.49178502;-21.15100658;-25.2514476;15.22403947;120.0446613;-15.61772899
-9.015656873;-15.15020098;97.61431092;32.64164625;100.980889;5.949320098;-18.32791926;51.48507735;10.13477226;6.984136548;7.979447338;13.38623557;2.677864205;10.43379292;-18.36691525;-36.69108211;10.99173831;43.27766001;-18.18063164
-10.40210984;-22.53982878;98.27597813;26.79286476;50.01212354;5.837003111;-15.73261364;55.01275142;10.21330731;20.50245498;7.746819206;13.82246996;3.473917097;10.04265175;-12.4697526;-45.41784962;7.056864072;-53.61595592;-20.07053718
-11.23341653;-30.49430722;101.7867749;19.72598863;-18.99333939;5.658086747;-10.87540835;57.45525169;11.31535369;31.72461942;12.16110593;13.59668853;7.149892606;10.65525239;-5.725993993;-41.1142204;5.135505787;-121.5905931;-20.4643365
-10.68706631;-37.72344117;100.3680793;14.02070292;-72.54741627;5.273704026;-6.337255277;55.67843651;12.77199763;38.49970036;16.76495462;10.95244542;11.56185252;11.11277783;0.346077671;-19.88825224;5.46664198;-133.2476527;-19.53093569
-8.716195461;-43.41398799;90.82295547;11.90267633;-83.27814068;4.693926135;-5.915306449;48.80505029;14.3555084;39.43481927;18.09193307;6.25707715;14.16589005;10.6813172;5.18563282;10.20473884;6.831300956;-101.0029308;-17.98194748
-6.077682343;-46.31180834;76.30094502;14.12837428;-47.30958902;4.053676023;-11.10374643;39.57404018;15.97690584;34.34811658;16.12790404;2.025150985;13.69003906;9.587425972;8.56340533;32.32789036;7.709034803;-64.21654226;-16.40714501
-3.695950885;-44.6359605;62.49050274;19.73740054;13.55570761;3.496886078;-18.82559628;33.10849255;17.42504315;24.93212937;13.84121745;1.227401359;10.89884074;8.760224882;10.02285103;32.05564366;7.607101363;-56.74169133;-14.96026123
-1.893166031;-37.33195144;52.41018047;26.74527245;66.81088327;3.081674252;-23.03464624;33.71689484;18.50911498;14.80974673;14.43507888;5.209254019;7.896035692;8.999577953;9.098666186;8.757200155;7.447739446;-81.50750813;-13.52927087
-0.151069802;-25.55169932;44.88618777;33.22199102;90.71904693;2.779833471;-19.61894427;41.84065129;19.38964992;8.269938512;18.68013803;12.75307707;6.478118956;10.26201609;6.166065344;-22.14635248;8.688415093;-111.7554808;-12.06951435
2.357067103;-12.67856997;37.80253483;38.03142873;86.80246558;2.546872377;-10.79483179;53.29486027;20.61330794;8.082707362;24.43798642;20.85356183;6.786554624;11.66643046;3.022177601;-39.04402383;11.91489032;-115.9045627;-10.70800391
5.879152889;-2.392161843;32.19808292;40.87482472;74.79309482;2.379315389;-4.86841448;61.47433485;22.6918375;13.91843088;28.59912596;26.49337032;7.320114277;12.21813155;2.342047994;-29.5169441;16.08868989;-84.02185064;-9.549339314
9.594943713;3.83963657;32.21276139;41.84728199;74.91348429;2.304603339;-10.5886072;61.22576123;25.61473024;22.79279024;29.70697751;28.11934431;6.34302342;11.62805707;6.029253869;0.379658841;19.08507891;-34.08187242;-8.46499892
11.99882126;7.668254424;40.04769539;41.01970912;91.76625101;2.328492474;-29.88195282;51.96568752;28.83352284;31.42;29.0684322;25.97338292;3.609077896;10.50461458;13.52909431;30.41420687;19.0988884;5.506679549;-7.168981397
11.93170376;12.20597171;50.70861191;38.40117385;112.1540172;2.411302179;-54.73418084;38.09160658;31.79301965;38.61935923;29.46979377;21.40872384;0.994287301;9.732328185;21.50649043;41.08687248;15.8153115;20.4872909;-5.563205181
9.482407937;19.0730442;52.7871918;34.21549556;117.5867445;2.51056287;-71.36356149;26.4461086;34.46498055;45.64700604;32.60690989;15.97264855;1.404784987;9.581545126;25.50495903;27.73280608;10.48395642;20.91845438;-4.009969288
6.030701581;26.68234774;36.78516967;29.13201479;100.504272;2.649044363;-69.31945235;22.41011952;37.24147575;54.0268678;37.38846662;10.91982511;6.657378658;9.374377928;22.75314567;2.957357803;4.946525071;29.07412591;-3.199613369
3.350982386;31.34901974;5.189775012;24.16118057;70.77236619;2.92653255;-49.02098454;26.97367214;40.16219083;62.79641436;40.56017425;7.208092701;15.89157663;8.08;14.23599885;-14.17174983;0.459071168;56.95137696;-3.642755979
2.433831695;30.39353719;-24.72182031;20.2573146;47.52939294;3.438811966;-21.98684835;36.4421755;42.22844675;67.93347649;39.21646773;5.563916217;25.75588365;5.38055806;4.403724675;-13.22284516;-2.813064131;93.79846214;-5.192756889
2.917134994;24.61827368;-29.84739253;17.94022955;43.69570048;4.160937259;-3.29978201;44.7956466;41.68236253;65.06052365;33.22271235;6.285668629;32.31692507;2.257925485;-1.550114597;0.335232876;-5.413145006;114.5955065;-7.028765097
3.5470225;17.99695475;2.864241663;17.21452127;56.25626458;4.903661588;-1.687606431;47.17690284;37.33831613;53.54824379;25.58980544;8.907002135;33.35573538;0.47407618;-1.092301902;11.11185654;-7.837576262;101.8194224;-8.156935158
3.278861211;14.77690761;65.09417811;17.78290039;70.18032835;5.403803909;-14.39549397;42.44516632;29.97891195;38.44836525;20.41451526;12.15378545;29.44713595;1.239678891;3.99551902;7.479004328;-10.09624432;61.47024499;-8.044096147
2.128865246;16.40919037;129.7407257;19.29736931;72.19617692;5.495006364;-30.32197055;33.42877452;22.49155472;28.01229736;19.89943484;14.45699503;23.17307301;4.12367302;9.01631182;-8.66028061;-11.83927098;19.68783874;-6.885370473
1.102979161;20.84574486;166.8425083;21.40750832;62.45935058;5.225133671;-38.61348668;24.93836536;18.28534989;28.09342388;22.71774352;14.78340038;17.22678054;7.169957783;9.875146568;-23.95414048;-12.74050669;3.086574273;-5.328214145
1.288421187;24.66695994;162.0730218;23.62371094;54.20234203;4.817934762;-36.01056722;20.87505586;18.97455151;37.60235904;24.99981925;13.1969117;12.89659468;8.258753361;6.095163785;-25.33306617;-12.68376171;19.38492533;-3.938178961
2.877868898;26.06452852;124.7452761;25.25266946;61.80649637;4.500562335;-27.68529785;22.16526103;23.10293369;48.79993681;23.23871178;10.71204753;9.928074865;6.710504334;0.986279761;-11.22404745;-11.64139767;53.79996453;-2.878478037
4.94733948;26.05391212;79.92896298;25.63059132;87.54986951;4.331507274;-21.72805631;26.61642923;27.02983683;52.59940795;16.9477888;8.537385381;7.52955191;3.854662704;-1.205726453;7.131599826;-9.541237386;82.78160397;-2.028404965
6.183632092;26.97421804;51.00561372;24.5778184;118.3328146;4.166694995;-22.32739952;30.56926743;27.43335754;45.02733267;9.07256467;7.273369907;5.391764083;2.053297272;1.101300001;15.0424607;-6.423827135;92.47431525;-1.330983558
5.967919261;29.80977712;45.60812721;22.69757111;135.2354244;3.789286396;-27.17563185;31.1834658;23.56351421;29.9143925;3.836614337;6.636875325;3.780331438;2.895081023;5.459418642;6.267960339;-2.784163071;86.7218467;-0.954894754
4.917454861;32.89949035;54.41630618;21.14825147;128.047063;3.095693878;-30.63226815;27.94007813;17.53787854;15.78073793;3.623810793;5.850151465;2.79;5.964920474;7.491810782;-12.45373339;0.369179731;79.67695183;-1.074004424
4.419913239;33.26923394;61.86503643;20.89255724;102.9037603;2.189162705;-29.27940197;22.56871917;12.52964304;9.464597496;7.220128723;4.334534177;1.724947985;9.164472197;4.787766893;-27.56258668;2.057410067;81.38517371;-1.49513737
5.512739095;29.35821093;59.01764715;21.89667199;77.05345029;1.315155322;-24.82772014;17.66046383;10.37253663;11.55630066;10.72167104;2.182435802;-0.551853967;10.33483192;-0.750227551;-29.78317653;2.18918335;89.54363046;-1.576471999
7.996108849;22.57582838;48.49140271;22.91953251;65.40850145;0.70425926;-22.05932635;15.01456465;10.49938725;17.06012087;10.43121255;0.121627869;-4.475056975;8.899620213;-4.331033325;-20.69859474;1.953566719;93.71684437;-0.643463183
10.48827364;16.16561905;39.00896081;22.19768691;69.99541652;0.453894599;-24.01437889;14.80428657;10.92973364;20.306813;5.599535907;-0.924466892;-8.952617235;6.242661724;-2.525527779;-9.77799956;3.170207842;86.72865733;1.3796963
11.38753753;12.34704752;35.95678273;18.6873766;80.48661472;0.528282235;-28.94662556;15.96728164;10.2760683;19.69898373;-0.998461519;-0.359759355;-11.86995849;4.558063753;3.228354609;-5.299855352;6.877359595;72.18352192;3.690462838
10.00178566;10.37923275;36.86547261;13.03771595;84.48066684;0.842155047;-31.79097033;17.3393068;8.948057458;18.27314565;-5.054249093;1.740848771;-11.76536576;5.122342539;7.153681164;-7.586858419;12.24142864;61.52373001;5.027736434
7.00268638;7.462234199;35.34990276;7.533902462;78.25466728;1.32573455;-28.74802814;18.58215094;8.546951107;19.88643549;-3.814979355;4.550408528;-9.311935532;7.357731917;3.744262221;-10.31712714;16.82385521;63.81901854;4.561386743
3.915847277;1.832703198;28.96989378;4.884373863;68.8975264;1.906840947;-20.82127045;20.2110194;10.10154099;24.72370816;1.950684526;6.655783427;-7.173772299;9.369171309;-7.139769669;-8.061662563;18.22836109;77.58195141;2.577792222
2.098646142;-4.715014953;22.97021319;6.527416382;66.55820909;2.447970192;-13.13379532;22.78079791;12.82388611;28.38092363;8.461507465;6.468218377;-8.10255974;9.441119386;-19.17011165;-2.55103096;15.950215;91.43493091;0.384651058
1.988844719;-7.380750881;25.8890569;11.54449832;74.1324355;2.737626495;-10.62494546;25.9679901;14.56597298;25.53416548;11.46127542;2.862272984;-12.75737785;7.263976233;-23.97072635;-1.500024414;11.91844978;92.51544372;-0.548466295
3.102357349;-1.922696875;40.78389147;16.96853954;83.77689522;2.59029219;-13.89892786;28.37879661;13.60793768;15.00694861;8.955455088;-4.127139232;-19.18718493;3.976269888;-17.96453;-10.82900388;9.162786849;75.51217674;0.414077885
4.622952672;11.52642614;60.25092251;19.41644938;83.59905727;1.995644901;-18.81103021;28.35489189;10.19923027;1.614990393;2.308807885;-12.92214609;-24.63394605;1.133753814;-6.082267197;-27.46329019;9.556706556;45.86102357;2.689114955
6.009173669;27.63407898;70.46224309;17.09847213;68.99034601;1.184199835;-20.08387203;25.25305874;6.476676638;-7.173832367;-4.867691439;-20.71545136;-28.25448555;-0.441017325;1.19965549;-39.812457;12.41804874;16.12731184;4.969596033
7.159247365;39.02145009;61.61854608;10.94675333;48.86614586;0.522929131;-15.78841424;20.23868704;4.801822399;-7.217867301;-9.080159655;-24.53618964;-32.3098174;-0.99872836;-4.209862203;-36.45077048;15.12407293;-0.636388312;6.183343546
8.153938642;41.19333438;36.34565534;4.101429798;41.00782747;0.291902171;-8.885861302;15.89777224;5.927133985;-1.313474596;-8.908640603;-22.62061695;-40.41602485;-1.262148143;-21.12520844;-16.1186108;15.26918782;3.607691557;6.165669319
8.9708658;35.53880299;8.82929419;0.01395612;59.45467307;0.503843936;-4.647404729;14.77529652;8.519291278;2.780436006;-5.418900323;-15.33793057;-53.9178228;-1.581023685;-38.93057871;9.558971911;12.6054691;28.98732026;5.56870919
9.501459791;28.12832919;-5.079311315;0.331874791;103.3225755;0.909190046;-6.272083953;17.73419073;10.36639518;-1.472940052;-1.083758179;-5.108851355;-69.32067923;-1.67267819;-44.84376886;23.60300359;9.170097656;67.04357149;5.161646544
9.806118797;25.24491156;0.805532674;3.914565634;155.4830655;1.186381987;-12.39288309;23.2376588;10.16284217;-13.93140755;1.804630762;4.648919266;-79.28500828;-1.143380977;-33.36788152;16.0349662;7.519204908;102.6138026;5.138945104
10.23583748;29.01235666;18.96051067;7.633710737;192.195353;1.168002082;-18.36695031;28.11462598;8.354273358;-27.49464758;2.178409899;10.92950301;-77.0522611;-0.201833491;-10.68142964;-8.527015728;8.584274707;119.62968;4.990176233
11.15885847;36.26273833;34.18803014;8.45148448;196.9267119;0.926117696;-20.01077481;29.41287493;6.441354404;-33.30593715;0.279939843;12.13771558;-61.33123633;0.224339387;9.591052285;-34.04784374;10.97545014;110.2324352;3.988282028
12.46957658;41.22113058;34.58061294;5.401246027;169.0956612;0.660805094;-16.58781299;26.207122;5.509613688;-27.36080958;-2.905218973;8.286855115;-37.95960796;-0.808487432;16.14808076;-44.65692351;12.29660657;82.10463726;1.858217058
13.38574872;39.78170596;18.85331683;0.129432101;122.6886167;0.501978908;-10.81024164;20.21082329;5.343795162;-13.41020553;-6.300127814;0.565020401;-16.81426259;-3.32398653;7.902522899;-35.82126967;11.28967093;56.70503742;-0.912158803
12.88463132;32.2265896;-4.913883507;-4.378605139;76.90136792;0.403007538;-6.296951654;14.77532266;4.829542873;-0.091259948;-9.132022822;-9.25983036;-5.921101492;-6.139693513;-5.957959757;-16.86588742;8.910238062;55.71600685;-3.327478056
10.55939078;22.68740967;-26.89023543;-5.995785157;45.70416297;0.216035306;-4.896762461;12.88357643;3.11900588;5.253401744;-11.07679839;-19.26480196;-6.831159965;-7.599170822;-13.55949236;-3.460494454;7.388292723;82.91829544;-4.46881206
7.192076375;16.12258683;-42.59620775;-4.992878564;32.63392604;-0.128278141;-5.975089551;15.39177948;0.394613588;1.274215117;-12.27269274;-27.65153584;-14.41550429;-6.801370234;-9.487442719;-6.218755699;8.123039549;115.7422394;-3.96932788
4.433339193;15.15353509;-54.08428235;-3.769414345;32.55329187;-0.511466318;-7.753711804;20.61018422;-2.439895119;-7.408100544;-13.20423236;-33.08732498;-20.98225068;-4.328786879;1.595079266;-23.92928158;10.31850558;116.7967455;-2.104282175
3.668535999;18.80493171;-65.48568359;-4.927066696;37.46322663;-0.703020745;-9.068540872;25.44250363;-4.715509029;-14.29321355;-14.37850555;-35.14628895;-21.54771684;-1.851429658;9.328977178;-45.75296696;11.63309424;61.06882334;0.457833135
4.894689037;23.58981778;-77.88355782;-9.098983746;41.80584553;-0.568438531;-9.935907621;27.29655208;-6.560506593;-15.56922613;-15.8732007;-34.57267454;-16.51863501;-0.906546472;6.137319052;-59.74571673;10.32269785;-40.12720088;2.994713649
6.564446636;25.84631977;-88.24659156;-14.21628863;44.33424145;-0.229243087;-10.78531057;25.51142016;-8.483908807;-11.79305908;-17.09303758;-33.00637338;-10.26426464;-1.834256578;-7.09153511;-60.84016237;6.978883108;-138.8110959;4.956039126
6.667158313;23.7625152;-92.78690509;-16.89097547;46.5666981;-0.02221764;-11.53219054;21.43105558;-10.45276786;-6.120204292;-17.08323288;-32.13717232;-7.200228014;-3.702098331;-22.35667657;-52.78153055;4.245647427;-178.29492;6.047085587
4.308857824;18.09988261;-90.9412251;-14.99766363;49.8660334;-0.269366333;-11.58611579;17.21451718;-11.53066255;-1.286486727;-15.35140675;-32.75218241;-8.605415011;-5.209285675;-31.29172237;-43.70528685;4.641214569;-131.8815908;6.249578048
0.554217711;11.53449593;-85.99355504;-9.532011557;53.42312792;-1.032873405;-10.68061052;14.32669577;-10.6416691;1.973958948;-12.61290116;-34.34981348;-12.37754046;-5.755131421;-31.48;-39.64496117;8.313010608;-23.83235829;5.819692666
-2.219712958;7.148923519;-81.97974015;-4.232588558;54.385466;-2.05067091;-9.443561786;12.79441448;-7.861374169;4.226805991;-10.72258925;-35.65280496;-15.37022408;-5.773379458;-27.33061576;-40.94687496;12.70494825;84.90536651;5.212605562
-2.057190663;6.80818608;-80.21225223;-3.062916278;49.9660493;-2.907187869;-8.924384818;11.65909749;-4.942252181;5.710346878;-11.57167017;-35.67572908;-16.02622112;-6.121569805;-25.35212841;-43.51178062;14.53147929;137.6563368;4.885261904
1.064172383;10.1356703;-78.94042503;-7.300019531;40.18092426;-3.307034348;-9.497171371;10.11970942;-4.308225851;5.710559867;-15.60186869;-34.53465809;-15.17117376;-7.148440894;-28.28771975;-42.93965515;12.46646171;119.9898035;5.047215888
5.150716641;14.64670569;-76.27349636;-14.39339047;29.23965657;-3.241712;-10.34029497;8.362683279;-7.124040426;3.513148611;-21.09337703;-33.3480286;-14.66861998;-8.308857361;-33.14356678;-38.00764837;8.284848573;66.31706604;5.535772611
7.661375707;17.15713924;-73.01716821;-19.54768121;23.98457799;-2.932976249;-10.16333634;7.397120511;-12.03251558;-0.254895383;-24.97975041;-33.2819605;-15.44141448;-8.658507918;-34.45086844;-31.18201927;5.452556853;30.46329209;5.944744577
7.418023778;15.83827792;-72.08515819;-18.98769973;29.43097309;-2.6195653;-8.51783197;8.080464528;-15.78466962;-3.502297068;-24.81950597;-34.48902567;-16.65289556;-7.743178982;-29.52689853;-26.43766679;6.299422151;43.41374855;5.941459004
5.46538655;11.64802671;-74.77604488;-12.57744657;43.82578233;-2.373036139;-6.303572519;10.21551564;-15.4726701;-4.120628707;-20.56437297;-35.80529488;-16.57859252;-6.042115095;-20.99415802;-26.3668602;10.11376698;91.11504381;5.531945203
4.192625197;7.976283141;-77.87808872;-3.894780328;57.05014944;-2.088547978;-4.823641415;12.5415334;-10.68366621;-1.724859845;-14.76156939;-35.49378334;-14.16971723;-4.545657146;-14.48417465;-30.48580526;13.73427481;128.7983637;5.05441165
5.401994108;8.435785399;-75.38136509;2.274452116;54.93023127;-1.638910407;-4.287518105;13.67051128;-3.857937161;1.968920119;-10.9209625;-32.50344407;-9.866773106;-3.852853251;-13.75995122;-35.45960938;14.13071904;119.0341102;4.901333333
8.858369042;14.17821802;-64.21795396;3.160737085;28.09048277;-1.042577076;-3.40858193;13.18375548;1.453581544;4.543390822;-11.16615251;-27.3014033;-5.10354371;-3.627306985;-17.62215629;-36.85280813;10.82622826;62.34060757;5.204392813
12.48645165;22.74894016;-48.84475547;-0.394769959;-20.13422125;-0.492706864;-0.764518325;11.9301927;3.05144131;4.810491848;-14.86824863;-21.65384413;-1.182734144;-2.933012785;-21.18458078;-31.52891133;6.192605355;-3.690339967;5.751127819
14.07822625;29.57722687;-39.35701802;-5.031752973;-72.99747427;-0.220890046;3.297427652;11.23611098;1.355362095;3.539276332;-19.23571548;-17.5183585;1.370266057;-1.168623615;-20.17184479;-19.723798;3.460009766;-34.55153785;6.19825463
13.16392611;31.22492457;-43.12585643;-7.646172246;-108.964433;-0.312465229;6.313844401;11.69550559;-1.381709773;2.398961922;-21.35448753;-15.85035412;2.547693136;1.243893538;-14.36096116;-5.780722654;4.1624096;-12.66679021;6.383591136
11.54693191;27.99660839;-56.44214101;-7.628777182;-114.9653224;-0.629052578;5.766771833;12.62251188;-3.063315255;2.221166523;-20.11256227;-16.14393461;2.261015775;3.065022322;-7.307787301;3.249790878;7.113584203;42.21914031;6.454286919
12.03041243;23.79293683;-64.25265708;-6.892923667;-95.22507868;-0.900994587;1.945065106;12.70914002;-3.203532393;2.298697079;-16.63570247;-16.95276126;0.25403271;3.197045465;-2.97623049;1.04374736;9.624540804;92.57890488;6.701009857
16.26453056;23.13431095;-50.38766619;-7.849697612;-68.73021509;-0.912697576;-1.309379905;11.36029814;-2.750795855;1.395458429;-13.10842393;-16.94077404;-3.303021594;1.575148215;-2.587797468;-14.06934618;9.777441623;114.1974731;7.258685958
23.32843366;27.55575149;-11.68240797;-11.11311447;-56.27279685;-0.635921854;0.551650712;9.498973593;-2.715310187;-0.561681807;-11.1024628;-15.70998877;-7.264778275;-0.788952557;-4.529432783;-37.17842806;7.79042796;112.2670035;7.955965467
30.11642387;34.21106869;35.35406271;-14.84432883;-66.04354164;-0.220093384;8.150131226;8.994129402;-3.045886204;-1.868654756;-10.76832208;-13.90606555;-9.862973242;-2.651401429;-7.069353495;-58.66364659;5.439461062;110.4437237;8.457126942
33.26490081;37.89754983;62.36749867;-16.21956374;-88.47340027;0.13073791;15.8163054;11.0332597;-2.821278052;-0.297021365;-11.34333631;-12.64998308;-9.961615442;-3.526833695;-10.88576263;-69.30520007;4.247967796;124.7269716;8.570424299
31.25830679;35.03942164;47.65919301;-13.74034577;-104.4503805;0.283566365;14.37618836;14.76903471;-1.468629917;4.788569053;-12.24191454;-12.76;-8.186421009;-3.956483644;-18.60329277;-65.55850135;4.158218333;146.5502892;8.443924455
25.28425749;26.58;-7.542009953;-8.45390971;-100.779447;0.214543517;-2.117986608;17.5014981;0.301738008;11.38568418;-13.57708132;-14.26473637;-6.762492146;-4.83328252;-31.50159514;-51.36378599;3.831465491;150.3392767;8.471215379
18.35362279;17.53178918;-77.56136465;-3.118577441;-80.82550059;-0.039433662;-30.66812862;16.46941965;0.884474433;15.98228573;-15.64719727;-16.43453444;-7.924509436;-6.414126707;-46.53870919;-35.06100128;2.176005153;118.5766566;8.98744416
13.40426994;13.50040153;-127.7384278;-0.083009462;-61.74737208;-0.441595321;-59.55614149;10.95;-0.77418787;16.06225003;-18.02999106;-18.23305193;-12.09765965;-7.941578431;-56.95942763;-23.53754071;-0.399463424;61.67273044;10.0135107
11.69652737;16.79558563;-136.4404712;0.32022373;-60.29630822;-0.962732714;-75.20195294;2.977103306;-4.028760217;11.94265923;-19.39350431;-18.90789592;-17.429075;-8.25941184;-56.72926985;-17.90514114;-2.19800132;14.15962239;11.2482646
12.44830951;24.96478318;-108.0508041;-0.416469222;-78.55839443;-1.541207487;-71.05405392;-4.005167544;-6.862805592;6.430205169;-18.48366427;-18.43235382;-21.20871415;-6.905466144;-45.45584574;-13.91292143;-1.713721927;8.998551326;12.28294226
13.72595816;32.65071946;-67.92909172;-0.6620147;-101.5055286;-2.060810392;-51.95150888;-7.590078125;-7.537567578;2.631350779;-15.5474366;-17.59249785;-22.08315867;-4.700630288;-29.57819592;-6.633336744;0.992262176;50.61387672;12.83587283
13.82252876;35.19062037;-43.70044158;-0.252079124;-108.954764;-2.397729105;-30.60168271;-8.056802656;-6.137658352;1.769437032;-12.82298589;-17.63703817;-21.18455357;-3.251226937;-18.398264;4.444873287;4.283955378;108.7808687;12.83364894
12.21151483;31.29373985;-47.0592517;-0.566400062;-92.6746822;-2.513321622;-18.79209055;-7.910480134;-4.58928891;2.731303494;-13.34226366;-19.58343903;-21.14093518;-3.7147473;-17.75246464;14.15093583;6.314973297;138.7627419;12.34588398
9.620340292;23.14474598;-69.07030834;-3.03041043;-64.55902416;-2.508111514;-19.91996255;-9.693921615;-5.052581018;3.471303536;-18.71553014;-23.49267804;-23.7472525;-5.840709851;-26.19073527;15.37944281;6.522973519;112.3346724;11.51690866
7.38974341;14.36705926;-90.96616325;-7.428961454;-48.32521114;-2.569373419;-28.18026137;-13.86317848;-8.069519229;2.824130019;-27.59022312;-28.16396768;-28.29143275;-8.107260484;-36.6158467;4.970518248;5.913190297;36.45810189;10.58987813
6.639423928;7.697238177;-100.5649586;-11.62600023;-60.29956032;-2.833004412;-34.37887905;-18.46911145;-12.12267692;1.115354878;-36.14416688;-31.58157128;-32.03734163;-8.8787769;-41.97354056;-12.97167742;5.913574501;-53.07017421;9.949242791
7.714264392;3.985293846;-100.961476;-13.06591582;-94.16330142;-3.26389041;-33.27949352;-20.88440246;-15.02992418;-0.746580826;-40.45054502;-32.02124657;-32.52920981;-7.66383173;-40.39322844;-29.09909918;6.891005006;-116.2838111;10.01839391
10.10479675;2.732441739;-105.3653893;-10.84321634;-122.3387108;-3.659132154;-26.70914565;-20.09770289;-15.94098252;-2.555009107;-39.04388191;-29.21293396;-29.76883781;-5.467465571;-35.78827048;-34.82752236;7.716315344;-132.934749;10.97024318
12.76491436;3.163138793;-123.5651451;-6.561616663;-114.2584071;-3.786428678;-20.62701449;-17.60973433;-16.11618841;-5.081373734;-33.77951589;-24.75103581;-26.35230533;-3.970797331;-33.75918569;-27.91651524;6.793132011;-109.8474743;12.4458244
14.61371607;4.762079477;-151.958544;-3.182874599;-58.58455969;-3.558559552;-19.41043018;-16.14313473;-17.72663634;-9.096067055;-28.35599635;-21.30555041;-25.35651197;-4.209120379;-36.45486423;-13.5799839;3.617522885;-70.36587924;13.5829458
14.9890545;7.085865774;-175.4737332;-2.769480487;27.12514314;-3.108624582;-22.46055781;-17.24621143;-21.70665879;-14.23395047;-25.65618119;-20.97367819;-27.70074869;-5.785798785;-40.69753147;-0.504131297;-0.558420425;-37.22336817;13.47355698
13.86504202;9.471128385;-179.4608477;-4.985822588;106.7845536;-2.703929434;-25.59991774;-19.84901284;-26.60629324;-19.005592;-25.9250208;-23.79667546;-31.20811614;-7.185812606;-40.76079127;5.1302087;-3.581633822;-21.77377988;11.80430402
11.74622676;11.2265659;-161.4486066;-7.593434959;148.8628943;-2.562070355;-25.2819068;-21.06231843;-29.56801167;-22.09072013;-27.062898;-27.5024343;-32.20490898;-6.873011379;-33.27826058;3.325090064;-4.029474862;-24.09809484;9.203894377
9.310665151;12.1790131;-133.1389363;-8.479370908;145.6212528;-2.708724985;-21.41804392;-18.61233916;-28.67259285;-23.66550496;-26.60658294;-28.79414551;-28.38809895;-4.301726661;-20.1358635;-0.632217135;-2.190115175;-39.04741471;6.966696632
7.029900057;12.89408418;-111.3687787;-7.449288767;115.2036903;-2.981147244;-16.44791933;-12.87211369;-24.62439439;-25.32098286;-23.69854079;-25.447432;-20.64459724;-0.150507825;-7.083483747;-0.477538326;0.427259048;-60.80579839;6.275470396
5.022293654;14.14153856;-105.7816551;-6.235584383;86.30468728;-3.164734019;-12.1581739;-6.722581116;-20.2462171;-28.41695419;-19.50967131;-17.85400519;-12.39199647;4.236995683;0.570063477;6.655287133;2.53592333;-83.33940996;7.452137855
3.229019899;15.99121185;-113.1843383;-6.738822688;77.74548411;-3.148712739;-7.911446944;-3.269388941;-18.14266132;-32.31283799;-15.96627751;-8.950150082;-7.054295333;7.65112221;1.55159713;18.65099549;4.111128654;-99.80196123;9.775781338
1.735947677;17.44903624;-122.503731;-9.082639432;87.99355851;-2.982245183;-2.332530676;-3.274532059;-18.5289844;-34.25867677;-14.03215575;-2.529124296;-5.754637638;9.478235014;-1.239079067;30.11024711;6.083781115;-104.6054867;11.98979678
0.921465798;17.16325386;-125.3177508;-11.25051282;100.9483262;-2.802845139;3.28081262;-4.480689833;-19.14509139;-31.35809036;-13.0536885;-1.026535066;-7.002419118;9.679567014;-3.735096056;35.61610946;9.028748318;-97.54117377;13.10533775
1.246040313;14.72607545;-122.6708456;-10.70170477;101.5349761;-2.714689587;3.762986736;-3.494431188;-17.39625545;-23.09439772;-11.64493731;-4.213510878;-8.409767622;8.561506345;-4.015874101;32.35389669;12.15304072;-85.44909088;12.9144657
2.831454181;11.40794887;-122.6333027;-6.610839982;87.8814535;-2.725884835;-6.667240218;1.233382139;-12.90003906;-12.21677523;-9.215364533;-9.590139661;-8.820202196;6.648253029;-3.173381948;20.97315031;13.64016185;-78.20794916;11.90213315
5.217991679;9.507436612;-131.3195823;-0.77453549;70.91886906;-2.78883981;-28.76117263;7.776892404;-8.189175238;-3.057798582;-6.714666802;-14.108755;-9.044463409;4.671672994;-3.370932069;4.990646752;12.15627124;-81.31568522;10.74217316
7.588303968;10.66072147;-145.6897344;3.667402352;63.18043125;-2.888603104;-55.17701442;11.89495901;-6.838669048;1.448145023;-5.904773891;-16.00404069;-10.73677649;3.445269561;-5.207918437;-10.43041131;8.205281417;-91.41930383;9.853126857
9.348803951;14.42891764;-154.7407655;4.66899956;67.2210251;-3.080767971;-73.56189848;10.2010615;-10.48733632;1.605601807;-7.790326014;-15.54602934;-14.57434294;3.487338288;-6.923828668;-19.89521218;4.064123287;-99.25655553;9.346898301
10.59900812;18.37608625;-148.3012344;2.818452542;73.63498429;-3.432284952;-74.41616779;2.9094733;-17.22865455;0.170415789;-11.59091495;-14.38108607;-19.41775498;4.606729525;-6.128102995;-19.44327057;2.227181256;-97.88226059;9.289958362
12.04563288;19.69885328;-125.9827255;0.666637156;69.99407051;-3.91802134;-58.03948306;-6.021690255;-22.7826148;-0.277965945;-15.18834811;-14.12797605;-23.16598181;5.869211282;-2.389905646;-8.336044916;3.591124997;-88.92452761;9.907984994
14.3616624;17.21799545;-98.5742672;0.424651183;52.66366476;-4.380787967;-34.98343665;-11.55238417;-23.6011365;0.560883967;-16.73716787;-15.32603433;-24.50303379;6.139122506;1.748218012;9.85792309;6.864449447;-81.07177924;11.46175872
17.49201311;12.23231668;-80.45794897;2.030078125;31.15184811;-4.617165593;-19.22594425;-11.08337878;-19.4875883;0.945361138;-16.15085215;-17.42928921;-24.00361392;4.882893014;2.361654067;28.00162743;9.661771488;-82.01369403;13.89557228
20.51034888;7.604561702;-79.12410221;3.275399287;21.10401656;-4.538841289;-18.94684008;-6.2515108;-13.71407155;-0.70754549;-15.27153622;-19.66963656;-23.69334704;2.59958636;-2.899136104;38.29130676;10.3384648;-91.20770129;16.63734713
22.19935966;5.766849604;-90.28098909;1.896812411;31.70752749;-4.276599299;-31.68077818;-1.732272652;-10.62644418;-3.865837268;-16.58169978;-21.95757986;-25.5085851;0.466440194;-12.87553715;36.13740088;9.055552431;-100.2518838;18.82984685
21.90361557;7.061224027;-102.4166271;-2.218014294;58.02987052;-4.120689433;-47.1843804;-2.006988614;-12.65719246;-6.147173462;-21.43310353;-25.02752551;-29.9634333;-0.573842419;-23.50511506;22.77225849;7.298933827;-100.6608631;19.87288938
19.94185418;9.491184404;-106.8884791;-6.699749676;84.75825526;-4.316564413;-55.40221744;-8.460765491;-18.97340341;-5.659116094;-29.06714897;-29.69450593;-36.01773492;-0.547373697;-30.42443446;4.760943231;6.424583916;-91.87981248;19.83051009
17.23045629;9.942662917;-105.1394474;-8.634158785;98.33339398;-4.861022466;-53.26394056;-18.76846719;-26.5306002;-3.19684939;-37.02134526;-35.8342383;-42.03448749;-0.370444194;-31.56136868;-9.557808356;6.565534913;-81.99605087;19.32753202
14.47038224;6.049816738;-107.0971348;-7.14805106;97.42375027;-5.462876581;-45.47291884;-28.73253067;-32.38843778;-2.024316516;-42.48673988;-41.9516151;-46.85137529;-0.998753903;-27.93722396;-14.64670629;6.785099553;-80.32128897;18.9908214
11.66038742;-2.343341127;-122.1020575;-4.368761842;92.91644949;-5.717907424;-39.49846049;-35.00060868;-35.35201508;-5.092403805;-43.62767433;-45.77905034;-50.08604441;-2.526114297;-22.44344826;-10.58289367;6.168106529;-88.65260824;18.90391686
8.414820538;-12.81610205;-149.8298679;-3.795221992;97.18606651;-5.382922001;-39.37720241;-36.68719459;-35.858469;-11.9966568;-40.13172577;-45.57481034;-51.64540642;-4.029214936;-17.82302833;-2.464545137;4.722615514;-99.41;18.55717545
4.797428097;-21.25;-178.6922345;-7.329374734;111.3984998;-4.548670019;-43.24068451;-35.00451177;-34.64618442;-18.48536457;-32.9625804;-41.25316211;-51.15918716;-4.324983358;-15.35081605;3.035612738;3.243783484;-102.5560747;17.35518874
1.820087891;-23.64832206;-193.2144732;-13.44134258;121.655925;-3.579406566;-45.89165024;-31.59606693;-31.68435278;-19.29592449;-23.79060959;-34.56773687;-48.03;-3.00335552;-14.80737339;1.682337536;2.35620673;-94.98347757;15.24859856
0.959553677;-18.2101942;-184.793895;-18.09466177;108.0524377;-2.861183042;-43.58054835;-27.11095359;-26.37688183;-12.20718389;-14.5308062;-28.21245497;-42.09063799;-0.832596369;-15.25267558;-6.180948338;1.766456613;-83.60035264;12.9285309
2.915553048;-6.674004569;-157.6768249;-17.80115604;60.38638998;-2.547217151;-36.82811426;-21.11565434;-18.73338114;0.010883496;-7.033577597;-24.42760019;-34.2077251;0.836400614;-15.74879607;-16.40409788;0.543756482;-79.06766582;11.38461923
6.632864677;6.028127901;-125.8220137;-12.38515773;-11.48672402;-2.490515048;-29.38618353;-13.21133391;-10.26524097;11.44491999;-2.72776326;-23.98920572;-26.19083625;1.163794091;-15.63348642;-23.88174888;-1.79150448;-85.85932216;11.17412633
9.578817144;14.06514782;-103.3187835;-5.225542643;-81.2022962;-2.407216642;-24.88189314;-4.247545369;-3.622479645;17.24379488;-2.156726449;-26.13815631;-19.99988801;0.459981028;-14.54604986;-25.5341118;-4.456063922;-97.89826455;12.00520571
9.321157003;13.9677562;-95.64926126;-0.773228999;-121.6561069;-2.133443602;-24.29795696;3.478006399;-1.134039465;16.78201524;-4.673949732;-29.33895346;-16.85807657;-0.189856582;-12.51711944;-21.68637396;-5.787375538;-104.0046151;12.9783706
5.322789012;6.87176463;-97.91492771;-1.331137909;-122.0941156;-1.767249691;-26.13;7.27290103;-3.385551878;13.30237226;-8.657992911;-32.24328173;-16.90159705;0.027306235;-10.0722581;-15.3236981;-4.645451053;-98.2833225;13.28130897
-0.465139308;-2.002580874;-100.4617994;-5.625097783;-94.41941214;-1.582925986;-28.41934708;5.6041955;-8.926266027;10.57635187;-12.28611893;-34.21876069;-19.46474681;0.889773458;-8.023904095;-10.00713143;-1.625749627;-85.82102199;12.76637282
-4.799778863;-6.676785834;-96.81586547;-10.1707113;-64.35224974;-1.79096221;-30.41028986;-0.956159587;-15.24685688;9.617101558;-14.43007813;-35.24090585;-23.57301428;1.377367376;-6.863811833;-7.863767935;1.101113531;-78.21437199;11.96296782
-5.330722842;-4.45509586;-87.70024284;-12.15999768;-53.93993702;-2.343330735;-32.43686241;-10.02894443;-20.19474549;8.29463406;-15.06715109;-35.45494324;-28.20272368;0.716974465;-6.210759754;-8.773972458;1.372449474;-82.84489322;11.56528012
-2.148821303;2.255061639;-78.65121853;-11.45811804;-67.83669394;-2.947589895;-34.64518079;-18.72441501;-22.81333785;4.030654807;-14.94318193;-34.8929562;-32.30690053;-0.718737535;-4.970647533;-10.99432634;-1.191467223;-95.79059915;11.85795963
2.463579274;7.870019531;-74.04484458;-10.20466941;-92.55872705;-3.28306926;-36.24552444;-25.07143756;-23.24918881;-3.030298126;-14.81530033;-33.57618379;-34.96600198;-1.538187372;-2.348273663;-12.57451071;-4.727339522;-105.1431006;12.546054
5.838265578;7.995898625;-72.9070785;-10.60728217;-108.2497637;-3.246003322;-36.19377845;-28.73203571;-22.17283231;-9.400757771;-14.918505;-31.8019983;-35.8608251;-0.469508545;1.020101422;-12.55508976;-6.4614486;-101.95;13.06934428
6.825075232;2.868237048;-69.91448305;-12.97898628;-103.6904719;-3.023810485;-34.51272375;-30.70857473;-20.37595005;-10.90216244;-15.05603131;-30.20584366;-35.73032999;2.441966435;2.919601755;-11.23230948;-4.82374793;-88.76600312;13.06844297
6.313277939;-2.944619848;-60.42423978;-15.69343108;-83.68455989;-2.934747404;-32.68528049;-32.39571956;-18.74870643;-6.321672311;-15.12344451;-29.3939279;-36.18477321;5.667257174;0.866890039;-9.502501215;-0.657017254;-77.69834756;12.58876965
6.072309368;-4.431525599;-45.05749913;-16.92778183;-64.25829914;-3.158445977;-32.48168485;-34.64306844;-18.27746096;1.199572497;-15.48060306;-29.3858428;-38.64497511;7.311868451;-5.894193318;-7.950458487;3.436380408;-79.38502553;11.89624506
7.00556652;-0.449103342;-29.89442131;-16.4670799;-60.18986774;-3.572112987;-34.24725523;-37.34771444;-19.65903866;6.423368274;-16.7484638;-29.38402447;-43.02893028;6.651312966;-15.27418314;-6.466430943;5.047202639;-92.88672466;11.1418853
8.342830303;5.2221323;-22.0772672;-15.85905839;-74.43961467;-3.824203136;-36.3528384;-39.6747657;-22.65027997;6.131199023;-19.17937564;-28.21305221;-47.30848492;4.787214112;-23.19729291;-4.672423537;3.623595945;-106.0166387;10.21616957
8.422548904;7.110398034;-24.38693071;-16.78232535;-96.7586945;-3.589624467;-36.46579262;-40.62494042;-25.78789773;1.652647168;-22.19584263;-25.2383138;-48.59332779;3.802878386;-26.06107847;-2.694247721;0.576566359;-106.2729781;8.909702949
6.306629113;2.915509847;-33.12898978;-19.18383046;-111.463703;-2.809483638;-33.53589646;-39.55312895;-27.01075061;-2.340467103;-24.58653194;-21.10268795;-45.19133523;5.046290346;-23.0889948;-1.450706186;-2.096715258;-92.63941996;7.186483889
2.751329767;-4.231879496;-40.9481466;-21.01377698;-107.8902716;-1.735531428;-28.65284822;-36.39675511;-24.97716634;-1.766215637;-25.27027997;-17.63033268;-38.13031884;7.941167032;-16.82032199;-2.013331231;-3.39567006;-77.24204163;5.284164599
-0.354426679;-8.281743894;-42.28508862;-19.96674534;-86.01034463;-0.756448415;-23.97933147;-31.62704493;-20.14111375;3.507487987;-24.01340152;-16.79840748;-30.82706716;10.34514888;-11.3328245;-4.469642716;-3.781582313;-74.74271407;3.554325793
-1.601259147;-5.595897048;-37.22353358;-15.77387716;-54.21500759;-0.149592201;-20.80092959;-26.0859683;-14.65923457;9.648329173;-21.50220346;-19.38978836;-26.94264583;10.22359228;-9.498388832;-7.348551107;-4.280404935;-88.64389423;2.227467937
-1.293777173;1.506415589;-30.89716575;-10.95685003;-22.28397429;0.054982874;-18.56931734;-20.82833136;-11.04979317;12.11012998;-18.72985467;-24.26556242;-27.92782522;7.314448333;-11.27330848;-8.385186236;-5.188793098;-107.0858505;1.350956455
-1.193641333;6.331655064;-29.16333011;-9.173239182;4.58735678;0.018080675;-15.81670637;-16.93689524;-10.54236701;9.354282126;-16.25343664;-28.84777396;-32.10385132;3.436762068;-14.17783888;-6.289667805;-5.631411672;-112.725054;0.942292796
-2.963866922;3.540985806;-34.05118972;-12.35409038;26.81027903;-0.078332612;-11.95469917;-15.20129252;-12.36080395;3.962483278;-13.9673464;-30.59287833;-35.98364865;1.173388565;-15.43127434;-2.120544381;-4.371068834;-98.61513241;1.14488144
-6.660953694;-5.72915519;-42.4375342;-18.97511803;47.11406901;-0.157602567;-8.082474015;-15.66871912;-14.46762097;0.360110562;-11.53885035;-28.53494461;-36.79992198;1.958353855;-14.0294486;1.129043666;-1.097769755;-75.92794901;2.147858346
-10.60362029;-13.96276759;-48.71149941;-24.98389831;66.73488083;-0.237389477;-5.926869809;-17.31495354;-15.13838714;1.210406319;-9.02423019;-23.89229583;-34.28764879;5.063418524;-11.25659926;0.809937623;3.022467512;-65.68440864;3.884935644
-12.75881539;-12.98672804;-49.10337469;-26.75799189;84.3715313;-0.323790263;-5.964866174;-18.21128813;-14.10126548;5.50693775;-7.018830057;-19.33049538;-30.42647334;8.244208644;-9.439814546;-2.85572859;6.096067558;-80.40954364;5.813172565
-12.45664292;-0.88242693;-44.27196653;-23.77383579;98.07230742;-0.338583362;-6.70904384;-16.36543598;-12.39834027;9.77450282;-6.155825835;-17.34277375;-27.52641206;9.490039063;-10.06627171;-6.219442632;6.947846342;-111.0136851;7.081473993
-10.93920688;15.69112026;-38.35251951;-18.85480172;107.5228967;-0.166867709;-6.061766089;-10.93007813;-11.22603108;11.10735368;-6.429430665;-18.75713112;-26.33472588;8.490333;-12.69837466;-4.588287614;6.043221296;-130.8312669;7.072049176
-10.24427746;26.02922872;-35.51553347;-15.80843355;114.223233;0.213083133;-3.535309376;-3.037364216;-10.84144505;9.364482831;-7.044186644;-22.26491832;-25.69790921;6.721509082;-15.34178002;3.861990622;5.109866525;-114.9918442;5.915585618
-11.36904519;23.43167189;-36.8761428;-16.36729503;119.4106694;0.647536966;-1.07876656;4.456536133;-10.48372382;6.807529144;-7.035973501;-25.20778322;-23.91170894;6.183354627;-15.80343936;15.66624642;5.779386761;-60.46739306;4.516309074
-13.30143798;10.39244512;-40.03132548;-18.89116673;121.8938658;0.872027507;-1.42429601;8.413928221;-9.309446035;5.800891428;-6.166990617;-25.11357791;-20.46664613;7.839694018;-13.00641347;23.49540052;8.361065849;9.040302694;3.985595849
-13.78460131;-3.294153661;-41.24157272;-19.84071372;118.0659065;0.693025749;-5.287222201;7.282212879;-7.431275049;6.780738502;-5.263085864;-21.09069183;-16.64856233;10.95276451;-7.496524617;21.01102772;11.69345324;57.64661072;4.884324574
-11.20892693;-8.061108849;-38.24862351;-16.79543395;104.3037333;0.14298175;-10.10602791;2.161616857;-6.07132846;8.225469444;-5.59403944;-14.34248619;-14.52887853;13.71528183;-1.068246165;7.85772697;14.09303725;60.62157561;6.867776629
-6.064187585;-1.745210727;-31.50711277;-10.58003906;79.76527148;-0.52693496;-11.82429507;-3.75729865;-6.640706864;8.409086803;-7.753090442;-7.585365932;-15.2857573;14.57422231;4.070144893;-9.111810519;14.55679395;19.52605366;9.014187978
-0.747657471;9.222460977;-23.18641418;-4.823805637;47.30654572;-1.022570059;-8.406616906;-7.140039063;-9.515165688;7.136778035;-11.00397882;-3.718734575;-18.31127032;13.20706271;6.142577988;-19.84153895;13.28060332;-40.98051355;10.55042705
2.110329327;15.33003906;-15.19579742;-3.33499187;12.01646006;-1.214794047;-1.936466103;-6.574236728;-13.55727285;5.838623771;-13.72799601;-4.428431331;-21.79435266;10.51540394;4.429614612;-17.87920846;11.2236886;-90.78635187;11.36089086
1.442423604;11.54089533;-8.094161694;-7.350589188;-21.08103842;-1.212584354;2.845153034;-3.328348162;-16.81103333;6.050755091;-14.6642094;-9.397842598;-24.16808849;7.817607264;-0.436881897;-5.164020157;9.238062595;-112.6945006;11.87498079
-1.733745133;0.808592501;-1.673912324;-14.72007813;-48.24048192;-1.244690902;2.539537064;-0.270391283;-17.82310775;7.837439982;-13.90856601;-16.49542552;-25.13631718;5.96393315;-6.645455394;8.91109842;7.525411949;-109.1407491;12.49338265
-5.351467936;-8.95817564;3.66487426;-21.50535647;-66.7578176;-1.453307301;-1.872483795;0.257279071;-16.55642705;9.6983557;-12.79542786;-22.84012258;-25.4883083;4.998069932;-11.92865275;13.84119208;5.764663838;-95.094031;13.12563815
-7.901302797;-11.56;6.368071001;-24.6517793;-74.67615697;-1.77542276;-5.835567289;-1.950618774;-14.23951541;10.03501198;-12.73570829;-26.20790527;-26.04725353;4.446801662;-14.62034194;5.407759607;3.635081055;-85.05483311;13.29252612
-9.265397668;-7.147889415;4.781743276;-23.73162192;-71.84774725;-2.009575783;-5.355701818;-5.010911542;-12.37141631;8.744299846;-14.01194522;-26.04325618;-26.81952043;3.84665122;-14.45927401;-11.17273231;1.20348944;-84.4270008;12.69934002
-10.23664398;-1.270852811;-1.043971651;-20.66799928;-61.86532143;-2.004528837;-0.77917622;-6.529059418;-11.72055505;7.384505191;-15.59485807;-23.52340884;-27.10310738;3.065354158;-12.53953319;-24.71364846;-1.101412803;-89.81466536;11.71291118
-11.36654392;0.356904757;-8.545180633;-17.9583015;-52.4856844;-1.801143337;3.414390429;-5.425847018;-12.03776678;7.718305987;-16.1508413;-20.64997301;-26.33566236;2.279091243;-10.35131182;-25.76014353;-2.77623112;-95.06979547;11.22533859
-12.30206957;-3.375088653;-13.86741411;-16.92339393;-52.54589883;-1.600368081;2.927822173;-2.614380024;-12.53134641;9.990170505;-15.32552343;-18.93621173;-24.76702871;1.776466883;-8.605778577;-13.10994167;-3.472553857;-96.68861143;11.93833417
-12.20732671;-8.611211891;-14.41750166;-17.22623954;-66.27593877;-1.58245359;-1.747917544;-0.101507019;-12.5523986;12.58218729;-14.0974944;-18.53159456;-23.26607876;1.810602431;-6.821492531;5.376386113;-3.044792531;-94.89032711;13.66380874
-10.79126359;-10.45171177;-10.77577291;-17.73041187;-88.97894925;-1.733373479;-4.961628021;0.658661994;-11.90253271;13.4361405;-13.8097426;-18.34683966;-22.46024567;2.548927233;-4.089360419;18.09171956;-1.559805826;-91.54760252;15.28673563
-8.88135167;-7.399024828;-6.363843687;-17.74036421;-108.2021138;-1.831061207;-0.785777579;-0.186667318;-10.64690238;11.98655547;-14.7212712;-17.05374819;-22.08123352;4.021112498;-0.396289725;17.27261856;0.580217197;-88.29194485;15.50044201
-7.915483678;-2.439561244;-5.014297341;-17.55410324;-110.864036;-1.61;10.68408407;-1.191146439;-8.798792233;9.83659137;-15.46294192;-14.20675905;-21.19979349;6.009072687;2.730572293;3.660204177;2.508627964;-86.38098217;13.75847964
-8.751938235;-0.104755;-8.275709897;-18.00374957;-91.88169584;-0.973620558;21.33552485;-0.866965139;-6.291736904;9.509022204;-14.07190711;-10.64402797;-19.16482004;7.98341411;3.049696031;-14.60697562;3.061014505;-87.11185379;10.68015682
-10.86385462;-2.39873212;-14.48684172;-19.53607113;-57.83123095;-0.086181109;19.96432278;1.214556937;-3.275678281;12.32700224;-9.863513424;-7.873786655;-16.35735553;9.248470513;-0.565171314;-27.57298475;1.370357622;-91.06360014;7.591952408
-12.67431862;-7.223568952;-20.20235766;-21.68070296;-22.3269469;0.722149346;0.944297418;4.316643683;-0.376214006;17.26647579;-4.511783741;-6.938559939;-14.01434718;9.302199866;-6.777523018;-29.39346997;-2.423925513;-96.56701645;5.601429376
-12.78097541;-10.44057842;-22.6870126;-23.32925623;3.867547005;1.153213581;-30.14077741;7.31674591;1.456572864;21.76667553;-1.208198363;-7.661736393;-13.24582676;8.180820295;-12.22408409;-20.81928352;-6.952539214;-99.70443732;4.961876089
-11.02808746;-9.429598209;-21.48302345;-23.55276002;20.46769602;1.087489909;-58.83110926;9.530449128;1.498344812;23.76345305;-2.338926975;-8.87590337;-14.14134248;6.492856052;-13.65905225;-7.3126804;-10.23353189;-97.15785963;5.188761851
-8.522271619;-4.920147154;-18.03496465;-22.29943668;36.80641447;0.587307856;-70.93142232;10.849449;-0.2196752;23.16745631;-7.468982417;-9.437968489;-15.79569238;5.06159823;-10.2525718;5.086064347;-10.82566703;-89.95691345;5.714996883
-6.625659754;0.239145612;-14.08849062;-20.47668226;62.81372327;-0.205689153;-61.85741962;11.24571343;-2.857611384;21.56;-13.3487202;-9.190372872;-17.22685504;4.421964864;-4.201465352;12.9929262;-8.697778235;-84.13988077;6.431070132
-5.848656676;3.801294166;-10.50308398;-19.41033201;98.93961646;-1.163087603;-39.28;10.35490263;-5.269379653;20.49733823;-16.11672426;-9.066110942;-18.31266043;4.55665445;0.927526012;16.23447105;-5.132626166;-86.32356761;7.631563245
-5.609878971;5.602959314;-7.457470737;-20.08111835;133.4702842;-2.174643481;-17.29515573;7.739731713;-6.68757417;20.02638041;-14.08058818;-10.23998521;-19.84478625;5.060694984;2.86;16.26662966;-1.73282612;-97.02265533;9.493093495
-5.009362486;6.61968521;-5.478999734;-22.61123567;150.114904;-3.096045779;-6.769402382;3.658311315;-7.090019531;18.75589514;-8.913847072;-13.02596783;-22.63410562;5.555741409;2.143260509;14.37194039;0.663256041;-107.7573835;11.66267912
-3.83181721;6.981423715;-5.821065898;-26.25268918;140.4238248;-3.737564115;-9.082650317;-0.499894273;-7.036523502;15.36035848;-4.323175144;-16.44780713;-26.52312142;5.969722229;1.297634522;11.11888657;2.280997022;-105.8649436;13.41297277
-2.806463081;5.351786313;-9.374104198;-29.82007813;111.2474074;-3.94996533;-17.33555135;-2.790382625;-7.189412167;10.08498872;-3.257353517;-18.86950594;-30.28839679;6.447134639;2.32732541;7.051091559;3.749410607;-84.51574191;14.24480277
-2.864654515;0.538891621;-14.95118589;-32.29185433;80.85319293;-3.751850988;-23.06346186;-2.066147611;-7.919247133;4.837903695;-5.886926159;-19.20517365;-32.59806475;7.02255838;4.746144066;3.433150682;5.167809031;-50.12832092;14.3461117
-4.094635462;-6.319129991;-18.83045724;-33.24396827;66.08387509;-3.371415976;-22.59455221;0.979556135;-9.220435253;1.760151697;-9.9067489;-17.75045434;-33.17173559;7.425443003;5.886499821;2.02033022;5.825999367;-20.30632698;14.41659922
-5.410351874;-11.56880605;-16.69352596;-32.87878237;70.17410014;-3.125123945;-18.33161832;4.100322517;-10.84337074;1.547825151;-12.75973564;-15.98249215;-33.03685521;7.255277995;3.328904619;3.923530901;4.88091034;-12.58261965;14.96582955
-5.326433361;-11.66403482;-7.002661504;-31.64272969;80.66567279;-3.194518562;-14.98014288;5.090421893;-12.40843239;3.012074773;-13.79306513;-15.50253377;-33.56645008;6.386334358;-2.585384436;8.597855991;2.355075923;-31.99072913;15.72919041
-3.220463613;-6.528818909;6.799646915;-29.70635262;79.21199635;-3.469551464;-14.80959484;3.496758617;-13.41123986;4.235940663;-14.48498941;-16.95703348;-35.12309055;5.195503249;-8.399730725;13.93337653;-0.55609276;-67.11771619;15.79274102
0.019722936;-0.422726961;17.48011332;-26.73588177;55.88781682;-3.598458789;-16.12986651;1.025625832;-13.25816994;4.264956955;-16.6135905;-19.73693312;-36.56687701;4.330451032;-9.872793612;17.47711996;-2.304508711;-98.0105946;14.38594647
2.573669347;1.02480925;18.37377903;-22.23931057;17.15029547;-3.230117694;-15.6989672;0.214702767;-11.50282893;3.834707292;-20.08585105;-22.58546569;-36.16711623;4.160380046;-5.267916621;17.85606361;-2.31938677;-110.0206826;11.65727137
3.054676842;-4.514027272;8.073314129;-16.3266486;-18.45271552;-2.277441706;-12.18182062;2.380753444;-8.224061456;4.551951499;-22.49314149;-24.52986717;-33.19346772;4.388277234;3.036562197;15.33856235;-1.657559482;-103.0217159;8.703970354
1.545249576;-13.67892652;-8.016271774;-10.27496882;-33.3238169;-1.003085328;-7.244740861;6.510700978;-4.229900842;7.341746404;-20.96884041;-25.38410408;-28.788997;4.214661486;10.0095811;11.23124096;-2.273376;-89.30859603;6.765345855
-0.542216345;-19.6762197;-20.66555627;-6.251622276;-22.64644823;0.139763339;-3.541466855;10.03024251;-0.793512129;11.57876852;-14.85405103;-25.54061573;-25.28741563;2.97121419;11.46086898;6.755674334;-5.394003314;-82.63131624;6.253494639
-1.634157286;-17.60921838;-22.49448733;-6.10092668;3.562509972;0.792185586;-1.938609894;10.83707406;1.021478823;15.62259248;-6.831419015;-25.41709146;-24.47511286;0.698372959;6.872864152;2.370953053;-10.34090939;-87.62694809;6.48269838
-1.206698919;-8.510166471;-12.50440032;-9.917699674;28.9239229;0.889542354;-0.884783905;8.925347762;0.996328119;18.16415982;-1.35995669;-25.16366511;-26.24293516;-1.857863008;-0.62585838;-2.014161383;-14.86365756;-97.88143238;6.363202998
-0.067319998;1.402998074;3.520134817;-15.54397663;42.56763246;0.641727093;1.522346231;6.265899824;-0.150805674;19.09350451;-1.501096932;-24.88163078;-28.77226269;-3.871433773;-7.073223248;-6.341792066;-16.81646044;-103.1959499;5.45669049
0.441942683;5.73428087;16.76519752;-19.64912638;45.4191708;0.334050642;5.039892112;5.068499847;-1.329980952;19.13991661;-6.65931933;-25.0240101;-30.09559693;-5.164777789;-10.97406043;-10.02665723;-15.84518747;-99.05039695;4.435587039
-0.419957968;2.995298067;20.53358096;-19.88920942;47.02645182;0.119243346;7.103392489;5.899969502;-1.882221031;18.76655122;-13.10549718;-26.41092745;-29.6974697;-6.385925361;-14.3951084;-12.33874152;-13.68140576;-90.06566074;4.496611291
-2.260918721;-2.541042485;13.43364396;-16.65003906;56.56530252;-0.044442666;5.376255025;7.226138939;-1.987051728;17.53151612;-16.8962677;-29.64293158;-28.80422201;-8.420664089;-20.91718489;-13.2036157;-12.76377049;-85.06114684;6.222892875
-3.970932152;-4.91403739;-0.9343576;-12.94631857;75.53;-0.289720294;0.567676004;6.724707935;-2.358231369;14.64870796;-16.81949742;-34.32267183;-29.16114054;-11.48836726;-32.02343129;-13.5964574;-14.29428247;-88.7210521;8.922200564
-4.612773906;-1.917566269;-16.78995907;-12.30702373;97.24876336;-0.685740942;-3.458822823;3.238988818;-3.505394495;10.24125024;-14.97084462;-38.81154242;-31.3985266;-14.68460481;-44.80374524;-14.97525549;-17.30944183;-97.47919756;11.08444637
-4.001560147;2.837421675;-29.16602056;-16.06177609;112.3953301;-1.169183291;-2.796474954;-2.238646148;-5.202947926;5.973235357;-14.55446967;-40.92063336;-34.40826424;-16.41160852;-52.93764695;-18.01860836;-19.49758342;-103.0631873;11.61007813
-2.584708947;3.064696806;-35.39800688;-22.08414683;115.30559;-1.603092419;2.854643209;-7.284179167;-6.620408861;4.196531841;-16.84348431;-39.19879275;-36.23363721;-15.42950503;-50.49730486;-21.6271457;-19.04619914;-100.1963836;10.73980638
-0.903167555;-4.531570514;-35.04030178;-26.10902911;106.37188;-1.889149605;9.501998882;-9.757472914;-6.989671552;6.116302902;-19.94377897;-33.94487251;-35.65248934;-11.75094301;-36.01834895;-23.1166459;-15.98602335;-91.42043472;9.833403158
0.782330771;-16.93010326;-29.19807194;-24.81651634;89.91328296;-2.024583761;12.12320293;-9.071891281;-6.220375584;10.52339454;-20.45316425;-27.19793042;-33.07371356;-6.710505807;-14.03812451;-19.73777465;-11.98647612;-84.79061775;10.14459967
2.409410907;-26.66928338;-20.05232599;-18.43109627;70.61448674;-2.063241268;9.177556308;-6.109194555;-4.931839073;14.34578299;-16.59493634;-21.66541035;-30.02997588;-2.171517496;6.991471984;-10.66018926;-8.896274955;-86.60968421;11.64985516
3.815077389;-27.39074157;-10.49369223;-10.81569058;51.79481561;-2.037331235;4.246316668;-2.126092831;-3.894550962;14.79247123;-10.07745047;-19.28225734;-27.80391117;0.535616;19.12616424;1.907418629;-7.344451033;-95.68811759;12.98705598
4.663525328;-18.51502792;-3.397292474;-6.866721664;35.91625978;-1.927931431;3.027995146;2.181639845;-3.396691116;11.45064016;-4.960029297;-20.29964554;-26.44174351;1.214197562;18.98157892;13.35314828;-6.562478925;-104.1857863;12.6122917
4.73308693;-5.407829729;-0.587640311;-9.073251812;25.13357766;-1.71306071;8.100078125;6.609300973;-3.105273998;6.61252053;-4.361620451;-23.37293829;-24.98102291;0.633497458;9.101593971;18.86269379;-5.445904808;-104.3294282;10.20172787
4.223073792;4.756303746;-2.265442281;-15.7820982;20.02228088;-1.435649445;16.12500948;10.61129236;-2.530920121;3.499345193;-7.769401261;-26.44069522;-22.58495724;-0.130850917;-3.91056028;15.97028558;-3.783516921;-95.26402887;7.069191364
3.64318619;7.832858426;-7.585860318;-22.44878366;17.39788224;-1.20837218;20.30658486;12.75691724;-1.64581243;3.777635811;-11.31601352;-27.77626055;-19.48336236;-0.304380506;-13.16236456;5.955029915;-2.499482659;-84.20571942;5.190840376
3.273688726;4.524996275;-16.02709595;-24.91111242;10.24068472;-1.134713008;16.32459925;11.27804401;-1.052749988;6.3635297;-10.9521483;-26.66951754;-16.86313549;0.372280145;-14.91765756;-6.774597329;-2.712483391;-80.82402468;5.630778497
2.716766743;-1.590547731;-28.16814197;-22.23448172;-8.432178072;-1.214872812;6.656676215;5.442962271;-1.502861749;8.456130629;-5.963567076;-23.56177917;-15.85623942;1.758260482;-9.951213951;-16.97476045;-4.523333496;-89.31163178;7.697863355
1.110470948;-7.403879296;-44.72596807;-17.07980555;-39.6988137;-1.331394285;-0.800031738;-3.40124041;-3.159693554;7.906380954;0.128846498;-19.75415289;-16.58815144;3.477427819;-2.381289907;-21.20962335;-6.696706641;-104.4177229;9.553574015
-2.005342801;-11.9090561;-64.30328992;-13.47592309;-75.69435004;-1.341568254;0.813091314;-12.14122725;-5.271975322;4.951868823;2.178845318;-16.87030276;-18.13977527;4.982573551;3.082254633;-19.33181635;-7.586746904;-114.5664752;9.752393526
-5.896297213;-15.23945064;-81.92356153;-13.80082007;-103.0078566;-1.202119249;10.90460315;-17.5120662;-6.599874894;1.921960683;-2.456164064;-16.20150327;-19.3896588;5.626607495;3.827859943;-14.02897174;-6.517506954;-109.7538837;8.402875296
-8.762558064;-16.86968919;-90.38357868;-17.22470644;-111.1770442;-1.013410268;20.58688613;-17.88268856;-6.303110065;1.236014975;-11.57492368;-18.09726898;-19.9019181;4.912267903;0.529241961;-8.861669008;-4.394878802;-88.43752275;6.978608976
-8.928463353;-15.33174836;-84.35058459;-20.59919587;-100.2716271;-0.937042288;18.65597021;-13.94262995;-4.589323951;3.422135461;-19.52162043;-21.6928242;-20.05401361;2.867752619;-3.685852806;-6.109360898;-2.984569731;-58.52670153;6.982739529
-6.238970445;-9.884812975;-64.52751943;-20.89089157;-81.43480697;-1.055511981;0.13077622;-7.923659139;-2.592368744;6.809607945;-21.28028476;-25.26266075;-20.39050331;0.228641911;-5.452466053;-5.760515155;-3.452972797;-31.89353346;8.649744005
-2.445340684;-2.247079251;-38.44614969;-17.24277045;-69.34501227;-1.299620171;-29.18863568;-2.123593087;-1.562564942;9.095489007;-16.09465382;-27.17379614;-20.94970205;-1.868810045;-3.363651324;-6.136487882;-5.40726097;-16.3158217;10.80265307
-0.068777081;3.819984661;-16.56577534;-11.27656961;-71.98451553;-1.511680176;-55.79980239;2.108094111;-1.994734765;9.405328158;-7.83279607;-26.92082195;-21.29340075;-2.597207567;1.224055088;-5.513472663;-7.235176986;-10.39818896;11.94500896
-0.502863942;5.195301381;-5.952568374;-5.726573438;-85.50790841;-1.588695173;-67.10226485;4.374258608;-3.352140562;9.081513338;-1.920334669;-25.48555907;-21.20010624;-2.04453326;5.262821585;-3.483407988;-7.431376333;-4.918584866;11.58079732
-2.867670181;2.034494317;-5.996589363;-2.658460183;-98.14793765;-1.572913425;-59.32097188;4.644696571;-4.556899004;10.52856253;-1.342279982;-24.61670064;-21.23433895;-1.177960805;6.219700215;-1.098383272;-5.781606143;10.25700436;10.5799768
-4.632408783;-2.231085066;-9.402518546;-2.537385957;-99.94172508;-1.602286129;-39.23724879;2.916185029;-4.824359491;15.07347014;-4.815555608;-25.42901236;-22.45237887;-1.094438419;3.882986766;0.173166397;-3.444869758;38.29757655;10.28489536
-3.604247827;-3.781176271;-7.801170769;-4.475622934;-90.45129723;-1.764092272;-18.95979067;-0.515280206;-4.195032218;21.6057561;-8.356452321;-27.36346841;-25.35431452;-2.105063358;0.477618546;-0.260582374;-1.939182416;72.0224037;11.19144626
0.291342595;-1.626719366;2.200727793;-7.051097846;-78.42670151;-1.992092115;-7.939239005;-4.613766828;-3.407783185;27.11662529;-8.724892781;-28.4209957;-29.03920095;-3.416772423;-1.01253345;-1.650381211;-1.937291183;97.75341843;12.41983237
4.906217917;1.881395311;17.01169835;-8.917340155;-74.0559613;-2.116052049;-7.907854125;-7.735911497;-3.286654865;28.73581338;-5.86861216;-26.6523674;-31.49934128;-3.740689014;0.911392829;-2.614845475;-2.858298427;104.3519746;12.47523166
7.550892803;3.811576364;29.34468148;-8.983325322;-80.47745243;-2.032469612;-13.66248272;-8.53509765;-4.146218641;25.71828722;-2.531271233;-21.83312913;-31.02259897;-2.386808998;5.150881646;-2.362570994;-3.49465703;91.48647555;10.62930627
7.082399568;4.002340172;33.93029582;-6.525636144;-91.59086604;-1.841044946;-18.12571359;-6.976543679;-5.628689515;19.93774687;-1.633260529;-15.96308946;-27.60061404;0.052054097;8.915084315;-1.325961772;-3.043113509;71.02661771;7.676471912
4.675004898;5.503352773;31.09416114;-1.580178384;-97.69963154;-1.802745748;-17.42603045;-4.504721783;-7.005209161;14.62989295;-3.791319123;-12.04538064;-23.08510756;2.041652633;9.98314577;-0.619026021;-1.661700187;59.75960617;5.355000527
2.670019531;11.23682331;25.68300944;4.592935625;-93.90074971;-2.125880677;-12.53475089;-3.039938143;-7.643198729;12.39838763;-7.014007128;-11.95149581;-19.83054417;2.258231;8.558365381;-0.792771134;-0.193686876;67.88448281;4.903299468
2.540176882;19.83962622;22.75799736;9.612615789;-84.01504278;-2.751160226;-7.130595321;-3.52258084;-7.301521744;13.88671197;-8.61636895;-14.98623598;-18.88444433;0.641563527;7.19043668;-1.062732718;0.554540947;91.46556168;6.002319485
3.747232697;25.01643039;23.94;11.03091375;-76.90237727;-3.335114518;-4.121190329;-5.207727693;-6.129954613;17.84961684;-7.528922988;-18.31852683;-19.25072141;-1.519126303;8.716239243;0.136792393;0.300564793;114.8812991;7.041290698
4.463877705;19.98941801;27.31134682;7.884695037;-78.61557749;-3.482441166;-3.675682204;-6.340058594;-4.489407807;22.27889012;-5.00481957;-19.02822937;-18.88410264;-2.563262638;13.76536736;3.573289229;-0.786911977;122.1269357;6.503834507
3.46865178;3.897757955;30.4;1.630486053;-87.2916105;-3.065606134;-3.862493858;-5.670532335;-2.779927347;25.61391348;-3.281050813;-16.24164303;-16.58618906;-1.726572322;19.82452397;7.95586362;-2.457151959;108.7496641;4.298799849
1.466114715;-15.46657237;33.08198084;-4.433351003;-95.08745515;-2.374103672;-2.795873839;-3.542809327;-1.361419804;27.27111007;-3.564715544;-11.72950022;-13.16754721;0.316894199;22.74202803;10.3087992;-4.549344435;85.05763749;1.901064855
0.582669435;-25.80741267;37.56978292;-7.089190361;-95.23727774;-1.949658852;-0.293323039;-1.645227689;-0.523795232;27.42656834;-5.186436132;-8.527509736;-10.85247535;2.055910547;19.69215603;8.059756681;-6.792264349;67.70133319;1.18252866
2.428221843;-18.94560509;45.59456412;-5.210058594;-87.92404656;-2.208050168;2.171853896;-1.673318737;-0.43789601;26.5313012;-6.550669341;-8.671556635;-11.42417912;2.366856868;11.44147326;1.397901205;-8.550515361;66.16084779;2.920475648
6.454887073;2.660137859;55.65535613;-0.415426253;-79.88059512;-3.128459971;2.909448362;-4.056950143;-1.090217401;25.03950834;-6.796803771;-11.79104659;-14.70695627;1.350974193;2.198368308;-6.072187679;-8.965283376;75.33421689;6.22096746
10.17107856;26.95842613;63.24483777;4.121023702;-78.25883865;-4.255225444;1.524544855;-7.777493898;-2.266705425;23.43046445;-6.463013842;-15.56852334;-18.68278715;0.130045776;-2.928395928;-9.284439181;-7.540832767;80.81459122;9.294821317
11.17670356;40.56833321;64.21788331;5.837321052;-84.31333818;-5.023366434;-0.68852937;-11.28928044;-3.626202553;22.25953659;-6.479054152;-17.57754778;-21.10258051;-0.16567041;-1.105512329;-5.181910604;-4.694419149;72.70838042;10.88326592
9.332133151;38.07077289;58.45955033;4.344623792;-92.46421053;-5.168248659;-1.713758692;-13.61573727;-4.823787065;21.99801409;-6.526566511;-16.98067638;-21.15551366;0.675223676;6.591187455;4.773242524;-1.679169589;55.88045981;11.12816887
7.124865668;25.18566783;50.51779437;1.319606634;-95.42767729;-4.909772926;-0.386526248;-14.66751556;-5.602907983;22.72896644;-4.567783669;-14.80948417;-19.76058815;1.876706964;16.09715744;15.09898035;0.218306103;46.69396292;11.21581556
7.740839559;13.54712516;46.41622772;-1.031641903;-90.72730228;-4.770211533;2.602480629;-14.69089114;-5.819077074;24.00501229;1.633151646;-12.7906426;-18.3336727;2.470587944;23.02541761;19.75325397;0.62586369;57.71836132;12.19117955
12.30525343;11.48401955;49.21516133;-1.652526312;-82.78;-5.162392817;5.089104614;-13.62540277;-5.433113026;25.08622427;12.08142583;-11.8483225;-17.28328852;2.218178872;25.1636676;16.24665783;0.375291482;83.20148787;14.00735262
18.56701723;18.20987998;57.04139332;-1.187833954;-78.79887107;-6.057424667;5.100999698;-11.16902035;-4.528112281;25.43862464;23.41277766;-11.54923776;-15.71217254;1.839489116;23.23534274;7.440341012;0.820994877;99.10430098;15.59820522
22.22915258;25.71297127;65.19284397;-1.132542349;-82.28694334;-6.978876488;2.725490794;-7.510183074;-3.340949509;25.10809385;30.43595129;-10.82575351;-12.62887967;2.359325486;19.75597775;-0.373603265;2.694728064;80.12288389;15.83540799
20.01612276;26.16159313;70.39103304;-2.418804509;-89.976346;-7.32596763;0.687307271;-3.853747557;-2.234808428;24.65013803;29.56031513;-9.180755636;-8.47473358;4.155534769;17.1203772;-1.807125352;5.433808306;21.19040556;14.48779592
12.14461572;18.30516165;73.42695921;-4.633089958;-94.88811368;-6.789858484;2.754420451;-1.936577152;-1.565783808;24.65107704;21.55957309;-7.230291839;-5.354384459;6.545317352;16.33055944;3.990361559;7.559463146;-54.62509952;12.36591025
2.297990827;7.686575108;77.9367816;-6.430930239;-92.67078066;-5.569169673;10.59474312;-2.71584306;-1.507572874;25.21907594;11.37192555;-6.126920031;-5.479176065;8.269642418;16.98904116;13.02087852;7.815334499;-110.2373821;10.59463262
-4.85885551;1.083121434;86.51373511;-6.703105781;-85.47605552;-4.244635659;21.19863156;-5.380701474;-1.978372341;25.86043704;4.832908059;-6.461527195;-9.035957572;8.462082868;18.12302629;19.59067215;6.140220714;-121.1636213;9.70622972
-6.719719914;0.48105686;97.72075589;-5.486632882;-79.91903755;-3.41367912;27.21163237;-7.764004948;-2.754726687;25.85338139;4.667934809;-7.703300478;-13.42702831;7.287647058;18.94430577;20.47950803;3.687855263;-93.82329667;9.33813699
-4.105032296;1.907664066;106.7325232;-3.906767365;-81.03645477;-3.337750279;20.87451888;-8.035376243;-3.68561574;24.83514799;8.749990561;-8.710770693;-14.8301141;5.738757784;19.02815156;16.96805494;1.896581262;-60.24358949;8.726928227
-0.134775709;-0.174649188;109.0811432;-3.265101572;-87.74497535;-3.82335576;-0.443873933;-6.281970301;-4.799346404;23.14540872;11.94260948;-8.834875973;-11.06471959;4.797645037;18.11015701;13.28020561;1.377708365;-52.7003568;7.484598965
2.287707651;-7.208441338;104.2242853;-4.047350401;-93.89401885;-4.385371821;-30.93321629;-4.480494731;-6.171933668;21.64995659;10.10077437;-8.569209438;-3.501407676;4.688818151;16.0360325;12.80199723;1.49961267;-78.55767114;5.95145748
2.367019815;-14.87559622;95.8380696;-5.619387953;-93.90914017;-4.561214607;-58.22107592;-4.690593493;-7.663682654;21.15480595;3.166891208;-9.100660186;3.641747592;4.827725414;13.08440543;15.14689227;0.942248153;-115.8641713;4.864258003
1.39923749;-16.914037;88.6532465;-6.791145595;-87.8649971;-4.173263915;-70.05087115;-6.960229013;-8.812761097;21.81622083;-4.939844158;-11.11992436;6.223840931;4.453670069;10.29883075;16.42556587;-1.275239216;-133.2189357;4.707526755
1.197104894;-10.90658019;84.66938291;-6.769104266;-81.37403163;-3.39929588;-61.71438599;-8.888834382;-9.091588477;22.94697271;-9.420167912;-13.96043807;3.120825695;3.364108679;9.250973604;12.52388022;-5.095596864;-117.0341484;5.352830187
2.453374492;-0.789225444;82.02237665;-5.782063537;-80.41757869;-2.64205632;-39.13503027;-7.478012629;-8.403351235;23.33837606;-8.190812899;-15.89987413;-3.083541874;2.120189277;11.09037621;2.808750845;-9.503688019;-82.98221223;6.260896269
4.348244036;6.199517053;77.31553278;-4.958819733;-85.861087;-2.298169976;-15.20137899;-1.848968317;-7.397459936;21.88165413;-3.238480736;-15.46698344;-8.145832019;1.576056866;15.46177572;-8.674731914;-13.20113891;-61.90619449;6.980725627
5.50163301;5.472776541;69.12176289;-5.575450143;-92.67777827;-2.559086909;-1.681891222;5.557484546;-7.221004688;18.11700746;1.145682921;-12.70386777;-9.286704869;2.157734263;20.21003906;-15.53137903;-15.32066105;-72.53239151;7.446520047
5.261083125;-1.193875704;59.41262196;-8.180619;-94.59094859;-3.336348227;-2.282842651;10.56809892;-8.74082944;12.44309625;1.703996878;-9.316281274;-6.950404957;3.497616139;22.35681434;-13.21153799;-15.75305837;-104.9254541;7.835468741
4.195947934;-7.286012037;51.6688853;-12.13917305;-89.86913615;-4.329150951;-11.56558797;10.55052037;-11.7577253;5.965134883;-1.49996139;-7.528167289;-3.956377504;4.69989038;19.8935567;-2.051131963;-15.05295134;-129.4065024;8.211182663
3.49963214;-6.958868962;47.50882887;-15.86101117;-82.9321036;-5.184517035;-20.06344983;6.673223739;-14.86071582;0.143208425;-5.458334781;-8.502223223;-2.929956362;4.987014262;13.22680628;12.94050964;-14.14309913;-123.2817267;8.371286159
3.956705165;0.409440714;45.02689793;-17.60255839;-80.26396658;-5.66384331;-21.40470065;3.115863947;-16.16319915;-3.595011635;-6.727044804;-11.53170755;-4.197590556;4.204383985;5.226625581;25.23291871;-13.98656992;-91.68594264;8.065829213
5.390998107;10.12897097;40.46297969;-16.43088072;-84.38680477;-5.733627851;-16.08552325;3.693563313;-14.49749075;-4.233707241;-3.995694213;-14.58849055;-5.790784869;2.830815654;-0.268877603;30.54705451;-15.23257924;-63.56069163;7.331566351
6.959149845;16.19402893;31.77515872;-12.83902984;-91.48198974;-5.540513698;-9.55131078;8.614049389;-10.24698168;-1.567973607;1.156088278;-15.7632478;-5.37153737;1.562034667;-0.600277415;28.76029195;-17.84647455;-65.66957285;6.539793811
7.887589519;15.6934714;20.92571858;-8.641380932;-94.9157291;-5.294555811;-6.860191433;14.11444162;-5.211031074;3.448214512;5.610581297;-14.50649489;-2.34506413;0.833344151;4.237853138;23.05235605;-20.92863923;-97.57478565;6.046042659
7.963520112;10.12320137;12.77826873;-6.130800839;-91.44607234;-5.137104927;-8.628809956;15.39402738;-1.583365294;8.670129606;6.885031226;-11.82717535;1.596002827;0.613349719;11.65679151;17.37302811;-23.02768528;-130.592412;5.771144387
7.450164468;3.181819211;11.44361811;-6.903045886;-84.3258034;-5.076498691;-11.36770897;10.48823045;-0.747692363;11.36391456;4.472045674;-9.450204999;3.844048542;0.529937021;17.95175379;14.17372887;-22.99414161;-132.9776632;5.175186987
6.669140477;-2.398319844;17.08968797;-11.00410105;-80.32136353;-5.025933043;-11.30480784;1.884209205;-2.670998665;9.472067936;-0.362353247;-8.660556642;2.93740634;0.151921949;20.26831842;13.67691121;-20.90994772;-99.71319238;3.737855382
5.720802911;-6.193070586;25.78061145;-16.92361083;-83.33767559;-4.903758294;-7.921137312;-5.470227913;-6.174790906;3.023441961;-5.740852583;-9.64073693;-0.367594124;-0.778773079;17.96815009;14.58387576;-18.33773382;-59.6708353;1.541314221
4.550009766;-9.110333586;32.32951535;-22.45757227;-90.61950453;-4.711690969;-4.063124916;-8.101334014;-9.725250489;-5.249735542;-10.17244558;-11.59761151;-3.755913059;-2.240995011;12.77973642;15.24886803;-17.46701936;-51.67240519;-0.621609636
3.15872829;-11.88527607;33.75249868;-25.90015365;-95.22699322;-4.528210145;-2.848487269;-6.609328502;-12.12352574;-10.8532568;-12.76849546;-13.37978526;-5.0668713;-3.924068969;7.818131528;14.50124936;-19.57202145;-88.68014351;-1.803978591
1.659249205;-14.83963422;30.70177761;-26.80786466;-92.61974966;-4.42794579;-4.502199683;-4.816767474;-12.7486328;-9.919714568;-12.97228918;-14.07482002;-3.674703878;-5.295933482;6.048856726;12.00090208;-23.88279439;-141.7187062;-1.689196716
0.129567529;-18.69607974;26.19700338;-25.89910862;-85.16218805;-4.403182941;-6.139878408;-6.290956761;-11.48368631;-1.816722376;-10.50261732;-13.29608976;-0.622277313;-5.789117004;8.890246696;8.406719222;-27.84548715;-160.1007556;-0.889576144
-1.467318731;-24.64224487;23.18236582;-24.284792;-80.0954195;-4.363576499;-4.610527999;-11.26530768;-8.666923446;9.779808312;-5.782886024;-11.201006;2.314180308;-5.106439465;15.49566452;5.389002739;-28.76743449;-113.5814991;-0.424935825
-3.078843901;-32.60670432;23.00959811;-22.6796291;-82.62592625;-4.221329235;0.392915845;-16.56844366;-5.181587482;18.44050178;-0.372365945;-8.40072307;3.724583739;-3.499901184;22.99328182;5.10808512;-25.7267043;-21.41271125;-0.786457015
-4.222381167;-39.1830666;25.65256888;-21.15987175;-90.62758345;-3.989055935;5.945058686;-18.5312314;-2.423725531;18.61513636;3.345943502;-5.802105773;3.076924935;-1.772413659;27.6493492;8.933552592;-20.30517371;58.31470306;-1.421968922
-3.950356753;-38.05793407;30.7626742;-19.50233491;-96.28968836;-3.798061781;8.578110983;-16.28308904;-1.822161371;9.208923321;3.399291785;-4.305340966;0.593920223;-0.866572274;26.56169577;15.98508913;-15.52350459;73.54247535;-1.165937106
-1.392550073;-24.12154914;38.19230462;-17.63855128;-93.59234615;-3.808087096;7.469014073;-12.5709736;-3.982740194;-5.335329539;-0.361097781;-4.366621551;-3.046977371;-1.220263789;19.16920962;22.76540961;-13.72114948;22.16017143;0.693305049
3.411236019;1.284613643;47.57321395;-15.7319276;-84.62878686;-4.074868373;5.086548762;-11.4324085;-8.041721553;-17.45688295;-5.817373696;-5.652991759;-6.841966548;-2.337348724;7.795268394;24.79280393;-14.94923495;-42.0093348;3.63716363
9.100410493;28.75213757;57.71377319;-13.84073506;-78.29346728;-4.485855203;4.711776886;-14.77790583;-11.89048168;-21.05519314;-9.693982398;-7.096023183;-9.534670208;-2.966008021;-3.189628719;19.65161058;-17.05098456;-49.00759889;6.178056813
13.52508606;45.55769669;66.6831027;-11.61499183;-81.81804386;-4.824179864;7.258794434;-20.82301348;-13.36228729;-15.24991139;-9.628993398;-7.427225738;-9.971900854;-1.865968685;-9.284793382;9.373537737;-17.30485031;31.05780467;7.022618351
14.99206063;44.25403739;72.48751238;-8.496821121;-92.89243737;-4.91510786;10.50188732;-25.63932063;-11.6516005;-4.725734887;-5.787410541;-5.89882622;-7.766977494;1.327268662;-7.895897964;0.000945297;-14.34913715;159.6943947;6.167365499
13.31984891;28.51681077;73.45542073;-4.391866298;-100.5501317;-4.738143713;11.47132733;-26.38712736;-7.891318536;3.643780117;-0.818773529;-2.705325247;-3.787071526;5.768769639;0.596021692;-1.985684948;-9.000507612;253.4894963;4.93361377
9.841963734;10.8937177;67.88523873;-0.217465831;-95.33864144;-4.41589038;9.637884259;-23.42847021;-4.349502878;5.561341549;1.876867698;1.169589362;0.120309215;9.87182804;13.2593658;5.821512587;-3.536840917;243.1724347;4.818490815
6.315323823;3.355962854;53.77300487;2.31353663;-79.96304146;-4.096630248;7.631555542;-19.63375756;-2.783753834;2.08838787;0.380563822;4.510215422;2.204914635;12.25262047;26.15338424;19.64049586;-0.186600084;124.1021004;6.090159122
3.616848224;7.869870278;29.95336483;1.715211882;-69.47770373;-3.839688801;8.594632595;-17.71922831;-3.23244272;-1.519145594;-4.571158149;6.376573042;1.984382939;12.47;35.9917677;31.66077112;0.000876165;-39.60703689;7.36559609
1.319313461;14.92466446;-1.282828856;-2.158003333;-78.38781969;-3.607562263;12.68318436;-18.1123566;-4.243259601;-0.003697922;-10.2470136;6.249391101;0.558125396;11.05778202;41.03236425;35.20365171;-2.719661319;-159.5806445;6.651604662
-1.509088755;11.80523857;-32.20752432;-7.833961656;-104.4044582;-3.367367436;16.35818215;-19.20176271;-4.381434621;7.815057595;-13.87456164;3.916880743;-0.284804174;8.918818332;40.98914138;29.15593743;-7.372021022;-182.1434626;3.093038538
-5.022982153;-5.868687137;-51.20692703;-13.1060095;-123.954598;-3.195537928;15.62487078;-19.54151154;-3.746570316;18.09831689;-14.46141128;-0.525439146;0.481615325;6.640670813;36.46786004;18.31498258;-12.81151631;-118.5434552;-2.004893636
-8.041606223;-29.12862246;-48.63499551;-16.44498831;-106.672241;-3.265518818;10.42354671;-19.76035471;-4.126330827;24.81999113;-13.23034423;-6.370208624;2.277444535;4.293441721;28.58788614;9.371766903;-17.85366188;-27.39290735;-5.818741592
-8.811333753;-42.01522647;-23.85077007;-17.82807424;-40.09852909;-3.700505524;5.734504441;-22.22571173;-7.497980755;24.17261968;-12.46199283;-11.96911802;3.399677971;1.799355667;19.00415152;5.702613615;-21.23481026;32.81076656;-5.940907871
-6.501251283;-34.64700164;11.9975219;-18.33185638;55.02922875;-4.407843678;7.540189722;-28.6416965;-14.0167838;17.22382838;-13.66762691;-14.93082475;2.453005487;-0.559816562;9.959443061;5.122844397;-21.88737573;42.84966429;-2.161382855
-2.126162541;-12.21897134;40.92224676;-18.88285642;133.7209016;-5.05584178;16.60207867;-37.77151287;-21.20465427;8.917434148;-16.42821978;-13.1048404;-0.456212677;-2.044925342;3.860597701;2.365370424;-19.5731787;26.06906609;3.291200288
1.987983023;8.060714815;48.7247963;-19.28968479;156.3048367;-5.254212394;25.706133;-45.52135712;-25.21639095;4.329350595;-18.69567052;-5.912229511;-3.758295388;-1.927361977;2.337796581;-5.847582735;-15.3076929;19.01556285;7.272523181
3.844503555;10.26984968;34.27319858;-18.43355936;117.2211367;-4.827249675;23.77484314;-47.62;-23.41498156;5.105063614;-18.29462974;4.915105358;-5.64847979;-0.136068198;5.381146717;-17.46572328;-10.95097386;37.62911793;7.879213589
3.18649736;-7.307639045;10.39516209;-15.45443637;49.83208574;-3.968442491;4.508660048;-42.82548387;-16.35016885;8.707435601;-14.5425919;15.89834365;-5.465334602;2.507844108;11.312427;-26.43481158;-8.029345149;67.06974155;5.638549427
1.495622324;-30.4364558;-4.924061019;-10.84576804;1.514892544;-3.133673739;-27.18065063;-34.0175528;-7.573533061;10.82393359;-8.858961058;23.50467995;-4.080193265;4.735360688;17.79298753;-27.70228539;-6.679170891;80.48519581;2.900131788
0.591588551;-40.19914231;-0.963004977;-6.400940406;-2.826756959;-2.728145352;-56.68113639;-26.21249102;-1.334747141;8.876567867;-3.94758146;25.92340371;-3.02955981;5.642140007;23.21059061;-21.73198764;-5.705728023;67.12404766;1.97666927
1.053504075;-28.2882823;18.89698871;-3.949078068;20.09385663;-2.815427824;-68.85051088;-23.03494387;0.164220373;3.904421057;-2.103784685;23.7585127;-3.19313751;5.233845404;27.38989441;-14.60809792;-3.868824878;43.80636584;3.480966926
1.839346045;-3.744673065;41.09127173;-3.918038673;26.692343;-3.078310673;-58.30178896;-24.38679848;-2.068677936;-0.450808646;-3.774309142;19.25084453;-4.161255858;4.282883014;31.06056587;-13.3916154;-1.344341234;39.80740777;6.061922574
1.421287328;14.53831132;53.40014405;-4.982356836;-15.26286951;-3.075242728;-33.02889398;-26.99977599;-5.033334527;-0.819791397;-7.322055597;14.71536437;-4.776788788;3.645676755;34.55492104;-20.37532074;0.035552697;68.86175294;7.610625959
-0.603279228;13.41917927;54.88611711;-5.162715868;-95.46017704;-2.6022191;-8.604508402;-27.21103712;-6.291351806;3.49375145;-10.14531019;11.37461357;-4.289430009;3.624104267;36.91938999;-30.92665407;-1.777412271;113.0792867;6.911677381
-2.919372788;-3.754043193;56.26101869;-3.494276301;-163.4944933;-1.875821721;2.555329659;-23.65067556;-5.816999091;10.30095138;-10.40065318;9.300602628;-3.056524154;3.88289411;36.34210334;-36.77846243;-6.992529417;133.4139469;4.480048828
-3.535923494;-20.28486153;70.37376;-0.864299575;-165.41338;-1.383007572;-1.249991191;-17.85757865;-5.730743434;16.35817589;-8.174423215;8.182682117;-2.185639458;3.930078125;31.68142787;-32.22291124;-13.1377627;99.15365427;2.048324877
-1.608851224;-20.56714945;100.4931637;0.698670155;-86.75919379;-1.503155745;-11.84829138;-12.6896163;-8.222560793;19.58302943;-5.31937108;7.998880165;-2.492162585;3.678069675;23.84641747;-18.31911305;-16.44574661;13.24017869;1.214679988
1.572847397;-3.692899397;135.8814762;-0.300231652;32.42788516;-2.193963841;-18.83834582;-10.09777652;-13.40725614;19.97810967;-4.089180586;8.924933087;-3.748726058;3.555010292;15.75503326;-1.870441038;-14.63663489;-86.55958738;2.316698223
3.41337493;15.33682954;158.3476424;-3.56884628;124.2434682;-2.992641413;-17.38538313;-10.03155921;-18.875766;18.87049356;-5.546256773;10.6868896;-4.905365954;4.063004329;10.69;9.828604307;-8.922205344;-151.8151929;4.309727114
2.083312614;18.05641544;154.7967407;-7.203750224;141.8625814;-3.342141196;-10.22374147;-11.00183212;-21.33362596;17.45426073;-8.886116811;12.20088617;-5.057980368;5.195963751;10.21984624;14.16179144;-3.458402172;-155.0418253;5.619484057
-1.850434581;-1.593181113;126.2688557;-9.095997341;92.9431289;-2.996456252;-3.346319141;-11.41768363;-19.06557591;15.96656252;-12.16159915;12.11357864;-4.268698395;6.275800223;13.30115626;14.26386919;-2.436166309;-106.065043;5.263183129
-5.646920747;-31.24810952;87.0445667;-8.386720378;31.08321097;-2.193003822;-0.084744107;-10.45609413;-13.32918629;14.01644697;-13.84892016;9.942774183;-3.496321937;6.408275852;17.283907;15.51360732;-6.960297425;-42.57;3.449885212
-6.384599134;-49.24638141;55.24336911;-5.851970346;11.91274387;-1.459899058;1.078338014;-8.016790082;-7.61595942;11.48705707;-14.04142061;6.782643337;-3.715281384;5.20905467;19.99523034;20.66968951;-14.15965681;-3.131931293;1.33746638
-3.17835773;-41.71942845;42.40501693;-3.069566551;48.68559537;-1.211664889;3.676189508;-4.298333612;-5.328399885;9.034296777;-14.31344612;4.739998401;-5.029900259;3.186309515;21.18366768;27.68896826;-19.27032777;-2.44685672;0.222438093
2.14215093;-13.83969795;49.16702845;-1.200289578;102.7953839;-1.45186715;8.853169163;0.282279374;-7.558338197;7.745332512;-16.3230211;5.331866208;-6.575304457;1.423906359;22.16092286;31.70724869;-19.08414338;-25.11069009;0.748533068
6.432405946;13.94562072;68.34245446;-0.365203902;116.5931142;-1.81280514;13.93906536;4.77402589;-12.50461958;8.36851717;-20.25575946;8.093087989;-7.275143163;0.778723688;24.05641736;29.11244032;-14.08786332;-40.08654417;2.606953737
