Channel 1 - P4;Channel 2 - O2;Channel 3 - P8;Channel 4 - T8;Channel 5 - C4;Channel 6 - Cz;Channel 7 - Fz;Channel 8 - F4;Channel 9 - Fp2;Channel 10 - F8;Channel 11 - Fp1;Channel 12 - F7;Channel 13 - F3;Channel 14 - C3;Channel 15 - T7;Channel 16 - P7;Channel 17 - P3;Channel 18 - O1;Channel 19 - Pz
0.599516528;-0.893661106;-5.33589765;0.431365191;19.56294849;5.082149335;-11.7317938;-0.193550142;-25.38423065;-17.90941554;-9.166074077;-19.60933547;-23.8752583;-0.725449228;-13.49830575;11.56224689;6.35381176;-72.23976938;2.445323968
-3.647910402;-4.014004099;-21.02343591;-8.753723418;-7.259712178;1.714417127;-47.45998255;-11.90752535;-31.12633702;-40.30134555;-19.02054692;-41.9570614;-30.81646011;-9.52941017;-24.40620064;-12.97378214;-1.25054046;-64.022292;0.526799267
-6.330150106;-6.449332158;-25.7572344;-18.16517562;-20.36876335;-2.282357755;-50.86750329;-17.60990244;-30.58328033;-54.01231157;-22.65889996;-53.95358945;-30.2457693;-16.94822432;-29.61146761;-28.69466538;-6.370167507;-29.54106796;-1.379760072
-7.151607244;-7.890058594;-18.31566256;-24.4629418;-14.24905831;-4.636891758;-23.84957806;-16.40891931;-25.00688558;-57.6028204;-18.97164139;-51.78775921;-22.63698397;-19.7056209;-27.49853264;-31.17;-6.526421513;10.03180305;-2.317960877
-7.332603732;-8.479850613;-5.803578338;-25.6139781;3.041160628;-4.338841102;10.6730152;-11.7698707;-18.65980918;-55.32740436;-12.11421324;-40.10392897;-12.74325923;-16.99475709;-20.00974558;-23.2148164;-2.077190701;32.13281716;-2.138427935
-8.549516458;-8.394063008;2.135565025;-22.49155652;16.7945479;-2.209395134;27.58357909;-8.773138799;-15.96888004;-53.46251208;-8.078219496;-28.25076036;-6.269022039;-10.93220649;-11.44503623;-11.97583831;3.975528967;28.01353619;-1.619121107
-11.51259203;-7.539194624;0.589192792;-18.54476541;16.6428587;-0.144090601;18.65158852;-10.42762507;-18.71073453;-55.8128566;-10.19662605;-23.54868728;-6.003515698;-5.044886834;-5.813574283;-3.709588273;8.085698066;7.059512703;-1.786190266
-15.3175316;-5.64521073;-7.494468253;-17.54270615;3.305283591;0.318267789;-3.235529696;-15.86357778;-25.15957976;-61.66581458;-17.07478429;-26.64508091;-10.29585936;-1.971567853;-4.561383476;-0.224276546;8.619048157;-12.12761781;-2.971070857
-18.08931534;-2.659077209;-14.40900945;-20.93782012;-13.36953077;-1.00442635;-16.97307408;-21.57247058;-31.63084691;-67.31206145;-24.23393565;-32.18347318;-14.86162537;-2.063900196;-6.209015221;0.740321461;6.808641911;-16.15686666;-4.397772415
-18.41250274;0.896345937;-14.14713677;-26.82443908;-22.68483742;-3.048009885;-11.44574733;-24.40256831;-35.12977753;-69.47997486;-27.74311143;-33.78587151;-16.30250312;-3.761731277;-7.986131074;2.186380404;5.515555745;-5.554617834;-4.7
-16.42701877;3.907860789;-6.932752813;-31.34124252;-20.88900672;-4.493164571;6.402556038;-23.78674671;-35.14917482;-67.81794884;-26.79886034;-29.1478991;-14.49601388;-5.205064156;-8.074580219;4.722007045;6.815010275;8.083476361;-3.01392537
-13.74036843;5.083569097;1.536553737;-31.50484536;-12.79264422;-4.765686802;19.59989254;-21.57998459;-33.47567991;-64.68015906;-23.48012531;-21.33;-12.10498325;-5.682392046;-6.728727021;6.179420574;10.3240524;12.89234036;0.212354922
-12.23464094;3.612662203;5.072522814;-27.34504629;-6.802685059;-4.281421303;17.20705133;-20.00942651;-32.43346443;-62.80648417;-20.42792321;-15.65412745;-11.88707872;-5.837716087;-5.567304585;3.965741375;13.55151898;6.137148636;3.376373565
-12.69049319;-0.26199273;1.899351427;-21.75979042;-7.964062668;-3.869547942;3.868430374;-19.72922299;-33.0742842;-63.06809092;-18.73860161;-15.13301891;-14.21390697;-6.698223997;-5.843782737;-2.185855285;13.91548755;-4.970780222;4.788561956
-14.2619988;-5.097784573;-4.388683495;-18.29434452;-14.54;-3.975535131;-5.325517429;-19.63244447;-34.64729399;-64.10565123;-17.75035174;-18.24782746;-16.85409896;-8.537572823;-7.249456045;-9.549850078;10.76899549;-10.58190715;3.865266854
-15.16089874;-8.718578037;-8.203651907;-18.63358885;-20.2828714;-4.341434986;0.421259546;-18.34754243;-35.52106847;-63.90802117;-16.44891394;-20.62891704;-17.03646908;-10.59034502;-8.214466591;-14.3551455;5.836637453;-6.709168048;1.538412919
-13.99880408;-9.193164179;-6.583790651;-21.71107607;-19.93061487;-4.366351116;16.79326633;-15.83975146;-34.59351694;-61.76468674;-14.80570916;-18.88079023;-13.87654115;-11.7747487;-7.318826482;-14.60951026;1.795939989;2.183891465;-0.439145166
-10.789537;-5.901001679;-1.272505616;-24.93981713;-13.29499915;-3.739145749;27.35528162;-13.55897025;-32.00034098;-58.87905824;-13.69528981;-13.21163441;-9.047779362;-11.67350912;-4.50076164;-11.42388241;0.219944703;7.957899235;-0.770227724
-6.929494809;-0.080838981;3.133875727;-26.35744062;-4.956724968;-2.740019531;17.91720769;-13.01708247;-28.68819991;-57.22381883;-13.62555817;-6.841540462;-5.201841299;-10.85444189;-1.02353359;-7.859620964;0.535294331;6.118848934;0.486063822
-4.253762448;5.586782139;3.095887179;-25.86953641;-0.323639843;-1.959425897;-10.2697393;-14.17546141;-25.42485746;-57.74366008;-13.74501651;-3.034123412;-3.624601946;-10.27285754;1.669703535;-6.432659864;0.744688604;-0.753662641;2.040329403
-3.894733585;8.302501425;-1.201952365;-24.71116198;-1.509216314;-1.730884328;-40.12028953;-15.2156907;-22.21520504;-59.47986474;-12.30063834;-2.492458836;-3.23292548;-10.3486461;3.097611315;-7.396895376;-0.785314643;-5.972931064;2.381482824
-5.712536086;6.710174139;-6.366307844;-23.85140872;-6.205363204;-1.821164857;-51.74070991;-14.00364786;-18.61044499;-60.31249739;-8.245128311;-3.267771701;-1.775944872;-10.58403239;3.836612152;-9.059940081;-3.96641668;-4.937697117;0.873370702
-8.572213578;1.752337486;-8.691826794;-22.93236148;-10.04394709;-1.66467311;-38.00212837;-10.00024836;-14.53406815;-58.63624233;-2.490524681;-2.962113156;1.869160719;-10.06722943;4.559919539;-9.564934592;-7.105041382;1.06640373;-1.867142523
-11.14482798;-3.797988686;-6.885457327;-20.74475623;-10.2155844;-0.921809699;-9.729213809;-4.927389575;-10.7837753;-54.58274576;2.4568302;-1.040625322;6.386121677;-8.390118538;5.028137264;-8.443138726;-8.289720977;6.504259061;-4.517892217
-12.64468042;-6.93951333;-2.579142401;-16.76923021;-7.428234477;0.153656453;13.47848779;-1.559283987;-8.683957016;-49.88077823;4.283719158;0.825950682;8.905375385;-6.134839083;4.097554429;-6.697451177;-6.860946832;6.76131572;-6.024966612
-13.09583655;-6.222938853;1.354584924;-12.28507157;-4.906291871;0.879206982;18.71113505;-1.62872437;-9.140665552;-46.59314918;2.571354241;0.539283468;7.371305806;-4.474512931;0.843480797;-5.643302597;-3.817281742;2.058241042;-6.240836886
-13.11499529;-2.584626003;2.968321814;-9.882803042;-5.536303187;0.705369102;8.58731516;-4.587412503;-11.88998345;-45.78908152;-1.03671007;-2.303443251;2.371720634;-4.221482424;-4.212660651;-5.795618263;-0.953011552;-3.175752177;-5.812511169
-13.47507966;1.297562178;2.153120042;-11.61952477;-9.544548415;-0.310818225;-3.207364857;-8.200982351;-15.57292664;-47.09550283;-4.276386252;-5.930019531;-3.14748443;-5.138987646;-8.993457312;-6.826989781;0.476076844;-4.530087891;-5.5290965
-14.72455221;2.690415383;-0.039491252;-17.29572361;-14.42488988;-1.527811825;-4.821651748;-10.38658858;-18.57862961;-49.25129259;-5.984580441;-7.951239134;-6.068494652;-6.097278366;-11.16207269;-8.408905026;0.502885746;-1.439377874;-5.718901553
-16.98104726;0.432424516;-2.620628052;-24.32079999;-16.95927477;-2.216198669;4.030215296;-10.69745594;-19.9825532;-51.03035584;-6.611577729;-7.467243651;-5.382119131;-5.929803736;-9.838912186;-10.83067805;0.157374089;2.708902502;-6.149000865
-19.88938333;-4.502966429;-5.201275421;-29.36696404;-15.62454339;-2.110502536;13.53855952;-10.2669848;-19.87842437;-51.79350599;-7.22724261;-5.771815317;-2.711003822;-4.270184925;-6.278972073;-14.57003906;0.540975344;3.963309203;-6.398005327
-22.72179079;-9.75357163;-7.577127044;-30.55839377;-11.55928417;-1.566402103;14.20221971;-10.42710132;-18.94511629;-51.42825823;-8.119871095;-5.028307132;-0.728408686;-1.706913059;-2.852546053;-19.16942669;2.079256863;1.401133859;-6.28440674
-24.62843211;-13.01679762;-9.127699224;-28.52168825;-7.49863371;-1.220779784;6.161538286;-11.34467026;-17.70900129;-49.99805195;-8.384675362;-6.154216794;-0.869810744;0.804329913;-1.102747549;-22.65911492;4.457873773;-2.294896403;-5.954196797
-25.00359573;-13.2382014;-8.898730475;-25.56448457;-5.630161457;-1.464498057;-1.06594419;-11.90397755;-16.1406978;-47.55770383;-6.861730395;-7.858477379;-2.248585503;2.72430848;-0.485226604;-22.42583951;7.100078125;-3.564848047;-5.599698313
-23.81370312;-10.9;-6.408743173;-23.7416143;-6.033843;-2.165943236;2.038102831;-10.86895941;-13.86083571;-44.27829458;-3.438734278;-7.719479252;-2.591946504;4.259759269;1.117433244;-17.09084766;9.651410305;-1.306216969;-5.139057017
-21.66608617;-7.442984154;-2.366946818;-23.37923313;-6.813907592;-2.840087891;15.28483744;-8.197755242;-10.68636167;-40.64780607;0.618178762;-4.355507598;-0.299621807;6.028260285;5.474844516;-7.866838137;12.07686283;2.256679902;-4.210812025
-19.50709541;-4.359367502;1.515263433;-23.14242854;-5.716964238;-3.075528293;27.75068342;-5.287468769;-7.002587724;-37.44719172;3.672113694;1.225313469;4.142273566;8.409593921;12.24003906;1.903672618;14.41983331;3.823712488;-2.523832754
-18.09206034;-2.530284762;3.59175431;-21.42851454;-1.955656668;-2.842059972;26.60060469;-3.936509996;-3.665218547;-35.45949844;5.087626869;6.268681912;8.510463337;11.13864241;18.8056156;8.860139233;16.56313276;2.170188428;-0.248394799
-17.57165853;-2.051804134;3.342193738;-17.85363118;3.127425453;-2.445450387;8.138320695;-4.972253181;-1.569409126;-35.14589394;5.60237868;8.338449351;10.54697322;13.41898418;21.95642922;11.77280817;18.23561833;-0.741260843;1.933462894
-17.49407886;-2.443104646;1.510495019;-13.65648219;7.009851295;-2.218563031;-18.50845722;-7.750864975;-1.264212282;-36.53279353;6.30235052;7.037017232;9.536146028;14.38178845;20.05220567;12.00101067;19.19172284;-1.647771269;3.216468799
-17.22645452;-3.007029585;-0.757135203;-10.81443325;7.803465109;-2.247417585;-38.21977565;-10.8953295;-2.859031328;-39.32;7.216459595;3.995792593;6.52580568;13.49275032;14.0710405;11.91797806;19.31462574;0.937768444;3.212758084
-16.47319339;-3.193412185;-2.941499222;-10.67702161;5.569827558;-2.359434558;-41.35915728;-13.50420559;-6.146197696;-43.01751818;7.009438041;1.296911925;3.207203063;10.66586289;6.783938504;12.67441791;18.52744247;5.298929077;2.210978468
-15.48486557;-2.900635024;-5.387259151;-13.16705844;2.184664931;-2.3419952;-30.30973337;-15.6866106;-10.68996056;-46.96886856;4.243799385;-0.201988523;0.568086251;6.160706147;0.80196675;13.2214973;16.6657084;8.002011841;0.942005809
-14.7952986;-2.619633497;-8.560487122;-17.00104109;-0.094858603;-2.159687559;-16.0935086;-17.98310284;-15.76526299;-50.35068871;-0.897418366;-1.220041504;-1.534932357;0.489348415;-2.960740395;11.39944755;13.55017884;6.905601407;0.041092999
-14.70779842;-3.265020377;-12.08384135;-20.55439967;-0.244850501;-1.969014032;-8.684056972;-20.33356876;-20.30250022;-52.3594663;-6.160455798;-2.944164883;-3.695970598;-5.575775335;-5.332831172;6.086493002;9.283942729;2.983215471;-0.36278903
-14.95864837;-5.631436286;-14.5375097;-22.64204157;0.936394222;-1.939325543;-9.597989459;-21.70562447;-23.09334223;-52.62573348;-8.739797193;-5.622175978;-5.993817571;-11.02950487;-7.635752277;-1.516172916;4.498475093;-0.607081073;-0.618189248
-14.8412786;-9.695610686;-14.31723793;-22.78078073;1.642484003;-2.070477408;-12.63680886;-20.86610621;-23.2988132;-51.57071457;-7.615209605;-8.186555042;-7.722659079;-14.87503879;-10.32165817;-8.6059653;0.224581742;-1.284131806;-1.140523067
-13.69567216;-14.24369454;-10.85969878;-21.04034903;0.561815829;-2.186302826;-11.09462619;-17.64713397;-20.96040686;-50.29933663;-4.603146581;-9.192377499;-8.040058594;-16.54186047;-12.61836601;-12.86406129;-2.631448159;0.850569915;-1.983217698
-11.37109204;-17.24370074;-5.180039063;-17.84064455;-2.135935371;-2.103371543;-4.27863061;-13.49296449;-17.09061198;-49.91734556;-2.962622018;-8.117750604;-6.840250565;-16.19205626;-13.33723079;-14.06138194;-3.831472801;3.347487141;-2.746977801
-8.302975928;-16.92497677;0.753945218;-13.8659312;-5.053680379;-1.805525248;2.502608556;-10.63776765;-13.17826002;-50.67954806;-4.534920646;-5.789154239;-4.960109777;-14.62376353;-12.0168243;-13.79822336;-3.902316378;3.732124025;-2.884064124
-5.17343488;-12.95363647;5.292566883;-9.957848811;-6.751626746;-1.454872891;3.852236495;-10.48444914;-10.39930179;-51.65253931;-7.856294038;-3.57476602;-3.494815282;-12.78066841;-9.386979768;-13.69167973;-3.666799276;1.651567813;-2.125781413
-2.464979021;-6.870906881;7.982481939;-6.815660477;-6.830858973;-1.231778357;-0.004325959;-12.53222784;-9.082650184;-51.28389693;-9.063010272;-2.169201488;-2.874455925;-11.22278425;-6.819985989;-13.73980945;-3.591567968;-1.022925265;-0.676566903
-0.279398598;-1.353125649;9.413640687;-4.619093095;-6.054884007;-1.1612603;-3.317646675;-14.80329275;-8.79755546;-48.56916729;-5.095589452;-1.156458034;-2.593418069;-9.970961459;-5.326353455;-12.43057482;-3.522701956;-2.073668578;0.967578458
1.467125516;1.349567234;10.31957158;-2.945049351;-5.525142668;-1.09524671;-0.559271049;-15.4563723;-8.937519701;-43.95985682;3.361152565;0.242440091;-1.861941921;-8.820206215;-4.975204745;-8.544891133;-3.044973395;-0.976259116;2.401688063
2.709588869;0.804365963;10.82608157;-1.210771568;-5.724075083;-0.870996814;7.842164202;-14.24442098;-9.286899086;-39.25940668;11.75479403;2.00326854;-0.555346097;-7.794421667;-5.153452216;-2.970402123;-2.115227819;0.741973246;3.571183904
3.12236233;-1.338880129;10.51845904;0.615459772;-6.269137528;-0.498002153;15.47750608;-12.59093672;-10.10227899;-36.49196591;14.70923522;2.927980526;0.479256572;-7.278800124;-5.301166311;1.306259536;-1.322030102;1.040170718;4.714263683
2.381442922;-2.429068544;9.185884791;1.677201921;-6.498166085;-0.195520715;15.92551882;-12.24071701;-11.68119917;-36.53681879;9.977577258;1.565672445;0.122231412;-7.662866625;-5.380976588;1.319270721;-1.425428792;-0.71285863;6.075218453
0.590444303;-0.534746221;7.463219617;0.73113531;-6.223406568;-0.236834292;9.183818949;-13.6651191;-13.84449832;-38.53965797;0.220174234;-2.316435446;-1.900253097;-8.804773526;-5.663685563;-3.279554048;-2.506076729;-3.208015035;7.661150798
-1.53055473;4.349923567;6.691476424;-2.743091002;-5.877509539;-0.729776338;2.316314661;-15.60473862;-15.83413619;-40.54092157;-8.795992796;-7.066712369;-4.511554931;-9.847508099;-6.104979286;-9.388920573;-3.502744033;-4.47591172;9.251330516
-2.933639791;10.40188288;8.03767481;-7.696147394;-5.919685391;-1.518934483;3.243904791;-16.1404019;-16.76414428;-40.84389195;-12.17135749;-10.03539443;-5.935792471;-9.654831497;-6.002681697;-12.31570935;-2.694461884;-3.721961874;10.6264462
-2.859751846;15.24057067;11.58731875;-11.76286021;-6.140956453;-2.287173781;13.01507866;-14.36336901;-16.27642767;-39.10821465;-8.985526953;-9.436468389;-5.037310234;-7.596845762;-4.384897394;-9.05577663;1.083850499;-2.006731263;11.78356398
-1.339474772;17.4460321;16.15942394;-12.65684011;-5.645164589;-2.764886789;23.65167079;-11.21127619;-14.8634926;-36.41063241;-2.345243175;-5.722933259;-2.247250169;-4.073088316;-0.900146517;-0.501456039;7.384177089;-1.186531775;12.91777667
0.812043565;17.27963624;19.99548881;-9.784849163;-3.630799865;-2.876094939;24.0106307;-8.769174164;-13.5839383;-34.3308891;3.323055861;-1.352077238;0.709923546;-0.331621254;3.53860629;9.135675131;14.12688247;-2.145180289;14.16741247
2.525863237;16.18742939;21.78778305;-4.850652233;-0.273041526;-2.72325441;9.051612796;-8.649228219;-13.38276863;-33.82892392;5.371665931;0.89880189;2.081508712;2.30255462;6.999408681;15.22756159;18.75162219;-3.965382903;15.34688428
3.161934397;15.55174511;21.31327404;-0.889679968;3.178637798;-2.459686621;-15.30609843;-10.81530691;-14.52770873;-34.73906685;4.079995433;-0.234439802;1.321500873;3.2067501;7.641783204;15.72345694;19.76325013;-4.781346063;15.93044661
2.863778866;15.65844535;19.33072574;-0.346151116;5.28717608;-2.182123407;-36.01106932;-13.78299774;-16.55038788;-36.13465753;1.399848716;-3.876504442;-0.663818919;2.679440112;4.963219837;12.04751646;17.57291474;-3.499274863;15.35952049
2.362707997;15.62587341;16.97694964;-3.546791444;5.559704763;-1.927813422;-42.39708017;-15.92121007;-18.66609849;-37.1306614;-1.156942913;-7.924831605;-2.362524114;1.507773578;0.27186889;7.473050124;14.06058242;-0.801966227;13.47564378
2.416955602;14.29185129;15.16803652;-8.63354167;4.794217819;-1.740530315;-33.67940065;-16.67833844;-20.29819996;-37.44624916;-3.524047713;-10.63381957;-2.813445616;0.3114067;-4.026093056;4.510639374;11.24028715;1.45919227;10.74945046
3.309620977;11.33923928;14.3278296;-12.91898839;4.294202959;-1.700718727;-18.56183824;-16.72053907;-21.32520295;-37.37577097;-6.350875369;-11.61864877;-2.12984929;-0.791112699;-5.913647003;3.419045653;10.03179329;1.903528856;8.096206588
4.732572777;7.771947058;14.40391082;-14.60096595;4.659369925;-1.862817833;-7.768046331;-17.00496154;-21.96217664;-37.36154253;-9.624323911;-11.67841809;-1.096290983;-2.001258429;-5.054408342;2.776021671;9.964541359;0.798675496;6.358834841
6.06039571;5.337120845;14.96118518;-13.61752429;5.287305436;-2.15500524;-6.002694104;-17.7615022;-22.49639005;-37.63853174;-12.22913995;-11.86527501;-0.371917265;-3.431360336;-3.01400461;1.249709378;9.859147162;-0.260791668;5.787683829
6.743730092;5.267298371;15.2638693;-11.20794533;5.070563977;-2.356546165;-9.783013498;-18.377027;-23.15495591;-38.23904456;-12.95501625;-12.72344771;-0.092933252;-4.917277125;-2.226255918;-1.153508874;8.813524583;0.158536997;5.869526059
6.530261934;7.233509558;14.44483508;-8.775011552;3.619618651;-2.209957417;-12.14124124;-18.27732951;-24.17556533;-39.23959075;-11.92383314;-14.24864079;-0.170504553;-6.222245823;-4.347211025;-3.379186389;6.72153487;2.033893051;5.635895323
5.431117788;9.293442532;11.85175246;-7.069110879;1.784821832;-1.599547123;-9.367287289;-17.92216324;-25.90603049;-40.90472321;-10.92010096;-16.3370395;-0.843618298;-7.369343662;-9.067366658;-4.64630619;4.070280304;3.926706763;4.265808168
3.581713726;8.959976682;7.4448083;-6.246446693;0.878350601;-0.6537441;-3.771755279;-18.8677526;-28.71614132;-43.52385053;-12.12495922;-19.07488871;-2.786418963;-8.687206176;-14.19352753;-5.377157448;1.389217239;4.278484511;1.604710477
1.197782058;4.754039274;1.954920703;-6.474026421;1.276001729;0.319442279;-0.582470643;-22.66594043;-32.70154778;-47.07335146;-16.29794267;-22.5111637;-6.53118284;-10.43791981;-17.00923708;-6.786786652;-1.078182655;2.778586449;-1.722512981
-1.324476752;-2.741293874;-3.376755625;-8.265991232;1.792830898;1.018554455;-2.502826798;-29.43909264;-37.40090393;-51.02630978;-22.04284562;-26.19557857;-11.70164454;-12.34825148;-16.06845443;-9.535636252;-3.246233255;0.604958144;-4.663567267
-3.311037384;-11.00694263;-7.331107293;-12.056357;0.614342296;1.312200234;-7.233893784;-37.34218366;-41.7997455;-54.50127919;-26.85489317;-29.0772683;-16.83951005;-13.53806922;-12.2276453;-12.78690501;-4.862693354;-0.623835492;-6.321734583
-3.911596895;-16.82971455;-9.141115473;-17.32658996;-2.901297954;1.26185411;-10.04185364;-43.45443144;-44.69745312;-56.63479404;-29.03699593;-30.02637771;-20.14119373;-13.03196078;-8.152323311;-14.6590094;-5.42318823;-0.218624628;-6.402920131
-2.445695895;-17.90587332;-8.560103953;-22.1605822;-7.204016546;1.011015609;-8.507835778;-45.49408272;-45.23189093;-56.88392737;-28.78801373;-28.59674342;-20.60141276;-10.50320281;-6.528792584;-13.75539378;-4.477107755;1.081808902;-5.266981081
1.184549662;-13.87207203;-5.6667154;-23.87146105;-9.445378439;0.657164058;-4.637219161;-43.09170015;-43.22792054;-55.07495231;-27.53969366;-25.34285607;-18.6362009;-6.624526651;-8.141140288;-10.40676476;-2.044206463;1.854659969;-3.59150266
6.297578923;-6.252855337;-0.74346771;-20.49359174;-7.743277777;0.219926455;-2.282033191;-37.72912353;-39.1641267;-51.28022833;-26.23964416;-21.36416384;-15.64521818;-2.670894129;-11.17300981;-6.457192788;1.287653869;1.257713645;-1.903444336
11.62457267;2.480410938;5.578631625;-12.16217477;-2.929358305;-0.286596781;-2.581752225;-31.51551363;-33.82525759;-45.74862095;-24.24640025;-17.45399813;-12.86021177;0.364283439;-12.33601649;-3.713135432;4.729020456;-0.303117366;-0.298595146
15.81820182;10.05398145;12.11272481;-1.362738132;1.837761482;-0.773203674;-2.236433802;-25.83085243;-27.90747611;-38.99425666;-19.92139311;-13.61212988;-10.44;2.443408968;-9.15653904;-2.398525468;7.821126013;-1.62397546;1.484562015
18.00365394;15.08759415;17.26841746;8.217545587;3.436206423;-1.086217764;3.219291121;-20.84208221;-21.83022228;-31.90323742;-12.40645592;-9.361035276;-7.564995573;4.394018594;-1.852875289;-1.002830678;10.66013449;-1.790966684;3.727303177
18.07835594;17.148967;19.72997423;13.53673329;1.204251623;-1.112288582;13.95738178;-16.08167114;-15.82223166;-25.62359016;-2.938900683;-4.56400986;-3.42413118;7.117042184;6.585350959;2.295948515;13.6083354;-0.919669587;6.398518111
16.6287681;16.45436776;19.27003906;13.58608013;-2.638479893;-0.879535171;23.61172247;-11.4087635;-10.15079857;-21.18583713;5.568076773;0.037807611;1.779469134;10.73857395;12.27836353;7.851788779;16.7565334;0.052607713;9.073617127
14.55331826;13.62917192;16.99264765;9.528795625;-4.950293769;-0.55185673;23.17237068;-7.463953742;-5.290265718;-19.09356735;10.40371135;3.117657264;6.693147176;14.39691244;13.02959469;13.98487784;19.63669938;0.250880681;11.15036474
12.61950136;9.673239637;14.6245215;3.673326657;-4.31501224;-0.310419326;8.406559969;-5.278053781;-1.89658492;-19.21927183;10.81702513;3.683769828;9.688737408;16.82784159;9.758311045;18.17370116;21.46345754;-0.403403922;12.18608459
11.17743456;5.919138205;13.2621973;-1.912706602;-2.077120319;-0.223585444;-15.43714517;-5.458955543;-0.589582742;-21.10404528;8.200267245;1.843046422;10.0259341;17.25480022;5.743736129;19.028844;21.70564825;-1.22152466;12.10499756
10.13604757;3.697656577;12.5547308;-6.252684641;-0.898009238;-0.220043335;-36.13271841;-7.694562809;-1.653507537;-24.38546673;4.667498196;-1.263329392;8.346245864;15.85901279;4.231320998;17.38118017;20.48942331;-1.429765314;11.1459332
9.163947795;3.72473785;11.07096417;-9.39844627;-2.185326992;-0.184326292;-42.78768124;-10.96445068;-4.810984047;-28.93101076;1.393496595;-4.310596467;6.107205124;13.48058696;6.163771848;15.55808842;18.48296423;-0.841226693;9.634345003
7.975046593;5.611730132;7.649778888;-11.75629995;-4.751375379;-0.078845523;-33.54083447;-14.22227687;-9.207854884;-34.5185319;-1.826881017;-6.714611801;4.438856126;10.85028081;9.680796227;15.4532081;16.3714503;0.06287419;7.791327936
6.532529534;7.969827034;2.634620501;-13.45046838;-5.92;0.027522916;-16.49736858;-16.96438153;-13.6702886;-40.37444667;-5.591225715;-8.881696403;3.344757148;8.020147719;11.66095533;16.99894422;14.38294696;0.640131625;5.732225551
5.057544413;9.188374231;-2.126303201;-14.2075507;-4.045143612;0.051890634;-3.216166529;-19.2876951;-17.16413491;-45.11218351;-9.650994437;-11.6480814;1.841562541;4.45539396;10.02955416;18.28011496;12.26;0.663205797;3.615923622
3.842909072;8.407690929;-4.65519157;-13.76597982;-0.093455132;0.015891455;-0.119875101;-21.51724581;-19.24216748;-47.33478275;-12.78930569;-15.46271595;-1.143764346;-0.32772246;5.051491206;17.13057077;9.66122066;0.445938537;1.755698408
2.999924486;5.977983327;-4.529876987;-12.39799619;3.197253831;0.061515548;-4.709123479;-23.79379562;-20.20590103;-46.56024669;-14.00065614;-20.01954705;-5.859486691;-6.13904826;-1.253322276;12.84795594;6.602313859;0.462432581;0.533259763
2.332737008;3.052966765;-3.426986606;-11.05416082;3.816721084;0.328586538;-9.207843523;-25.92518403;-20.82732421;-43.7226617;-13.75592225;-24.56056652;-11.45973424;-12.02124601;-6.875772529;6.655846334;3.541344323;0.867075429;0.149803622
1.474271241;0.656869533;-3.917886382;-10.92028742;2.302988693;0.795764565;-7.97617724;-27.49162707;-21.75171541;-40.71230363;-13.91246386;-28.43798033;-16.47261218;-16.73837288;-11.17115888;0.679096616;1.060847575;1.372506951;0.430644524
0.237558804;-0.996021299;-7.356540083;-12.60840199;1.15534905;1.238615021;-2.106407913;-28.00389233;-22.96251945;-39.14908873;-16.08170154;-31.34559121;-19.56157486;-19.43810279;-14.70024504;-3.558176051;-0.533845015;1.570650295;0.896149561
-1.055401338;-2.368227758;-12.53928998;-15.5076042;2.362191908;1.367368494;2.544275363;-27.00119542;-23.71106847;-39.25655426;-19.85373257;-33.05128859;-20.04710855;-19.99669114;-17.879725;-5.824831823;-1.332822658;1.363440653;1.099919675
-1.55427627;-3.813666554;-16.2998014;-17.80102879;5.378051681;1.047739802;1.668186979;-24.17028823;-23.01894794;-39.72281495;-22.64931555;-33.04219075;-17.98365266;-18.87118009;-19.85757764;-6.637914662;-1.583966199;1.087958416;0.985135701
-0.284981443;-4.904628097;-15.69259417;-17.29526092;7.524813934;0.423139661;-2.855087047;-19.58429195;-20.4264778;-38.71544982;-21.63627119;-30.63304312;-13.95502772;-16.68128538;-18.82277588;-6.211123577;-1.369272216;1.223134551;0.947704638
3.214654194;-4.562320231;-10.13229659;-12.69034842;6.533768946;-0.171814545;-4.389407082;-13.93923141;-16.42279544;-35.30278383;-16.22611337;-25.61706291;-8.835258683;-13.88266066;-13.62146203;-4.02089922;-0.527313026;1.95176459;1.503890362
8.442722024;-1.956836134;-1.856386011;-4.550078125;2.868969816;-0.444226424;2.111359644;-8.46559711;-12.18057279;-30.17525084;-8.928942017;-18.89749867;-3.580087891;-10.7073262;-5.262418511;0.57543645;1.110973475;2.972025452;2.790919439
14.02022054;2.605401575;5.619194167;4.711676405;-0.437748791;-0.335412727;14.52348971;-4.323021279;-8.735277879;-25.0867212;-3.594557132;-12.37660865;1.044052995;-7.266973238;3.173049794;7.32137374;3.429123992;3.720474379;4.306736304
18.33310338;7.661179854;9.834159843;11.98160173;-0.447196145;-0.019682878;23.95128918;-1.747857324;-6.208065275;-21.45262014;-2.325698754;-7.931738904;4.803918718;-3.618306266;8.418292923;14.7358037;5.992157906;3.811150477;5.147998747
20.35182986;11.56481284;10.74118532;15.15234845;2.906643604;0.279096889;21.24198351;0.377818662;-3.689561476;-19.23098479;-3.639294892;-6.138623432;8.196418796;0.267543589;9.336515004;20.94233923;8.332041059;3.326203874;4.623836822
20.10231959;13.67139076;10.17580135;14.34155453;6.540834694;0.488247562;4.465023535;3.98644457;0.074105376;-17.00106659;-3.547281842;-5.763086275;12.20910508;4.503959073;7.801541602;24.99593611;10.28723973;2.735574077;2.804124332
18.49242653;14.68213062;10.04524041;11.77851782;6.860136685;0.730350381;-18.77855391;10.45327001;5.669855368;-13.19720757;1.195265656;-4.54885086;17.62256929;9.128108028;7.347511155;27.50182074;12.06765704;2.529656468;0.572898831
16.65120995;15.8;10.7765451;10.32859898;3.007438159;1.178199821;-36.21637215;19.29100712;12.42691101;-7.523148284;10.31;-0.831995771;24.25978735;13.85191173;10.56987268;29.89863109;13.97939512;2.859425793;-0.88810483
15.27346966;17.43103121;11.21064788;11.55969983;-2.24601832;1.854952972;-39.199377;27.96269274;18.68561428;-1.41973092;19.99672029;5.174795896;30.7678005;17.97658904;17.27357959;32.99341851;16.07854115;3.445034665;-0.831676699
14.41917099;18.66018234;9.866898312;14.64321714;-4.873864609;2.560116353;-28.11302057;33.1579576;22.71785122;2.792171425;25.72472061;11.37938901;35.20934136;20.65726756;24.75668395;36.08239403;18.09560931;3.796368055;0.627260938
13.83263531;18.10858724;6.414984191;16.88392306;-3.148019794;2.989961754;-11.12552996;32.77815198;23.62241904;3.433777552;25.49604555;15.09298517;36.13757778;21.40471511;29.8936441;37.53998496;19.70150643;3.569811798;2.678696395
13.43196377;15.50318924;2.132339327;15.57581569;0.859018783;2.95164594;2.17122053;27.25308744;21.59855552;0.505665346;20.92265314;14.67392712;33.42303437;20.44557575;31.28396452;36.45099932;20.8347124;2.811695392;4.42419304
13.51228265;12.49538729;-0.955865196;9.942258166;3.233315363;2.492256302;7.001449403;19.2259105;17.54075776;-4.478769158;15.39582939;10.41927829;28.26451624;18.60883554;29.80753827;33.84415443;21.73514676;1.932284749;5.458516019
14.48875587;11.75225565;-1.491618525;1.828891922;1.868916497;1.841916943;5.069969014;11.83215117;12.42628713;-9.615179063;11.13493931;4.231843661;22.43350615;16.77239858;27.36018922;32.307759;22.62779587;1.433229534;6.02084122
16.43054002;14.8226909;0.36138398;-5.330191298;-1.572550728;1.230714721;1.339007099;6.844058017;7.035309389;-13.73836198;7.778431599;-1.517894757;17.35875664;15.28701532;25.06659948;34.11161976;23.3859269;1.566142778;6.669779341
18.83528409;20.5086554;3.189316005;-8.560500132;-3.257375039;0.740112051;-0.594433464;4.008880399;2.117944544;-16.73208108;3.66391773;-5.088114377;13.68682115;13.84184454;22.57971992;39.29528585;23.5772764;2.148603453;7.793128644
20.8883375;25.29313355;5.389164931;-7.02545072;-0.888877402;0.306448348;-0.611931846;1.923443438;-1.386752981;-18.97183109;-1.591534636;-5.854532953;11.45732258;11.87368163;18.96238216;45.33302067;22.93605625;2.675534004;9.337695665
22.01541811;25.77890262;6.170958947;-2.272837399;3.951191274;-0.147470616;-0.614419953;-0.440548395;-2.574620917;-20.59642313;-5.857520247;-4.23667684;10.48222079;9.150135349;14.14936993;48.75941019;21.82534663;2.673749867;10.90893216
22.25492782;21.33465502;5.847760642;2.967001224;7.118125524;-0.587355432;-1.687373951;-2.906418072;-1.299345978;-21.36963132;-6.052660355;-1.451611324;10.42658885;5.997500856;9.465402043;47.53520196;21.14449948;2.062784393;12.07386314
22.10839565;14.75928381;5.37240628;6.472038752;5.760138885;-0.867839132;-2.89269484;-4.623061414;1.152641356;-21.25135426;-1.321964882;0.682932912;10.52507325;2.959271775;6.592152447;42.30663046;21.58139947;1.24457457;12.57765495
21.97905555;10.23584772;5.570828598;7.543714609;1.127107698;-0.856109028;-2.643212439;-5.384382716;2.182459977;-21.04313071;5.06569015;0.061408783;9.389725475;0.199187922;5.894211263;35.61215126;22.7670491;0.817448468;12.33379735
21.69339266;10.06193733;6.585093238;6.827650374;-2.410014648;-0.563668164;-0.910024414;-6.430875011;-0.92761163;-22.30301271;7.176337084;-5.011900108;5.424155722;-2.768138053;5.731562235;29.77316807;23.14703056;1.103549265;11.29992693
20.56838706;12.7783172;7.779526954;5.355084261;-1.377144066;-0.166470703;0.255011361;-9.835811811;-9.305396649;-26.32971924;0.532571677;-14.83810419;-2.167831685;-6.68916158;3.60429866;25.25377732;20.91235993;1.865488028;9.455162735
18.0349682;14.3270549;8.076469154;3.70964654;3.434667191;0.104476469;-1.385420333;-16.80705142;-21.36970285;-32.89899976;-14.18754563;-27.6471344;-12.45353575;-11.77733951;-1.661433722;20.80906828;15.44095368;2.477487793;6.955276456
14.32346305;11.44938163;6.540800174;1.9466785;7.49791636;0.108148065;-5.731079452;-26.25239678;-33.17683316;-39.82234406;-30.88672715;-39.90393057;-22.75693057;-17.17318694;-8.522941836;15.17358034;8.136818933;2.449495893;4.305512026
10.59913699;4.632032028;2.974537983;0.154046364;6.669595747;-0.141937524;-9.786684326;-34.88448321;-40.20159157;-43.89638604;-41.65719603;-47.71628236;-29.81317868;-21.17970743;-13.44013716;8.721279107;1.871088185;1.87069783;2.304345661
8.339121819;-1.854599103;-1.770134755;-1.013841044;1.164275482;-0.52955731;-9.944775548;-38.99581021;-39.5667224;-42.76246533;-41.69916283;-48.64682933;-31.44811762;-22.19517608;-13.30354088;3.584295967;-0.733282916;1.357869682;1.684566476
8.360515896;-3.011046038;-6.034315658;-0.433250835;-4.409189797;-0.93771675;-5.310139741;-36.72257;-31.41975517;-36.42405573;-32.00470661;-42.83086252;-27.66824438;-19.69481634;-7.701682412;2.086949449;1.02029693;1.503918938;2.669262951
10.23501931;3.067052636;-8.191122519;2.743041002;-5.184549065;-1.304522459;0.890814321;-29.19337811;-18.70256939;-27.31971264;-18.06032868;-32.70280555;-20.43245329;-14.54964097;0.790365876;4.838564929;5.513374032;2.294240831;4.797134828
12.56815473;13.6058087;-7.682604765;8.26776622;-0.628140109;-1.599868885;3.297509204;-19.76745071;-5.565037316;-18.85267889;-5.872872183;-21.5701877;-12.33678013;-8.472299448;8.548188723;10.14101703;10.02116019;3.049914677;7.200922248
13.96321565;23.08555527;-5.537339223;14.59624754;4.763628825;-1.777005946;-1.5846228;-11.96266854;4.563135944;-13.3879622;1.552665936;-12.02354081;-5.206600419;-3.033190459;13.51128586;15.23486845;12.60199241;3.022179872;9.164309887
13.95228239;27.18485829;-3.833610122;19.53957129;5.53016734;-1.775821785;-12.52761442;-7.564862155;10.18411269;-11.09699493;4.909206467;-5.160078125;0.450696206;1.035144223;16.39872548;18.31782749;13.23360803;2.145402974;10.53892039
13.19695784;25.66068323;-4.296950013;21.3820428;0.456221945;-1.59094197;-24.17030261;-6.140590661;11.77256945;-10.37802367;6.581558595;-0.880302869;4.953994385;3.830730591;19.63132199;19.60823692;13.38366979;1.228958031;11.69695141
12.83235335;21.9936443;-6.991642965;19.74238904;-5.988554596;-1.333216359;-30.60917501;-6.032075818;10.94164925;-9.411846592;8.114997486;1.292078875;8.568417696;5.751290212;24.9460079;20.57658913;14.4624126;1.309997021;13.06572683
13.4954118;20.24836154;-10.18540387;15.65698683;-7.58274333;-1.197546856;-29.22283411;-5.843720362;9.417152675;-7.619788091;9.319675407;1.666631643;11.08255764;6.992816023;31.70453875;22.09441807;16.47630697;2.666443053;14.63315124
14.80963568;21.78615811;-11.6671826;10.90311888;-2.230807158;-1.328705481;-21.93911545;-5.249413244;8.368956638;-5.95740335;9.354472195;0.478716298;12.14016016;7.494908179;37.23952725;23.22922194;17.97900283;4.395406833;15.83681272
15.71389902;24.46098023;-10.60532377;7.04864119;5.711873942;-1.682045827;-13.31316215;-4.696590375;8.235362765;-5.934671472;8.290588094;-1.697716295;11.87184948;7.272047008;38.85611018;21.86876526;17.30554924;5.050109299;15.93043306
15.34162973;24.79906974;-8.438069516;4.80314167;9.125783798;-2.006517672;-7.228659798;-4.548718361;8.85577011;-8.233433077;7.416725411;-3.824335308;11.10373703;6.701553311;35.79203934;16.73021813;14.0150889;3.882782932;14.52794607
13.72915597;21.20992456;-7.915400873;3.955859004;4.713254628;-1.992909883;-4.789862355;-4.577874235;9.688333221;-12.04399369;7.977063973;-4.846337967;10.85124696;6.405448779;29.59956938;9.000827149;9.331556593;1.600944228;11.88903999
11.79163753;15.50900762;-10.88841701;3.775989571;-3.60011448;-1.493987805;-4.635186894;-4.254484649;10.03453658;-15.61278242;9.674526042;-4.40206201;11.51062462;6.781034376;22.82399685;2.032322036;5.244135373;-0.134492347;8.73906462
10.60398484;11.51323669;-16.59141989;3.511206273;-7.913104343;-0.651044914;-4.827522344;-3.472166072;9.296012391;-17.52132107;10.55332878;-3.174995067;12.47426299;7.603232821;17.24744492;-0.913488863;3.047981276;-0.142919817;5.804701905
10.56889425;11.90480546;-21.94519836;2.667524649;-3.619170417;0.178856011;-4.456615329;-2.938156621;7.235861206;-17.68041763;8.553594837;-2.535661128;12.53218758;8.094923953;13.16284231;0.811770763;2.528049932;1.15784332;3.457354103
11.11647574;15.93222569;-23.86474318;0.992095642;5.942253855;0.651030043;-3.794296857;-3.79423666;4.099953082;-17.3132556;3.377763043;-3.715024988;10.72458944;7.460256977;10.06281645;4.492220642;2.390635723;2.038699944;1.717093266
11.13826062;19.77167744;-21.86993005;-1.687825433;12.08244016;0.652466702;-3.376485669;-6.769151037;0.454433043;-18.03166107;-3.095764524;-7.136284001;6.925704869;5.462218328;7.810940741;5.796759244;1.477336545;1.026396272;0.522993362
9.791889059;19.21727796;-18.88639481;-5.542476857;8.681069549;0.354193737;-3.252632089;-11.61311895;-3.219515027;-20.78377843;-8.350876403;-12.37208113;1.715387468;2.572493225;7.006427168;1.796859775;-0.319568061;-1.611081772;-0.05633754
7.071176729;12.60251493;-19.42466019;-10.61331525;-1.713843217;0.065798517;-3.155837529;-17.31746067;-6.899557043;-25.44388981;-11.42035626;-18.64698417;-4.23774655;-0.421038049;8.144109828;-6.997932647;-2.18258753;-3.901026694;0.094973547
3.773990739;1.833311365;-26.36623497;-16.55873555;-9.572764582;0.00754767;-3.169999976;-22.9069156;-11.03498175;-31.19308803;-13.73459467;-25.36530642;-10.62829313;-3.008849746;10.44906628;-17.08932452;-3.322075058;-3.873138495;0.856223209
0.978954115;-9.004999455;-38.73120296;-22.49566025;-6.900078125;0.168114866;-3.877461347;-28.06421288;-16.09375031;-37.17523306;-17.75484256;-32.19256601;-17.35608725;-5.25731216;11.716056;-24.51060914;-3.825819057;-1.496377492;1.717841984
-0.538151176;-16.20806626;-52.10089418;-27.15236469;4.955996818;0.340932738;-5.575334941;-32.99562516;-21.90858363;-42.77777972;-24.47311803;-38.68763842;-23.95388499;-7.576569825;9.645819952;-27.45228844;-4.608962535;0.998879014;2.008839557
-0.574852215;-18.30506472;-61.36200495;-29.36385862;15.71138708;0.296030475;-7.318622541;-37.65358267;-27.31207586;-47.36212879;-31.94155121;-43.93228528;-29.25079542;-10.17778413;3.762074861;-27.05090156;-6.505969787;0.944828663;1.397063316
0.597447711;-16.17587848;-63.72679606;-28.67798155;15.14187471;-0.046775651;-7.033405719;-41.06767442;-30.42186514;-49.88496037;-36.2105171;-46.62675077;-31.74043118;-12.68814171;-3.71200364;-25.92187936;-9.328624491;-2.25074744;0.250061646
2.4921999;-11.81532249;-59.90818189;-25.67712401;2.914061262;-0.562766101;-3.10954937;-41.51165218;-29.50616565;-49.01717502;-34.04777535;-45.69922368;-30.4572747;-14.24292774;-8.945123411;-25.77714865;-11.7532588;-6.213851103;-0.51086639
4.603228903;-6.920948024;-52.87149436;-21.71460833;-10.03465021;-1.009456647;3.61667962;-37.53478484;-23.92563164;-43.89981892;-25.29478417;-40.99366942;-25.63875545;-13.97758725;-8.912421728;-26.07205833;-12.17873798;-7.412514769;-0.035515984
6.495170844;-2.211632559;-45.42842343;-18.12091975;-10.76199138;-1.183519781;9.337531888;-29.09906098;-14.53920825;-34.98847038;-12.98942834;-33.48526138;-18.58061436;-11.54442935;-3.354694444;-24.66858255;-9.861978874;-4.321993258;1.803620818
7.88707726;2.437580972;-38.60554501;-15.34806799;3.424870367;-1.042372418;9.193418375;-17.88375987;-3.288004197;-24.18371267;-1.208840823;-24.82772101;-10.79166805;-7.308301373;5.205509976;-19.83762006;-5.417740271;0.86198636;4.261930744
8.77538175;7.502918966;-31.80134279;-12.67659797;21.03192478;-0.724040027;0.672323312;-6.439960403;7.777596273;-13.93281061;7.59011162;-16.55707593;-3.186264903;-2.162796241;13.36396565;-11.91331273;-0.333254783;3.781602969;6.235272636
9.481219376;13.34642868;-24.16818723;-8.815848259;25.49375677;-0.467394011;-13.93819958;3.195791789;17.37714782;-5.861397687;13.65018518;-9.523916441;3.985763066;2.823655365;19.12140138;-3.305247074;4.023450745;1.73327098;7.062734498
10.45998698;19.82629436;-15.79797226;-3.106930493;10.37791351;-0.485482078;-28.12096891;10.36848432;25.20716748;0.002203338;18.74166831;-3.907351099;10.47912859;6.690921744;22.77371825;3.049243182;7.059218524;-3.536877324;6.993710339
11.89409895;25.96442596;-7.769453924;3.491815375;-12.81491235;-0.85755922;-34.72394529;15.5197038;31.39560272;4.72336851;23.94674767;0.319971718;15.40622003;8.733717034;25.81902938;5.516606031;8.824232884;-6.847965134;6.943106764
13.36082117;29.92234029;-1.32059641;8.457344249;-22.57105951;-1.488755582;-30.31626752;19.08826757;35.6972793;9.024946676;28.37077867;2.947173151;17.39934873;8.60951817;28.94076069;4.515665553;9.396853057;-4.047734621;7.722793671
13.93566611;29.67393289;2.847954788;8.979925792;-5.954996601;-2.15530395;-17.34586933;20.63351645;37.14307168;12.12142673;29.82557827;3.503932583;15.63491221;6.48325612;30.86298449;1.788625556;8.505264256;3.693843942;9.359524468
12.80657843;24.33827809;4.489200469;3.766367517;27.47471676;-2.616446957;-2.604441032;19.03617684;34.52694068;11.9327265;26.78986756;1.671914345;10.86912638;3.117340849;29.11227297;-1.044997174;5.813480142;9.766156877;11.04190633
10.01443796;15.3563179;3.284658922;-5.834828201;49.46853521;-2.739223243;6.935386102;13.68815426;27.44887551;6.714447032;19.90267934;-2.242740227;5.421589423;-0.285634633;22.11019733;-3.480583429;1.586094978;6.970523448;11.73420607
6.702716536;6.353660742;-1.232366111;-16.27250724;33.59816836;-2.56636675;8.087169678;5.655885586;17.11853473;-3.09498506;11.72154563;-7.211306581;1.811068034;-2.558508473;10.89184999;-6.051489645;-3.005434282;-6.230694282;10.96398526
4.529692418;1.240734957;-8.901348025;-23.68055582;-23.05483324;-2.280462071;2.693536534;-2.306564225;6.185200001;-14.37333972;4.982182978;-11.90822712;0.915767512;-3.159606577;-0.994820479;-9.504782764;-6.413621833;-23.40415534;9.163244413
4.535342434;1.543906502;-17.95808613;-26.07895363;-94.993986;-2.078922607;-4.352381345;-7.161296637;-2.487023834;-22.81753718;0.807571381;-15.41130036;1.096480294;-2.495279296;-9.443511359;-14.05603088;-7.794942799;-34.37702011;7.313451409
6.268504865;4.955350823;-25.0351466;-24.45577663;-145.5048828;-2.039325583;-8.608351142;-7.51018938;-7.376998162;-25.56659432;-1.748684753;-17.71563935;-0.875775616;-1.710595379;-12.21724369;-19.28330046;-7.762689427;-33.25421047;6.201489548
7.904434545;6.564503951;-26.66372385;-21.98653423;-153.3493892;-2.071711912;-8.621645977;-4.619576192;-9.132479216;-23.09111701;-4.619140073;-19.71519025;-7.603356188;-2.044090381;-10.14803085;-24.54473281;-8.088923271;-23.85300021;5.882784916
7.396789718;2.300230661;-21.44794769;-21.88234344;-127.9774687;-1.998964475;-6.04495315;-1.710425864;-10.03133152;-18.9197389;-9.118394134;-22.64608715;-19.11461098;-4.163720391;-6.366924633;-29.37876139;-10.45133321;-17.62450848;5.749669047
3.904154428;-7.801683349;-11.26192976;-25.28820999;-100.8948892;-1.710759764;-3.749864145;-1.946132016;-12.39341555;-17.32703634;-15.10029163;-27.31669107;-32.60454736;-7.911886807;-4.248312346;-33.51139047;-15.13629507;-24.90667975;5.101521157
-1.548175619;-19.11807934;-0.385850395;-30.62039402;-99.86105415;-1.273752856;-3.627952172;-6.51719504;-17.03544263;-20.60996733;-21.35730921;-33.56895261;-44.04198606;-12.56876573;-5.542697465;-36.60071556;-20.71784412;-45.99442634;3.728487515
-6.698002533;-25.44863949;6.919173501;-34.75226131;-126.538831;-0.906378484;-5.612856034;-14.1266446;-22.8543373;-27.85747948;-26.67327398;-40.27215999;-50.45547556;-17.35528977;-9.819480076;-38.14600193;-25.00562109;-69.28911707;2.05357888
-9.546965225;-23.50741965;8.632901419;-35.20956234;-155.4655137;-0.82827483;-8.241644324;-22.10134706;-27.79219832;-35.95407869;-30.52952097;-45.84239021;-51.29182076;-21.7587541;-15.26097563;-37.77820437;-26.56432055;-78.6783861;0.770906314
-9.654009082;-15.53291385;5.413438303;-31.87637887;-154.8780655;-1.094114865;-9.909859954;-28.15318731;-30.38785349;-41.8789534;-32.9660617;-48.98609374;-48.06015047;-25.47770253;-19.94860751;-35.66459674;-25.65475952;-65.08179464;0.323490707
-8.29688593;-7.889321437;-0.818225991;-27.07652126;-112.2642238;-1.537979161;-9.742600226;-31.43644272;-30.67742552;-44.49117224;-33.95113192;-49.24565591;-42.81745278;-28.14814317;-22.69163279;-32.52814504;-23.90032167;-33.50946665;0.650968746
-7.431663196;-6.536565967;-8.68504457;-24.00656674;-44.07200329;-1.87136227;-7.682738666;-32.25785923;-29.74965445;-44.57639897;-33.01602179;-47.04827496;-36.82;-29.20530586;-23.06779263;-29.09344338;-22.97445173;-0.07896056;1.363586167
-8.271720442;-12.70007813;-17.89698637;-24.58791694;17.54874509;-1.861525778;-4.207555271;-30.96915885;-28.38772311;-43.42868195;-29.55935717;-43.26472096;-30.29714605;-28.09;-21.03778199;-25.3716166;-23.34054572;19.00116576;2.126173484
-10.54514582;-21.99365964;-28.18805809;-28.15751886;49.19952978;-1.461229806;-0.255288804;-27.21822216;-26.03017649;-41.38922017;-23.52040905;-38.59389022;-23.20943803;-24.66433608;-16.69091221;-20.49862503;-23.9859175;18.3138417;2.888321178
-12.90795909;-27.64038562;-37.92349305;-31.83511298;51.55870739;-0.808396196;2.598083393;-20.32531063;-21.06767355;-37.64010812;-15.74920134;-33.2;-16.02902085;-19.47076141;-10.33326067;-13.47480714;-23.28285954;5.926339899;3.781138268
-14.07640945;-25.32883153;-44.06650002;-32.3102584;43.90137138;-0.12035082;2.274753564;-10.45609069;-12.37863798;-31.33141581;-7.684488338;-26.8491083;-9.705618008;-13.56640477;-2.674215087;-4.353732487;-20.25058289;-3.83961461;4.828693124
-13.72860745;-16.07349026;-43.95933448;-27.90669849;44.19341752;0.419587892;-2.853879043;0.556189817;-0.881577906;-22.90053754;-0.588391584;-19.42430412;-4.885468322;-8.007825396;5.24163639;5.115764855;-15.2515477;-1.727424815;5.791380486
-12.4985731;-5.096584039;-37.5663618;-19.64739822;53.01942883;0.703036882;-12.50144049;9.695069692;10.29463372;-14.28324442;5.023575203;-11.40849677;-1.250805116;-3.360347676;12.40979879;12.12716774;-9.673185671;9.780286973;6.322739148
-11.18086208;2.161002767;-28.11776151;-10.70111836;55.30818275;0.668001809;-23.62205349;14.4258241;17.41957764;-7.730605822;9.313952175;-3.931609579;2.207378318;0.404032814;18.23571546;14.5013026;-4.955139189;19.25978976;6.31233092
-9.907366299;3.728106829;-20.24286819;-4.59442737;37.43528573;0.27033713;-31.29445251;14.34167096;18.51265513;-4.220730427;12.5453027;1.692877276;6.052810156;3.568670152;22.54729417;12.26213134;-1.766710229;15.97142016;6.089732207
-8.031124194;1.827449172;-16.80086495;-3.295403059;3.315578639;-0.48763259;-31.3122131;11.4587407;14.69503946;-2.854887859;14.54478021;4.621320669;9.385197836;6.198627493;25.24015852;7.856588649;0.090656903;-1.433337577;6.261234893
-4.81032781;0.473545755;-16.87782095;-6.296737113;-26.1416294;-1.490083008;-22.9901598;8.80842421;9.452710387;-1.793960718;14.68540061;4.852792843;10.00242896;7.939698773;25.93963282;4.686221488;1.131989152;-23.74767047;7.263067806
-0.289098069;2.157637765;-16.64823212;-11.16809913;-30.91964304;-2.483048642;-10.12877112;8.312413;6.27700155;0.048424527;12.39118326;3.07858527;5.903273742;8.267022838;24.11066886;4.889461167;1.572465273;-38.06257513;8.973953772
4.3983153;6.231018889;-12.54123633;-15.13873293;-11.74097999;-3.154890407;0.909895511;9.530722245;6.394170232;2.008295199;7.745268532;0.184880219;-2.883714714;6.985538771;19.65857434;7.952872004;1.200121291;-36.98711455;10.70987827
7.594281853;9.916962124;-4.260058594;-16.67633055;6.526623578;-3.295669317;5.027900533;10.22595354;8.226817543;2.226844118;1.729340167;-3.160408233;-13.60551082;4.56943284;13.55827316;11.19275266;-0.199367236;-23.21914385;11.63479019
8.139863029;10.70643197;4.724978447;-16.10446678;-6.900788393;-2.927769263;1.577722757;8.280173201;8.886523041;-0.726325338;-4.07328187;-6.537470793;-21.96486613;2.03916975;7.883300232;11.79181969;-2.309539116;-6.544418436;11.29691109
6.083585382;8.03989534;9.587190252;-14.97896044;-62.2682384;-2.30404376;-5.399427296;3.453969963;6.448731862;-6.566583303;-8.118107248;-9.519771707;-24.53999449;0.418856947;4.971432594;8.910321543;-4.185176475;3.710794546;9.902041867
2.578195803;3.160127813;7.549465204;-14.76953508;-136.2473251;-1.762910834;-10.16409793;-2.370941232;1.242242598;-13.44263498;-9.539470198;-11.52700835;-20.83745005;0.126910406;6.114531141;4.310346538;-4.763810016;4.704618496;8.136198313
-0.895905177;-2.252062723;-0.32332714;-15.81798675;-184.4530508;-1.537048478;-9.389122025;-6.603561958;-4.718186453;-19.36179497;-8.524144399;-12.07781329;-13.5720966;0.704022961;10.59808805;1.018959955;-3.642803652;0.431028652;6.684516355
-3.36985598;-7.170398985;-10.15483453;-17.28792135;-171.6824024;-1.644302723;-4.374902607;-7.850877719;-9.493220048;-23.63526367;-6.300078125;-11.3079183;-6.999601893;1.053410886;15.78806705;1.008940951;-1.531078305;-2.901649602;5.800711605
-4.724153448;-11.18003906;-18.05512399;-18.07183831;-97.68949047;-1.921559598;0.270763995;-6.828418335;-12.61894092;-27.10840776;-4.72106568;-10.25926721;-4.463802617;0.036851799;18.3342639;3.613842567;0.005828995;-2.100387251;5.215830601
-5.425812469;-13.77561578;-22.39138121;-17.91520266;0.842235333;-2.155006809;0.438777523;-5.649946195;-15.04490146;-31.05065396;-5.519456243;-10.52255546;-6.782482218;-2.935930324;15.85731657;5.86850877;-0.60610536;1.295204682;4.409766479
-6.020223988;-14.14938886;-23.95349083;-17.86416903;73.68343018;-2.203027856;-4.177457413;-6.193295889;-17.85929376;-35.77808605;-9.467176517;-13.32482386;-12.39155485;-7.650605264;8.177100933;4.566141146;-4.031896196;3.481794955;3.018763318
-6.813241918;-11.98100659;-24.34521658;-19.65502134;88.69206598;-2.040092773;-9.893198798;-8.916084945;-21.09364569;-40.29431028;-15.86924201;-18.67789541;-18.88353489;-13.26463309;-2.593339867;-1.424372137;-9.609540235;2.259152883;1.0939562
-7.885550816;-8.4775142;-24.32153846;-24.46047725;49.40121274;-1.729516416;-12.10741939;-12.99760288;-23.73587585;-43.27240415;-22.79467717;-25.25934807;-24.67735891;-18.76147872;-13.11474044;-10.22965147;-15.67485023;-1.17291695;-0.929171939
-9.2385924;-6.353150856;-23.5312741;-31.89695747;-12.18305229;-1.381645596;-9.15320751;-17.48108077;-24.89063056;-44.43474993;-28.07549039;-31.17589148;-29.64762999;-23.39267566;-20.44513496;-18.0925176;-20.41579927;-3.682165025;-2.480606328
-10.80423373;-8.249957955;-21.60270333;-40.01472184;-59.82760348;-1.133380811;-3.748675045;-22.23746304;-24.90393856;-44.97587884;-30.53866608;-35.05984211;-34.45288889;-26.86296957;-23.34762805;-21.757336;-22.74866838;-3.191704049;-3.137707921
-12.28703222;-14.61234336;-19.20699516;-46.28407431;-75.58481642;-1.130111679;-0.757550713;-27.80041754;-25.2504902;-46.51652828;-30.62467393;-36.66621805;-39.28991804;-29.1934335;-22.61406233;-20.46294901;-22.73267436;-0.388455023;-2.78297828
-13.07495468;-22.81368109;-17.83823611;-48.89478756;-65.68542586;-1.471489847;-2.976227364;-34.21797608;-27.11408136;-49.44058805;-29.85534476;-36.54164282;-43.14564268;-30.40151319;-20.27639561;-16.18938156;-21.33320775;2.174462763;-1.596091456
-12.45539927;-28.5344776;-18.39892247;-47.51630634;-49.09202685;-2.12721361;-8.383996658;-40.05308857;-29.87333085;-52.11963973;-29.43935753;-35.11322837;-44.14362522;-30.2494189;-18.1759059;-12.04560055;-19.71580238;2.486178719;0.067506469
-10.08259206;-28.57342067;-19.96028841;-43.1167045;-40.49250572;-2.892965579;-11.27619122;-42.64862739;-30.95785707;-51.8449083;-29.04398441;-32.04079274;-40.71777419;-28.26598971;-16.72356642;-9.978582816;-18.49791122;0.72880757;1.836743632
-6.336825121;-22.98577599;-20.04416208;-37.12690075;-41.19222327;-3.462175464;-6.66526575;-39.71925466;-27.46344494;-46.82257387;-26.76709187;-26.45096079;-32.74761695;-24.06161126;-14.61448437;-9.428306492;-17.38628345;-1.16238498;3.471203064
-2.21501946;-14.86619607;-16.43288538;-30.62894562;-42.66203194;-3.607298894;5.347530659;-31.12203296;-18.38684831;-37.62271579;-20.49341008;-17.89848549;-21.8499415;-17.73899567;-9.743955055;-7.856951838;-15.39743222;-1.38367748;4.955156355
1.253635692;-7.952004209;-9.071116505;-24.08602322;-36.84672633;-3.354955154;18.702746;-19.34531898;-5.6865744;-26.87698437;-9.71275619;-7.232163042;-10.63216011;-10.09957794;-0.841245185;-2.747179537;-11.52410012;0.225820217;6.494789574
3.652325058;-3.979050751;-0.410916605;-17.61864962;-23.38172277;-3.006559545;24.94734092;-8.169510263;6.783461305;-17.4749267;3.594709264;3.438492122;-1.405023907;-2.445148633;11.19772106;6.368844347;-5.452005119;2.301966374;8.38454369
5.361849297;-1.883344083;6.194710435;-11.42205306;-8.530019531;-2.951495033;18.83602012;-0.389309469;15.73451977;-10.75869407;15.79285226;11.77046126;4.838614684;3.966207862;23.24801321;17.30231965;2.104233877;3.364804009;10.77077111
7.106675214;0.637535682;8.805923563;-5.924157428;1.405135224;-3.383074818;2.010916635;3.727428155;20.42910053;-6.166806828;23.65589975;16.49049675;8.604010784;8.500078125;31.41584025;26.46609417;9.658212986;3.092038733;13.43237507
9.20701298;4.667262716;8.082844663;-1.622109121;5.342888584;-4.125531086;-17.81455925;6.104049922;22.69862526;-2.470540096;26.22633872;18.01980658;11.22480691;11.39470124;33.26084157;31.12119769;15.65939082;2.352425649;15.74091597
11.15114;8.880937231;6.475317126;1.150404516;7.001181808;-4.718855191;-31.51;8.955224795;25.08472079;0.661974165;25.15979825;17.99530127;13.84594159;13.50810081;29.37972762;31.03642539;19.23146204;2.166380701;16.89055806
11.87066025;10.63329943;6.210236243;2.270638869;10.22343375;-4.720633079;-33.74647683;12.84659704;28.67787784;2.289486848;23.38165674;18.10589297;16.71092877;15.71843986;23.20674534;28.41074763;20.50179264;2.712483634;16.31885285
10.54125593;8.345153608;7.787481277;1.702228045;15.02280121;-4.01371617;-25.38469963;16.23471675;32.38651582;1.380393144;23.10976236;19.12221351;19.14056451;18.35640865;18.99042645;26.15936716;20.34172533;3.296004394;14.08184152
7.296915425;3.09076089;10.11144529;-0.560382343;17.8572206;-2.8949632;-11.90822985;16.79940928;34.11;-1.594384852;24.66724724;20.73335624;20.11652942;21.01329925;19.16823624;25.84248959;19.71204383;3.163453542;10.92734564
3.294843442;-2.019544869;11.88501416;-4.30789448;15.28698354;-1.880431397;0.447529028;13.44685722;32.7011002;-4.312033286;26.77724449;22.1010393;19.01429634;22.8042181;22.87776521;26.75742373;19.04979238;2.25211067;7.969928219
0.063630541;-4.187826426;12.83997237;-8.833390952;7.245025476;-1.372347313;7.999516454;7.351903108;29.01735739;-4.114579763;27.85063164;22.52882915;15.98918908;22.87485438;26.66050704;26.82688537;18.08136789;1.142094028;6.121002267
-1.39145065;-3.079076307;13.67965127;-12.91628316;-2.921823159;-1.427943336;10.47950899;1.21005127;25.22546017;-0.299361259;27.12193061;21.72339375;11.80820776;20.82783037;26.92806081;24.54523667;16.14353543;0.363513271;5.601879493
-1.092691884;-1.02372225;14.9226278;-15.29813736;-11.13739237;-1.779316564;9.687322268;-2.689033387;23.03858154;4.79024669;24.82767783;19.63426279;7.322807992;16.86218944;22.50218277;20.421215;12.75306084;-0.134847173;5.839316057
0.101467593;-1.137398425;15.91226041;-15.43689278;-15.18356648;-2.057172595;7.606225622;-4.040728653;22.4293834;7.035581716;21.56132613;16.26414685;3.008425207;11.63808574;15.44503145;16.72937137;8.020564988;-0.774386372;5.818680202
1.160430374;-4.891517816;15.09646528;-13.97642771;-15.06816087;-2.030423019;5.463524021;-4.554540123;21.86606373;3.423256351;17.61226976;11.76127329;-1.102935113;6.016385485;9.58517897;15.70344713;2.642573345;-1.64884903;4.689921846
1.491485091;-11.02926039;11.4424954;-12.47313483;-11.62495784;-1.693763475;3.919582991;-6.488619819;19.7605056;-5.642950611;12.94524256;6.667014005;-5.114126654;0.805087689;7.786440576;17.57506917;-2.485955288;-2.15773289;2.267167583
1.100068359;-16.56435778;5.692628963;-12.46454508;-5.431114506;-1.182889205;3.503657904;-10.90285117;15.80439604;-16.46937203;7.721580341;1.893196397;-8.909605879;-3.448792457;9.904795932;20.07448088;-6.741882832;-1.47730959;-0.86682264
0.311658858;-18.95947227;0.187146397;-14.51816495;2.723086936;-0.636080352;4.490327515;-16.98888497;11.05793513;-24.64256118;2.665952209;-1.795186637;-12.11808078;-6.620306925;12.86943716;19.94206393;-10.00030403;0.514574877;-3.693135457
-0.609618642;-17.79252002;-2.789238513;-17.97162532;10.74729875;-0.135729315;6.348253198;-22.90399041;6.822418872;-28.11197447;-1.276791077;-4.469344834;-14.46312351;-9.063052603;12.7869331;15.42610417;-12.48845003;2.808038638;-5.305348092
-1.61533943;-14.80238963;-2.822131613;-21.55805922;15.47158005;0.243463198;7.616599396;-27.32291116;3.406138668;-28.43408284;-3.802880669;-7.232448731;-16.19817553;-11.45295493;7.544911102;7.88087191;-14.4111154;3.895767852;-5.340728059
-2.742267023;-12.52837727;-1.769249176;-24.4044788;14.73762274;0.370761545;6.779151525;-30.40615917;-0.062576431;-29.27155;-5.805485522;-11.53375476;-18.1809753;-14.38933622;-1.88101193;1.149043446;-15.64653769;3.029842477;-4.059675974
-3.902192148;-12.69220565;-2.295427852;-26.58831057;9.610598917;0.086776034;3.656705704;-33.43530358;-4.611463132;-33.38278311;-8.926328642;-17.95758921;-21.38434141;-17.92363703;-12.18962317;-0.958178144;-15.74921811;0.974480384;-2.074255268
-4.823491178;-15.38146448;-5.652666952;-28.81175862;4.239622083;-0.670758736;0.066142621;-37.48651982;-10.13931183;-40.45677876;-14.24300553;-25.41252126;-26.10199441;-21.33972685;-19.86435003;2.697973691;-14.26846379;-0.51892225;0.060963933
-5.182013201;-19.276691;-10.48917916;-31.50499297;2.808346332;-1.752189813;-1.152412976;-42.27891834;-15.06498455;-47.38909828;-21.0698018;-31.47275059;-31.42440833;-23.42750715;-23.07312433;9.765203126;-11.15785208;-0.158181;2.126250036
-4.762363206;-22.43748134;-13.66736017;-34.16205089;5.906498271;-2.819547918;1.673421354;-46.15329364;-17.28549683;-50.63441538;-26.92074525;-33.7630827;-35.45150091;-23.16406745;-22.1708186;16.03758151;-6.97018318;1.761060532;4.234535686
-3.485169989;-23.06379109;-12.46144859;-35.51925653;9.655446737;-3.528974321;7.240233049;-47.20103789;-15.67641539;-48.71511153;-28.85471889;-31.41745974;-36.2198484;-20.37341551;-18.78524059;18.37193529;-2.662585748;3.572038225;6.604395268
-1.308441493;-20.02206006;-6.429868157;-34.46098647;8.77929882;-3.750261586;11.43096298;-44.6476342;-10.90600037;-43.00820892;-25.33525741;-25.52559399;-32.80284983;-15.87807688;-14.45566517;16.76894803;0.901641351;3.659433109;9.302078145
1.832380245;-13.22116645;2.422555449;-30.9;1.263003481;-3.651888091;9.696357384;-39.41618347;-4.928129219;-36.41879219;-17.27907605;-18.25456439;-25.88479011;-10.98792692;-9.877338704;14.15414051;3.443498062;1.860458136;12.1345386
5.914116696;-3.827976525;11.18007813;-25.88254902;-9.458704904;-3.573553888;0.217270674;-33.45614672;0.383048994;-31.18658599;-7.526370627;-11.37088739;-17.44016949;-6.670867342;-5.069721617;14.12177351;5.410385527;-0.393935893;14.73850825
10.61223775;5.940477882;17.94661727;-20.81681771;-16.93086761;-3.773131043;-14.32505493;-28.37183048;4.346897478;-27.56464424;0.888863525;-5.324595038;-9.729291121;-3.018010037;0.032133968;18.37962845;7.635232365;-1.332412857;16.76324344
15.21238786;13.65422488;22.70770968;-16.47029853;-16.87858875;-4.235776281;-27.7275855;-24.38961022;7.543227499;-24.19716814;6.448266094;0.473388072;-4.234941697;0.591899001;5.261345302;25.74420774;10.70340334;-0.385527973;17.99855299
18.81812467;17.85266973;26.65922073;-12.57747345;-10.77947686;-4.686376684;-33.54513983;-20.41158539;10.96533476;-19.6006996;9.702307678;6.579060788;-1.141288311;4.770009766;10.38799672;33.25639242;14.44675843;1.348221774;18.37842897
20.77496142;18.79954865;30.78119911;-8.379514154;-4.676785911;-4.790853643;-28.69849462;-15.07951209;15.09147184;-13.41753948;12.42241651;12.68176871;0.442497414;9.427730493;15.3796757;38.36644362;17.93868362;2.116181599;17.91449383
21.01020078;18.14026455;34.90359519;-3.615072955;-4.17427483;-4.392832785;-15.21956733;-8.046891598;19.61393977;-6.548427266;16.08827746;17.74547886;1.768400936;13.68596446;20.27237314;40.44360966;20.04133375;1.088180267;16.66939255
20.01612181;17.58;37.92164466;0.91516377;-9.865458757;-3.616843908;0.882840131;-0.537129672;23.86519432;-0.339679736;20.8043593;20.92443704;3.710893004;16.45640055;24.67653397;40.5787548;20.15916052;-0.913501666;14.81898581
18.48118261;17.56530885;38.79172677;3.739300105;-17.060399;-2.780344057;12.90673915;5.209402955;27.37471117;4.290576393;25.30165465;22.33395208;6.360759839;17.20907328;27.49758229;40.10896786;18.66826188;-2.167122686;12.73274227
16.8654982;17.06922076;37.37190642;3.787656926;-19.92219335;-2.198125078;16.94377036;7.232453945;30.01217634;7.086018706;27.86972839;22.90731226;9.044525059;16.2871987;27.41716147;39.27983866;16.68346776;-1.589861342;10.9418987
15.25861157;14.71633288;34.460492;1.29266531;-16.33908186;-2.024121411;13.60823367;5.04714917;31.71098852;8.096884;27.49393785;23.44558892;10.65787975;14.51771879;23.98272095;37.20171324;15.29027296;0.325965666;9.936246144
13.60053136;10.30082335;31.15352405;-2.222257346;-9.36294853;-2.22248721;7.147605929;-0.017720651;32.22536085;7.323867037;24.46940098;23.75719118;10.14215232;12.46990763;18.40923793;33.0379543;14.77923844;2.000769064;9.886604277
12.01486347;5.313125553;28.16384383;-4.886740562;-4.195932848;-2.650852128;2.599162822;-5.536787533;31.28643204;4.796027773;20.19988935;22.74516636;6.951050836;10.01766247;13.18588519;27.25581423;14.45514097;2.207880724;10.49649792
10.89856091;1.879714287;25.62200848;-5.660602321;-3.616865318;-3.16645479;2.747823349;-9.312896863;29.00789252;0.921409495;16.39300439;19.44113524;1.357577019;6.597190605;10.48082652;21.71397303;13.19187444;1.149381582;11.13313878
10.64204304;0.936728999;23.34224269;-4.890790007;-5.926799305;-3.677469245;6.703691441;-10.51760048;26.02285139;-3.423149821;14.13921093;14.07622514;-5.55478467;1.94027747;10.46058332;18.38591158;10.34320868;0.208538261;11.19261524
11.21718652;1.256780244;21.14567761;-3.9009786;-7.014963465;-4.128743442;10.90938254;-9.994387542;23.04523364;-7.342780665;13.35231597;8.167620403;-12.29392894;-3.370781372;10.9620115;17.74053001;6.324294495;0.63556768;10.46391316
12.03410721;0.335647243;18.92072679;-3.996197375;-4.375075635;-4.466626913;11.8585362;-9.588619119;20.17314983;-10.57660193;12.8473064;3.431841457;-17.62619312;-8.055596732;9.032261817;18.17522131;2.397774669;2.382947335;9.232620176
12.26263048;-3.451436627;16.48977431;-5.641150912;0.713623849;-4.62963275;8.672186423;-10.94974244;16.65238555;-13.68503556;11.03874736;0.400841655;-21.16049404;-10.93467872;3.3180365;17.09020338;-0.208472024;4.146648916;8.04560845
11.40419673;-9.232714593;13.58973077;-8.347095823;4.717287039;-4.573359019;3.720106784;-14.55444598;11.51411727;-17.46382582;6.930479687;-2.041959776;-23.46902549;-11.75536525;-4.584863654;12.85886978;-1.201150207;4.555985642;7.31214371
9.648502707;-14.0735596;10.11278204;-11.22101959;5.42719127;-4.3037073;0.788940745;-19.54093662;4.682495209;-22.02782317;0.847646226;-5.717737533;-25.62105838;-11.37361264;-11.06608142;6.179677593;-1.445997276;3.413604093;7.042995687
7.699387152;-15.29239415;6.390341531;-13.67462564;4.080596303;-3.890748019;2.089341463;-24.41431928;-2.435616615;-26.42765198;-5.593937339;-11.51522913;-28.41271641;-11.12654939;-13.18170143;-0.273879141;-2.315321372;1.860401303;6.919565529
6.199583918;-12.80725913;3.159241289;-15.77130225;4.023536684;-3.457062114;6.37843595;-28.10937768;-7.587121143;-29.27927478;-10.38513902;-18.4129115;-31.82112415;-11.87442572;-11.03087277;-3.689783945;-4.617679604;1.333039032;6.622015945
5.243319579;-9.46116808;1.120593679;-18.0355234;7.274327879;-3.15017406;9.790312691;-30.65838513;-9.228575941;-29.97042948;-12.39708691;-24.00952609;-35.06896901;-13.44031293;-7.845945498;-3.080058594;-7.893061947;2.275633602;6.140567694
4.411681426;-8.844411425;0.439459058;-20.93550598;12.35237935;-3.105615389;8.943117328;-32.98731333;-7.793584511;-29.37691025;-12.16365378;-26.17266253;-37.23023531;-14.83686784;-7.544297447;0.092863496;-10.59365362;3.77012141;5.815482467
3.320207303;-12.23647202;0.678657888;-24.40442258;15.50899585;-3.399872639;3.983463111;-35.98730172;-5.527976531;-29.31132633;-11.51960946;-24.48790077;-37.88982919;-15.03969564;-11.55963217;3.082349714;-11.02190611;4.396846075;6.080527101
2.202664974;-17.16042401;1.308954675;-27.6642072;14.22236408;-4.001358824;-0.993834231;-39.55042895;-4.840410548;-30.97866401;-12.21700786;-20.36614622;-37.33643122;-13.67200787;-17.47661695;3.942508059;-8.360984697;3.522403347;7.129243871
1.980122404;-18.8744684;2.376905629;-29.42163572;9.616665818;-4.749213711;-0.855756173;-42.31847108;-6.376291089;-33.65375815;-14.4585134;-15.79223301;-36.16170012;-11.10942208;-20.66648383;3.002815179;-3.106099871;1.848593619;8.777459455
3.670709987;-13.80431565;4.676457939;-28.36363375;5.443043569;-5.395442735;6.286134668;-42.400119;-8.368675472;-34.77446695;-16.47820731;-11.81147633;-34.64084902;-8.035133071;-17.75099468;2.675722111;3.319496799;0.75331143;10.61655617
7.558962635;-2.32611759;9.138354835;-23.79510958;4.523355111;-5.713051278;16.74832271;-38.60610474;-7.885875322;-31.59115934;-15.61623945;-8.012375283;-32.45602458;-4.909420442;-9.210851528;5.745228648;9.395159848;1.053381191;12.29893382
12.7886013;11.23931564;15.84728167;-16.17820695;6.032469379;-5.617078103;23.0463854;-31.3510928;-3.09512561;-23.24666407;-10.22045916;-3.360753419;-29.02857204;-1.809015962;0.927759689;13.32763512;14.16542465;2.316705491;13.69343867
17.74519895;21.41331683;23.50676773;-7.265905117;6.304369498;-5.215814113;18.87393457;-22.58415152;5.180309205;-11.7248656;-1.022196127;2.42904816;-24.19302696;1.306373291;8.09196105;23.86871532;17.36026689;3.3159262;14.78620169
20.98288912;25.00846507;29.89254511;0.398865496;2.561618803;-4.744402992;3.802813115;-14.78784019;13.81018852;-0.892280089;9.042375446;8.231840153;-18.62936665;4.244264306;10.46528436;33.80073878;19.07739897;3.165552141;15.45663389
22.01990393;22.72401545;33.05903019;4.540851406;-3.880257066;-4.417079763;-15.82975589;-9.726519457;19.34144014;5.736059956;16.46471785;12.15193969;-13.6480994;6.534159466;9.980019531;39.40351646;19.43601934;2.087642591;15.39395808
21.43498568;17.93687584;32.43830772;4.280719405;-8.090583003;-4.301627017;-30.68897351;-7.754399502;20.12235287;6.951635546;19.08804831;12.91676343;-10.45219576;7.746733574;10.26902917;38.7217584;18.51927764;1.133229764;14.30011464
20.25228938;13.92246574;29.03862196;0.651498066;-5.568721902;-4.308130851;-34.27079166;-8.03722379;17.06064893;4.236915942;17.00674924;10.83418225;-9.434862246;7.86351334;13.32076815;32.46381704;16.56790163;1.165134897;12.24271941
19.1485147;11.77154557;24.66312352;-3.914748029;3.578643371;-4.294780182;-26.67616806;-9.373084567;12.65234857;0.483395622;11.98240476;7.517879581;-10.04516257;7.319237016;17.61995668;23.49101759;14.11835984;2.068713542;9.829218949
18.10882748;10.41821811;20.8241504;-6.910454687;14.08039584;-4.19759188;-13.80565511;-10.93667345;9.222399379;-1.892762709;6.059732642;4.640145545;-11.29071423;6.643041598;19.31112206;15.31242014;11.83885742;2.906911993;7.964713062
16.73783065;8.318105946;18.18606839;-7.091234294;19.25863742;-4.072257985;-2.88696368;-12.46416923;7.731974168;-2.118158127;0.547882347;2.765744177;-12.44354339;6.009337533;15.42558744;10.46098395;10.13381052;2.836161578;7.286638816
14.86682727;5.049788802;16.81951412;-4.985846188;16.04911605;-4.015471243;2.168567267;-13.93296183;7.8055714;-0.929764464;-3.997335157;1.192866666;-13.39323855;5.111943143;6.518637886;9.559878607;8.853655056;1.90094552;7.675078414
12.86872085;1.452146571;16.80139249;-2.302739471;7.129564585;-4.043777938;2.311092038;-15.19946707;8.541185431;0.406162142;-7.162018666;-1.167986047;-14.43665377;3.492631133;-3.448387969;11.42130386;7.402848259;0.967247223;8.246820978
11.38170927;-1.588385676;18.42322885;-0.737186795;-1.486391411;-4.051096479;1.211764692;-16.00932128;9.165774184;0.981018992;-8.353639417;-4.710371836;-15.78956503;1.039638108;-9.904741386;13.95583845;5.210818536;0.882164838;7.9111753
10.69039799;-4.333668934;21.71436296;-1.065418854;-5.161743422;-3.89789515;1.695326392;-16.36873011;9.035836838;0.435465895;-7.287500742;-8.781565191;-17.31814918;-1.798669112;-10.92952629;15.30118663;2.206434457;1.670951654;6.134616799
10.33876648;-8.100405407;25.73469868;-3.096375344;-3.630068359;-3.561192432;3.744046306;-16.86800995;7.319769963;-1.398511629;-4.840219609;-12.30908082;-18.74372765;-4.303083076;-8.448670655;14.56358075;-1.091225939;2.530133996;3.369547409
9.368474652;-13.89179714;28.44681285;-6.310578261;-0.030083923;-3.20569868;5.32422457;-18.54363469;3.066175994;-4.807313542;-3.257676296;-14.79481761;-20.10529331;-6.052351394;-6.553587056;11.87515066;-3.948311618;2.610915582;0.816975108
7.040019531;-21.03230079;27.57723226;-10.47991534;2.630058594;-3.091139169;4.759677178;-22.26132524;-4.099127294;-10.04694982;-5.126419583;-16.78885712;-21.99595496;-7.288735732;-8.393256725;7.911766036;-5.957374996;1.839547244;-0.333962328
3.461493623;-27.16421977;22.02738719;-15.681426;4.051163813;-3.370353448;2.28194954;-28.04932699;-13.21237296;-16.88725934;-11.62849088;-19.4446163;-25.26302995;-8.750210433;-14.0744794;3.320124033;-7.306837224;0.992509907;0.331583274
-0.406140713;-29.78745831;12.81936084;-21.76421511;5.961821408;-3.938764577;-0.491384594;-34.90964854;-22.01609862;-24.36449613;-21.4107926;-23.54588873;-30.32752635;-11.07576401;-21.00468807;-1.520514578;-8.565176858;0.953856179;2.210571996
-3.402165851;-28.13959973;2.782933069;-27.90036781;9.190904154;-4.470962796;-2.29234392;-41.28773436;-28.08985257;-31.08835575;-31.11208471;-28.80284723;-36.63419746;-14.24109137;-26.08514764;-6.30537119;-10.16114843;1.857229631;4.104274927
-4.974672886;-23.85119682;-4.922546269;-32.80692517;11.72870766;-4.635776817;-3.226214389;-45.87405945;-30.35;-35.93193398;-37.34231433;-33.93979966;-42.68455785;-17.45793588;-27.82922156;-10.4707688;-11.9791933;2.927004941;4.990706746
-5.504756909;-19.79461884;-8.49299012;-35.5818563;10.03170419;-4.333245766;-4.064338831;-48.16629327;-29.72257637;-38.56558943;-38.7141296;-37.4409079;-46.6830797;-19.60490496;-26.84393473;-13.14591431;-13.38266578;3.178547052;4.617934126
-5.889937457;-18.02672716;-8.251890295;-36.43458662;2.575115376;-3.770204054;-4.694780088;-48.43455927;-28.35;-39.41573833;-36.41981688;-38.35905622;-47.38866555;-19.86232618;-24.67732957;-13.56589132;-13.6295132;2.331497186;3.557693012
-6.722743086;-18.44473464;-6.058179996;-36.5524337;-7.759079257;-3.312719596;-3.606802188;-47.21510796;-27.88319446;-39.11692684;-32.97164004;-36.6626604;-44.64809308;-18.11084021;-22.34689594;-11.67059053;-12.34848747;1.086448065;2.755027563
-7.724408425;-19.14798057;-3.870178174;-37.03899888;-15.07932605;-3.22697834;0.678676137;-44.80428561;-28.20299048;-37.93625016;-30.17055581;-33.03825903;-39.34907811;-14.87809881;-19.8434595;-8.344703046;-9.7289722;0.503621255;2.930170011
-7.892120687;-18.09533245;-2.525977238;-37.72682935;-14.8921728;-3.504879906;7.370720282;-41.16176467;-27.60719481;-35.63148096;-27.93362073;-28.44597359;-32.92291682;-10.95994004;-16.74955398;-4.943803998;-6.328569746;1.053034551;4.221849771
-6.25748096;-14.66137731;-1.537106641;-36.92765238;-7.833165913;-3.899186022;12.65065657;-36.24023092;-24.29674625;-31.80366566;-24.82775731;-23.75274045;-26.74440363;-7.022005972;-13.01901813;-2.312513634;-2.693859244;2.206644866;6.230644941
-2.6798851;-9.905838095;0.116856815;-32.53;0.644263444;-4.126580549;11.68456651;-30.38646296;-17.92859011;-26.39463767;-19.70554335;-19.53664581;-21.71170744;-3.40581507;-8.96708904;-0.001130326;0.909117975;2.937857789;8.334831878
1.924301264;-5.516852047;2.917343024;-23.75650447;4.575101719;-4.072016163;2.267766541;-24.41542394;-9.974815654;-19.9065838;-12.95816525;-15.97669065;-18.08239729;-0.153296245;-4.530860975;3.621021788;4.494552692;2.656175828;10.01812746
6.086766091;-2.450744543;6.290830104;-12.24602982;2.219895187;-3.841584554;-12.76023713;-19.25894079;-2.659122887;-13.20480062;-6.322371964;-12.7954826;-15.50832145;2.867918113;1.200437404;10.25364709;8.152735011;1.712896604;11.02381118
8.660205624;-0.402877591;8.972711497;-1.51378434;-2.79068692;-3.643609122;-26.55709306;-15.46072137;2.569970631;-7.117319104;-1.496183037;-9.378393533;-13.22506689;5.830508461;9.324569516;20.23270048;11.83273732;1.025649003;11.324663
9.453871749;1.590409676;9.898735405;4.984821732;-4.852393629;-3.613546153;-32.37115931;-12.9175283;5.746754503;-2.158012779;1.142661328;-5.182790589;-10.4003193;8.810329596;19.63183475;31.80961683;15.25707571;1.193794711;11.0192244
9.235874707;4.102452533;8.934110638;5.892966132;-1.345963718;-3.7279719;-27.8041701;-11.06301407;7.78505008;1.479686041;2.566681467;-0.292676942;-6.589050844;11.64246441;29.64274452;41.77478915;17.98387763;1.942671513;10.26133464
9.170142015;6.790458639;6.946284961;2.682382568;5.139296602;-3.862419097;-16.13367832;-9.344530267;9.24562784;3.768932255;3.900890532;4.296893673;-2.092927573;13.85073007;35.39910125;47.13996558;19.54867295;2.41256148;9.247418779
10.11420352;8.786490659;5.239575076;-1.408508607;9.169231432;-3.923118444;-3.836189878;-7.639520765;9.665085309;4.734553606;5.15203394;7.029916445;2.049934804;14.78143658;33.83169226;46.81904443;19.62540677;2.007000708;8.218004696
12.21943961;9.546042091;4.790832743;-3.448188831;7.242675897;-3.930176738;3.679517135;-6.337023761;8.053555318;4.452080719;5.085750099;6.694018817;4.555483422;13.96743212;25.0459248;42.19936396;18.1813624;0.988851307;7.427076718
14.99413534;9.336544074;5.7813596;-2.469472004;0.763487769;-3.985461277;4.968183533;-6.072477379;4.051584837;3.072049197;2.411825776;3.292573352;4.633844478;11.53020655;12.67007813;36.23193728;15.5871636;0.253799135;7.07386895
17.66519471;8.946801883;7.641598041;0.3107819;-5.317863996;-4.164299662;2.298566117;-7.327760644;-1.387052278;0.765595731;-2.79353137;-1.801927042;2.49617274;8.297067816;1.80788671;31.66314833;12.59296959;0.490465489;7.226198274
19.54385432;8.929835329;9.466493509;2.651572581;-6.854673874;-4.431640659;-0.919162213;-10.14519154;-6.486935097;-2.376350138;-8.779260446;-6.623016817;-0.763378511;5.442101239;-3.978427448;29.57053689;10.08895735;1.519799138;7.76946722
20.2081148;9.080782046;10.47625598;2.862431978;-3.936743119;-4.653486419;-2.628557416;-14.08119668;-9.932205045;-6.34601221;-13.32332602;-9.810328329;-3.87687174;3.807964272;-4.455319883;29.08780388;8.694152851;2.443250642;8.40621171
19.51369476;8.590039063;10.26770778;0.717452405;-0.452533129;-4.688599121;-2.74804511;-18.37762469;-11.81183272;-11.04819061;-15.48750477;-11.37161545;-6.219016026;3.360792836;-2.100979881;28.34920553;8.393454835;2.469616569;8.725324367
17.55368068;6.694364959;8.811852011;-2.726981792;-0.36082233;-4.482346102;-2.085664051;-22.25527802;-13.38667929;-16.08456095;-16.40469538;-12.46714374;-8.141243851;3.198339677;0.136294902;25.88726148;8.500629233;1.646718569;8.347736992
14.64274818;3.251748986;6.321962378;-6.043722151;-4.143061054;-4.093560243;-1.124233546;-25.22572683;-15.88893239;-20.74359795;-18.35029489;-14.43709815;-10.58380357;2.149976563;0.723671098;21.52321038;8.054632861;0.804602681;7.114167899
11.29256179;-1.192436902;3.137792648;-8.338838793;-8.598759337;-3.647854381;0.083141348;-27.31176235;-19.42958994;-24.31893465;-22.80686797;-17.85933751;-14.26883297;-0.440347859;-0.340150802;16.26398618;6.440597887;0.753871293;5.22081845
8.103169678;-5.796670586;-0.32501203;-9.623117945;-10.01283851;-3.265618436;1.178146926;-29.05263676;-22.97741734;-26.57381048;-29.11940334;-22.32672697;-19.08159689;-4.303773312;-2.822338561;11.4545993;3.811313845;1.489788353;3.188045353
5.567583924;-9.867272808;-3.611370673;-10.60288525;-7.666882695;-3.015985138;1.210612462;-31.21222311;-25.38170035;-27.96331208;-34.87526021;-26.97526585;-24.07316985;-8.475768178;-7.287261402;7.89279654;0.98115801;2.162924033;1.621047712
3.896498471;-13.01653829;-6.309626381;-12.16451315;-4.443634625;-2.909411767;-0.464752838;-34.25966454;-26.44415863;-29.34707321;-37.70834437;-31.16648467;-28.02020131;-11.93645326;-14.54347653;5.52152645;-1.155451328;1.868595522;0.871906068
2.997565792;-15.04271698;-8.161340952;-14.84278949;-4.018317348;-2.907291081;-2.905185827;-37.89099315;-26.99415176;-31.3190985;-37.03973437;-34.67912922;-30.07108913;-14.13931219;-23.91106755;3.818410341;-2.247136036;0.532853963;0.828586733
2.6438398;-15.78756884;-9.099583561;-18.43477718;-7.284762299;-2.92945739;-3.545010546;-40.93830016;-27.85191659;-33.62992791;-34.33445616;-37.31204876;-30.01332858;-15.05238009;-32.16543976;2.49595461;-2.655590034;-0.941653924;1.015965818
2.714537201;-15.15456327;-9.138003143;-21.8658479;-11.34928266;-2.867377691;-0.116452631;-41.83921529;-28.64269658;-35.16644232;-31.70958557;-38.41530941;-28.07259193;-14.78595873;-34.72474708;1.949383476;-3.023475656;-1.438845688;0.981883349
3.319379522;-13.21508222;-8.165473641;-23.44463439;-12.05197907;-2.622930668;6.764943299;-39.47339571;-27.65577547;-34.56350587;-30.09893484;-36.96445734;-24.54931577;-13.23684872;-28.70710322;3.109502985;-3.588834919;-0.626068391;0.699509714
4.696313391;-10.20947473;-5.840338429;-21.57565691;-7.740798443;-2.168900573;12.78587106;-33.86765937;-23.07070348;-31.0529141;-28.51304001;-32.27108214;-19.6719679;-10.13164581;-15.56188152;6.784308175;-3.83700754;0.729169376;0.652284197
6.947487567;-6.404596388;-1.774787246;-15.71577981;-0.876983446;-1.590159845;12.26942193;-26.28877214;-14.63309686;-24.98395776;-24.97870652;-24.76301423;-13.76436743;-5.45104659;-0.895948772;12.92056487;-2.841847978;1.434062198;1.474687458
9.813260487;-2.004379119;4.005356171;-7.028106678;3.989109575;-1.058509036;2.407752898;-18.62149224;-4.350225955;-17.70236165;-18.3368331;-16.09761849;-7.475717334;0.17192306;8.827363311;20.28633268;-0.08964039;0.94391248;3.375154541
12.67026257;2.690471126;10.62679241;1.842186194;4.069194681;-0.738113323;-13.82234822;-12.41684668;4.513787881;-10.9275019;-9.404557733;-8.384340809;-1.741350576;5.508981712;10.45139819;26.84050924;3.856114983;-0.138099559;5.789657587
14.78396899;6.981274768;16.38516309;7.978867013;0.600882327;-0.680273471;-28.68508983;-8.225905874;9.489617754;-6.056366271;-0.590047607;-3.053144513;2.597291686;9.303831191;5.986815543;30.64886803;7.432433897;-0.602362771;7.59611344
15.66425611;9.737642271;19.41690838;9.778960796;-2.426848603;-0.788178339;-34.35287143;-5.621400818;10.45632227;-3.75812051;5.662096117;-0.233516565;5.233757061;10.95752596;0.693071369;30.85076344;8.941511002;0.258319438;7.810555593
15.29696332;9.943729242;18.74811867;7.880198071;-1.863743868;-0.885812776;-27.97303919;-3.809736435;9.501736811;-3.933905847;8.322344481;0.905058915;6.514692921;10.81259302;-1.107509556;28.0916957;7.632565665;1.971471705;6.287867172
14.10621636;7.597988164;15.03618122;4.716723113;1.929624601;-0.843028312;-13.41507588;-2.332428331;9.210201864;-5.893085551;8.054462918;1.204100785;7.103300638;9.823727701;0.852830366;24.10776901;4.225818843;3.263067666;3.891092358
12.6777589;4.208144436;10.36708501;2.908692815;5.639944066;-0.660504234;1.541099802;-1.351245015;10.70691808;-8.603731656;6.290039063;0.799133536;7.444894719;8.883175298;3.170812245;20.66322116;0.482511095;3.169142713;1.955576211
11.41951526;2.183966701;7.053264385;3.557885621;6.149052394;-0.448849128;10.36427432;-1.383768912;12.92395309;-11.0102387;4.014564091;-0.781172828;7.465659249;8.316285895;2.169808916;18.49400175;-1.891293451;1.893490822;1.40165431
10.3604288;3.223750332;6.137195204;5.639210991;3.347272891;-0.322734954;11.44597089;-2.78660266;13.54885309;-12.4461424;1.264986571;-3.877566079;6.736107588;7.881157504;-2.673394035;16.96708343;-2.248406118;0.641710462;2.133523586
9.190227011;6.758154612;6.656947988;6.899686733;0.100247955;-0.300422199;7.902460926;-5.428519858;10.82334718;-13.018172;-2.405803141;-8.078414792;4.933239287;7.172429931;-8.222962757;14.71807793;-1.245202602;0.571382894;3.165142645
7.496665968;9.787289102;6.307547307;5.567775261;-0.486021787;-0.291381478;4.289279988;-8.77168699;4.804699338;-13.66902038;-7.09249592;-12.33851275;2.191462762;6.024918638;-10.50623928;10.83463993;-0.229816788;1.784906576;3.373168073
5.054265592;8.603350874;3.146902298;1.591666059;2.082210032;-0.177170195;3.214690527;-12.21434377;-2.750822931;-15.70215113;-12.14549682;-15.75426299;-0.948640151;4.583796;-8.384796597;5.707074781;-0.278486255;3.251583359;2.307272311
2.007337711;1.436645292;-2.845847343;-3.476692774;5.324230402;0.088142235;4.373916424;-15.36755944;-9.613635268;-19.92559568;-16.52947692;-18.27790165;-3.920437963;3.057099252;-4.839556864;0.853127932;-1.574421951;3.718205764;0.457185538
-1.142433173;-9.865782211;-9.557836104;-7.772344864;6.174511096;0.443206081;6.087428261;-18.07401132;-14.39726369;-25.96711117;-19.53654713;-20.68540317;-6.488890432;1.458295396;-4.669119913;-2.225002055;-3.494955567;2.795693044;-1.193066996
-3.735314164;-20.55667154;-14.14443243;-10.51898967;3.861137425;0.772308376;7.33297026;-20.26422239;-17.07691818;-32.33562949;-21.20798658;-23.78992118;-8.783475696;-0.378952565;-10.49151069;-3.309955193;-5.218415956;1.268716131;-1.942575214
-5.248248122;-25.8618106;-15.09195936;-12.45713478;0.609762507;0.989876336;8.298456787;-21.89287111;-18.57907284;-37.31972379;-22.17511472;-27.59778625;-11.0176362;-2.529016249;-20.43625926;-3.835264242;-6.319055979;0.379463491;-1.865340491
-5.551405871;-24.10883679;-13.4129918;-15.03765383;-0.446296397;1.078714474;9.341484839;-23.06369647;-19.98583729;-40.14182321;-23.17742039;-31.18277275;-13.18536644;-4.733883116;-29.51837861;-5.941439467;-6.919205331;0.745058008;-1.654554279
-5.000634812;-17.87194506;-12.01926286;-19.09753525;1.807185966;1.056052442;9.943874777;-24.18023157;-21.97921598;-41.48541763;-24.71663675;-33.41751043;-15.01851906;-6.468370581;-33.57557766;-10.82578754;-7.38014366;1.870024414;-1.985705433
-4.298213945;-12.23899815;-13.65790767;-24.08772364;5.406436415;0.915156587;9.108655825;-25.84286083;-24.72428412;-42.90514696;-27.02421164;-33.91787331;-16.21902089;-7.298121515;-32.47647829;-17.60817952;-7.877970917;2.65729184;-2.935993561
-4.153740233;-11.38318933;-18.89398529;-28.41325924;7.086902956;0.613857639;6.881403056;-28.40655025;-27.96282639;-45.4797224;-30.12;-33.34464387;-16.71642749;-7.230298355;-29.92762931;-23.63447503;-8.24724216;2.42225189;-3.922124376
-4.88553805;-15.8583956;-25.61434733;-30.53866653;5.261267179;0.131345627;5.168223294;-31.47178521;-31.05750229;-48.71604728;-33.68116591;-32.77645578;-16.69505362;-6.742510243;-30.09239898;-26.09744535;-8.194957805;1.48513656;-4.177258915
-6.165827471;-22.481615;-30.39981404;-29.95600112;1.474978646;-0.461048245;6.444065903;-33.76802808;-33.02083091;-50.60363485;-36.78611017;-32.71598242;-16.38264676;-6.451395855;-33.92511024;-23.85603312;-7.655126394;0.826689507;-3.353238862
-7.07750617;-26.74336549;-30.73095049;-27.31693677;-0.983272393;-0.995540671;11.06392753;-33.68180559;-32.77418045;-48.88054133;-37.95482132;-32.64507255;-15.84202075;-6.695346685;-38.33325038;-18.16260792;-6.948262056;1.150709281;-1.757133403
-6.508143932;-25.87603188;-26.42646903;-23.7562521;-0.047913334;-1.296587699;15.68032669;-30.1946882;-29.71659805;-42.63591249;-35.8;-31.56238516;-15.00388754;-7.369548482;-38.8481806;-11.81340999;-6.59671689;2.221394488;-0.056147675
-3.71804889;-20.37453116;-19.37939894;-20.04729772;3.269197453;-1.300697849;14.8075181;-23.61536801;-24.2822628;-33.08063434;-30.03901231;-29.03325839;-13.9178892;-8.112456258;-33.49921488;-7.394788344;-6.945854563;3.072118986;1.273060951
1.207247616;-13.08623216;-11.99032182;-16.25360202;5.804034623;-1.105161839;4.952404295;-15.55560279;-17.9695212;-22.91440245;-22.08891418;-25.77158416;-12.93692106;-8.628428242;-24.58878151;-5.90356433;-7.897260677;2.880479067;2.282311212
7.281758081;-6.861679371;-5.624019436;-12.03210152;5.097847949;-0.894574334;-11.82456454;-8.107156591;-12.6240384;-14.74836187;-14.57093703;-23.14519673;-12.56424111;-8.834996642;-16.8828384;-6.623528888;-8.957849791;1.707505006;3.410352968
12.99342707;-2.708565297;-0.231290314;-7.191190453;1.610500397;-0.797316963;-28.12401173;-2.753507625;-9.367612415;-9.709861991;-9.831623273;-21.95607369;-13.0054213;-8.728804346;-13.78450086;-8.10643783;-9.55297528;0.43874851;5.00502153
16.94912171;0.245004869;4.792624381;-1.975522124;-1.689312014;-0.789343356;-35.61554616;0.254678943;-7.94984474;-7.161113156;-8.460311934;-21.55576628;-13.80177737;-8.166942206;-14.74122197;-9.299762214;-9.361095795;-0.003016061;6.92388232
18.45034233;3.263086928;9.46320515;3.110466022;-1.979502035;-0.728268963;-30.60535893;1.679173969;-7.064464845;-5.594551485;-8.95116975;-20.1622344;-13.94686912;-6.860853477;-16.03796887;-9.920886202;-8.445004475;0.547180148;8.546869565
17.69696887;6.472116859;12.85858199;7.678436035;0.881121317;-0.491756623;-16.56249147;2.472703356;-5.444761979;-3.923451337;-8.874781696;-16.26575755;-12.52935939;-4.669682292;-14.2234229;-9.980039063;-7.139148836;1.401662553;9.18604928
15.53620646;8.636605683;13.84662145;11.62448253;4.171864208;-0.103054939;-1.639484357;3.017781843;-2.916530551;-2.199908747;-6.751533128;-10.05925723;-9.481993936;-1.951266953;-9.196524082;-9.154060587;-5.83386319;1.686422973;8.560351766
12.93991182;8.337339367;12.17033343;14.93955084;4.620745491;0.26640568;6.901178482;2.982380264;-0.58774611;-1.339803355;-3.215209531;-3.717922076;-5.851596549;0.398185741;-4.319532866;-6.79571796;-4.831190557;1.146373198;6.970240442
10.53562131;5.40409585;8.862467903;17.39252587;1.180620098;0.425481743;7.120531332;1.824118917;-0.019120494;-2.221486707;-0.561120122;-0.205663181;-3.313562954;1.362997597;-3.494114412;-2.676675965;-4.3321536;0.361430573;5.063809553
8.447060907;1.269663799;5.576226679;18.45275792;-4.097867606;0.319819515;2.577866801;-0.540852717;-2.017868166;-4.928645348;-1.020415248;-1.419784172;-3.213529013;0.436339693;-7.725810065;2.248139541;-4.477430896;0.19465628;3.403297839
6.474757452;-2.102908911;3.392081857;17.59221287;-7.756100829;0.087694053;-1.346927553;-3.489344015;-5.982224854;-8.677373543;-5.090439377;-6.988882145;-5.783343079;-2.012079981;-14.11752162;5.927940717;-5.331694082;0.98708717;2.163107485
4.426772391;-3.797321133;2.12531678;14.74231261;-7.647424546;-0.031941758;-1.655654263;-6.074920521;-10.27671057;-12.37437762;-11.17741739;-14.52941172;-10.0534586;-4.932184479;-18.15587193;6.346296247;-6.794123821;2.227434791;1.144188497
2.342998269;-4.646196778;0.717128497;10.51794071;-4.392459716;0.132971985;0.826367606;-7.727284748;-13.31823405;-15.3054184;-16.7454192;-21.08559487;-14.47317831;-7.226120333;-17.37349049;2.930921512;-8.532245641;2.98340983;0.026446267
0.476095658;-6.418056059;-1.652862349;6.002260978;-0.510736115;0.573620643;3.336572942;-8.694270658;-14.54737456;-17.45926197;-19.9997443;-24.69303415;-17.76431554;-8.354666194;-13.33174331;-2.891887152;-10.05214483;2.699578053;-1.373060749
-0.905933554;-10.14347198;-4.710788388;2.237293139;1.796907373;1.119460898;4.11934544;-9.862479917;-14.61899151;-19.35270387;-20.80910253;-25.08211482;-19.44174568;-8.496293365;-10.29497705;-8.539531798;-10.90914816;1.657131821;-3.008789862
-1.703582824;-14.98547575;-7.227531429;-0.224394655;2.220286905;1.560651175;3.657949838;-12.08349033;-14.78573712;-21.58566431;-20.30200829;-23.30337092;-19.7636621;-8.212482732;-11.7198514;-11.94455574;-10.92443236;0.711834284;-4.67267791
-2.001832491;-18.63428945;-8.021558519;-1.442065749;2.05894083;1.769212941;3.453182537;-15.50977048;-16.02140188;-24.454414;-19.6859229;-20.82231147;-19.31468736;-7.954749509;-17.4507794;-12.78736032;-10.23719602;0.567253361;-6.085735097
-1.923034106;-18.96065429;-6.958261256;-1.891440629;2.627292178;1.732932349;4.056031052;-19.42185169;-18.50990898;-27.7993446;-19.38057207;-18.80916707;-18.61582552;-7.819171373;-23.86395316;-12.34455788;-9.13787087;1.224104948;-6.922606077
-1.465181375;-15.6261541;-5.098356875;-2.156220308;3.966078197;1.502445909;4.582067302;-22.64557839;-21.73159527;-31.07021561;-19.12133149;-17.93030388;-17.99327418;-7.679625435;-26.74475845;-12.1176734;-7.809327188;2.053355593;-6.810948856
-0.484935019;-10.36998163;-3.880058594;-2.686509283;4.999199;1.124392942;4.151024233;-24.22850097;-24.9045113;-33.52126318;-18.73320241;-18.42659987;-17.63488886;-7.48;-24.48954997;-12.39875132;-6.195095433;2.376363647;-5.420401358
1.142194694;-5.744059104;-4.019266091;-3.649049228;4.809814127;0.629419117;3.494389186;-23.8934191;-27.37153069;-34.48062882;-18.68320732;-20.13110645;-17.62024733;-7.356215511;-19.07048602;-11.97669698;-4.123394894;2.017007523;-2.676645147
3.308561971;-3.29315942;-5.010431205;-4.813625772;3.682403019;0.074626079;4.642169928;-22.00247313;-28.72286806;-33.64564042;-19.79935182;-22.37418799;-17.83433241;-7.469795098;-14.12782252;-9.240809346;-1.599769768;1.369737017;1.027622615
5.58769372;-2.593051898;-5.583207656;-5.503308233;2.882239438;-0.423287664;8.568853833;-19.14998166;-28.74582434;-31.28555185;-22.39826421;-24.05181641;-17.89617873;-7.74612335;-11.90018947;-3.771076558;0.98833096;0.990480018;4.834736497
7.363509991;-1.854441276;-4.699950041;-4.756802883;3.422771566;-0.723059878;13.04442947;-15.75047757;-27.40299727;-28.18519452;-25.67975681;-24.08773067;-17.2931608;-7.816529089;-11.54968259;2.92167479;2.981316967;1.122835454;7.738656171
8.102990368;0.442136928;-2.309938691;-1.803533405;5.045404381;-0.751997412;13.24854207;-11.92855998;-24.90168478;-25.26810193;-28.0489307;-22.10983606;-15.72559901;-7.264940697;-10.17552737;8.176981111;3.864525145;1.570169357;9.079909929
7.596479466;4.204327114;0.645328933;3.308914358;6.401830622;-0.580259728;5.372540715;-7.729970204;-21.7295943;-23.0791897;-28.19329607;-18.80553373;-13.41446699;-5.970872018;-5.562907922;9.941858252;3.715832006;1.962090832;8.906708309
6.022085494;7.73448938;2.862830359;9.359890333;6.261271214;-0.400599698;-9.54814283;-3.405670617;-18.51710263;-21.48480188;-26.03503227;-15.53812569;-11.07488612;-4.224683613;1.661028381;8.173255621;3.319602468;2.107227371;7.937564583
3.82278498;9.056737656;3.412363653;14.27154065;4.602551476;-0.411462903;-25.10776744;0.519004078;-15.7602357;-19.85432515;-22.7460121;-13.38139463;-9.49814553;-2.489175837;8.237938622;4.822328867;3.776775986;2.096202028;7.120304479
1.504705958;7.503899996;2.10792862;16.08953361;2.591689525;-0.684512426;-33.39050497;3.476689346;-13.6081007;-17.63433624;-19.8054249;-12.28175759;-9.022333776;-1.013670184;10.6848859;2.426008415;5.802664836;2.106399652;7.066608008
-0.517547307;4.317830225;-0.567131561;14.10079019;1.515459211;-1.116593648;-30.53186163;5.212135339;-11.89191741;-14.8849168;-17.89535251;-11.06151646;-9.299670421;0.342620428;7.993184757;2.372044336;9.17297064;2.156921862;7.732324739
-1.981968449;1.793165964;-3.758051687;9.348459733;1.700868071;-1.502205954;-19.5398936;5.963611311;-10.36257788;-12.33124533;-16.54841122;-8.354968293;-9.552066903;1.905006456;2.532638629;4.098632805;12.73506796;2.081742054;8.538014282
-2.788232535;1.611965403;-6.533616041;4.134723154;2.404787292;-1.668981769;-7.935963492;6.301735154;-8.916499614;-10.85155181;-14.78808037;-3.801855287;-9.117557626;3.780429737;-1.507840341;5.733744165;15.04173774;1.73722701;8.812555178
-3.009747529;3.619606574;-8.135635188;0.777983658;2.692676238;-1.573776679;-2.010787048;6.719790101;-7.615883267;-10.79150729;-12.14316503;1.443286392;-7.862940422;5.641116808;-0.964950973;5.599248067;15.22435171;1.208542975;8.228522822
-2.901199018;5.946461375;-8.233159143;0.411032154;2.390147641;-1.295929043;-2.359004365;7.267961835;-6.526718239;-11.66296429;-9.131145704;5.337651932;-6.16872213;6.922060269;4.22252627;3.427267568;13.52100607;0.783383914;6.935028428
-2.836069761;6.374262172;-7.121256424;2.564193787;2.172675095;-0.950278906;-4.300721404;7.504941317;-5.587175472;-12.48682029;-6.823502749;6.29205773;-4.561417121;7.277950319;11.10017764;0.443337674;11.08043647;0.707816105;5.340531716
-3.135242511;3.94276049;-5.661704614;5.702930957;2.742335696;-0.60144321;-2.636143697;6.816506212;-4.68299686;-12.51262576;-5.940535495;4.251036255;-3.346803302;6.886819819;15.75325989;-1.643921888;9.1539485;0.969118824;3.758036742
-3.854142458;-0.35643134;-4.837891799;8.235264693;3.949860278;-0.246385757;3.519070785;4.886247203;-3.872624712;-11.73819899;-6.316873807;0.735389483;-2.546220212;6.302233212;15.82155361;-1.938814299;8.224959849;1.326662446;2.203200225
-4.684709841;-4.269707525;-5.109893949;9.272959857;4.774711376;0.135970698;10.06616426;1.991831976;-3.50870253;-10.8270329;-7.192877093;-2.144103721;-2.121052763;5.957407411;11.7979555;-1.00963079;7.688559824;1.557999987;0.487053977
-5.095209762;-5.834154997;-6.027844174;8.759070531;4.232376443;0.527580319;11.93423923;-1.077944628;-4.058921725;-10.52554185;-7.99801198;-2.957744999;-2.19276826;5.756690394;6.399058551;-0.4906786;6.319470984;1.664002813;-1.501114797
-4.66810059;-4.684449483;-6.472176477;7.134576043;2.35888161;0.864681576;8.076066777;-3.424225234;-5.710696536;-11.07647588;-8.837985556;-1.63993888;-2.987400656;5.142027854;2.617496018;-1.964033655;3.21046299;1.817063085;-3.573610662
-3.420464473;-2.214456827;-5.426061965;5.013733338;0.317059539;1.085961427;2.811465393;-4.480370053;-8.089730063;-12.07716834;-10.19840503;0.76966185;-4.528509477;3.616445442;1.842674885;-5.880517785;-1.478714055;2.106362442;-5.28187595
-1.857328578;-0.518246783;-2.717624552;3.14758797;-0.518216344;1.186302534;2.091855964;-4.208401802;-10.37940505;-12.81260928;-12.15208849;2.979676392;-6.385020141;1.291045657;3.240858945;-11.18593608;-6.497712816;2.36036233;-6.196906052
-0.674048281;-0.879029169;0.863779368;2.513082908;0.317778827;1.222770503;7.844463379;-2.959596192;-11.80243418;-12.70228415;-13.8781607;4.215138577;-7.771748736;-1.031333025;4.658387475;-15.84463797;-10.23484711;2.267414519;-6.222667588
-0.285417438;-2.860580307;4.186558141;4.137674692;2.055244188;1.265328381;15.46073743;-1.159131822;-12.09862766;-11.48590946;-14.06391207;4.441854666;-7.994001394;-2.349915002;4.312944481;-17.92978675;-11.69619033;1.711226663;-5.700131426
-0.516138125;-4.614433155;6.626238528;8.512698755;3.41917759;1.335979678;16.95688527;0.915670191;-11.60844137;-9.111255222;-11.95294689;4.087603871;-6.900229262;-2.162698907;2.093142211;-16.66017618;-11.05904326;0.986852539;-5.210019531
-0.700576374;-4.175356827;8.440464721;14.95452344;3.696319266;1.389710572;7.469489037;3.10669908;-10.89428072;-5.61083477;-8.150868021;3.632714116;-4.965832371;-0.806794158;-0.373472135;-12.81413001;-9.431625996;0.633400154;-5.201167909
-0.152632293;-0.856246654;10.37550452;21.53944787;3.150949719;1.352058578;-10.25244871;5.177618647;-10.22653454;-1.221589633;-4.417412134;3.389370473;-2.928899805;0.833195593;-0.862430195;-8.285436428;-8.013058573;0.975527104;-5.698499602
1.31413751;4.195309706;12.87837619;25.93169557;2.472321936;1.178581053;-27.20353745;6.691533498;-9.377790153;3.356487282;-2.502595703;3.501400365;-1.277144202;2.008189616;1.925537797;-5.005765196;-7.26032337;1.777915534;-6.29242168
3.193573555;8.642847115;15.6174553;26.71633532;1.89076213;0.885696437;-34.40232053;7.149605483;-7.897667415;6.961560535;-2.921487065;3.992739333;-0.007322531;2.624234169;7.514842071;-3.83043185;-6.643483423;2.367588131;-6.419546321
4.577231796;10.37670545;17.70949717;24.32122079;0.907365337;0.531751791;-29.15571565;6.336301514;-5.619853998;8.495571456;-4.667960719;4.740638216;1.166496341;3.191573947;14.01848819;-4.060505858;-5.138836564;2.176699017;-5.749508254
4.739881196;8.777590082;18.40225497;20.77074993;-1.056955827;0.17180594;-16.46324709;4.594796702;-2.954462339;7.725934716;-6.11853935;5.434249064;2.373596793;4.273265611;19.36675863;-3.952867214;-2.089983116;1.256245695;-4.4242034
3.618850377;5.03265268;17.57869467;18.32919305;-3.750669605;-0.171624491;-4.757975676;2.754400943;-0.71291821;5.697015347;-6.389764057;5.661099615;3.327675229;5.906305534;22.43789482;-1.971813734;2.175497483;0.291998583;-2.995111933
1.861991452;1.34609854;15.68328718;17.96262072;-5.910755778;-0.500754307;0.311290088;1.680607808;0.384120804;4.234652302;-6.023594419;5.142102173;3.486422675;7.469781536;23.26606498;1.99256604;6.398278272;0.067205792;-2.099674548
0.426218921;-0.401548762;13.27377016;18.76436354;-6.145672788;-0.813813683;-0.880400818;1.732352237;0.11615305;4.732368005;-6.42610997;3.947073531;2.490417905;8.094219505;22.30906006;6.287888067;9.068368069;0.80971372;-2.079874552
0.017482937;0.326675751;10.75643522;18.81527069;-4.164701309;-1.088460872;-3.746555268;2.528455547;-1.197729236;7.101620954;-8.524340675;2.487428326;0.499959309;7.275145851;19.5885016;8.379161218;9.283970204;1.986597193;-2.775441547
0.749346374;2.630637183;8.594257775;16.86003906;-1.203320007;-1.292943654;-4.137418682;3.224304655;-2.974921754;9.789296918;-11.76973437;1.263272958;-1.852088394;5.220282209;14.64288737;6.460327092;7.246216259;2.735863149;-3.610854489
2.210558455;4.965264254;7.650876044;13.5140372;0.85560305;-1.409326738;-1.593264243;3.115829472;-4.668897089;10.97628055;-14.35221797;0.567896651;-3.838719138;2.701301069;7.475213474;0.750985921;4.107492855;2.571498374;-3.918381614
3.826754563;6.20346549;9.029573088;11.01740119;0.983749933;-1.440772143;1.263742095;2.121555519;-5.875581542;10.06372062;-14.5127228;0.390413446;-5.035073841;0.566366293;-0.369474772;-6.432332893;1.302229302;1.757422358;-3.308715944
5.211218578;6.235694425;13.20193427;11.63392262;-0.17489263;-1.393817209;1.98666911;0.77189914;-6.304073394;8.202429479;-11.95019545;0.556673201;-5.453343415;-0.71801497;-5.842398994;-11.94486488;-0.218000712;1.038033872;-1.887012789
6.256178766;5.763032979;19.06558278;15.8385693;-0.931903374;-1.256730981;0.799230318;-0.284269299;-5.828943053;7.3203255;-8.224520427;0.90846067;-5.401708197;-1.220056152;-6.017692486;-13.61936021;-0.408742868;0.980012207;-0.209215931
6.95491792;5.540182666;23.97340203;21.65245761;-0.11870361;-1.004167612;0.036541534;-0.85691166;-4.699494803;8.35713162;-5.817644377;1.297346234;-5.276450076;-1.379529755;-0.354719165;-11.42971832;-0.015317249;1.513797523;0.986247467
7.166479327;5.696974552;25.16702983;25.68396845;1.784204577;-0.634591272;1.394486604;-1.39765689;-3.68441962;10.18463346;-6.51613951;1.406804233;-5.472186554;-1.711763122;8.232508803;-7.282399175;-0.031707699;2.065789965;1.132055871
6.565913102;5.655673719;21.78298384;25.21045272;2.981958761;-0.211452263;3.970242902;-2.618445444;-3.827633268;10.25454625;-10.25055879;0.676551838;-6.380624101;-2.561947252;14.73524144;-3.656277838;-1.07224899;2.128605538;0.106480398
4.85;4.670290354;15.791402;19.88920051;1.921353731;0.133476599;5.184213364;-4.835803075;-5.77580475;6.634325785;-15.1540313;-1.414318675;-8.298984463;-3.973275496;15.26098966;-2.070893537;-3.01074762;1.72558859;-1.687747142
2.03923999;2.524120067;10.78395726;11.95493207;-1.258415777;0.25083672;3.698028594;-7.570604336;-9.106949793;-0.137462723;-18.72455758;-4.794070173;-11.17098661;-5.652371185;9.859415407;-2.394775729;-5.072988565;1.343337877;-3.471703435
-1.381598157;-0.195351722;9.230556398;4.822049962;-4.641333126;0.051355958;1.297105054;-9.749908084;-12.28346546;-6.962305381;-19.26568831;-8.439364676;-14.3470425;-7.037609419;2.688049794;-3.330555724;-6.312824963;1.416950741;-4.410480813
-4.631354388;-2.484601759;10.32578646;1.076335211;-5.916550794;-0.440684394;1.529796662;-10.3869429;-13.48508028;-10.14005859;-16.70591743;-10.68299524;-16.68329342;-7.513558905;-0.905067421;-3.569798695;-6.190619152;1.877499291;-3.983190179
-7.023837927;-3.683423007;10.43027298;1.16536024;-4.088579877;-1.093072911;6.018205048;-9.231587954;-11.85857202;-8.016360269;-12.40921;-10.18872391;-17.0973379;-6.751169824;1.624119699;-2.71850672;-4.913741068;2.210404724;-2.248336613
-8.324445781;-4.004151688;6.187838413;3.512761414;-0.132292866;-1.723108101;11.86580037;-6.898156533;-8.249735025;-2.313363537;-8.246939137;-6.981097693;-15.28210535;-5.000805143;7.993910855;-1.386593539;-3.329524741;1.981113644;0.129435463
-8.831550836;-4.389391025;-1.935159774;5.778541879;3.863292039;-2.167412106;13.00421778;-4.383501184;-4.741375252;2.94074121;-5.562489519;-2.707931588;-12.02464573;-3.083752237;12.75305874;-0.517853244;-2.420755392;1.322797331;2.139101648
-9.135098252;-5.771936501;-8.711904402;6.300750649;6.261673043;-2.327011327;4.94334725;-2.36322711;-3.207487861;4.157598706;-4.584226845;0.224847578;-8.778418282;-1.967048639;11.48919241;-0.567209768;-2.699168003;0.891751021;2.882072603
-9.726771135;-8.286938543;-7.151401939;4.810135731;6.857043003;-2.179427173;-10.85852294;-0.817092306;-3.92957103;0.595091335;-4.500048828;0.162568381;-6.70345079;-2.122276618;4.361698379;-1.150840746;-3.869839046;1.285628305;2.018572357
-10.72464013;-11.04980362;6.29763271;2.157044362;6.594368507;-1.774330663;-26.91422909;0.742711081;-5.382116047;-5.333781473;-4.058136096;-2.690209027;-5.866272633;-3.112577677;-3.871264825;-1.368728399;-4.984334324;2.440891462;-0.040781642
-11.87378618;-12.70120941;28.11516024;-0.516927675;6.484464605;-1.227610398;-34.49114824;2.65900262;-5.442997507;-10.00465769;-2.35346278;-6.392809364;-5.241726343;-3.773421558;-7.453654816;-0.503304976;-4.997632604;3.586056224;-2.331305997
-12.77905517;-12.33908713;48.68685088;-2.480383061;6.767944549;-0.707567988;-29.76104002;4.661698594;-3.148141799;-11.24322805;0.589007186;-8.570506522;-3.560289567;-2.946881908;-4.07279814;1.41427958;-3.387413902;3.84729002;-3.840479073
-13.17385442;-10.15326965;57.71650721;-3.583078088;6.990827484;-0.39468891;-16.50086111;5.954098436;0.390039063;-9.701969944;3.74103357;-7.965236154;-0.358344914;-0.288551746;3.383766236;3.52570203;-0.459271474;3.004382011;-4.052733382
-13.03612972;-7.294083;50.56635826;-3.983989049;6.727737767;-0.412677242;-3.18495092;5.811920067;2.688559966;-8.025986417;5.59865194;-5.127409261;3.606729593;3.440829223;9.172671165;4.574687639;2.826697346;1.725971074;-3.216657011
-12.50800942;-5.084111019;31.14232032;-3.817471821;6.126312427;-0.762106447;3.216466483;4.231220799;1.750078125;-8.606611576;5.081918526;-1.813053939;6.922934538;6.835347508;9.259127918;3.589731777;5.364152751;1.04632455;-2.169777427
-11.73399108;-4.178319888;9.29639952;-3.098325598;5.734815925;-1.305444217;1.845124646;2.100386637;-2.341641692;-11.7330317;2.297704932;0.363407853;8.619621587;8.733992773;4.415726977;0.473119933;6.412686271;1.510822714;-1.821462413
-10.77810086;-4.302730663;-5.407151741;-1.865522019;5.862227217;-1.829019804;-2.470383766;0.717670156;-7.341903192;-15.51280017;-1.363437701;0.954191732;8.897112666;8.896783835;-0.633927686;-3.79021362;5.836111057;2.722301496;-2.606533266
-9.685865511;-4.731562675;-9.219623452;-0.341713818;6.200058594;-2.154717489;-3.91783838;0.961770382;-10.38246747;-17.47584422;-3.969511586;0.658385761;8.887579365;7.999893376;-1.272864273;-7.44533173;4.014582054;3.684559307;-4.240215579
-8.611299532;-5.066797637;-5.403794383;1.084021357;6.143047916;-2.232667081;-0.535872661;2.684259125;-9.979729871;-16.49985172;-4.233205306;0.422281303;9.644728354;7.016644495;3.129200282;-8.742855422;1.584696523;3.650260786;-5.914773068
-7.861380622;-5.641383379;-0.760577591;2.035589224;5.495401413;-2.152718037;4.773222467;4.745867956;-7.009019851;-13.56834544;-2.363068677;0.510123375;11.2017593;6.505984676;8.71953108;-6.883959506;-0.80181022;2.743455746;-6.80432093
-7.780976814;-7.183775135;-0.44705281;2.314815722;4.809875845;-2.066748084;7.536148823;5.684408251;-3.948152733;-10.89650905;0.054468569;0.333230636;12.48167173;6.343130931;10.42168377;-2.661759959;-2.630568788;1.826956344;-6.564436625
-8.549847737;-10.01358137;-4.913418296;1.908178784;4.934667296;-2.076334928;6.102082991;4.593851197;-3.016749658;-10.24043392;1.128180408;-0.885917925;12.13683896;6.014675082;6.187639925;1.64174961;-3.643940839;1.74383902;-5.535649269
-10.05881225;-13.47298617;-10.77456579;0.867712923;6.137553814;-2.163580208;3.156131698;1.679037827;-4.636348219;-11.73246887;-0.032602836;-3.264392096;9.629871202;5.134001978;-1.332805245;3.210770766;-3.976258095;2.599099715;-4.555262864
-11.98347552;-16.16159869;-14.31320922;-0.769816572;7.655833501;-2.209915742;3.057982628;-1.827156572;-7.315546011;-14.03372965;-2.720691858;-6.001773348;5.682846678;3.708776097;-7.090325534;0.099933699;-4.228503033;3.695171936;-4.513904727
-14.01253389;-16.910321;-14.55129554;-2.91080035;8.188300239;-2.084831282;7.44369257;-4.312940738;-8.929409792;-15.51109649;-5.194949606;-7.94546676;1.758241826;1.986928049;-7.935668457;-7.678874427;-5.319033059;4.152072434;-5.918855821
-16.04809647;-15.79200718;-13.61410168;-5.2499364;6.978873992;-1.740759491;13.07216812;-4.629941553;-8.333798776;-15.42661357;-6.001941622;-8.487386534;-0.974230455;0.123258364;-5.266174955;-18.06574644;-8.043547708;3.652136493;-8.688252805
-18.20430799;-14.34755801;-14.54110402;-7.237499406;4.548585653;-1.25231349;13.97086635;-2.687270104;-6.109291057;-14.27508925;-5.077047607;-8.031843548;-2.350639611;-1.9455476;-3.765420911;-27.97715674;-12.52818674;2.66631631;-12.24776802
-20.5940695;-14.74060304;-18.67567278;-8.307580777;2.39088679;-0.780478482;6.240314275;0.485749826;-3.998322353;-13.18328796;-3.809300842;-7.665849502;-3.096600218;-4.278694112;-7.291658824;-34.87184885;-17.9524649;1.997740915;-15.83829808
-23.08150286;-18.35798133;-24.78717152;-8.271908493;1.845886948;-0.490744953;-8.425026243;3.22101797;-3.605177258;-12.99654457;-4.037365127;-8.346273946;-4.088837671;-6.613880018;-15.39575739;-37.93606816;-22.83529635;2.077180221;-18.85475747
-25.22579402;-24.82755977;-30.37227253;-7.581156106;3.097051635;-0.476292583;-23.436385;4.001487192;-5.380196143;-13.7860142;-6.739549758;-10.2912904;-5.679370314;-8.348159661;-23.44028735;-38.21841353;-25.80880239;2.634183604;-21.0481812
-26.49425852;-32.15991853;-33.74381554;-7.181989436;5.122073725;-0.725394533;-31.74918808;2.190577483;-8.53631941;-15.03378104;-11.37358289;-13.02330377;-7.617436711;-8.943685869;-26.27265986;-37.72491885;-26.40647424;3.000842665;-22.51016
-26.59131597;-37.91852708;-35.06587977;-7.970189276;6.581484831;-1.141914082;-30.59174486;-1.642120636;-11.75396488;-16.17473761;-16.28373714;-15.90435039;-9.505940141;-8.444601729;-22.41560351;-38.11537259;-25.30146408;2.73449956;-23.4729927
-25.6331406;-40.589183;-35.63597435;-10.16287049;6.82288059;-1.600539801;-22.91234661;-5.963640044;-13.99691141;-16.97392327;-19.77623537;-18.59097755;-11.24700034;-7.60076057;-15.28873643;-39.80311383;-23.77801238;1.98739175;-24.05369347
-24.0106799;-40.21196813;-36.30513293;-13.02795147;6.144171494;-2.005770026;-14.67376962;-8.984562928;-14.85696025;-17.48445261;-21.02065829;-20.97779716;-12.99867106;-7.37312291;-10.43756694;-41.89864192;-22.78228465;1.31728852;-24.10425393
-22.04853018;-37.92975792;-36.56859565;-15.20461071;5.19920269;-2.325661664;-10.35200849;-9.485743743;-14.37187976;-17.75220218;-20.18296323;-22.74751002;-14.69765436;-8.138004522;-11.05344001;-42.8691666;-22.24617516;1.155375722;-23.27829596
-19.76127791;-34.92523393;-35.10707488;-15.45609103;4.228421032;-2.584385584;-10.1649024;-7.344632425;-12.69979048;-17.62252422;-17.8767482;-23.0802487;-15.68568396;-9.239036195;-15.46264216;-41.4189765;-21.2074729;1.440904891;-21.29582043
-16.94853328;-31.6247375;-31.19764719;-13.39582472;2.903673375;-2.818747794;-10.89249119;-3.495477502;-10.02639079;-16.83919407;-14.54286116;-20.97799812;-14.94003906;-9.330232638;-18.60864138;-37.11263137;-18.65617826;1.743338809;-18.24635294
-13.57907954;-27.74433182;-25.67407289;-9.735587804;0.910321749;-3.026752372;-9.189636947;0.62687724;-6.720876534;-15.31135681;-10.31724818;-16.09259555;-11.86024293;-7.337498121;-16.25796338;-30.53496999;-14.46539391;1.720628941;-14.71184226
-10.12829875;-23.01537576;-20.57968677;-5.911774127;-1.386060215;-3.147370238;-4.476669849;3.818945252;-3.443099795;-13.26525749;-5.418137796;-9.404287385;-6.992038233;-3.33636604;-8.469239998;-23.04401687;-9.673081174;1.456298943;-11.5782805
-7.512526765;-17.86808583;-17.81881472;-3.33344467;-2.960508539;-3.095863625;0.845391979;5.59540381;-0.948057481;-11.1188952;-0.572412371;-3.081717581;-2.010537684;1.344891845;0.450325289;-16.27504906;-5.863942194;1.354957825;-9.60736406
-6.566970107;-13.42205567;-17.92312986;-2.702575535;-2.939727025;-2.839547354;3.725475705;6.192783484;0.328669437;-9.180533941;3.040178172;0.571775573;1.166536122;4.916700438;5.355918946;-11.5489905;-4.097182744;1.710370483;-9.025977517
-7.417740599;-10.7548864;-19.8613386;-3.767705803;-1.486332621;-2.459593312;3.160568531;6.170778436;0.541367157;-7.430323704;4.395808902;0.456041954;1.549016845;6.250456241;4.197827762;-9.352883902;-4.190474852;2.373796038;-9.415332966
-9.261701264;-10.06204827;-21.90347664;-5.581415448;0.124532771;-2.140134098;0.975902562;5.927620777;0.268637517;-5.571798029;3.328128315;-2.623162138;-0.333763403;5.518964135;-0.659533499;-9.113547225;-4.907578214;2.849615753;-9.998501828
-10.8134245;-10.44233197;-22.75680051;-7.050336368;0.425876449;-2.07108101;0.15522287;5.448566263;-0.004229422;-3.320078125;0.724531512;-6.410378569;-2.867076021;3.922917233;-4.615645862;-9.4573294;-4.905042611;2.733556875;-10.1477911
-11.16764975;-10.54176141;-22.15214096;-7.459064495;-1.060505212;-2.319711639;2.244876625;4.401058855;-0.332776403;-0.717156873;-1.999713719;-8.545448103;-4.482568909;2.766939252;-4.550643015;-8.934211468;-3.713622363;2.080863839;-9.765206512
-10.4568673;-9.580912472;-20.67386672;-6.736042643;-3.412405241;-2.764368294;6.040156962;2.445648666;-1.288679257;1.743870658;-3.788448684;-7.92610521;-4.647385033;2.603407478;-1.029093998;-6.864798321;-2.017123386;1.35779692;-9.27
-9.779393696;-7.96162832;-19.24496655;-5.406948747;-5.047450919;-3.15226502;8.618704816;-0.477904569;-3.442674572;3.269012507;-4.541769149;-5.237798463;-4.023263594;3.037985017;2.621449808;-3.796859348;-1.049761955;1.024449334;-9.212514172
-10.40037001;-6.969498301;-18.76415052;-4.325925891;-4.982662199;-3.255991721;7.834492545;-4.05641945;-6.757802439;3.111295318;-5.00492608;-2.393652217;-3.776383464;3.229731709;3.328031146;-1.238070045;-1.61520896;1.144319539;-9.812811439
-12.79417678;-7.795797287;-19.99397929;-4.329926091;-3.52344905;-3.023841298;4.21621434;-7.706218443;-10.39592902;0.947641039;-6.08309639;-1.336436321;-4.646933123;2.59839615;0.746207449;-0.794800151;-3.498528509;1.386786206;-10.77768946
-16.24784999;-10.62522632;-23.42809374;-5.944468572;-1.819232165;-2.61407207;0.712604912;-10.76739449;-13.12828469;-2.890147788;-8.135090244;-2.987190004;-6.489587759;1.173949373;-2.785475801;-3.258626253;-5.698604474;1.410218207;-11.53042498
-19.33614745;-14.46423089;-28.93699481;-9.223040071;-0.754077295;-2.284580299;0.446221875;-12.68664884;-14.07233083;-7.452106329;-10.7633349;-6.913234332;-8.544794061;-0.604358733;-4.554028474;-8.209567976;-7.246373159;1.244651369;-11.66247531
-20.91160305;-17.79735323;-35.40640527;-13.74964982;-0.225612475;-2.218195468;4.215307101;-13.1537065;-13.23059144;-11.49930938;-13.18982871;-11.76057198;-10.11157433;-2.365742605;-3.933079939;-14.31610705;-7.929653266;1.286014913;-11.24293237
-20.85135592;-19.54020116;-40.8456817;-18.7777538;0.535462359;-2.41349819;9.715603006;-12.19580224;-11.46490625;-14.01471289;-14.85562481;-16.05125496;-11.04421834;-4.116525835;-2.907040011;-20.02469347;-8.361373662;1.882069423;-10.74018295
-19.99449903;-19.58916643;-43.18939578;-23.43127749;1.96146082;-2.718894568;13.17551462;-10.20895136;-9.953523624;-14.65387153;-15.75720907;-18.84410799;-11.73283363;-6.151935371;-4.310606278;-24.14264339;-9.385124547;2.891881065;-10.62580436
-19.34593086;-18.64383953;-41.40514405;-26.88470428;3.481912358;-2.973351683;12.26443984;-7.865870132;-9.515559868;-13.86373478;-16.29583339;-19.96916834;-12.6844276;-8.710844342;-9.341825721;-26.04925568;-11.34180963;3.655604136;-10.98692759
-19.20443047;-17.55481957;-36.12264455;-28.48530148;3.906847831;-3.133467024;8.100804966;-5.867680599;-10.21336359;-12.5472463;-16.81636306;-19.85075107;-14.09411649;-11.69896621;-16.40826243;-25.65795302;-13.79842173;3.455845782;-11.46169048
-18.9244469;-16.75617964;-29.24764403;-27.848596;2.560508881;-3.282878588;4.734014351;-4.613379155;-11.39418955;-11.43731686;-17.22658799;-19.1243178;-15.7036291;-14.68468328;-22.16965193;-23.40440166;-15.92546427;2.102571001;-11.54456653
-17.49933063;-16.17068128;-22.77921333;-24.97865134;0.105122136;-3.522989692;6.257959512;-3.966207822;-12.04383374;-10.57982167;-16.98082341;-18.27142241;-16.94639416;-17.10538662;-23.85716767;-20.31579874;-17.16640705;0.139900678;-11.00647749
-14.48188576;-15.52765398;-17.68422566;-20.39725184;-1.785443882;-3.84666723;13.49306611;-3.291379621;-11.2083556;-9.305355471;-15.41306764;-17.41617137;-17.18012;-18.47546655;-21.05425084;-17.89278725;-17.62298847;-1.51682979;-10.08668761
-10.4834936;-14.71243389;-13.637815;-15.15926095;-1.712363765;-4.1113624;22.66367433;-1.794147307;-8.317855018;-6.752512402;-12.165909;-16.33368942;-15.85778385;-18.46979684;-15.72155945;-17.52309365;-17.85071614;-2.223206102;-9.307517519
-6.838016229;-13.82284268;-9.732623998;-10.60329027;0.294214056;-4.141774599;27.26788226;1.010304657;-3.376782358;-2.594385159;-7.43904151;-14.64513326;-12.66218279;-16.93875553;-10.68472919;-19.57065395;-18.27392364;-2.007269435;-9.072793909
-4.695401438;-12.94246268;-5.489333305;-7.821110509;2.780476845;-3.878317351;22.15646661;4.968133458;2.970827099;2.567231183;-1.940386771;-12.10369006;-7.691725108;-13.97671628;-7.853453216;-22.79025432;-18.74890739;-1.430260001;-9.37876653
-4.264842354;-11.92146863;-1.316759171;-7.071117382;4.058079254;-3.444320028;7.196485576;9.299411945;9.537714334;7.462072289;3.390150003;-8.821581966;-1.650670708;-10.04327251;-7.374743919;-24.75143148;-18.66362472;-1.070631838;-9.859113633
-4.790542501;-10.43118073;1.896606183;-7.521870388;3.559316695;-3.07033587;-12.00942542;12.94829076;14.90767718;10.90843411;7.722527933;-5.296823083;4.173190654;-5.971589537;-8.015283377;-23.30410157;-17.49120537;-1.091835148;-10.10325254
-5.238347764;-8.272513225;3.618006214;-7.608771044;2.200151958;-2.933016862;-27.01430086;15.07210714;17.92984267;12.52751982;10.59754964;-2.202389571;8.326498305;-2.703282415;-8.191884904;-18.20899158;-15.31605344;-1.235728907;-9.970919907
-5.10552406;-5.652965729;4.168874445;-5.918776881;1.481281544;-3.037289398;-31.29054246;15.40869529;18.19454974;12.8995566;12.02118167;-0.055496387;9.895787564;-0.812780116;-6.867350789;-11.67643451;-12.86366704;-1.18087966;-9.651564429
-4.702085724;-3.153601174;4.482521016;-2.115236755;2.168181028;-3.233494906;-23.84739498;14.35196416;16.21808983;13.06731123;12.36557898;1.019229835;9.071556422;-0.136784039;-3.931168296;-7.178487656;-10.97971877;-0.89324746;-9.449132532
-4.72536646;-1.380392145;5.391139344;2.706846767;3.723092116;-3.348224314;-9.445102982;12.728478;13.18467811;13.78031997;12.11169333;1.269772735;7.112244694;0.15635724;-0.144526448;-7.178706275;-9.974984533;-0.646057788;-9.50379484
-5.546482389;-0.582172574;7.081070385;6.536731443;4.934358078;-3.31580729;4.569003422;11.3983921;10.35747891;15.04060942;11.54421405;1.05369503;5.616189386;1.014349736;3.157623818;-11.37753026;-9.386037636;-0.72365825;-9.696421977
-6.843097817;-0.556919969;9.121675106;7.569365854;5.089297009;-3.204215089;12.58444989;10.85260753;8.487145761;16.23502401;10.56535747;0.520149816;5.525978519;2.814177524;4.557442353;-16.85072318;-8.379359583;-1.120674229;-9.802044183
-7.879403897;-0.921396143;10.91107023;5.236648228;4.578641066;-3.1256886;13.41600335;10.95981755;7.546376116;16.66225033;8.761403779;-0.537401616;6.537057085;5.043892445;3.218017268;-20.10626306;-6.504288632;-1.531299473;-9.732993129
-8.155420202;-1.504522615;12.04668822;0.489724473;4.404386587;-3.122553998;9.916974917;10.96629241;6.898251217;15.98314579;5.711186996;-2.559149026;7.32780806;6.6102071;-0.5332455;-19.59818665;-4.200058594;-1.628864896;-9.640349048
-7.830475453;-2.519241746;12.31660996;-4.826563333;5.117168642;-3.134998727;6.273664985;9.777043451;5.732134819;14.25787423;1.348445643;-5.918501776;6.443139844;6.556404021;-5.172005284;-16.8112804;-2.631945324;-1.356445868;-9.780078125
-7.540818866;-4.362240804;11.48335642;-9.058026415;6.23577485;-3.077704174;5.141972986;6.442224193;3.473413068;11.63865016;-3.878344498;-10.64237224;3.200605144;4.656832585;-8.766568415;-15.07707416;-2.94538878;-0.95035521;-10.26806985
-7.782680032;-7.215178872;9.277350794;-11.56172495;6.713419844;-2.948875396;6.492180017;0.658304348;-0.037213119;8.092841845;-9.182937155;-16.31212677;-1.990476927;1.458249293;-10.23385441;-17.02677895;-5.484658825;-0.687300316;-10.95034392
-8.430726076;-10.79538331;5.758388989;-12.78844302;5.989971875;-2.861496688;8.482740643;-6.961734412;-4.596565925;3.470561241;-13.84797903;-22.17469675;-8.031336358;-2.216550576;-10.16416448;-22.65266734;-9.563936857;-0.614129774;-11.51482322
-8.852338462;-14.48134821;1.698758873;-13.70987955;4.591404995;-2.953985139;9.224694277;-15.02029208;-9.784309573;-2.128342527;-17.57903009;-27.38404282;-13.85800418;-5.86868217;-10.45956189;-29.46355662;-13.96656628;-0.52650032;-11.75939721
-8.548874932;-17.72440741;-1.557479012;-15.10230786;3.665420536;-3.247802626;8.00228924;-21.83995868;-15.07366587;-8.053854625;-20.56218892;-31.26801282;-18.9180754;-9.54365945;-12.90905004;-34.55055464;-17.79584298;-0.208200042;-11.79522186
-7.764727911;-20.41422722;-2.906665252;-17.19056677;3.873487332;-3.576104661;5.365088183;-26.09595499;-19.89179503;-13.21888332;-23.20897173;-33.54491912;-23.12434415;-13.53740353;-17.76355144;-36.86293497;-21.03064174;0.31952861;-12.01517661
-7.487955085;-22.88941313;-2.424656678;-19.77147374;4.707292983;-3.658544154;2.546774158;-27.24960726;-23.6923221;-16.61933766;-25.80189878;-34.43103495;-26.47831384;-17.89047331;-23.50611617;-37.85621127;-24.35901543;0.799710769;-12.8447571
-8.756275712;-25.55385367;-1.567104744;-22.5313537;4.925161651;-3.281298582;0.952297909;-25.58142379;-26.07140243;-17.87739969;-28.29748026;-34.5696008;-28.79063582;-22.12861217;-28.08927792;-40.02257102;-28.40915721;1.000196875;-14.45414215
-11.77696181;-28.36450536;-2.224192516;-25.18739472;3.74131767;-2.453826047;1.908729344;-21.87477085;-26.86627131;-17.36510795;-30.37641337;-34.73287168;-29.75274844;-25.46420091;-30.63617682;-44.5436331;-32.96052561;0.973004955;-16.62007813
-15.56699992;-30.57185676;-5.177065491;-27.35140418;1.650703652;-1.426617791;6.267024698;-17.00006104;-26.13749939;-15.79313647;-31.61694549;-35.35947374;-29.23237368;-27.26138365;-32.09722268;-50.00691617;-36.75147759;1.038227704;-18.79784853
-18.44293548;-30.94427668;-9.148746859;-28.35494469;0.068508012;-0.556204276;13.55611564;-11.65376436;-24.01526019;-13.59311931;-31.60493774;-36.15133432;-27.44435504;-27.35309369;-34.16542414;-53.24218042;-38.07588119;1.481827877;-20.32098894
-19.03513826;-28.4;-11.34293831;-27.35386605;0.063053675;-0.112603282;21.18394847;-6.329780894;-20.52441377;-10.6012644;-29.92926377;-36.0269652;-24.78649887;-25.95808249;-37.28249219;-51.605593;-35.78901667;2.247623878;-20.60405364
-17.09504073;-22.70307898;-9.252164402;-23.76880809;1.343585443;-0.156770585;24.7666826;-1.403971787;-15.55977698;-6.30625617;-26.19162537;-33.58485158;-21.48198699;-23.32056288;-39.50268139;-44.88774661;-30.03838317;2.934275584;-19.28354133
-13.52795777;-14.80416671;-2.456328339;-17.76159285;2.479489084;-0.553673466;20.18651666;2.842854148;-9.08345241;-0.45574517;-20.1819952;-27.90468443;-17.39028932;-19.44033526;-37.42187108;-35.3670252;-22.21669254;3.132746419;-16.30598851
-9.67757885;-6.569012288;6.972976629;-10.339204;2.20546694;-1.08699483;6.541601022;6.314845055;-1.422565952;6.485104721;-12.18625112;-19.22214196;-12.21728652;-14.16069377;-28.6850636;-26.05222536;-14.16959057;2.809646287;-11.97700831
-6.433968317;0.050021667;15.83475771;-2.94058504;0.631824381;-1.582774278;-12.07198223;9.187232027;6.579831448;13.41115956;-3.174125071;-9.007387023;-5.983619331;-7.535629205;-14.15451726;-18.58879201;-7.196886293;2.373946249;-6.934944133
-3.816431278;4.013100355;21.93396981;3.221969737;-0.788081793;-1.967189821;-27.7474519;11.82739979;13.74088949;19.14206665;5.394838051;0.67318455;0.659734877;-0.126744996;2.077295348;-12.48849478;-1.508984631;2.339202894;-1.994732771
-1.266508375;5.808662532;25.3736889;7.595801927;-0.566257811;-2.248768276;-32.8250055;14.52507043;18.9905668;23.034733;12.14288936;8.142981723;6.588388089;7.069358107;14.99901413;-6.183670692;3.535864273;2.867692249;2.119768013
1.666039451;7.250039063;28.03605333;10.22811288;1.398035974;-2.467323969;-24.47608403;17.20496878;21.82898463;25.18109212;16.37845489;12.81519466;10.76530727;13.03855514;21.62106881;1.098358212;8.634999517;3.608417661;5.021785207
4.814518511;10.43026028;31.70780113;11.37701419;3.606367259;-2.654716319;-6.696312271;19.36986306;22.48721898;26.08382887;18.29236937;15.16245905;12.78804134;17.18472416;22.34156126;8.260821723;13.77883679;3.989350861;6.717077122
7.426827314;16.34003906;36.37353207;11.22492875;4.218276845;-2.819868919;11.88565103;20.38028742;21.69049864;26.13228598;18.59078356;16.04351842;13.0061616;19.44912281;19.83784265;12.9517716;18.06356035;3.715142721;7.415508747
8.647203326;23.97573372;40.05664487;9.979187281;2.688685534;-2.943909978;23.11470064;19.915043;20.20579361;25.34474061;17.87183575;15.94994537;12.14799175;20.06985127;16.61379281;13.33585769;20.19989179;3.028025515;7.242365312
8.040039063;30.59984583;40.35047742;8.209403403;0.302827079;-2.975863968;23.97108986;18.2843048;18.49961108;23.58491511;16.28776311;14.77479262;10.7959401;19.25735587;13.3563207;9.567017822;19.35701717;2.495204332;6.099265786
5.78830893;33.1641945;36.43789985;6.955226164;-0.917591301;-2.84124121;17.7195284;16.33587839;16.7182477;21.02090538;13.79216861;12.25718082;9.144702762;17.11535174;9.39435742;3.794337456;15.76785735;2.510181276;3.818662529
2.506571482;30.11921639;30.00493428;7.269684792;0.007087231;-2.48122814;10.9750275;14.96804493;14.91997504;18.34818362;10.71750212;8.668464763;7.186842457;13.87160658;4.571502286;-1.26399765;10.70270929;2.953731574;0.497047555
-1.106685817;22.45984546;24.30231674;9.379007787;2.145424378;-1.913852714;8.957777564;14.54148582;13.26970917;16.46513639;8.042997063;5.059934165;5.060135153;10.14330201;0.505039722;-4.04183712;5.842045088;3.315718651;-3.304182585
