Channel 1 - P4;Channel 2 - O2;Channel 3 - P8;Channel 4 - T8;Channel 5 - C4;Channel 6 - Cz;Channel 7 - Fz;Channel 8 - F4;Channel 9 - Fp2;Channel 10 - F8;Channel 11 - Fp1;Channel 12 - F7;Channel 13 - F3;Channel 14 - C3;Channel 15 - T7;Channel 16 - P7;Channel 17 - P3;Channel 18 - O1;Channel 19 - Pz
6.968586688;-104.6226622;-137.826055;57.21743941;90.60911734;-3.406316944;-163.0726579;57.45344334;6.109427901;65.22741657;82.98456367;117.9972603;77.98013937;112.0860759;71.67113298;74.74040178;109.9522672;90.60515438;40.98911793
-13.38382612;-81.02172912;-103.1099688;21.55117581;46.3996968;-16.33691647;-141.7416082;23.39963293;-22.27986553;24.98871147;39.62033451;69.08053017;39.62828775;52.67404653;28.77211458;26.7;48.96356677;37.11143386;3.869806545
-17.32003906;-26.38627265;-33.48477075;-7.883028902;2.729054359;-19.52853617;-65.42281959;-2.1484085;-29.44871142;-9.081492922;-2.079667892;8.529269723;0.198821597;-10.31352121;-8.892763178;-14.01523123;-13.5411257;-10.94509575;-24.31582814
-2.865759476;27.01813142;28.28657746;-14.6126694;-15.30308392;-11.81702239;19.73708595;-3.2999669;-13.87204266;-17.58551347;-20.82122049;-27.23668843;-16.25459892;-41.18029604;-20.18159294;-24.35471305;-42.95331718;-26.18906373;-28.41873901
19.23476995;50.92081479;49.82819073;1.711993213;-2.821344212;0.606455081;66.01623204;17.47476338;10.17052983;-1.124705354;-13.24192368;-21.33839096;-4.144185185;-29.3319048;-3.808427268;-3.947453425;-30.04187972;-5.97048675;-10.81382833
33.83209973;39.18487576;29.61986736;26.66331312;23.77437126;9.056639252;56.50129969;42.80369754;24.43952308;22.51;6.962966763;13.28865273;21.83226266;6.202554332;23.33045666;26.66225735;5.494589614;28.19076441;11.85082987
32.48985547;9.079135905;-6.109858559;42.67017675;41.31278819;8.732001561;13.68500639;54.55566715;20.74548296;33.68647409;21.80051084;44.7393136;39.75576399;33.82679479;40.48884199;42.77156139;32.38812426;48.49667016;21.9705915
18.89318081;-14.00067973;-25.94608911;41.67986955;37.81475456;1.73089844;-20.86249118;47.2689412;6.282354713;26.11041827;22.86064312;45.35444822;37.50837301;33.73825598;38.25425825;33.7809188;31.64176855;41.54935799;13.75517854
4.825243124;-15.67975779;-16.78745123;29.44915366;19.9621614;-5.335972347;-19.02623775;30.68617674;-3.325742434;10.05841158;15.67288384;10.15240519;20.53658454;10.75697359;23.24663807;9.193836345;8.538996674;16.15860081;-4.064668388
0.475157172;-1.036322193;9.48051369;19.08347245;5.288168618;-6.8814482;14.17233928;20.34935737;2.870697216;2.099322758;12.31420374;-42.01464498;5.277468416;-12.92998196;10.16852116;-11.02823657;-14.99951099;-6.323625831;-16.70406048
6.975466361;12.79845708;29.37626358;19.79260242;6.655145788;-2.486988501;47.63661837;24.6247215;22.47920224;10.60660348;19.54782007;-83.61340511;4.743891475;-17.44871647;9.02757526;-12.84556684;-19.7449989;-9.919494205;-15.37577859
16.73701525;12.29971817;28.51252307;29.96022775;22.08134624;3.438075155;50.65691656;38.70313954;42.02719377;29.10093511;32.70636271;-97.36878374;18.37888249;-0.721662252;18.16846046;2.04318292;-3.909486146;4.539993619;-3.245799207
20.57574703;-1.779521375;12.19713114;39.46575931;37.62764242;5.77671294;17.06685935;49.73767794;47.70792361;42.30816822;40.00650232;-85.27316054;33.84581997;21.97167462;27.8;19.81133503;17.72942555;22.62730026;8.675673399
15.33166668;-16.65450602;-1.705629259;38.54717836;39.87979672;2.942918966;-31.30845752;48.01491192;35.74690844;39.15328492;33.05948556;-62.96805379;38.18406405;32.27834334;29.62849589;27.10980873;27.84138882;29.88121718;11.31138993
5.836819726;-19.42639257;-0.04639482;25.63705178;27.02430042;-2.196477105;-62.95395962;34.60121165;14.51463585;21.64063946;14.49152768;-46.10116383;28.42321225;23.92051257;23.73364623;21.54162833;20.92016824;23.57525048;4.491084658
0.187897831;-7.891672287;13.72981844;8.136210968;9.526041478;-5.152066969;-60.82269186;19.5567243;-2.446814927;2.665335401;-3.544084409;-40.01173219;13.06666395;6.329138786;17.21476318;11.81376656;6.27203225;13.29149978;-4.189677841
2.812499441;8.593024307;23.09350392;-3.764232909;0.664891653;-3.711303547;-33.22764542;13.00712895;-6.294352202;-4.705845729;-8.468171893;-39.55766919;4.08779729;-4.968920122;16.79069184;8.707037388;-1.601510124;11.08923619;-6.744708215
11.22403889;17.97820482;13.70281863;-4.657211884;5.539755061;0.430598338;-4.376146352;17.03230483;2.005467406;2.781913589;3.484373893;-36.91109774;6.911101158;-1.860846409;22.56505242;15.48524991;4.116067191;20.64229304;-1.574000537
18.79331235;15.80969673;-13.10780199;3.121779059;17.74388119;3.473206803;5.950970223;24.96698718;14.33256644;17.21604029;24.95125747;-29.41218226;16.82210116;10.58564158;28.45866407;25.93447766;17.57060429;34.68447752;5.982224423
20.6612749;8.143461554;-40.2470477;12.76840019;25.80944938;2.932376565;-3.50445817;27.97033119;22.48105595;26.96522136;43.20693925;-21.11946195;24.10705839;20.08379828;28.39107594;30.92249243;26.59;42.18886345;9.1146092
17.54296454;5.240212081;-48.19069782;18.95429221;23.20285745;-0.356721293;-17.93734806;22.65256652;23.50435546;25.95431856;48.94646174;-18.09936421;22.70033261;18.49799345;22.15013049;26.95427949;23.86681745;38.24585775;5.719112157
14.40462509;12.16301128;-30.50528315;21.2412209;13.19170408;-3.249258895;-21.42991186;13.20986337;19.74569787;17.0986;41.4365002;-22.70647203;14.68229923;8.320312127;15.50971221;19.01617758;12.9007039;27.85244557;-0.165744047
15.60427636;24.57895636;1.107491786;22.62809083;4.948887648;-3.210304614;-10.64973017;6.775177176;14.95446511;7.991932066;27.07227764;-31.96385662;7.276240516;-0.829678747;14.67064045;15.59584337;4.004166904;20.7851974;-2.510304071
20.98155317;33.01507069;25.90926218;25.37104151;4.992310774;-0.480456284;3.911489918;6.651248098;10.78727886;3.672769942;13.73083701;-40.65725705;5.790901905;-1.595302463;20.32330933;20.80525988;4.682940968;22.70663835;1.083770501
26.21702447;31.34130798;29.4957224;28.32102575;11.70791883;2.33655517;8.793463817;9.580879901;6.64698528;3.135932617;5.872003987;-45.51947657;9.156835582;4.751997506;26.86242502;30.78716102;13.28335883;30.58709491;7.403846344
26.84114553;21.9;13.11654432;28.1631308;17.44262434;2.727076709;-0.029578268;9.233872919;2.060403016;2.07785373;3.569833189;-46.62819511;11.78499311;10.4508409;27.47284019;37.38056294;21.27233852;36.18205;10.82598527
22.14644121;13.06955486;-9.583436502;23.09583552;15.76846278;0.481211253;-14.10205533;2.442692565;-1.594844351;-1.608952367;4.791462963;-45.50103802;9.460703762;9.275179696;20.42799146;35.43437895;21.50562849;33.94246078;8.521517984
15.59697715;11.81700959;-24.38216691;15.22986619;7.196847163;-2.261050809;-20.72369921;-7.571428862;-2.127404684;-5.325569658;7.867542294;-42.68603598;3.456749773;2.601328691;10.86064779;27.12214151;14.67563604;26.00800676;2.886615635
11.61524619;17.93348653;-26.54612286;9.259156465;-1.568730439;-3.041924876;-14.45484167;-13.84120485;0.743302193;-4.693478044;11.92407693;-37.69969543;-0.950999074;-2.132386855;6.372352684;19.61028486;8.212979003;19.93407958;-0.84976441
11.80284458;24.76944484;-21.56723983;8.463995539;-3.786321641;-1.283744389;-1.567015352;-11.72557616;4.047005047;1.109241177;15.69971778;-31.2;0.054722336;1.073438112;10.37412793;18.49948371;9.006329564;21.52688135;0.538549681
13.94025369;25.39236527;-17.62101411;11.61854134;1.479198621;1.300124981;6.080423713;-3.022527298;3.464265691;7.092076091;16.86327315;-26.53246026;4.759984125;10.52579332;19.04112264;23.06731919;16.8374888;29.45343003;5.454429185
14.43105504;18.50948377;-17.523296;13.65824208;8.900239683;2.351129515;1.798740445;5.396507734;-2.921964497;5.930561607;13.17201673;-28.17177237;7.242253338;17.83152916;24.51424675;27.41752951;24.52914473;36.44159037;9.123047217
11.74866633;9.095518578;-17.29989651;9.702502446;11.86084525;1.003171183;-10.22510791;7.10663128;-12.50483334;-5.624730333;4.595872241;-37.81576664;2.974690818;15.39259511;21.47526986;26.17021664;24.53686207;35.79975817;8.03902923
7.695725735;3.588091098;-11.73025771;-0.881424342;8.15138577;-1.411772833;-19.0595596;1.005460095;-19.92882526;-23.19781086;-5.783080269;-51.73767087;-6.501423052;3.617862273;11.36647517;19.35201859;15.89257288;27.2662545;3.101705198
5.447272992;4.222341653;-0.83152816;-13.73964206;1.371965345;-2.650816693;-16.93551784;-8.429886481;-21.5043659;-37.57798203;-13.36664225;-62.46454253;-14.33092094;-8.787636893;0.759995086;12.14053212;5.221585542;17.00555298;-1.332689514
6.344036098;7.502739931;9.162979848;-22.70712248;-2.831022639;-1.604091266;-5.98369455;-15.31642474;-18.41979182;-41.75669968;-15.12964336;-64.10405011;-14.11356966;-11.92655091;-4.414079213;9.959095357;0.995028927;11.97533472;-1.475765654
8.493471259;7.858346681;11.25959921;-24.30683129;-1.935003404;0.757835389;4.000519748;-17.0755316;-15.76088721;-36.28210465;-11.73633023;-57.06098247;-5.639131736;-3.066464175;-3.569190974;13.58556488;6.220732189;13.89699928;2.52496698
8.497965446;2.916296301;4.397408687;-20.04655866;1.621474819;2.328968682;4.489881247;-15.70339829;-18.01490426;-28.38067605;-6.934736008;-47.92760779;4.595590719;11.0319113;-1.097218017;18.70869579;16.02685783;18.20992907;6.876752674
4.71582458;-4.376858629;-4.970029297;-14.92571656;3.334733024;1.782686619;-4.193797739;-14.97366966;-24.95854723;-25.68697357;-4.720552747;-44.26308817;8.728338442;19.80814901;-1.620063477;20.12883587;22.0973888;18.71603623;7.688486059
-0.959183869;-8.506770723;-8.05549516;-13.59854503;1.25473735;-0.289002895;-13.25201268;-16.54522094;-31.64177655;-30.05233348;-6.53202175;-48.45318171;4.178590872;17.63432984;-5.408881581;16.55362066;19.84744245;13.47949218;4.454444029
-4.479377179;-6.352426422;-1.183437501;-17.25155374;-2.114716287;-1.990216537;-13.21170023;-18.61673919;-32.63211816;-36.69788306;-10.55956059;-55.8414793;-4.171308656;8.089722803;-8.170400907;11.54709204;11.99658289;6.566766267;0.336187956
-3.019402338;0.109095186;11.04869044;-23.32707383;-2.355757467;-1.863111216;-2.21510859;-18.12861794;-26.87423633;-39.17859997;-13.43286865;-58.79989596;-8.180135738;0.324596223;-5.29012883;9.88313317;5.628657882;4.143951824;-0.887748924
2.603044189;5.609519932;19.65538644;-27.81853037;2.382697376;-0.153452676;12.3587295;-14.15827692;-18.85880529;-35.52954133;-12.74731926;-53.32862666;-3.421412986;0.960408869;3.448938356;12.83086979;5.662846784;8.60845167;1.688940606
8.559623455;6.102716857;18.80453394;-28.07452699;9.255501468;1.506318073;20.17543145;-9.167891079;-14.94947264;-30.06602914;-8.549617378;-42.56749807;7.055478583;8.646376167;13.03752486;16.81998898;10.65441823;16.14035402;5.36815352
11.1093861;1.92700708;10.54948306;-24.1491488;13.01088341;1.637692427;16.61426359;-6.916226261;-17.96474657;-29.31865341;-3.028356465;-34.22706238;15.32950016;15.7704469;17.11414502;16.72362897;14.48184143;19.86912475;6.457762018
9.466016305;-3.019014048;2.855992528;-18.24642743;10.64648417;0.240617486;6.486424455;-9.022553349;-24.71609554;-35.8624046;0.957211666;-34.15223889;15.23756876;15.43878952;13.13899033;10.68595535;12.09570274;15.76024052;3.739337768
6.040529354;-5.082734849;2.81981648;-13.20330682;4.175032751;-1.280996812;-0.137834934;-13.41296711;-28.71107177;-45.6465787;1.376410204;-41.50452185;7.334407763;7.401603748;4.360793809;1.999246626;4.012340072;5.959287216;-0.41931862
4.034459552;-4.097137092;10.88983144;-11.1693633;-1.050021973;-1.465206212;3.683834036;-16.10673086;-25.77241549;-51.26126085;-2.109442867;-49.58575847;-1.896062352;-2.121259855;-3.024851158;-3.721252113;-4.361348307;-3.260425545;-2.297084354
4.640488449;-3.220711065;20.73207753;-12.90931361;-0.975752936;-0.137881861;16.07827992;-14.71795023;-17.76708858;-48.26651182;-7.952301488;-51.46146326;-5.618887173;-6.170457004;-4.908142193;-3.473033803;-7.674369407;-6.915247981;-0.303417436
6.304557251;-5.709154221;24.41368816;-17.51975024;3.682440776;1.465346518;27.72337756;-10.50198297;-11.2105908;-38.99199616;-13.107062;-45.5261697;-2.059690057;-2.989482975;-2.112908071;0.611656358;-5.1940947;-5.164075565;3.502522075
6.534155352;-11.65773113;18.30704058;-22.46335318;8.20782649;1.871480204;28.797807;-7.134728242;-11.86546905;-30.46400278;-14.13561076;-36.40221979;4.764318489;3.009610035;1.158471938;3.43922022;-0.939359918;-2.304837723;5.245421556
4.439687656;-17.66012779;5.054069852;-24.29074155;8.142227446;0.729015222;15.90592704;-7.375892167;-19.85170713;-28.29835225;-9.002894871;-30.71117658;9.21243388;5.741115592;1.511428342;1.769541446;0.440366133;-2.173870735;2.740334325
1.627020805;-19.6626138;-9.274011608;-20.34601218;3.216540946;-0.890610147;-5.996510904;-10.62539457;-29.34463767;-31.92485232;1.205395929;-31.59;9.069559609;3.029750193;-0.780885703;-2.814378934;-1.988651242;-4.447567699;-2.512246729
0.659322864;-16.49637731;-19.67929448;-10.84767822;-2.49575897;-1.496323786;-27.34234037;-13.50394439;-33.08077311;-35.30989123;12.03644186;-36.62100584;6.972616987;-1.781776348;-2.711320321;-5.55819882;-4.90440598;-5.340019531;-6.631138194
2.561834613;-11.05770941;-24.5107383;0.1928381;-4.231647232;-0.540767874;-39.90925344;-12.84933099;-27.93569986;-32.52231015;17.77859547;-40.60882094;7.219925644;-3.400250717;-2.080588011;-3.296412842;-4.330223636;-1.943826382;-6.758499783
5.703402094;-8.181942074;-24.37267109;6.528026202;-0.676114672;1.102982581;-40.7295002;-8.424017872;-17.08953459;-23.28222761;15.08594808;-40.39057202;11.18790605;0.217768395;-0.068276983;2.124667075;0.169213435;4.055437636;-3.501414982
7.114413535;-11.01126761;-19.8632762;3.360116734;5.0562257;1.961896628;-32.1281698;-3.007193429;-7.256482306;-13.66936181;5.641313529;-37.34377214;15.72245545;5.891495579;-0.283575581;5.070679583;4.732036762;7.072833961;-0.267111765
5.086112779;-18.75367636;-11.05650547;-9.120609127;8.334296226;1.306163988;-19.13979497;0.055066879;-3.501408658;-11.33889266;-4.497975876;-35.61206091;16.02173217;8.184637349;-5.163339259;1.084968207;4.645210504;2.431694228;-0.162312495
0.745802509;-27.41597343;0.726796731;-25.07461396;7.108578532;-0.211406945;-6.743023134;-0.430671594;-5.895559694;-19.24910188;-8.942492175;-37.98671177;10.35210617;4.457959137;-13.17003906;-8.794295342;-1.192003174;-8.948828603;-3.272760972
-2.779328503;-32.67378859;11.21701188;-36.19362243;3.554599432;-1.177322642;1.668448653;-2.857054505;-10.39938767;-33.08856368;-5.628088015;-43.31;2.219317404;-2.670348286;-19.58123015;-18.33212113;-8.942865154;-20.38317271;-6.713604338
-2.871200699;-32.57226015;14.32986341;-36.84038306;1.936004383;-0.705237716;4.748330085;-4.593027879;-12.71012325;-44.42044234;1.61461879;-47.62694402;-2.141665003;-7.645625414;-20.35621488;-20.96559047;-12.93798355;-24.30183694;-7.298575382
0.563113311;-28.24807604;6.243015139;-27.58379411;4.74267621;0.787221403;3.266454156;-4.393963441;-11.55386277;-46.85494291;6.138937323;-47.79609201;1.065886846;-6.878103108;-15.66282744;-15.15140679;-10.46235726;-18.23310882;-4.354896612
5.2330855;-22.60992883;-10.73064081;-14.550532;10.57605958;1.992158231;-0.184015894;-3.263257585;-8.807259646;-40.28451664;4.006550727;-44.1523873;9.782211528;-1.764554492;-9.832234115;-5.614245872;-3.956840946;-6.816092833;-0.181506403
8.509870078;-18.32302213;-28.23845602;-5.055868209;15.54273099;1.902029287;-2.32709365;-3.165223337;-6.856315071;-30.09403214;-2.524586914;-39.91168233;17.37366631;2.792218411;-7.661522243;0.566596952;1.282553786;1.922472152;2.142017459
9.517621164;-16.51922194;-36.78570496;-2.733849676;16.73906681;0.680999466;-1.116537824;-4.970447911;-5.966371163;-22.46777486;-6.673723254;-38.126563;17.60499529;2.858572651;-10.26836968;-0.325096799;1.779731142;2.933715933;1.503773369
9.506887502;-16.70397341;-32.15223349;-5.673572988;14.64995059;-0.548822944;2.78137459;-7.579254716;-4.15127379;-19.85111576;-2.927810752;-39.1666584;9.270176779;-1.179777437;-14.15384062;-5.940506567;-1.265361236;-2.142664648;-0.433195011
10.36094767;-17.41444432;-18.37188658;-8.66726668;12.42986813;-0.763182763;6.384194933;-8.921469197;0.458574263;-20.02867008;7.712667145;-40.96844578;-3.116080989;-5.308772953;-14.32134928;-10.2916449;-3.401214761;-6.88905994;-0.995634358
12.72101701;-17.01003906;-4.746904831;-7.532484147;12.91401228;0.059141899;6.782105395;-7.761113257;7.095368283;-18.99575265;17.59896161;-41.51759355;-12.81945374;-5.756434231;-8.727524869;-8.990845655;-1.20105827;-5.817283357;0.899862844
15.43393956;-14.35154397;0.960820176;-2.079993181;16.16265926;0.993897143;3.732758585;-4.612840704;12.15380497;-14.7786911;17.98533887;-40.91652594;-15.53971549;-2.356354981;-0.175553725;-2.727368871;4.544274818;1.054659961;3.745340247
16.72169693;-9.377343719;-2.044946087;4.34247788;19.68012014;1.091133936;0.119706119;-1.076682614;11.68201355;-9.006227807;6.1027305;-40.9434137;-11.64046467;1.62488687;5.980718596;3.823138918;9.561928436;8.511048448;4.916161398
15.89700374;-3.407972129;-7.662363002;7.95037813;20.91126952;0.270872817;-0.417060389;1.565370253;4.540907089;-5.281899187;-11.93495462;-42.6223433;-4.762762505;2.826650618;6.294235419;6.370039063;9.995098964;10.79973913;3.182242569
14.02496932;1.2302838;-8.203200553;7.520544183;19.59330316;-0.635335766;3.219093752;3.085147122;-6.380712719;-6.078736983;-24.97199436;-44.41635299;1.369459567;1.012730609;1.983503869;4.633849457;5.877476042;6.489547288;-0.112302747
12.97106205;2.417132111;-0.647826275;4.948745776;17.82860077;-0.706963459;8.361721315;3.843024714;-15.87251562;-10.76783755;-24.65268726;-43.14945209;5.103454712;-0.876670975;-2.307933149;2.131950863;1.076766256;-0.552470652;-2.285626817
13.76378765;-0.298786357;10.98329795;3.252090484;17.9575194;0.174225508;10.80758682;3.909127469;-19.65111695;-16.09536794;-11.3007239;-37.08569737;6.634647257;0.19681538;-2.543566838;2.615226342;-0.15049477;-4.626961854;-1.789135946
15.77188781;-5.099183074;18.72091701;3.960943144;20.32761048;1.205997655;8.71454882;2.934179668;-16.70073428;-18.37714697;6.590145287;-28.29458655;6.435923581;4.181354044;1.436278839;6.575214994;3.168502297;-2.915834485;0.404816923
17.38440305;-8.88115733;16.53717148;6.087153761;23.04007813;1.423794919;4.61635088;0.983054535;-9.229745035;-15.6438709;18.65208699;-21.79;4.344940609;7.750984573;6.143669336;10.95160403;8.074054676;2.552018369;1.786371508
17.49483903;-9.341599069;4.504176644;7.294570285;23.81774952;0.615461569;3.428895279;-0.707198128;-0.758673059;-8.484378916;19.71437486;-21.76541079;0.198282492;7.385835261;7.759964181;12.09538997;10.48266753;7.052002876;0.732076938
16.41334812;-6.630395539;-11.58022265;6.031828408;22.15677762;-0.468468034;7.925167194;-0.2404899;5.896373171;0.467222797;12.3677673;-28.01109693;-4.970898171;2.859596071;5.489286318;9.098089268;8.796735512;7.245689054;-1.903368092
15.43671464;-3.190194894;-24.28730951;2.784170678;19.7364024;-0.807049923;15.72528722;3.21013922;9.384985371;7.744472447;3.639489012;-35.69935732;-8.83320725;-2.184119584;2.045510546;4.439238441;5.079524295;3.625736649;-3.527993781
15.57075696;-1.792552981;-29.04165512;-0.423988421;18.77056962;-0.059119664;20.85038075;7.99658531;9.392793374;10.40992538;-0.909773978;-38.92315229;-9.259174579;-3.246493945;1.042240465;1.539943524;2.908116222;-0.468892649;-2.22213425
16.63151224;-3.307439011;-25.97591504;-1.631890335;19.92819718;1.112321968;18.91169358;10.57597588;6.091024827;7.330367383;-0.719963553;-35.11602054;-6.131101281;1.054650492;3.780945257;1.691384721;4.049114012;-1.959936618;1.401643655
17.51117413;-6.052441943;-18.57203246;-0.2819935;21.79702125;1.643626436;11.47919109;8.121725613;0.262391523;0.036979098;1.020617002;-26.67726582;-1.643321403;7.630078125;8.306732392;3.276036577;7.04273391;-0.342199895;4.61846275
17.25817621;-7.295795624;-10.8328987;2.577317559;22.34039725;1.04538407;5.418699798;1.186492214;-6.202130886;-7.496938843;1.55967453;-18.54758843;1.421441953;11.44850794;11.4123415;3.880971785;8.864690854;2.592023925;4.939862454
15.88690503;-5.665075685;-5.225838604;5.067188181;20.88613045;-0.148883313;7.142593331;-6.044094758;-10.44721978;-10.65242939;1.551012134;-13.99872903;1.996560484;9.752196011;11.59433243;3.076867379;7.933910268;4.856082198;2.275476504
14.17164065;-2.414541953;-2.370473928;5.492152736;18.71087789;-0.870465943;16.36328495;-8.596741976;-9.98064943;-6.981395763;4.150389017;-12.38644905;1.490195719;4.271085507;10.21850143;3.002371976;5.557070085;5.919511277;-1.042663454
12.71944656;-0.45437869;-1.855344955;3.055830833;17.67291402;-0.488601233;24.92426609;-4.664100146;-4.495935219;1.713227851;11.29690062;-10.74548163;2.212170315;-0.444484776;9.919174259;6.05562913;4.481325586;6.429805833;-2.383125418
11.3277256;-1.948454508;-3.007008494;-1.772434589;18.25367247;0.62324659;22.41579223;2.565557229;3.292179882;9.867437866;20.81430562;-7.563223795;4.868586094;-1.005447926;11.83940795;11.90045284;6.015425694;6.669241499;-1.153095494
9.322982071;-6.501794094;-5.043436104;-7.171887333;18.96167566;1.440446842;4.576783996;6.965528606;8.789653425;11.45945407;27.19239992;-5.048961542;7.504484854;2.067110628;14.34478914;16.85449634;8.540283344;5.696257384;0.759694366
6.555091367;-11.43960758;-6.919345473;-10.37825775;17.75160307;1.227318949;-22.24209592;4.049874089;8.160511389;4.116016059;25.59775912;-7.555716782;7.050612789;5.157604033;14.42875212;16.63239499;8.904074334;2.306611765;0.816335776
3.993327578;-13.89759071;-7.424100748;-8.886433854;14.14229026;0.200307199;-44.51590304;-5.481133196;0.734115936;-8.995338623;15.79264676;-17.34095713;2.236475564;5.02762317;10.52475012;10.23129445;5.448857006;-3.097870455;-1.760183536
3.176655084;-12.95597632;-5.661556808;-2.183992335;9.961598984;-0.68594735;-50.65358726;-16.10913905;-10.50233742;-21.1331226;2.677378036;-31.42394175;-4.755245552;1.722382321;4.149954381;1.428826076;-0.172361978;-7.828925265;-5.193749445
4.86422667;-10.11487696;-1.554591761;7.108125766;7.865211391;-0.621561593;-38.95453522;-21.57184168;-20.68632124;-26.55081645;-7.021056461;-42.58571319;-9.562544471;-1.659020824;-1.129384376;-3.750948485;-4.166660715;-8.563857206;-6.707885424
8.088917154;-7.891083181;3.995640998;13.98287954;8.875235752;0.321716973;-18.40368844;-19.46131618;-25.92250618;-24.2961793;-9.292122596;-44.12016446;-8.980827805;-1.972677583;-2.510087891;-1.728886002;-3.800445573;-4.200087891;-5.018280567
10.5896783;-7.862662309;9.313034392;13.86059162;11.20640148;1.269130041;-1.884903064;-12.77315221;-25.32770032;-18.39373358;-5.178581232;-34.72900527;-3.607811948;1.032887885;-0.081338322;5.688757922;0.221719845;2.644221223;-1.51738993
10.42626453;-9.772367243;12.31626345;5.8621007;11.58901985;1.352120482;2.791682575;-7.333226229;-21.1027596;-14.41997732;0.570708794;-19.71281746;2.492058293;4.530405567;3.523933787;12.69496655;4.345046485;7.13985786;0.909420995
7.493665166;-12.19549698;11.01751045;-5.969839275;8.063176292;0.498313018;-2.72299533;-7.314794349;-16.84115875;-15.33559233;3.105667155;-7.527320803;4.919795935;5.265200701;5.519135634;14.13943017;5.210381162;5.850843615;0.369257424
3.651432756;-13.88831383;4.309875064;-14.90976113;1.823522956;-0.517418656;-10.2926396;-12.42062142;-15.33140648;-19.886351;0.475698159;-4.364424958;2.3303263;2.545120808;5.202187995;9.611178533;2.458899653;-0.45727225;-2.464575262
1.313567231;-14.52115752;-7.029521033;-16.06587564;-3.564172648;-0.794059387;-12.51646457;-18.72383323;-17.18957154;-24.55855444;-5.878107257;-10.73243536;-2.671315853;-1.164855676;4.114886889;3.568966033;-1.152071163;-7.231105653;-5.05663804
1.640226961;-14.32406571;-19.78657252;-9.925869857;-4.989803937;-0.125984165;-8.119805887;-22.10226153;-20.91960742;-27.01569308;-12.84051161;-22.14361134;-5.771866435;-2.521660429;4.170227959;1.482649984;-2.334086459;-9.573095568;-5.308685957
3.802518897;-13.3190326;-29.12097054;-2.054863036;-2.291375423;0.826290162;-1.583460323;-21.26894942;-24.08905056;-27.8284233;-17.77335459;-32.74375901;-4.389214218;-0.314405086;5.635288614;5.283886484;-0.172752317;-5.97252952;-3.374230045
5.86793326;-11.13626048;-30.92946193;1.096482089;1.696493023;1.159511123;1.826101507;-18.08774828;-24.79464291;-29.08184087;-19.58023442;-38.80191911;0.505533241;3.531340615;6.903417158;11.91298785;3.229871813;0.688399013;-1.394798194
6.485898864;-7.649306652;-24.54659335;-2.846222617;3.551585877;0.560910541;0.846257274;-15.35969855;-22.6254857;-31.45311934;-18.50317645;-39.7626707;5.499124526;5.786100348;6.249466683;16.03901403;4.844048505;5.602834733;-1.456967648
5.925462702;-3.658517152;-13.71051427;-10.39190649;2.05945131;-0.413722972;-1.229923089;-14.31386342;-18.71747595;-32.82565336;-15.46207305;-36.98066344;7.609259138;4.823731631;3.863920342;14.51097315;3.535488389;5.870317196;-3.646075013
5.645823012;-0.68447492;-4.519935855;-15.09571791;-0.945523248;-0.860645861;-0.22568869;-13.96137919;-14.97168626;-30.05459521;-11.62974906;-32.01093812;6.423918573;1.942588869;2.148675115;8.774237853;1.040602277;2.546704187;-5.937416153
6.876061312;0.174835034;-1.338863;-12.86895032;-2.30299967;-0.357230468;4.718511763;-12.57170401;-12.90759109;-22.41563917;-8.200058594;-26.04211651;3.877564094;-0.006422478;3.814144958;3.383464189;0.275833146;-0.619448995;-5.986779769
9.496702806;-0.697931748;-3.568487608;-5.308894295;-0.246204365;0.662026227;10.27824351;-9.646232036;-12.8142728;-13.40645898;-5.975901502;-20.38946437;2.181561699;0.707123346;9.340490675;2.104591815;2.606831873;-0.495649142;-3.197383659
12.17135442;-1.601032738;-6.035452821;1.786664101;4.19151091;1.314294632;12.0466076;-6.535991068;-13.72437226;-8.764712441;-4.848907164;-16.76247628;1.914808194;3.233054109;16.04203919;5.006553797;6.590836828;2.936282841;0.755515146
13.53292798;-0.958995178;-3.157288999;3.537018362;8.14310277;1.070517503;8.650954641;-5.289939369;-14.24520322;-11.91164013;-3.806964383;-16.45857216;1.895098376;5.170567767;19.6934636;8.870229516;9.282436395;6.86301786;3.347201542
13.32696762;1.172709787;6.101919116;0.383565855;9.25494802;0.210861666;3.138863555;-6.954571681;-13.67509899;-20.58903765;-1.894359254;-19.11529507;0.702972041;4.993054905;17.54459655;10.28405883;8.829698601;8.219517352;3.267146376
12.52775315;2.993955975;16.52039797;-2.111865998;7.373621149;-0.469298784;0.42794498;-10.87821153;-12.5548314;-27.83837149;0.45969715;-22.50499518;-1.724981405;3.502832174;10.38760294;8.587003529;5.969105299;6.229671957;1.331826604
12.4082803;2.50871372;19.95048737;1.861355638;4.299244448;-0.407816826;3.106249421;-15.45152496;-12.16884479;-27.00303779;1.110436107;-24.05847253;-3.922177046;2.939177116;2.095957833;6.183108004;3.132636242;2.828820699;-0.438163427
13.45703536;-0.563309163;11.50050851;12.81706945;2.092803922;0.225176677;9.242415689;-19.35037271;-13.34421396;-16.98566187;-2.284655241;-23.05191331;-4.209083995;4.633545544;-2.958640348;6.186832428;2.119613812;0.854989171;-0.625979997
15.08903144;-4.289793178;-6.169169071;24.55658592;1.5593815;0.730651774;14.04021202;-22.0602211;-15.54844748;-3.535322615;-9.732762467;-21.44720897;-2.217432631;7.501169527;-2.64873949;9.6267298;2.560504606;1.749552312;0.525359473
16.30675493;-6.050019531;-24.00876056;28.41499828;2.116812295;0.574874079;13.86760377;-23.4142536;-17.13969067;4.627262677;-17.57408692;-22.33444266;0.748574771;8.870666702;1.904699934;14.61218997;2.561712415;4.691237078;1.63397983
16.59989257;-4.841933795;-32.61187014;19.98022826;2.841432906;-0.091491185;9.271488313;-22.9905185;-16.68033325;1.965846312;-20.11562144;-27.06795902;2.743453422;6.935145768;7.494393535;17.98100503;0.810567078;7.628356879;1.621653917
16.22514051;-2.303347813;-28.64256756;2.87710177;3.456081744;-0.579920201;4.564788247;-20.30346699;-14.23597853;-10.08808487;-13.67949394;-33.55985845;2.611034706;2.549287293;11.01419532;17.79990214;-1.955269304;9.020019531;0.655442483
15.67148249;-1.413627748;-16.77315117;-13.56043007;4.297364656;-0.333454123;4.434427225;-15.71035123;-11.4569522;-24.4407847;-0.144842789;-37.41529864;0.622780131;-1.336669082;11.06792113;14.558894;-3.56731874;8.710266097;-0.234053939
14.9293;-3.902373755;-5.750799716;-20.98930975;5.481163429;0.518671773;10.30070912;-10.93521629;-10.21648982;-33.45961324;13.1549579;-35.20614196;-1.992020251;-2.144811611;8.17950863;10.28280526;-2.556779263;7.418132675;-0.354886462
13.36644269;-8.634274983;-1.821463263;-17.8433382;6.344459944;1.252752128;19.11549508;-8.255697056;-10.89814003;-33.87887048;17.80111272;-27.2511212;-3.941883783;0.18005127;3.947475927;6.674158273;0.26952561;5.688232307;-0.106327443
10.40453293;-12.47253463;-4.699519154;-9.700490356;5.925317406;1.213649159;25.23701363;-8.704221004;-11.90088992;-28.02078801;10.10728526;-17.55560127;-4.34975212;3.271531565;0.044069213;4.076301784;2.398510317;3.50561549;-0.509477995
6.370360467;-12.94781116;-9.002638434;-4.193310902;4.093054049;0.434310174;23.81351208;-10.8564363;-11.00818999;-21.03973938;-5.936356695;-10.89086199;-2.669872035;4.564963495;-2.344286758;2.024368458;1.903700501;0.896274721;-1.991737842
2.652573765;-10.39889706;-9.511510657;-4.847864292;2.135461636;-0.371292154;13.40352552;-11.59298728;-7.616718444;-16.90500864;-21.0240225;-9.370212507;1.383818041;3.581048165;-2.665921969;0.531034331;-0.634971649;-1.317986374;-3.679144863
0.873564222;-7.644104706;-5.591287097;-8.936869627;2.001827712;-0.448320344;-3.470996248;-8.575295592;-3.868304342;-16.30273616;-26.66145295;-11.25040125;7.423149465;2.186079267;-1.048344738;0.594134285;-2.434228086;-1.675602914;-3.998959449
1.678993852;-7.414569588;-1.107537578;-10.87526572;4.672505845;0.307328558;-21.6403282;-2.481456731;-3.432756974;-17.52264942;-20.61949045;-12.75736539;13.81673265;2.640417788;1.679938854;3.278436821;-0.898495612;0.721716312;-2.131299051
4.147175982;-9.823048164;-0.231807254;-7.926514187;9.072979288;1.242256882;-35.44381803;3.058169025;-8.616286423;-18.80046697;-7.817216866;-11.22199097;17.87867584;5.297221656;4.208023202;8.222356998;3.962637138;4.996741015;1.027715845
6.356216329;-12.18970836;-3.119064891;-3.073192846;12.62098171;1.527966404;-40.79678375;4.098517008;-18.04116461;-19.75003906;3.699947511;-6.891765192;17.28248934;8.124331825;5.340481008;13.10128382;9.254835013;8.547407015;3.366413202
6.70968403;-11.48081794;-5.471636919;-2.443546283;13.11156239;0.906281945;-36.64516353;-0.380124642;-26.93834847;-20.8797386;8.343860738;-2.159568676;11.93817552;8.516254312;4.692363309;14.79670128;11.38050754;8.622375088;3.195220828
5.010200261;-7.23438026;-2.498059289;-9.487330116;10.43160207;-0.078541941;-25.42941993;-7.313725986;-30.12804074;-22.20119552;5.935677329;0.726643149;4.729072521;5.726759688;2.923110275;11.49763087;8.857944608;4.309965053;0.637498932
2.488258459;-2.298112653;6.196371325;-21.03964572;6.665192728;-0.570064697;-12.1747907;-11.59445284;-25.57470595;-22.66812127;0.330015869;1.255010088;0.061107903;1.662455112;1.21612031;4.082866669;3.411669924;-2.649552024;-2.445883275
0.830083008;-0.558103603;15.22286371;-28.95132819;4.479794633;-0.165279454;-2.212693822;-9.812837837;-15.82243213;-21.09368524;-4.41014839;0.281564029;0.907517443;-0.723946477;0.356368688;-4.328089381;-1.511670386;-8.93;-3.958184534
0.993874003;-3.514399291;17.06263187;-26.28719915;5.1174363;0.736905567;1.554704244;-2.758940213;-6.199932907;-17.53041162;-6.786763165;-1.526535663;6.509112525;0.000202816;0.177042033;-10.31072787;-3.443150931;-11.76195387;-3.22015203
2.67640333;-8.692418512;7.988147807;-13.12878869;7.609585035;1.31158583;0.200655293;5.277867999;-1.186112636;-13.56154008;-7.589350798;-4.552163858;12.69343086;2.541559322;-0.121618785;-12.10412215;-2.509335425;-10.52591737;-1.386978122
4.707271736;-11.40208078;-8.563533764;2.871101267;9.759962962;1.056381128;-2.141809035;9.768575272;-1.706266688;-11.05547275;-7.596701631;-9.362856286;14.83778546;4.109129438;-1.051482445;-10.27795651;-0.760732542;-6.704441144;-0.333721067
5.943000677;-8.493904877;-24.00916569;11.87780059;9.96485244;0.230325014;-1.324688706;9.099663691;-5.265818412;-10.53691519;-6.01711181;-15.0328759;11.32348158;2.934625462;-2.163979575;-6.884458871;-0.061044284;-2.475387935;-1.028338836
5.963617913;-0.991061828;-30.53254913;9.098993863;8.339346211;-0.405293716;3.705589629;5.197765999;-8.478207543;-10.80067433;-1.378645082;-18.64650446;4.774804148;-0.208387327;-2.294363735;-3.977814239;-0.541062584;0.764504276;-2.792770662
5.161142403;6.634722473;-26.30122454;-1.782173156;6.340103831;-0.291822842;10.1243231;1.412516577;-9.692232196;-10.22388862;6.101518589;-17.02939134;0.039380906;-2.823666713;-0.571117265;-2.599093046;-0.905136412;2.826851502;-4.008459823
4.316121598;9.961772891;-16.0661414;-11.59518407;5.398204658;0.427005955;13.52741858;-0.318575477;-9.589807009;-8.535616384;13.32249147;-9.56644959;0.462581905;-3.025155061;2.684284774;-2.677380386;-0.061873359;4.064474522;-3.551380946
4.055985787;7.984563281;-7.006791382;-12.67108076;5.816361336;1.059246161;11.61059693;-0.62797521;-9.570598436;-7.254956477;15.96414714;0.404888828;5.39732304;-1.19186358;5.991657714;-3.518353903;1.637689051;4.510801447;-1.677049862
4.528193413;3.596719798;-3.387960987;-4.379040124;6.774221916;1.014761793;6.265168765;-1.479863504;-9.711668676;-8.218176218;11.94043578;7.260385378;10.88737585;0.569127384;7.703107208;-4.312006507;2.768191562;3.728754039;0.335725838
5.381513465;0.919605497;-4.22329657;6.910058594;7.219590725;0.343711567;2.261595982;-3.946513248;-8.365761073;-11.49280024;3.623840676;6.917946052;12.87815906;0.590065918;7.138589781;-4.411607315;2.379279319;1.440019531;1.335084859
5.982044675;1.849341053;-5.365396146;13.07255173;6.720677889;-0.327766917;3.444325563;-7.109008296;-3.848933656;-14.72585514;-3.399671897;-0.072815786;10.29085514;-0.656972953;4.943047863;-3.503618591;1.127675034;-1.802578205;1.155830113
5.7629294;4.741859068;-3.745394273;10.37097856;5.584719152;-0.391648318;9.495951796;-8.964088234;3.353112385;-14.78945209;-4.346550764;-8.724495673;5.510887652;-0.987242479;2.448009344;-1.780908922;0.802062625;-4.662382502;0.494334772
4.599710684;6.199458209;0.036982526;1.793174349;4.357286907;0.177293407;16.00200345;-8.314069603;10.03278901;-10.46929445;1.186535615;-13.08412392;2.066370218;1.292458333;0.684281267;0.040311843;2.63123109;-5.825229254;0.078210741
3.029205033;4.226831587;2.81247134;-5.82176694;3.354690461;0.807965154;17.91983673;-5.80575337;12.15819238;-3.830519228;9.074311446;-10.34551159;1.599089977;5.473847498;-0.079773322;1.097685184;5.990756174;-4.869879848;0.021221322
2.085309744;-0.061140546;2.321077205;-7.189161329;2.66773214;0.874698928;13.73915886;-3.224439922;7.854863296;1.107117766;14.08343094;-2.475030124;2.710670165;8.716820441;0.007547324;1.048702596;8.804581659;-2.461630218;-0.040403841
2.686234726;-3.596041883;-0.255752817;-2.190512602;2.435762003;0.285015296;6.95241597;-1.847457196;-0.945684893;1.441073263;13.97166178;5.713215303;2.558994489;8.419124731;0.99772629;0.479305709;9.353889492;0.226711007;-0.285170918
4.871539555;-4.219452804;-1.080690468;4.76912277;2.868730701;-0.431689104;3.528016113;-1.480790013;-9.61487905;-2.331557416;10.82784624;10.25045473;-0.300039063;4.636026067;3.251126156;0.53223297;7.844863827;2.28144963;-0.313232892
7.468243215;-2.64117003;2.848182003;8.563290811;3.852096843;-0.611794604;7.24236628;-1.021234599;-13.90792156;-6.773224913;8.646151748;10.45574072;-4.348918837;0.336362396;6.837380358;1.876111315;6.249785459;3.347808454;0.482057445
8.617353971;-1.776281729;10.51745301;6.956822998;4.597430514;-0.065742228;16.43827569;0.160403859;-12.66492331;-8.349066822;9.413365827;8.430489199;-6.189908437;-0.876522472;10.8544518;3.868645281;6.506695666;3.365399457;2.115454653
6.985422824;-4.119292201;16.86132454;1.366244551;3.95146066;0.754330132;24.69991163;1.494686185;-8.14472263;-6.258168329;11.24754334;6.517966377;-3.358349047;2.285136767;13.53272155;4.812383259;8.700358004;2.224488969;3.641572967
2.848601405;-9.523400615;16.14015394;-5.190591893;1.368978109;1.175431691;24.98083036;1.890735123;-3.937591995;-2.877187446;10.26360697;5.232303628;3.491290739;7.679609935;13.33465276;3.334692302;10.91458609;-0.159934998;3.733214776
-1.846954744;-15.31616737;6.230571136;-10.66853802;-2.258073517;0.916911368;14.23135741;1.073392921;-2.262233174;-1.509128072;4.502817029;3.435144212;10.82249363;11.42978081;10.26897362;-0.179316931;10.9485288;-3.411046105;1.810488913
-4.669557284;-18.56122927;-9.434359547;-14.83493833;-4.858206379;0.329138744;-4.618567274;0.110125731;-2.742411116;-3.443431515;-3.619185863;0.291984628;14.65673022;11.01666105;6.247914943;-3.460751323;8.378841307;-6.461990578;-1.286870978
-4.368209252;-18.40347537;-23.75311374;-18.10292119;-4.616744748;0.045724136;-24.41546523;0.448245821;-3.369318446;-6.883111591;-8.670124711;-3.1244675;13.25924175;7.202177979;3.973049339;-3.936611355;5.092493403;-8.010942635;-3.779527122
-1.769532545;-16.45831444;-30.31543124;-20.03851642;-1.527128814;0.382612612;-37.80846922;2.33993764;-2.559021836;-8.627153072;-6.424091345;-4.314700237;8.050251681;3.245704144;5.045261613;-0.90724761;3.756679871;-7.460540459;-4.274488823
0.85131074;-15.03348437;-27.17937189;-19.35440638;2.351760918;1.046083894;-40.87345816;4.292814405;-0.500757726;-6.991038591;2.487416652;-1.612211056;2.255490243;2.171078213;8.723182051;3.511395217;5.534523679;-5.546240553;-2.840644096
1.515618403;-14.91344974;-17.60396263;-15.50969793;4.389485913;1.416194543;-34.40358095;4.303471734;1.184915843;-3.397230837;12.54571185;3.847646162;-1.431511513;4.404272143;12.33643631;5.68267067;9.041964538;-3.976550677;-0.902898348
0.07299883;-14.75480545;-7.523198668;-10.21134751;3.54833634;1.133057996;-22.70137853;1.86777046;0.957557168;-1.247517389;17.0787263;8.393522776;-2.345449812;7.654009982;13.10017536;3.160423068;11.45848989;-4.220159231;-0.030729076
-1.694864665;-12.60106496;-1.704298141;-6.955125596;1.381961589;0.434075754;-11.08138927;-1.181183279;-1.348545775;-3.034433462;12.93038668;8.348135474;-1.614481202;8.941881971;10.00226533;-3.29765764;10.82727934;-6.370329687;-0.657777177
-1.503386323;-8.059953273;-1.149555971;-8.49118876;0.858068606;-0.071923326;-3.536349252;-2.048103609;-4.44637102;-8.128050396;2.602779806;2.853789404;-0.78603441;6.956115663;4.412844276;-10.11001953;7.5794671;-9.039754671;-1.822470283
1.596906724;-3.074604775;-3.190416828;-14.19385936;3.820140689;0.021636961;-1.436156791;0.448168114;-6.606026211;-13.06680875;-7.531335693;-5.300981019;-0.648763575;2.833987206;-0.922718393;-13.45241448;4.051432855;-10.40988592;-2.114792715
6.435501284;-0.49221804;-3.865358245;-19.78737219;9.176446624;0.538306867;-3.459805997;4.417867533;-6.804708521;-14.08359096;-11.41763048;-11.53725511;-1.105309085;-1.024378388;-3.659398872;-12.03393289;2.531287595;-9.585249461;-0.960479859
10.60605717;-1.629351487;-0.841725286;-20.12940786;13.4443543;0.890122658;-6.596923105;6.112012862;-5.174225815;-9.826125609;-6.906915062;-12.57063908;-1.855112789;-2.86412168;-3.119663473;-7.870890154;3.578320098;-7.15283701;0.891816768
12.29195673;-4.969046681;4.966134409;-13.15775307;13.36747828;0.642818512;-7.838039509;3.032923969;-2.64966978;-2.212685327;3.39550422;-8.404695644;-2.981586174;-2.574011309;-0.339610159;-4.494793021;5.975614854;-4.550188617;2.072390212
11.56585381;-7.184249953;9.965313597;-1.887274605;8.545708938;-0.055040719;-5.860454001;-3.656078346;-0.330313011;5.030202764;14.00158235;-1.938378445;-4.821169145;-1.187046971;2.84480025;-4.12827044;8.133000732;-2.874202208;1.807963244
10.15570165;-5.705713335;10.17936866;7.331948827;1.916441273;-0.586648564;-1.776326706;-9.630436031;0.952031188;8.822210586;19.52077113;3.188972644;-7.32598684;0.32703999;4.845951391;-6.154465933;9.50184827;-2.195188402;0.551567292
9.927685625;-0.75818252;3.836247933;9.174115301;-2.358027303;-0.429374137;1.69292124;-10.60953287;0.793889749;8.331502947;17.05957866;4.724265344;-9.669789829;1.737410398;4.865089864;-8.038967031;10.70696165;-1.906239941;-0.508753476
11.34576275;4.746066893;-7.32551187;3.043949568;-1.92876227;0.349624566;2.274321938;-5.686476108;-0.676393442;4.846523449;7.284747454;2.51831618;-10.60632053;3.21036767;2.869257321;-7.766700011;12.42516098;-1.652194368;-0.57048195
13.12184704;7.302188125;-18.86294651;-6.722529731;2.174951437;1.124756454;0.035021802;2.009470202;-2.701474313;0.46895662;-5.816747343;-2.163357646;-9.35309626;4.561830535;-0.66154719;-5.635541173;14.25204643;-1.865326875;0.070117976
13.26167397;5.203712648;-26.11826965;-14.29044284;6.600785921;1.251286917;-2.4470188;7.883784212;-4.064644662;-3.155339005;-16.32989422;-7.714147331;-6.25886888;5.061105798;-4.953381914;-3.914389199;14.76477054;-3.356180875;0.33935152
10.60964461;-0.538895161;-26.87825664;-16.65593678;8.348999208;0.629566311;-2.021839631;9.484281796;-3.746882222;-5.307299971;-18.85912163;-12.75292962;-2.679699936;4.06516038;-9.139516707;-4.782159247;12.78301906;-6.354424208;-0.589476582
5.688411612;-7.207584781;-22.48905842;-15.45647456;6.849047107;-0.212255149;2.345518758;8.078315294;-1.79654923;-6.008451145;-11.44302869;-16.17751857;-0.148222123;1.815171631;-12.54169443;-8.419098704;8.629596659;-9.961881937;-2.521529407
0.288240076;-12.27614733;-16.65745004;-14.91570387;3.894499045;-0.58667343;8.368772477;6.944839604;0.328362966;-5.74425477;2.555838123;-17.28714399;0.532238889;-0.503436278;-14.92702528;-12.88423539;4.146272853;-12.62263427;-4.40376961
-3.737855154;-14.70548249;-12.75036183;-17.73307627;1.782418606;-0.240387177;11.98577979;8.033465811;0.51318411;-5.353990225;15.32232218;-16.25106185;-0.354663974;-1.614317401;-16.46466352;-15.77062957;1.371210867;-13.26130649;-5.238715074
-5.507326259;-14.92351494;-11.5306582;-22.40611329;1.424811396;0.456387166;10.69948823;10.06279529;-2.456817296;-5.843160717;18.63710195;-14.43887359;-1.773743137;-1.151868071;-17.29254777;-16.0907784;1.038528844;-12.08751316;-4.895625012
-5.315129349;-13.94468764;-11.01463724;-24.29812992;1.984342066;0.877458341;6.047677496;9.791823751;-7.680949804;-7.854741289;9.129222228;-13.8790618;-2.624156309;0.154272532;-17.05315671;-14.75793763;2.231524918;-10.33715305;-4.106270047
-4.106171569;-12.59440214;-8.546495124;-19.6749888;2.067659562;0.712439161;2.913107044;5.294383258;-12.40104641;-11.0441032;-8.823258201;-15.82236416;-2.309539165;1.306281043;-14.9759153;-13.39489641;3.4474364;-9.181429348;-3.713024565
-2.803029096;-11.36668259;-3.402336408;-9.430126013;1.140818178;0.218895363;5.786585457;-1.792760187;-13.80368574;-14.01234546;-25.14364119;-19.44282081;-0.947965662;2.069441089;-10.6926355;-12.72077051;4.025716669;-8.793728015;-3.912381748
-1.975889357;-10.66149338;2.285072491;0.661809832;-0.177895383;-0.058261707;14.69151095;-7.202378692;-11.11767261;-15.16123544;-30.32465152;-21.98571233;0.753057152;3.16426373;-5.193532624;-12.0566068;4.584008732;-8.410516992;-4.190029297
-1.871439192;-10.83596924;5.188817047;3.640741603;-1.054473504;0.18268185;24.09508908;-7.455540921;-6.334870186;-13.97267359;-21.81840583;-20.66256651;1.836325999;5.3769162;-0.904877526;-10.34087212;6.085092531;-7.289133173;-3.95179055
-2.498737779;-11.88959611;3.756270163;-3.641094677;-1.48518807;0.723074392;26.07636947;-2.799992628;-2.846643738;-11.61591257;-5.869529556;-15.02927536;1.556015795;8.437820511;-0.376824286;-7.57287395;8.496749692;-5.61846057;-3.193112682
-3.579127048;-13.17661563;-0.07417836;-17.96675671;-2.295512109;1.051425516;15.77061085;2.937930785;-2.943904391;-10.16767915;6.83308023;-7.874005577;-0.169727197;10.83410235;-4.275455974;-5.192703141;10.42977471;-4.475159675;-2.540967772
-4.499891971;-13.63339443;-2.127128322;-31.60987181;-4.077609498;0.866672401;-4.797898226;5.493715929;-6.111746574;-10.91387153;8.711992193;-3.5956468;-2.57284097;10.90041571;-10.26982605;-4.933765622;10.22541073;-4.819597161;-2.633345206
-4.540087891;-12.50057761;0.50718006;-37.29511705;-6.212773906;0.37181804;-27.38145243;3.563156219;-9.484828438;-13.15049239;0.522439254;-5.044324678;-4.386902138;8.30228867;-14.04807793;-7.175645857;7.55278683;-6.461152799;-3.45423528
-3.377937079;-9.944830965;6.525985717;-32.73525257;-7.128063744;0.077023628;-42.34978439;-0.490880036;-10.12371833;-14.64831548;-9.664741574;-11.19215793;-4.707584268;4.549241976;-12.13230082;-10.37274088;4.001003925;-8.010019531;-4.289108168
-1.503299814;-6.975042558;10.70082502;-21.66550089;-5.734167731;0.300018921;-44.39449734;-3.160455429;-7.315722571;-13.55942343;-12.9008792;-17.55090088;-3.847357832;1.956353791;-4.564518056;-12.20073683;1.98981147;-7.959934548;-4.367301228
-0.087866217;-4.669764814;7.618937189;-10.94665239;-2.733336694;0.841987114;-35.25781601;-3.1928033;-3.104079488;-10.18960784;-6.254396439;-19.20429922;-3.440476054;1.852647659;4.68821014;-11.48418237;2.846695446;-5.992152443;-3.590310531
-0.263869392;-3.395316571;-3.814212482;-6.051934378;-0.432123137;1.155196256;-21.88919488;-2.745564294;-0.699975087;-7.007512744;5.089345456;-14.28822199;-5.446206262;3.561883957;10.21355091;-9.192943915;5.715402961;-3.327342218;-2.648753375
-2.306580378;-2.72621214;-18.74168123;-8.074578988;-0.993334529;0.8556397;-11.6618639;-5.21899069;-2.11499635;-6.694465714;11.98175941;-5.374307507;-10.56116001;5.059284161;8.891144008;-7.561493173;8.292586604;-1.749417625;-2.400505773
-5.384507225;-2.110725193;-29.21709882;-13.90989717;-4.557858909;0.103628434;-8.092085308;-11.72527476;-6.880931142;-9.78745744;8.335972925;2.206841978;-17.21466289;4.754782586;2.135541618;-8.039023647;8.797631927;-2.098276119;-3.080122721
-8.122909052;-1.586618814;-29.67863785;-18.86591296;-8.940039063;-0.510814013;-9.733667782;-19.45676082;-12.7177572;-13.97258849;-4.421133042;3.809541364;-22.12130651;2.857730633;-5.108405972;-9.852353778;7.479483993;-3.530804726;-4.075417582
-9.552004596;-1.782002748;-20.92982154;-19.53294464;-11.30337033;-0.485175748;-12.40683367;-23.58690436;-17.38388077;-15.79565063;-18.67756571;-1.772526766;-22.28431772;1.138197439;-7.929705832;-10.48775377;6.348002851;-4.218724437;-4.483064065
-9.678244272;-3.143317466;-9.485791261;-15.15233402;-10.46112845;0.144049856;-12.666603;-21.2006064;-20.08238003;-13.49359551;-26.36662636;-11.96416322;-17.15224044;1.306596678;-4.909037008;-7.76663848;7.361399849;-2.922834227;-3.932236596
-9.239947253;-5.153479162;-2.670762376;-7.255977988;-7.815737492;0.829872367;-9.966126188;-13.88378374;-21.36557246;-8.589620646;-24.50215144;-22.31967766;-9.321466724;3.440484872;1.111806162;-1.812491765;10.64694072;-0.121089401;-2.919180833
-8.913928564;-6.414919014;-3.198132913;1.46150629;-6.077378907;1.000902753;-6.342142173;-6.677559219;-21.88876441;-4.819969477;-16.48954877;-29.05943581;-3.11654838;5.830867706;5.427556588;4.733923144;14.29799506;2.269533368;-2.351889978
-8.700239184;-5.697260326;-7.432749691;8.092754053;-6.842564421;0.564722837;-4.361194762;-4.199369143;-21.34402584;-5.161512824;-8.784384787;-30.57843261;-1.925955499;6.36730011;5.068287561;8.4611884;15.91827243;2.367809858;-2.731472789
-8.017176724;-3.077569813;-8.680983196;10.17399975;-9.148413771;-0.02635574;-5.091066036;-7.152283438;-18.63551287;-9.359302626;-6.001925312;-27.42039056;-6.128710987;4.254675464;0.796029013;7.527086583;14.58610245;-0.187318246;-3.717820453
-6.373764383;-0.077295115;-2.90162089;6.474311455;-10.30066618;-0.200571779;-7.482975073;-12.08830101;-13.14813194;-14.00425388;-8.281256351;-21.3750756;-13.03801005;0.614862826;-3.909861832;2.805216051;11.58461118;-3.909293587;-4.454325247
-3.964822997;1.477570206;7.684583215;-2.035205084;-8.28980815;0.210899834;-9.327971025;-14.49915091;-5.91953799;-15.14019058;-12.36864851;-14.61250089;-18.80984714;-2.460063477;-5.850971703;-2.924932829;9.332803894;-6.50493408;-4.323658101
-1.628859774;0.96593745;15.95689811;-11.80777786;-3.698033942;0.831190497;-8.883752183;-12.52441511;0.441372747;-11.31139359;-14.78067184;-9.182826918;-20.87012564;-3.510736579;-4.57555457;-6.965794203;9.471951743;-6.436407843;-3.435265525
-0.218630177;-0.502154497;15.19204158;-17.89263806;0.588465453;1.096922483;-6.001168598;-8.176191131;3.200039063;-4.623289323;-14.15945825;-6.607888295;-19.17011566;-2.609985137;-2.398518995;-8.30121897;11.69916446;-3.845736287;-2.436628686
0.02135811;-1.114489927;4.198361367;-16.59101002;1.661463389;0.779897112;-2.085447966;-5.234356945;1.276611144;0.958712496;-11.27465027;-7.333605137;-15.60612221;-0.938323423;-2.155562206;-7.749722281;14.20934772;-0.28474686;-1.89205932
-0.492850116;-0.123583377;-11.63511722;-8.050260977;-1.049166374;0.18837541;0.964983883;-5.828124298;-3.95679829;2.612742029;-7.489576373;-10.34813776;-12.34445281;0.383145771;-4.679949414;-6.854030571;15.22245545;2.380155116;-1.851887091
-1.199793036;1.229132533;-24.08377031;3.277115362;-5.311741943;-0.13180712;2.087779227;-8.70493221;-9.434304901;0.548435945;-3.64026484;-13.55059563;-10.45430883;1.062793257;-8.076440957;-6.583093756;14.25637874;3.030341171;-1.990844537
-1.923204614;0.59600845;-27.67466899;11.14054791;-7.874871221;0.088950526;1.766961365;-10.54492136;-12.1601953;-2.588672219;-0.32128592;-14.9835072;-9.743573457;1.405152424;-9.280792437;-6.829025505;12.19124245;1.699644156;-2.091849298
-2.869967262;-3.372868761;-22.91640265;11.5224301;-6.968745748;0.595913737;1.622745163;-8.971076564;-10.80663626;-4.074928971;1.265718929;-14.16765695;-9.578167827;1.508339306;-6.534492843;-6.861021071;10.30094077;-0.698338279;-2.303080999
-4.106643877;-9.454664643;-15.0015112;5.299436082;-3.481474046;0.855872478;3.106617423;-4.541445323;-6.225948576;-3.162217624;-0.511990599;-12.40799283;-9.735710016;0.853393638;-0.783314984;-6.148576451;9.246780726;-2.931703677;-2.856792043
-5.09582024;-14.27647548;-9.379789068;-2.582496603;0.013454416;0.563071798;6.208586045;-0.095817032;-0.754598153;-1.221112451;-6.085988306;-11.62490545;-10.54179096;-1.219955852;4.990842112;-4.858283017;8.866369692;-3.94955115;-3.547479271
-4.876912997;-14.62538443;-7.848731577;-6.914215558;1.378762039;-0.069833161;9.230352699;1.742963987;3.117355599;-0.11482867;-13.06182612;-12.55118976;-12.34319412;-4.622434155;7.825991489;-3.771480459;8.723608878;-3.231152423;-3.59694729
-2.86732741;-9.939601758;-8.06673979;-6.08517157;0.349820347;-0.508050984;10.02147513;0.572816386;3.941923905;-0.415503646;-16.68602387;-13.86607202;-14.97989943;-8.175173348;6.594222748;-3.839893708;8.693656424;-1.017903775;-2.209643625
0.403163672;-3.008609718;-6.444681469;-2.928280928;-1.756216629;-0.39427456;7.914708559;-1.960358429;1.851890044;-1.044754484;-12.93016279;-13.20831633;-17.803238;-10.30532908;2.36146648;-5.708217984;8.962693746;1.655645614;0.584435813
3.37537612;1.759048748;-1.689990431;-1.880103706;-3.505645092;0.116248278;4.783273417;-4.072994091;-1.689059333;-0.529610233;-2.173383564;-9.401468418;-20.15724818;-10.25321727;-2.659496263;-9.361826076;9.533744547;3.319300081;3.602057357
4.451545775;1.269365037;4.020140661;-4.850533206;-4.505098354;0.50053095;4.00406046;-5.491449569;-4.734627976;1.393058952;9.721848476;-3.995034968;-21.7683037;-8.703403784;-6.530384663;-13.93633212;9.885547396;2.82261048;5.144945659
3.160097656;-4.265462553;7.085004688;-9.340369269;-5.267559216;0.360568861;7.663283103;-7.247248656;-5.889262429;3.347421761;14.58933383;-0.558072845;-22.63610418;-7.20418053;-8.35517092;-17.8016024;9.272171546;0.106813796;4.207036613
0.527190636;-11.66546929;5.844702955;-10.50790518;-6.151820648;-0.19423753;14.01664902;-9.943384227;-4.995744418;3.487984958;7.700945082;-1.953165235;-22.59990936;-6.821841681;-8.146502982;-19.09973605;7.455375645;-3.595756622;1.275601576
-1.697295182;-17.06199766;2.298227268;-5.518805956;-6.614077056;-0.634515427;17.54231569;-12.37049214;-3.048597926;1.252375955;-8.072986387;-7.644081547;-21.14385852;-7.19556425;-6.29307781;-16.69775264;5.146702137;-6.428493205;-1.985408687
-2.353760272;-18.35361062;0.633357202;3.54572417;-5.613434354;-0.49429145;12.27501522;-12.05858048;-1.326987765;-1.840211636;-23.18334272;-13.35288732;-17.78007813;-6.838580408;-3.23902503;-11.07121705;3.639252286;-7.079147973;-3.954268946
-1.65791802;-16.12772537;3.699903237;10.86823699;-2.787345651;0.191467835;-3.52373006;-7.473774024;-0.321095726;-3.084544145;-27.35513453;-13.70220996;-12.71552797;-4.444351035;0.470699625;-4.405664511;3.857335475;-5.614798115;-4.173820394
-0.838880415;-12.64903244;10.2894704;11.39405334;0.820830169;0.898821692;-24.84866113;0.123298092;0.684700691;-0.525147028;-16.67706431;-6.107898984;-7.112237664;-0.078413565;4.082673037;0.420441118;5.629684579;-3.33413785;-3.455246151
-0.991831482;-9.957770768;15.50344428;4.986390455;3.322145665;1.070185827;-42.0044175;7.026741713;2.893401189;5.540214181;3.218508433;6.959895946;-2.537265373;4.749186808;6.781106291;1.469826724;7.832738447;-1.747135755;-2.9348595
-2.156509613;-8.585394116;14.0943594;-3.291674605;3.437872655;0.602073841;-46.41215342;9.621184438;6.58613973;12.59232088;20.36011714;19.15456031;0.05010934;8.150638663;8.045687565;-1.120840013;9.286485122;-1.49934289;-2.975115982
-3.388102966;-7.668638841;4.356579564;-7.14223394;1.55545038;-0.074172489;-36.30989485;7.094028647;10.2157377;17.38861759;24.02490198;24.15607416;0.914079361;9.12880627;7.892572601;-5.389327634;9.623379503;-2.088290965;-2.91423975
-3.683073735;-6.063968691;-10.30481579;-4.048015787;-0.604260316;-0.38588737;-18.14935222;2.035488434;11.02152262;17.8508941;11.60703378;19.57030669;1.16284084;8.02238795;6.766779018;-9.025336099;9.401564801;-2.527240825;-1.866375858
-2.877771727;-3.408519617;-23.29040749;2.80705136;-1.444672301;-0.12439053;-2.41646528;-1.631345158;7.024813919;14.13316506;-9.815494461;8.143964905;1.637844812;5.907670408;5.205663677;-10.92180926;9.436437717;-2.302079319;0.213751242
-1.712608623;-0.344471742;-28.85039265;7.317761659;-0.778653909;0.394422446;3.274660853;-1.699428505;-1.024060014;8.350393149;-28.10405347;-4.354038828;2.035197981;3.650815936;3.60019805;-11.57219384;10.01446545;-1.760894064;2.24886889
-1.056022219;2.073800636;-25.44734189;5.612761009;0.198638148;0.647702923;-1.154653134;0.794897886;-9.444378802;3.327439193;-33.61051497;-12.84003906;1.091131633;1.493723895;2.219560313;-12.08174648;10.69767571;-1.647270128;2.867410035
-1.059678067;3.169491553;-16.24448846;-0.741752573;0.177266788;0.396520595;-9.140693127;2.74689237;-13.68865028;1.182104908;-24.6864187;-15.53754825;-2.240506143;-0.590063477;1.328462161;-12.78996783;10.82025733;-2.297462219;1.621340358
-1.055769148;3.023977686;-6.641223177;-6.170851924;-0.972538505;-0.1052798;-13.01025789;1.759168692;-11.37867075;2.439308207;-7.902087383;-13.95900355;-7.595115863;-2.332997589;1.112414311;-12.84983342;10.12665365;-3.310650931;-0.531777654
-0.287084157;2.297966385;-0.782365961;-5.917605746;-2.096777005;-0.368493592;-9.74342535;-1.858084439;-4.065914723;5.961314355;6.592599178;-10.82582053;-13.05641428;-3.128894962;1.39172918;-11.20769569;8.925239923;-4.00599338;-1.973019753
1.236943049;1.760048828;0.545732618;-0.166893201;-1.928763886;-0.140814562;-2.577044031;-5.464645322;3.715733647;9.603843676;11.15925723;-7.909159473;-16.29454538;-2.617331934;1.470108048;-8.05320115;7.672373248;-4.18397352;-1.769748894
2.591763869;1.86457502;-0.54101288;6.019414901;-0.404002047;0.352787632;2.456356892;-6.378668184;7.48521461;11.28410434;4.407315399;-5.45144727;-16.13943418;-1.265014748;0.482825488;-5.240078125;6.492786789;-4.390911717;-0.431292802
2.66930147;2.540271606;-1.290853196;6.884274366;1.162986259;0.625519875;1.88154317;-4.064819719;5.67508387;10.01763694;-9.170663759;-3.232257946;-13.36400125;-0.218289907;-1.84145182;-5.027526675;5.182598717;-5.370366655;0.610552958
1.134293818;3.193295312;-0.474971528;0.746046189;1.256778458;0.394777757;-2.490939552;-0.455644546;0.212635789;6.436578216;-22.63083662;-1.907918863;-10.08737658;-0.394232161;-4.620277796;-8.072846042;3.693780671;-7.216957091;0.329137228
-1.266590297;2.922527215;1.126475532;-8.598828616;-0.381608758;-0.141054545;-5.558813056;1.672677692;-5.420019531;2.457297609;-30.46729149;-3.14824147;-8.311862346;-1.595591961;-6.108844117;-12.48061799;2.53214658;-9.106290569;-0.970423459
-3.315621859;0.964859746;2.006348667;-14.89360325;-2.399632641;-0.47744411;-3.675616989;0.766384018;-8.877697032;0.188151979;-30.73968965;-8.296550725;-8.741300231;-2.543225888;-4.861722211;-14.97817413;2.522644175;-9.965454143;-1.976461175
-4.275731259;-2.73850229;1.677813084;-14.21999975;-2.973190628;-0.270438619;2.080490689;-2.65726084;-10.17437497;0.673389935;-24.8724659;-16.69260064;-10.68896717;-1.936046297;-0.962735231;-13.46436555;4.03159575;-9.517049996;-1.649534292
-4.304154363;-7.18794435;1.307783081;-7.614876219;-1.449254213;0.33775609;6.939915624;-6.79816545;-10.67460373;3.270391053;-16.07424559;-25.21690486;-12.92296712;0.336591392;3.728440677;-8.844585037;6.370159909;-8.675007545;-0.26346031
-3.987732317;-10.56838557;2.651759197;0.381377701;1.000724343;0.838030508;6.797007744;-10.01888079;-11.12956045;6.09901836;-7.735311239;-29.71;-14.58139489;2.948062854;6.699888122;-4.483966256;8.065985913;-8.79336801;0.786160377
-3.524941986;-11.15426133;6.155044981;5.588453654;2.342218398;0.811043957;2.011726205;-11.6449275;-10.80480548;7.265097478;-2.520147413;-27.44632624;-15.41086345;4.173099797;6.552329694;-3.554874408;7.932498684;-10.35191328;0.27003418
-2.435660738;-8.404875809;9.852925521;6.935538377;1.423061724;0.302722897;-2.723271827;-11.69970952;-8.563825925;5.996367493;-1.998240253;-18.97191545;-15.34870625;3.366295181;4.045423047;-6.407349693;6.063244485;-12.30083843;-1.665695349
-0.1600177;-3.476597773;10.18239614;5.924822501;-1.046503843;-0.22386637;-2.395655756;-10.25368814;-4.753410976;2.914232609;-6.342233759;-8.007164197;-14.11810357;1.567687413;1.526321412;-10.20863193;3.822837082;-12.81240739;-3.52321855
3.014398007;1.335735725;4.379697582;3.846633983;-3.147559284;-0.311744719;3.886828786;-7.301340905;-1.810291295;-0.643846198;-14.00603414;0.564838866;-11.42484033;0.631945064;1.096632839;-11.27312817;2.734517056;-10.93674898;-3.76261002
5.689856483;3.964312981;-7.152482303;-0.153440793;-3.442627215;0.082929951;11.91191132;-3.304527962;-2.626395884;-3.605275005;-21.84273142;3.33496074;-7.636556435;1.579586943;2.917511518;-8.223303311;3.174297397;-7.735713222;-2.248574028
6.223180647;3.82890515;-20.28772138;-8.02911868;-2.185449434;0.570141521;15.79522521;0.364388827;-7.909935928;-5.64361027;-26.16531377;0.004149141;-4.197233318;3.607578341;5.001751856;-3.334849537;4.036889986;-5.768489636;-0.49050581
4.116116435;2.093767593;-29.07158803;-19.75319473;-0.990313731;0.700318151;13.00736348;1.89426103;-14.99619733;-6.887574821;-24.60524363;-6.861210679;-3.123949107;4.680238783;4.698866193;-0.856437159;3.740278023;-7.163532463;-0.366466946
0.708594191;0.741380646;-29.0453023;-31.39806936;-1.305149003;0.378716889;6.74264525;0.324931974;-19.52062198;-7.305429161;-17.77235817;-13.59886558;-5.71985253;3.264729393;0.753373674;-3.596031021;1.745252686;-11.78874866;-2.393912506
-1.58644445;1.160781381;-19.93816809;-36.79561483;-3.097836185;-0.064215595;3.516316317;-3.415301962;-18.84305287;-6.464781337;-9.445350831;-17.51058841;-11.42584803;-0.243399166;-5.627077522;-10.53804774;-0.752703599;-17.07882056;-5.087939747
-1.046928109;3.283337692;-6.003542644;-31.95503712;-4.929666696;-0.202568805;7.801647897;-6.808750103;-14.34779354;-3.939397518;-4.743763623;-17.96953637;-17.79049938;-3.637415204;-11.48011702;-17.44815157;-1.641976854;-19.77869931;-6.062977175
1.98652271;5.830737786;6.241641334;-18.6253973;-5.294049802;0.074624787;17.97802583;-7.39203794;-10.45707947;0.047785813;-7.091907563;-16.09150646;-21.75209715;-4.507663012;-14.01197936;-19.99966943;0.394018205;-18.28125023;-4.023908737
5.303143092;7.3683582;11.48452297;-3.699982741;-3.950398348;0.463165177;26.86527741;-4.524204202;-10.94656596;4.429753103;-15.82838526;-13.44645524;-21.42172988;-2.046884564;-12.3270686;-16.93314463;4.698427846;-13.72240733;0.027099154
6.502558339;7.295605566;8.211865562;5.483835653;-2.035049853;0.547036201;26.53736798;0.168974014;-15.59886068;7.829733228;-26.17650425;-10.82802668;-17.15358096;2.382526192;-7.815789583;-10.79503237;9.0090231;-9.003768501;3.433181225
4.844926324;6.07243774;-0.985698135;6.331322909;-0.909990715;0.213550425;13.85510823;4.070928201;-20.1459763;9.411375186;-31.89;-7.928929548;-11.20876181;6.30388112;-3.113186494;-5.80775123;11.09555464;-6.592872424;3.901429951
1.786727564;4.668515678;-11.32225563;2.44273761;-0.896455365;-0.220874079;-7.253993041;5.528202217;-19.74708755;9.317359137;-29.08974516;-4.059227188;-6.327277923;7.877601488;-0.511285327;-4.692800539;10.3347605;-6.885832199;1.267263483
-0.207787941;3.811672817;-18.55649327;0.134344332;-1.118673611;-0.304013293;-28.17923161;4.887027814;-13.17722906;8.345367344;-18.86570466;0.715848405;-4.224041461;6.960301922;-0.890120268;-6.951438166;7.978983164;-8.344972245;-2.415008927
0.421730479;3.639502665;-20.88740537;2.962911428;-0.585614675;0.109413477;-40.72502562;3.843878239;-4.156567173;7.217938443;-6.877147911;4.952334341;-4.932231868;4.791198155;-3.646039552;-9.754432248;6.002036397;-9.089647814;-4.486130898
3.253180818;3.890595394;-19.11206704;8.864624056;0.588977915;0.686573011;-41.38324153;3.804663995;1.421893966;6.153840737;-0.078617941;6.308283516;-7.209357761;2.802810529;-7.344629533;-10.44869056;5.570729898;-8.466040372;-3.653475023
6.439472911;4.295360383;-15.36034978;12.25266563;1.105070609;0.894110022;-32.32862949;4.741505627;0.136695424;5.097925499;-2.571883834;2.941468291;-9.514652492;1.656719907;-10.50092673;-8.549209749;6.394412531;-7.304182458;-0.757123436
8.316006266;4.762220954;-11.51462639;9.144394906;-0.264456103;0.484050741;-19.23237188;5.480130542;-6.300605573;4.262519235;-13.15562569;-5.058499382;-10.85868257;1.190534723;-12.08943842;-5.764695783;7.3351742;-6.83561862;2.157685868
8.646031927;5.283903611;-8.356823157;0.813183083;-3.209533532;-0.256378474;-7.89912058;4.998342416;-12.5613506;4.291764282;-26.04127833;-15.21476017;-11.12474579;1.027927222;-11.75119664;-4.347252845;7.553132385;-7.412558263;3.548166617
8.505263323;5.816912801;-5.757703516;-7.183168109;-5.674812332;-0.731292346;-1.824610231;3.427985171;-14.04847796;5.754765277;-34.20711697;-23.63447997;-10.89007813;1.062691242;-9.814770259;-5.314911613;7.107745365;-8.21900732;3.408919507
9.044960403;6.36704813;-3.439761979;-9.662752744;-5.31203837;-0.548602676;-1.507150944;1.827281095;-10.37455864;8.434934845;-33.31852799;-26.94996374;-10.98561171;1.33514991;-7.150039063;-7.91593643;6.58636861;-8.13734232;2.89276841
10.32472042;7.192377987;-1.545147358;-6.023913305;-1.470162332;0.136209876;-5.084707105;1.032061309;-5.123529453;11.22613689;-23.98429381;-24.11737783;-12.00021487;1.579407097;-4.793398608;-10.46003906;6.302329828;-6.841386586;3.0377943
11.26053599;8.793796466;-0.545237038;-0.331662328;4.004724782;0.753281016;-9.514285719;0.800110356;-2.341476585;12.9442173;-11.27032628;-17.00148431;-13.8724288;1.119499088;-3.422197063;-11.55077785;5.959303719;-5.042748634;3.813763731
10.67607892;11.51259914;-0.632157248;2.654807064;7.966535518;0.810504498;-11.86026335;0.15996731;-3.010087891;13.42474309;-1.962914868;-9.392078243;-15.75238128;-0.584188633;-2.994562573;-10.70625871;5.115231962;-3.703404347;4.281060934
8.455264012;14.99251844;-1.173314508;1.826275639;8.282620973;0.306938261;-10.52280846;-1.349994213;-4.617377323;13.8248589;-1.106604502;-5.022651517;-16.34038176;-3.200903166;-2.884110339;-8.180459515;3.896553322;-3.054351372;3.586691084
5.746913892;18.04709335;-0.793335734;0.465287709;5.399308592;-0.294250606;-6.036840334;-2.829729898;-4.03060989;15.63407884;-9.455970885;-5.707368168;-14.70238455;-5.41729602;-2.492725726;-4.553290142;3.112732919;-2.432045306;1.800916533
4.065224706;19.24873644;1.795617876;2.729557277;1.892961878;-0.49537913;-0.835010652;-2.562853276;-0.849447994;19.10621206;-22.92052783;-10.57409507;-11.1442824;-5.769353467;-1.872848088;-0.635534172;3.521108241;-1.107410397;-0.164010054
4.120427772;17.93947318;6.667232182;9.164333994;0.414098543;-0.200375568;2.249968819;0.346784925;1.98347188;22.54849271;-34.27870406;-16.70017834;-7.446394601;-3.830176088;-1.78498684;2.402782315;4.910301028;0.738226371;-1.40550299
5.408738375;14.88676497;12.04038196;15.52115411;1.738209099;0.231975249;1.980285177;4.709997924;0.954468218;23.35334782;-36.60830085;-20.70405508;-6.008938825;-0.70548494;-3.043107281;3.221166898;5.97757782;1.931418257;-1.803484808
6.850562847;11.95106652;14.75090105;16.23241531;4.465088006;0.348886096;-0.280334939;7.685401473;-4.429441531;20.16426479;-27.07756297;-20.42733707;-8.232513774;1.714665218;-5.641585181;1.061672122;5.303398172;1.31207055;-1.997142205
7.804488745;10.86098858;11.84343872;9.608687336;6.451236823;0.032817506;-1.56943274;6.821040747;-10.65987842;14.40531464;-9.194607835;-15.90365017;-13.21206285;2.225684846;-8.432967114;-3.438353726;2.659510754;-1.076066251;-2.641336281
8.489280807;11.93901926;2.521657956;0.044173443;6.616520927;-0.398220696;0.212844622;2.126463351;-12.96874497;9.699557152;8.144952041;-9.222213482;-17.86274232;1.283208574;-9.732695551;-8.244984568;-0.555779372;-3.786921184;-3.699131356
9.462618429;13.74952371;-10.74624285;-5.054770353;5.575781034;-0.502799507;4.356870606;-3.60870921;-9.460208924;9.364910483;15.0492493;-3.414973411;-18.70137573;0.617349097;-8.459692188;-11.07003906;-2.289526336;-5.080943309;-4.462809844
10.73096029;13.99980505;-22.89969287;-1.286616909;4.703534169;-0.140404258;7.749579899;-6.68272636;-2.885996489;13.8625322;6.512127275;-0.922307073;-14.24098987;1.760004883;-4.942771268;-10.93943306;-1.501994269;-4.424267272;-4.274704624
11.42492021;11.09728334;-28.69174439;8.87165374;4.655147698;0.391058032;7.601666978;-5.159302439;1.691426676;20.29181156;-13.737406;-2.388571288;-6.307246458;4.704328675;-0.767196041;-8.906863738;0.879364979;-3.016828866;-3.240986519
10.43577167;5.276404988;-25.6108298;17.80221905;4.775017258;0.630969028;4.305654506;-0.253315819;1.408397921;24.46947162;-34.41573524;-6.413448892;0.824516855;7.829240918;2.200083008;-7.202584699;2.600272204;-2.797250887;-2.236380011
7.479648454;-1.471065651;-15.51762805;18.84340839;3.909983005;0.38489722;1.748174017;4.668564068;-1.73593123;24.02782171;-42.99562446;-10.42458867;3.065927795;9.162922589;2.85159092;-7.414157941;1.849102116;-4.740947941;-2.170685601
3.60643075;-6.571151456;-3.756692662;11.71130463;1.797791511;-0.094106597;4.296057732;6.649531619;-2.581938075;20.0902773;-33.60607005;-12.20294104;-0.809524887;7.938908948;1.243697493;-9.195981861;-1.300879025;-7.949655442;-3.188003563
0.624497972;-8.327387104;3.964501251;2.673960987;-0.341812014;-0.339883502;12.58287669;5.218404094;2.453852479;16.21689073;-11.26607338;-11.13991566;-8.305500873;5.176139034;-1.722717557;-10.62699819;-4.979716321;-10.37007813;-4.539772449
-0.137868303;-6.751397167;5.064083523;-0.708034527;-0.648427516;-0.104430292;21.66775259;2.400466675;11.75294542;15.53880204;10.87684876;-8.399049835;-14.77003906;2.856386106;-4.864311302;-9.939592294;-7.046593347;-10.53855625;-5.252032605
1.271997013;-3.371591676;1.607960693;4.127508048;1.791420117;0.413838682;23.64240386;0.81440663;19.32472781;18.44671708;19.95490339;-5.853275078;-16.31092061;2.427425413;-7.037442757;-7.135576921;-6.750328898;-8.820738333;-4.977451565
3.585601135;-0.300215894;-1.321592509;12.68999272;5.998748111;0.754207223;13.26475365;1.525563149;19.60955601;22.64765613;11.88125654;-4.559671324;-12.07987659;3.843286462;-7.221912413;-4.079750426;-5.151273716;-7.054306037;-4.259206699
5.324337597;0.813002772;0.540302942;17.28872257;9.652268011;0.617052332;-7.523150786;3.396361793;12.22794769;25.35334865;-6.05378709;-3.946939332;-4.481262833;5.809115088;-4.750610947;-2.985301679;-4.041205636;-6.927340045;-3.980618278
5.786648205;-0.578758321;7.227112865;13.48555876;10.71444791;0.134522677;-29.90024298;4.322504281;2.539889144;25.59490883;-20.47870411;-2.414947252;2.62751181;6.871658735;0.124296245;-4.614928241;-4.387555905;-8.554033032;-4.519902569
5.248674568;-3.860219459;14.07993956;3.725072973;8.830390216;-0.258188212;-43.50220019;3.174139882;-2.603196312;24.68325922;-21.39644159;1.059144245;6.340019531;6.394579364;5.743352141;-7.755862482;-5.663286951;-10.51453772;-5.38855891
4.379835841;-7.667617067;14.81153755;-4.78319072;5.440296556;-0.226486431;-43.08692589;0.783993163;-0.388076814;24.57667743;-8.939405754;5.612071633;6.090058594;4.731334461;9.370343229;-10.37349436;-6.549916875;-11.28092579;-5.677590571
3.551162472;-10.55426296;6.119566341;-5.959858552;2.639208829;0.16091971;-31.6578949;-0.752404707;5.834906514;25.7966061;7.44993474;8.693915724;3.342922033;2.697899218;8.606900586;-11.34943734;-6.250357474;-10.6812129;-4.896524115
2.693081917;-11.66347292;-9.414460552;0.519886364;1.775838451;0.506928755;-17.78723488;0.242962791;9.641838189;26.88;16.56931575;7.854279656;0.173910139;0.985230397;3.14350215;-11.22372588;-5.159672745;-10.02324549;-3.443446455
1.716809627;-11.14396166;-24.38064454;9.617651825;2.82684586;0.462009474;-9.285154597;3.798491038;7.196818659;25.89205606;13.8232754;2.853018152;-2.047245946;-0.00074852;-4.528447785;-11.3222208;-4.322695894;-10.74622186;-2.292719132
0.914402891;-10.07499265;-31.05968574;15.65820291;4.799155436;0.047924772;-8.076840173;8.414174456;0.649944065;22.58892618;4.036711737;-3.609407306;-3.011397922;0.037536376;-10.30790161;-12.16823251;-4.282903095;-12.85341313;-2.194458484
0.7969667;-9.860618818;-26.39300229;17.06547913;6.584806992;-0.369079342;-10.02052365;12.24366225;-3.602845847;19.17723139;-3.136491648;-7.325584018;-2.930199832;1.351485277;-11.01027652;-12.74754572;-4.487815167;-14.62701703;-3.097326926
1.469926619;-11.37682278;-13.94484295;17.02854558;7.527842956;-0.423221872;-9.374256441;14.25179781;-0.269425612;18.83769914;-1.191449626;-5.310916426;-1.846789253;3.861725135;-6.452713729;-11.39214541;-3.852409177;-13.98581387;-4.27197158
2.22543349;-14.38589566;-1.43617939;19.7950226;7.464078737;-0.084990054;-3.970223895;14.4882024;10.44377308;23.18399463;8.391600983;2.125687616;0.508294786;6.820495151;0.530363782;-7.50600013;-1.944651893;-10.33861933;-4.96884179
1.93150796;-17.62472753;4.456402433;26.17518445;6.550416094;0.324477969;3.184801218;13.52916861;23.0371852;30.80985266;18.15954774;11.53003906;4.243027073;8.940896049;6.223358912;-2.506315709;0.369995372;-5.283191619;-4.99141015
0.046171563;-19.53249672;2.398359071;32.41416293;5.24720339;0.446212612;7.001093692;11.84523801;31.16320568;38.17166329;21.49578682;18.59806729;8.742693482;9.135148862;8.662763658;0.995974875;1.507165101;-1.477712635;-4.699881769
-2.622535925;-19.12703767;-3.194051496;33.43547222;4.397672473;0.221917379;5.215593081;9.74349255;32.38225361;42.06994014;18.27467968;20.93986203;12.64181928;7.357175233;8.68119555;1.170629786;0.502920165;-0.610363793;-4.521543244
-4.230993386;-16.45019866;-5.823526888;27.46598432;5.020356942;-0.062945732;0.742070446;7.807932549;29.24218015;41.68801668;14.57614779;19.32600796;14.4970566;4.791732279;8.600183933;-1.58456931;-2.085933802;-2.185831841;-4.490572019
-3.237244588;-12.36994525;-1.935550124;17.80435878;7.64354494;-0.068568777;-0.705138727;7.171828739;26.09079217;38.63783981;16.86235952;16.65051545;13.73743904;3.100896658;9.813885761;-4.982709815;-4.555154988;-4.128933752;-4.266710079
0.246495221;-8.033153183;6.350789744;10.08430328;11.59934921;0.257770671;4.182256733;9.080855757;24.80794678;35.24830832;25.80112198;15.59895544;11.20725792;3.258333161;11.45320239;-6.677609477;-5.395014664;-4.622172319;-3.587455151
4.253722401;-4.45650531;12.73752367;7.468541669;15.01343332;0.618927151;12.68854744;13.92145848;23.45222324;32.77887384;35.22896604;16.88487422;8.864437799;4.916587288;11.33678899;-6.003075125;-4.429318409;-3.557849466;-2.680048828
6.223169117;-2.464891239;11.32788461;8.117689615;15.8132642;0.649130836;17.32409958;20.51152071;18.99678142;31.08633868;37.31177845;19.26789531;8.752728241;6.835262161;8.324359233;-4.17604543;-2.780183852;-2.398240158;-2.201391662
4.823465016;-2.739227841;0.963476274;7.279587515;13.18625869;0.274271974;11.31003906;26.38052684;11.46030384;29.75247781;29.55745261;21.02086341;11.84028575;7.984745881;3.846275298;-2.930632359;-1.760277586;-2.689561364;-2.730651398
0.928739685;-5.600669475;-13.75990738;2.188056401;8.357009099;-0.195554394;-5.853454143;29.03040141;5.328725412;29.27137668;17.59395532;21.40632512;17.41351731;8.351781251;1.049289045;-2.93298846;-1.743739872;-4.638852557;-4.266412084
-3.030757488;-10.51244839;-25.43856284;-4.665551193;3.934901875;-0.34020704;-27.14614694;27.38076504;6.52218943;30.92235975;11.09491845;20.94041041;23.39528956;8.75868004;2.154381326;-3.422039949;-2.024568071;-7.008368402;-6.176054358
-4.829255457;-15.77974545;-28.60486006;-7.043647352;2.196763247;-0.021918391;-42.27883729;22.41628668;17.23220038;35.35677558;16.03156582;20.46421559;27.42450038;9.917795139;6.358971362;-3.279193907;-1.701531889;-8.305016398;-7.628998905
-3.933016539;-19.0083976;-22.95066014;-0.26721113;3.584712454;0.472171514;-44.40799609;16.60835448;33.11719654;41.32943315;29.6521835;20.13443821;28.09609751;11.64074826;10.30159204;-2.348109384;-0.660092773;-8.055821561;-8.121555017
-1.598857545;-18.33048409;-12.956525;14.10862429;6.582247606;0.680165431;-34.42401826;12.52298966;45.60681249;46.02096207;42.45970121;19.40676852;25.66285864;12.95749606;10.8974592;-1.621259408;0.331059957;-6.959830779;-7.662893762
0.370385131;-13.64050081;-4.483523025;28.38146878;9.023082946;0.386192897;-19.80765936;11.51688482;47.82767202;46.94971575;45.69387786;18.00375687;21.80611182;13.02496909;8.149755417;-2.077744322;0.489550425;-5.858913047;-6.54845195
1.10036207;-6.844192985;-0.941726518;33.83750944;9.719179165;-0.174908207;-9.141216532;13.26189874;39.53280993;43.89872965;38.22944301;16.78639324;18.63003906;11.94326459;5.361533006;-3.370820406;-0.046797579;-4.656553439;-5.032153872
1.141348861;-0.76034092;-1.696487606;27.03100528;9.081974963;-0.522894506;-6.467137863;16.23468234;27.09470889;39.10294794;27.23529032;17.43165762;17.50223269;10.67763107;6.324603215;-3.829121302;-0.226763763;-2.385996117;-3.248162379
1.681377734;2.604038477;-3.514970552;12.28374692;8.338122579;-0.365075709;-9.496588671;18.73558268;18.580555;35.41519913;22.07353232;20.92720664;18.44687142;10.14378291;11.76246847;-2.021770224;0.865717326;1.508445438;-1.410252846
3.26334981;3.093636676;-3.580116412;-1.519949183;8.17894525;0.137896374;-12.51304335;19.80151677;17.86536702;34.0012758;26.49761838;26.13466335;20.41989659;10.3395902;18.16473976;1.460232388;2.886637563;5.895684339;0.019469754
5.149914326;1.950572418;-1.611286109;-7.256835842;8.126582138;0.518251674;-11.27686908;19.56444981;22.39451066;33.60801387;35.60710813;29.86753843;22.19308482;10.39364802;20.27930191;3.795587908;4.187558846;8.088800467;0.49231796
5.854589212;0.315472483;0.425018634;-4.101443126;7.168013389;0.427185924;-6.033825032;18.96754385;26.10698209;32.07726411;40.08066337;28.79186618;23.17384779;9.528389853;15.40806685;1.833515672;3.080372733;5.60869788;-0.193179779
4.345992225;-1.923165955;0.499093329;2.964182601;4.99071395;-0.048783832;-0.59749722;19.06937412;24.82558268;28.72801764;34.20099437;21.89335679;23.58811799;8.013395169;5.948380256;-5.273707386;-0.596423917;-1.716645821;-1.58945775
0.909813696;-5.802268833;-1.40927744;7.784993663;2.580287884;-0.470639217;1.281584796;20.33996693;19.59322628;25.36628142;21.05445715;11.6086153;23.98507429;7.113319103;-2.103854663;-14.9282882;-5.013997723;-11.09809122;-2.793495456
-2.988927334;-11.68821756;-3.163442785;7.798936973;1.541329645;-0.451795996;-0.933970692;22.35028258;15.38003906;24.85870004;10.57740802;2.608075619;24.56452984;7.942403066;-3.676931452;-22.57108463;-7.529553711;-18.29346495;-3.06825074
-5.648340054;-17.89372819;-2.396402179;5.22737289;2.716769877;-0.012456509;-4.370446314;24.06100552;16.53049101;28.43;11.91763548;-1.020984934;24.93828019;10.21645786;1.421044574;-24.76125165;-6.632069813;-20.24471702;-2.396556368
-6.095726006;-21.01209209;1.114630881;4.21448994;5.371363186;0.441810088;-5.350097656;24.5616464;22.92400921;34.11869518;26.14902769;1.778725897;24.52365524;12.11875775;8.355545804;-21.43481846;-3.079155588;-16.86777959;-1.472714116
-4.422096633;-18.08802218;4.698820304;6.743712608;7.714912373;0.495906334;-2.400689155;23.76827851;30.01785563;37.93270862;45.07083107;8.633758405;23.18661978;11.58464906;11.10713919;-15.56540998;0.710780276;-10.69872947;-1.106018311
-1.448790646;-9.06364055;4.483989285;10.84665716;8.313082818;0.108296409;2.83328489;22.52698749;32.57048929;36.89675683;56.99190088;15.51191031;21.51490175;8.026390955;7.222998773;-10.60588351;2.495136821;-4.82385827;-1.538769456
1.810496395;2.553570975;-1.631275142;12.37259897;7.111304538;-0.350877464;7.311493666;21.94103363;28.82302691;31.43083325;54.99317973;19.24464421;20.42825369;3.022941553;-0.342096578;-7.911643415;1.754915082;-0.826932671;-2.27785919
4.457599182;11.6021803;-12.01178771;8.527174992;5.162074525;-0.439737419;9.236707996;22.35745645;21.70479589;24.95746461;41.43648589;19.01911829;20.43997366;-0.709274817;-5.72709982;-6.261823313;-0.25609981;1.693952305;-2.592911079
5.767375209;14.5030816;-21.95376803;0.11761384;3.37532114;-0.047971313;9.272127245;22.83616831;16.2395745;20.98439079;25.61831759;16.05745796;21.2217621;-1.310550367;-4.913418694;-3.698100808;-1.852331454;3.921759315;-2.235244361
5.280833285;11.41377654;-26.64;-9.173680318;1.555784853;0.50691824;9.422623076;21.67647602;15.45915034;20.13681002;16.77112435;12.13704347;21.87026231;0.857424078;1.125692721;0.125013045;-2.385528512;6.213226615;-1.724482259
3.094134907;5.672919252;-24.26691687;-15.55747019;-1.263679283;0.774876831;10.80229664;17.76713184;18.1973138;19.74019742;17.88288856;8.309770368;21.64180033;3.567001961;7.309480352;3.260871968;-2.582963474;7.564438693;-1.930509865
0.112169135;1.040693371;-17.05721767;-17.49861611;-5.444521596;0.583140665;12.46056526;11.76023752;20.40674782;16.39743161;24.69713002;4.705134391;20.48835499;4.467605856;8.481732484;3.072211231;-3.590789575;6.536300633;-3.30908496
-2.150262864;-1.020965113;-9.460612601;-15.93575963;-9.675741846;0.181357531;12.39278845;6.034524099;18.70160589;9.383082028;29.98369397;1.217761493;18.90945995;2.769330117;3.255441106;-1.363084457;-5.718342726;2.699682005;-5.460293797
-2.337492717;-1.89528909;-4.966568144;-12.69210192;-11.44217369;-0.007763604;9.783100163;3.266913435;13.13448438;1.868423546;29.27498447;-1.823239886;17.28664886;-0.440826924;-5.299074683;-8.242867933;-8.067337925;-2.735594832;-7.391120225
-0.152992596;-3.919854186;-3.955792995;-8.872711861;-8.912632594;0.205800799;6.298443585;4.565971231;7.038014236;-1.25374762;23.65674702;-3.69461201;15.38718816;-3.333098303;-12.37459708;-14.35635435;-9.333504331;-7.638568173;-8.24308578
3.321474339;-7.835936086;-4.11561582;-4.690151948;-2.748260102;0.599172095;5.020166018;8.595342155;4.251708906;2.696503354;17.97982242;-3.920220225;12.59777678;-4.800189101;-15.10204553;-17.54915859;-8.962761318;-10.35078614;-7.857046282
6.252177115;-11.84396114;-2.870761424;-0.523833366;3.814401641;0.750815747;7.744811782;12.44651501;6.100905928;11.69310863;16.50977865;-2.814586573;8.747926228;-4.996103937;-14.22476894;-18.13676654;-7.557090189;-10.57413919;-6.73048751
7.251152025;-13.07013264;0.296233498;2.244482054;6.926191387;0.447705139;13.02194705;13.66414898;10.51154;20.06304213;19.66996773;-1.365057748;4.740312914;-4.665528799;-12.73736607;-18.04363882;-6.187184209;-9.133988085;-5.487387858
6.267009128;-10.11934155;3.570184937;1.77982798;4.740490577;-0.09841751;16.89226628;11.87489812;13.78877465;22.36423026;24.17634167;-0.549027788;2.257214691;-4.116494579;-13.00206309;-18.53582703;-5.326065943;-7.027545791;-4.393921136
4.488462686;-4.436693951;4.716995461;-2.614273426;-1.336261766;-0.433151308;16.0431446;8.753222815;13.47618022;17.10699079;25.95626595;-0.705198113;2.590284105;-2.9341141;-14.87939017;-18.71500624;-4.461886225;-4.695623386;-3.343972745
3.351092775;0.758732939;3.423027498;-9.41220613;-7.730999002;-0.275797549;10.86521947;6.403131085;10.01497647;7.526670578;23.23340772;-1.486257733;5.489726057;-0.703757386;-16.23365448;-16.25684902;-2.766318429;-2.068725971;-2.240392733
3.444352436;3.082633669;1.883615571;-15.54681187;-11.24078518;0.215400699;5.658093364;5.549629975;6.05285671;-0.996135291;17.45632835;-2.347804034;9.060106193;2.060424164;-15.03120382;-9.806867323;-0.152305855;0.890945459;-1.309204626
4.164044254;2.893743804;2.935518401;-18.53224967;-11.02170046;0.578624271;5.391361994;5.095720693;4.167928013;-4.692503325;11.76846703;-3.04744368;10.94474303;3.852679249;-11.05387961;-0.857613;2.345481809;3.858901615;-0.981511951
4.315706143;2.839769388;7.199289373;-18.29593722;-8.585752157;0.465225711;11.33441581;3.429728417;4.926994079;-3.468447322;8.626105221;-3.685254489;9.960390306;3.237807131;-5.889584208;6.720078125;3.303153517;6.386773088;-1.453141396
3.103413796;5.395572961;11.74127617;-17.08739077;-6.067864719;-0.04219239;19.11045645;0.326260227;6.768576572;-0.012004447;8.501022813;-4.32097284;6.904196632;0.169209873;-1.53917256;9.299851734;2.119751731;8.365605458;-2.399492391
0.685268627;10.46748922;11.71525901;-17.43975251;-4.402222716;-0.501751909;21.11889017;-2.305522864;7.649430805;2.886763874;10.35976093;-4.641663783;3.881064095;-3.667117824;0.912795994;6.16518051;-0.414763062;10.08396763;-3.198217784
-2.08221473;15.09868449;4.042924486;-19.88789595;-2.947115936;-0.508767179;11.91601135;-1.657406316;6.991814254;4.411273415;13.04733372;-4.098470061;2.697884032;-5.922356097;1.480617761;-0.007309678;-2.752332914;11.6986881;-3.499047605
-4.380704049;15.566068;-9.643338103;-22.44518965;-0.688244618;-0.054840688;-7.33778672;3.623973211;6.282025047;5.648929165;16.14224012;-2.443634418;3.626962236;-5.258791984;0.52572863;-5.254559521;-3.868879664;12.6552631;-3.584536431
-5.968587207;10.19849501;-23.27880191;-22.37982618;2.27222266;0.475521979;-28.81899043;11.88409674;7.7853391;7.836463254;19.60689379;-0.157637783;5.498568621;-2.251088359;-1.840812178;-7.257754274;-4.030998997;11.80230543;-4.107761918
-7.116471358;0.696940432;-30.01737016;-18.82575032;4.418096192;0.661485784;-42.67922683;19.11090646;12.37116941;10.74278788;22.81817302;1.705774273;6.933687159;1.211186757;-5.474537395;-6.685857982;-4.350417642;8.338863211;-5.38033498
-8.125373641;-9.004522762;-26.78240856;-13.94344243;4.027710904;0.423765619;-43.2041936;21.47455553;18.21935076;12.66530819;24.18087713;2.230555048;7.571284013;3.45101017;-9.441154544;-5.965815864;-5.556846651;2.846380003;-6.868575834
-8.958773147;-15.34516119;-16.39424504;-11.46799373;0.784678104;0.077781051;-32.17382093;17.9125569;21.60629389;11.93946988;21.99589785;1.368047632;8.210552962;4.119963369;-11.87710325;-6.722138189;-7.160299943;-2.621971064;-7.443489394
-9.329700152;-17.18629548;-5.621346015;-13.65862564;-3.701895184;0.020453089;-17.18111884;10.82839788;19.43464272;8.532118424;16.06484932;0.084428244;9.803276414;4.002137496;-11.02884571;-8.215126997;-7.826220023;-5.71448759;-6.270102206
-9.088124077;-15.91147381;-0.490142574;-19.09149307;-6.990196533;0.348015405;-6.346798959;4.406780259;11.77244617;4.32174562;8.687595371;-0.231762382;12.27891705;3.840048828;-6.775421126;-8.134284501;-6.655286697;-5.403079893;-3.598334337
-8.454323661;-13.82071385;-2.23894186;-23.20071889;-7.599270338;0.762239893;-3.334188498;1.849244382;2.459959788;1.894151122;3.966054423;1.312102427;14.32615717;3.403116401;-1.212937125;-4.967184807;-4.185424092;-2.718521462;-0.727253779
-7.825015185;-12.28618982;-6.842709152;-21.35846484;-5.981618199;0.850535009;-6.032517385;3.568093728;-2.925979326;2.92250345;5.527988144;4.515561476;14.37003906;1.742602069;2.500494523;0.242244105;-2.137045136;0.09215675;0.901730811
-7.3428409;-11.04230207;-8.396722911;-12.2707836;-3.894265902;0.476329672;-9.322606905;7.510694458;-0.576873777;7.394360623;14.05068996;8.193150552;11.88205102;-1.596923371;2.335687986;4.388797934;-2.041795433;1.356453179;0.756874262
-6.691802889;-8.851949102;-3.807094422;0.844857874;-2.792582422;-0.085477767;-9.363472206;11.08763398;8.93991554;14.06290116;26.33152131;10.86421356;7.844586266;-5.612463821;-1.115341017;4.708387198;-3.92225565;1.240046387;-0.468796669
-5.379106268;-4.709634955;4.69;12.19712754;-2.683165099;-0.394640832;-6.080764259;13.03676454;20.88569001;21.44902846;36.76800789;11.54959701;3.951974755;-8.176973343;-5.129020923;1.06067814;-6.188118591;1.421391819;-1.535575743
-3.27621016;1.427142713;11.01519089;17.06803536;-2.396353988;-0.244709314;-2.348407075;13.82598389;29.37092357;28.44813123;40.50835762;10.21580853;1.269419074;-7.56655976;-6.98308256;-3.855297434;-6.87239251;3.468557717;-1.719143111
-0.898566507;8.709662943;9.622854593;14.56501912;-0.940652833;0.154503531;-1.067825434;14.54158192;31.13945389;34.22138408;36.30123028;7.688964131;-0.449093379;-3.949310862;-5.999856886;-6.555968891;-5.175736983;7.328185549;-1.319741874
0.889854843;15.86716174;-0.417212288;7.641371179;1.344234059;0.378003261;-2.766644854;15.44909385;27.41317191;37.85532898;27.12440354;5.159762084;-2.206922416;0.456433978;-3.842591194;-5.414501264;-2.040984926;11.22784934;-1.196435357
1.52833737;21.54891423;-14.53867552;0.619457067;2.89179444;0.180716014;-5.518034141;15.55398092;22.45400056;38.44955133;18.08485093;3.556039904;-4.54917921;2.770170636;-2.90660575;-1.769799964;0.658745503;13.0469323;-1.801122006
1.190406664;24.46561096;-25.56333274;-3.787075323;2.174081154;-0.280807369;-6.860694715;13.51368998;19.95713104;35.72386828;12.96614542;3.07584668;-6.872943999;1.329260547;-4.259184513;1.289543594;1.555475442;11.93331493;-2.646676138
0.589198586;23.6524163;-28.27238529;-5.787840756;-0.991907612;-0.602700608;-5.843513799;9.057964575;20.09103835;30.55798465;11.83079414;3.112070146;-7.948834105;-3.355451407;-6.896477048;1.358001535;0.628912639;8.769791736;-2.736645583
0.31828836;19.02543534;-22.51192286;-7.437599372;-5.216682915;-0.51493035;-3.507251406;3.661096087;19.55517991;24.80936518;11.43265593;2.658971052;-7.177093616;-9.164568496;-8.852741879;-1.621001574;-1.133529117;5.166358316;-1.574777037
0.331144838;11.87295786;-12.83798481;-10.28648318;-8.535003456;-0.130365203;-1.65539778;-0.144445192;14.67014882;20.38863035;8.193343367;1.044410114;-5.361345014;-13.81962204;-9.043452673;-5.64519118;-2.768984683;1.989478604;0.201038416
0.058462252;4.655710617;-5.158599096;-13.73497566;-9.729345024;0.169987791;-1.201819344;-0.323550467;5.04278632;18.28510941;1.534965946;-1.438505133;-4.18037428;-16.01886665;-8.129676823;-8.416059755;-4.038921049;-1.17850223;1.208780733
-0.913871072;-0.09012071;-2.814511852;-15.36631148;-8.888045919;0.103926205;-1.535964837;3.370322661;-5.240768619;18.3163461;-5.059421494;-3.496243935;-4.742556824;-15.57683017;-7.659885214;-8.994144411;-5.224779239;-5.168974571;0.456194165
-2.216509704;-1.138396459;-4.745834153;-12.9071808;-6.873728361;-0.241578369;-1.27235816;9.237940651;-10.07500971;19.72522152;-6.305487438;-3.579840716;-6.518767001;-12.8858976;-8.364492173;-8.085930977;-6.392499963;-9.825175927;-1.76869249
-2.725662491;0.792211438;-6.810196193;-6.209950412;-4.359424495;-0.493764273;0.46468551;14.61869036;-5.717156683;21.98407305;0.782763103;-1.012053027;-7.695862306;-8.521788806;-9.262269565;-7.005754453;-7.004105738;-13.49330023;-4.062759797
-1.302927039;3.727023328;-5.135651692;2.318310832;-1.39210789;-0.354093713;3.374628994;17.28532972;6.264813517;25.02458255;14.01214548;3.320301695;-6.748009252;-3.397074116;-8.47798898;-6.433570195;-6.349057766;-14.03898931;-5.019261888
2.321939905;5.964854805;0.90169365;9.186126131;2.161795736;0.105316857;6.364101219;16.40580056;19.80796091;28.73483009;26.72055216;7.350468856;-3.886087911;0.957019405;-5.070357678;-6.058992827;-4.378663272;-10.59956685;-4.331461195
7.232775606;7.232728389;8.098324341;12.0867465;5.836393646;0.492864416;8.457212448;12.67864683;28.35503166;32.34525146;31.86576468;9.164618505;-1.0647221;2.714573527;-0.19479239;-5.238305723;-2.050761141;-4.532363085;-2.936176203
11.81822326;8.534469205;11.55913179;11.29051908;8.343341914;0.455410578;9.393815429;7.799291724;29.00123142;34.48766988;26.69061445;8.344679496;-0.440154744;0.8352909;3.527287809;-3.860984444;-0.721395858;1.348246884;-2.101648695
14.66556478;10.86774562;8.03235539;9.174143778;8.274323352;0.011979199;9.552589951;3.668167736;23.72876183;34.06424655;14.58678132;6.240642131;-2.539065716;-3.877193912;3.975524896;-2.549756862;-1.056968483;4.678055818;-2.304292613
15.17667323;13.95936074;-1.826699353;8.297492001;5.206624565;-0.450534479;9.507437686;1.674258601;17.08015154;31.20752819;2.757585275;4.857543448;-5.705488304;-8.815610105;1.175176652;-2.065058198;-2.469390316;5.026336702;-2.90856022
13.54082845;16.14772203;-13.75805353;9.488889234;0.257865259;-0.521830816;9.722049705;2.219145532;12.44316652;27.39179559;-2.635056286;5.17667373;-7.339070318;-11.01896478;-2.779596962;-2.56995869;-3.648392786;3.763745373;-2.908641134
10.28150654;15.53697441;-22.51344825;11.34300187;-4.442617994;-0.138124762;10.52690013;4.583606166;10.02503905;24.44652432;-0.321581846;6.287533581;-5.920450806;-9.108725;-5.430918407;-3.494018439;-3.744911229;2.547256312;-2.003189345
5.902435592;11.45048515;-24.99665432;11.45003906;-7.004870631;0.36345564;12.1165151;7.237526868;7.907340838;23.23487384;5.908345222;6.133495487;-2.154653878;-4.214008488;-5.799781708;-4.094948226;-3.108838529;1.850087891;-0.966033256
0.935719754;4.987503883;-21.83587419;8.390976769;-6.81440488;0.556051631;14.3481864;8.578364949;4.829302558;23.14901795;10.57061563;3.354485911;1.673856937;0.909090295;-4.801221019;-4.122355889;-2.855585665;0.858565069;-0.937833048
-3.803724808;-1.698812936;-16.42484085;2.997522323;-4.636281007;0.311260657;16.54044204;7.810109424;1.943101864;22.91586334;10.63014741;-1.275913378;3.523719734;3.903731338;-3.96543528;-3.917285569;-3.629582286;-1.248765172;-2.289741266
-7.218433305;-6.701515082;-12.24465664;-2.041083395;-1.853087364;-0.095143746;17.70221725;5.449214414;1.891356897;22.03048124;7.304376823;-5.092041944;3.037034107;4.366638326;-3.706121717;-3.878577298;-4.741039938;-3.941214678;-4.145332933
-8.403839254;-9.165863607;-10.45526732;-3.915154428;0.453201583;-0.25542651;17.2749398;3.045005492;6.115207575;21.49020105;4.448447476;-5.39682165;1.458369735;3.719513787;-2.765062085;-3.884802352;-4.584889215;-5.314753933;-5.067734397
-7.299909135;-9.145836897;-9.478857291;-1.514580419;1.88314062;-0.021904393;15.81488795;2.177238082;12.98;23.02500968;5.147234145;-1.524335036;0.267615446;3.631443624;0.598194631;-3.323161439;-2.093969762;-3.614081542;-4.337215256
-4.934057168;-7.001717871;-6.769506918;3.914177827;2.455537416;0.352142804;14.82234639;3.338860614;18.5864022;27.3275051;9.331877599;4.538055053;-0.150488919;4.450162387;6.670656289;-1.77350888;2.034900062;0.969200659;-2.655377778
-2.927625567;-3.162667884;-1.29574033;9.610519764;2.158367884;0.458276017;15.5634983;5.485182852;19.67249544;32.76682966;14.10383184;9.474472268;-0.622076421;5.025425843;13.31530924;0.294826577;5.520078125;5.884556544;-1.583426483
-2.541181944;1.504101551;5.281326224;12.90963142;0.836397038;0.135672229;17.77544588;6.630255036;16.05302232;35.83618557;16.11959494;10.856503;-2.099796126;4.011219856;16.93069169;1.558152719;6.089761935;7.775814933;-2.157956556
-3.947770897;5.33826257;9.725118072;12.47370486;-1.500195235;-0.352251107;19.55770515;5.144481916;10.39834784;33.25386097;13.8794737;8.523457277;-4.51241861;1.386251908;14.7486294;0.73349962;3.252449139;4.918097279;-3.9062165
-6.265070814;6.358299438;9.789211146;8.487803938;-4.331793145;-0.544637063;18.90988564;0.885199864;5.55396698;24.27589062;8.219500089;4.177064492;-6.704122434;-1.252928868;6.808085025;-2.330974508;-1.215576379;-1.358249621;-5.176538833
-8.272360837;3.592003206;6.166082676;2.071456939;-6.689041117;-0.213114365;15.81851767;-4.624041235;1.885236247;11.50848176;1.095613823;-0.231296255;-7.545591731;-1.936621358;-3.805953885;-6.282736386;-4.492244068;-7.411328828;-4.549233111
-9.2113401;-1.75136109;2.155062943;-5.310039063;-7.669816154;0.403656553;12.93280193;-9.106292986;-2.811645437;-0.425942316;-5.847234811;-3.806779628;-7.144367617;0.001368261;-12.57983411;-8.983089488;-4.664175006;-9.665690468;-2.11334389
-9.07129241;-6.511377453;1.155473155;-11.91741426;-7.030019531;0.789094382;13.7287384;-10.93475951;-10.60420591;-7.452174826;-11.61500337;-6.649645047;-6.933756923;3.327365581;-15.90949779;-8.821743506;-1.871782916;-6.852856988;0.527305394
-8.260078125;-7.453238886;3.866546929;-15.53824584;-5.381987504;0.602464461;19.20219269;-10.10683375;-20.353995;-8.080513307;-15.21794266;-8.746714708;-8.436912687;5.933158587;-12.71803702;-5.670879702;2.157576769;-0.537956416;1.562726464
-7.092410244;-3.570920107;7.429929115;-13.75990325;-3.855415347;-0.010481023;25.79175887;-8.174671796;-27.29155691;-3.663603397;-15.27417033;-9.147909335;-11.76286684;6.565030687;-4.611140051;-0.837530804;5.625208699;6.247576903;0.488706998
-5.612381279;3.005765072;7.339745723;-5.141491091;-3.485905932;-0.535648953;26.76767132;-7.21137624;-26.09749621;3.012738395;-10.7950866;-6.453131719;-15.22654206;5.721541003;5.172333754;3.837034182;7.870216843;11.04420791;-1.48469572
-3.864411895;8.384032175;0.824527389;9.225090158;-4.739468202;-0.537365459;16.75669171;-8.495090295;-15.25588639;9.552066621;-2.650342986;-0.292112873;-16.54921598;4.966507493;13.22269658;6.995383917;9.346587057;13.14672415;-2.487538247
-2.245183741;9.634232329;-10.77871123;25.01749004;-7.393941867;-0.035166116;-3.675225759;-11.73267984;0.897069747;14.86180659;5.868671142;7.62583235;-14.69556611;5.358053438;17.16557178;8.225404139;10.63432837;13.31169356;-1.601132042
-1.47817578;6.78058074;-22.45060324;35.88045283;-10.7145845;0.525489345;-27.03687057;-15.27337497;14.34126668;18.76558604;10.4758358;14.09147323;-10.78649906;6.483325769;16.34139361;7.855187136;11.59062768;12.6050094;0.358241125
-2.1344242;2.507624319;-28.47399728;36.3423896;-13.74587633;0.677309933;-42.81276414;-17.14512141;18.32389481;21.00604155;8.622747206;16.37785398;-7.268480574;6.989831961;11.91450521;6.488658439;11.49541318;11.52216379;1.545572987
-4.103016392;-0.113448693;-25.91486255;24.9110516;-15.62308055;0.341564673;-43.88359381;-16.26166848;11.43217284;20.71155866;1.416012043;14.05087145;-5.999085831;6.077182352;6.366154027;4.732389905;9.995849333;10.0054072;0.662887833
-6.519882518;0.038319663;-16.28110961;5.368594054;-15.89507709;-0.12384335;-31.011915;-13.06723343;-2.121163704;16.86266541;-7.029275405;9.051161798;-6.845340843;4.484058761;2.388308433;3.192738509;7.828719116;8.048067405;-1.942697765
-8.277452138;1.63738525;-4.442318775;-14.7660721;-14.789549;-0.272561889;-12.18472661;-9.239227271;-15.8535923;9.368020244;-12.49591179;3.950874596;-7.968046877;3.948014342;1.524633115;2.471549324;6.484882124;6.099946451;-4.563855681
-8.715632331;2.528890543;4.211804936;-27.87714174;-13.22288583;0.012802986;2.679161829;-6.64835365;-25.11402081;-0.183807493;-13.5376423;-0.076980906;-7.538823653;5.541112547;3.283981289;2.919220766;6.998436998;4.826232476;-5.510196448
-7.928710964;1.903813519;6.42972606;-29.905935;-12.39055853;0.418170194;7.825011246;-6.238308618;-28.8475997;-8.806848755;-11.94574206;-3.742471294;-5.425291025;8.387269169;5.411390422;4.259283812;8.929891429;4.499986185;-4.389368152
-6.474697557;1.047089458;2.138033302;-21.93693688;-13.06276428;0.498862226;4.358429037;-7.542362001;-28.29445168;-13.39233677;-10.48637924;-8.140398858;-3.408359606;10.01629277;5.339454699;5.482387736;10.52077106;4.687893627;-2.257643078
-4.815266689;2.006968063;-6.234187748;-8.982047605;-15.04017619;0.099550111;-1.894232165;-9.140287165;-24.57587372;-12.24494991;-10.03118897;-12.72778698;-3.725954006;8.195702386;1.953868868;5.288229249;9.98716825;4.582678366;-0.622269741
-3.03430031;5.434667407;-15.23368083;3.046372592;-17.23776385;-0.497226851;-5.189343946;-9.722050169;-17.76111228;-5.986660359;-8.81720448;-14.88058281;-7.12586768;2.756363137;-3.566826892;2.897970638;6.904064305;3.685898294;-0.23372601
-1.072161928;9.61494173;-21.711014;10.2510734;-18.43285449;-0.828898352;-3.546530133;-8.996010899;-8.172856219;2.670058594;-4.662730438;-11.81983547;-12.01154881;-4.120459635;-8.50572353;-1.322945198;2.533703876;2.201587134;-0.684740419
0.828832458;11.65993934;-23.66160444;12.01017612;-18.14254215;-0.674298475;1.048372434;-7.788199826;1.78052752;10.14320446;1.873390294;-3.475506223;-15.38365669;-9.404574431;-10.45412871;-5.93067847;-1.141921291;0.785984426;-1.034195893
2.013114919;9.901502231;-20.7159652;10.2912191;-16.9062883;-0.246664193;5.263271527;-7.281637285;7.678818251;13.57205474;6.589012969;6.300836629;-14.87192369;-11.26880274;-8.89298825;-9.168930944;-2.831141389;-0.0830787;-0.765664468
1.864649483;5.414667548;-14.31504847;7.894396062;-15.69318557;0.018138171;7.213901253;-8.004705191;5.744816493;12.02630362;4.454538875;11.68234531;-10.34647026;-10.05290036;-5.339770122;-9.926459704;-2.621309426;-0.503606974;-0.181705496
0.462862351;1.320874601;-7.266378089;6.855807437;-14.9132972;-0.123568255;7.266200836;-9.372585464;-3.874671931;6.806516502;-5.748896082;8.902800725;-3.972682745;-7.500351799;-2.01258847;-8.248891924;-1.494068194;-0.94368442;0.047394376
-1.213478774;0.425296391;-2.455630328;7.768944406;-13.92256752;-0.495317662;6.845428907;-10.13313509;-16.1729948;0.744923879;-18.93488075;-0.633876495;1.249387069;-5.106643824;-0.120249669;-5.117682446;-0.264196434;-1.650821469;-0.353985579
-1.86144888;3.164037545;-1.172295602;10.03042755;-11.54535616;-0.673234089;6.953263815;-9.317602805;-23.98197888;-3.127265834;-26.08152264;-10.76822557;3.380865721;-3.07095384;0.865151513;-1.73515464;1.031786112;-2.261328627;-0.974834123
-0.835989167;7.539875696;-2.191077709;12.55611546;-7.247144765;-0.397723903;7.874622926;-6.877691096;-22.5679444;-2.893191151;-20.36049173;-14.52101324;2.611586784;-0.655222826;2.448498922;1.155951475;2.808606661;-2.000508633;-1.161980694
1.273588161;10.99740738;-2.579763784;14.50630802;-1.939990171;0.162479179;9.905109799;-3.485074523;-12.65767068;1.576818084;-2.578234706;-8.795008448;0.909313317;2.579856202;5.587267616;3.513215483;5.124737344;-0.307695332;-0.719528557
3.024839109;12.55898505;-0.001239648;15.763479;2.381596346;0.544992544;13.68365217;0.25405088;0.42938042;8.851496256;18.47615622;3.585008894;0.605254343;5.942007745;9.707198642;5.759068406;7.296343203;2.669741998;-0.131638088
3.225926512;13.41307959;5.089177153;17.03764511;4.008926122;0.407811084;19.20445464;4.34814563;10.75568589;16.81646765;31.51854518;15.93740174;2.84844276;7.985599942;13.049159;8.330400855;8.374075002;6.138786523;-0.057769033
1.880309388;15.56734897;9.214202003;19.50637677;2.815834802;-0.15796702;24.3154621;9.106182134;15.61889741;23.62157219;30.32334655;22.26380423;6.820658652;7.719475707;14.00639835;11.31863178;8.030811097;9.197336603;-0.587684411
0.171307595;19.85207284;8.147629073;24.0168607;0.378361278;-0.706329073;24.63668138;14.17908485;16.34887259;28.18154719;17.81980702;20.89517734;10.11231519;5.489806829;12.32749101;14.35757634;6.961796114;11.36142153;-1.018050886
-0.535697058;25.02949843;0.202471458;30.18326898;-1.247785543;-0.835334524;15.96415786;17.92714493;15.83414327;30.12242427;3.702186376;14.77073272;10.04877052;2.722028192;9.244886917;16.75541258;6.340410105;12.6617224;-0.442840434
0.136663664;28.69904299;-11.99724644;35.99792424;-1.119703675;-0.541243503;-2.105410633;17.98869243;15.31448957;29.48532108;-2.622220177;8.570551083;5.285356291;0.791359684;6.51823564;17.79307177;6.785522933;13.32067265;1.33437994
1.215458823;29.11273633;-22.83127819;38.47562025;-0.052918669;-0.204291358;-24.27628419;12.93499168;13.38726862;26.58499976;1.508955753;5.206704033;-3.189541005;0.07858868;5.23254751;17.08524087;7.801188395;13.3954655;3.416450192
1.147095026;26.33251396;-27.30182294;35.23810956;0.215036439;-0.223168077;-41.56808573;3.803406554;7.972974953;22.12029394;10.78253251;4.320729895;-12.29031278;0.030839518;5.277434725;14.85445703;8.244586327;12.74528727;4.38169231
-0.917105453;21.8875663;-24.29929069;26.17268843;-1.381619077;-0.638801803;-46.5097595;-5.888296863;-0.800714005;17.25229966;16.4538713;3.539101481;-18.34431332;0.049692619;5.769066389;11.93459372;7.423788718;11.31349769;3.387062651
-4.369845388;17.45718845;-17.05604707;13.99990763;-4.260612973;-1.09555226;-38.01482104;-12.00866304;-9.700696102;13.30051095;12.9324006;1.011589932;-19.13079161;0.247278302;5.897257334;9.405760894;5.815641005;9.38754902;0.884412352
-7.54623569;13.83984888;-10.51615569;3.143427652;-6.671045014;-1.173598851;-22.25914797;-12.40509663;-14.56120035;11.06569363;1.470557107;-3.00382717;-15.22734179;1.290232694;5.443878763;7.999163254;4.713447798;7.528662601;-1.669772083
-8.949444974;10.98566918;-7.759584747;-2.569700178;-7.2;-0.782241247;-8.679860143;-8.327242586;-13.75541277;10.2546017;-11.40596133;-6.622649252;-9.714506039;3.49936996;4.644076906;7.645730874;5.087888367;6.202993;-2.88432797
-8.32426811;8.751590556;-8.262584219;-1.955993412;-5.985057833;-0.248655493;-3.874603136;-3.538653029;-9.87248409;9.577471803;-18.99255595;-8.144074012;-6.296844986;6.154869886;3.689291194;7.537724874;6.679264269;5.449830196;-2.408279587
-6.752841995;7.409769912;-9.139687998;3.071159392;-4.57623652;-0.020317675;-7.775074792;-1.712605566;-7.937890886;7.629473234;-18.92169859;-7.480245266;-7.019507384;7.799065042;2.429373185;6.741861721;8.151198889;4.894452909;-1.045282138
-5.756133226;7.359613195;-8.018519818;8.905039525;-4.581917586;-0.25763743;-14.69387315;-4.04901232;-11.48123114;3.98614798;-13.96883488;-6.077925366;-11.13371759;7.36680602;0.548414559;4.956959382;8.188461181;4.092240289;0.009220108
-6.164118683;8.450119327;-4.978230338;12.47262314;-6.297828366;-0.693889246;-18.123773;-8.867669064;-19.67294238;-0.353472238;-9.19230835;-5.632963597;-15.89485464;5.129400613;-2.005107583;2.825939577;6.57741569;2.895570328;0.108805361
-7.640986874;9.783664741;-2.024362415;12.73;-8.519483932;-0.890046387;-15.46899544;-13.33931562;-27.93355293;-3.615110962;-8.119493455;-6.844921653;-18.65772086;2.543004239;-4.782189957;1.504465167;4.333537122;1.541503212;-0.49762969
-9.164257224;10.3522241;-0.869290242;10.53193477;-9.678693537;-0.645382827;-9.265319507;-15.81294569;-31.54338224;-4.558672588;-10.88045698;-9.195994863;-18.65726539;1.081879543;-7.025649584;1.772729381;2.802753145;0.434550017;-1.101782845
-9.981986341;9.898967541;-1.250153572;7.289507613;-9.270195761;-0.181463077;-4.414651024;-16.80375557;-29.29342263;-3.425290591;-15.14742419;-11.68263829;-17.14748397;1.092444329;-8.115099624;3.380658065;2.566401621;-0.141914716;-1.259633916
-10.24263766;9.039966252;-1.357623646;3.722344935;-8.288378718;0.070290061;-4.014660864;-17.94241099;-24.21962907;-1.729473762;-18.44393551;-13.63178337;-15.92812461;1.710559304;-7.878657216;5.172887782;3.106348007;-0.15082542;-1.13205816
-10.82706622;8.382018525;0.159932994;-0.235701145;-8.289781781;-0.122335095;-7.125627936;-19.98229645;-20.9196793;-1.028925057;-19.71364149;-14.8665345;-15.61003906;1.904418821;-6.543751946;5.927798804;3.449403033;0.256016623;-1.205684766
-12.5797257;7.489328919;2.702249694;-4.473077044;-9.930253236;-0.569262177;-9.929124303;-21.76116222;-21.76353953;-1.672656256;-19.22159661;-15.27981171;-15.13574791;1.638095735;-4.439076283;5.257862633;3.114621816;0.822677565;-1.75062282
-15.57841034;4.916310652;4.320276061;-7.824758107;-12.29520997;-0.830002441;-8.964122667;-21.12243307;-25.13039708;-2.584921807;-17.53745546;-14.47847134;-12.92826213;2.005942526;-1.753407425;3.855803108;2.462176243;1.197711236;-2.567610145
-18.98588148;-0.386042951;3.896683235;-8.421870313;-13.63273918;-0.62152015;-3.729722479;-17.00287647;-27.01882882;-2.294357808;-14.95299044;-12.00298206;-8.581147848;4.134774875;1.446279501;2.900194964;2.168101518;0.952592164;-3.233041291
-21.54053824;-7.423763747;2.675322959;-5.277551696;-12.84989749;-0.083281953;3.196323367;-10.77973181;-24.55559557;-0.351868384;-11.85149174;-7.934640812;-3.513068984;7.834986566;4.997470675;3.116888665;2.404930121;-0.237211721;-3.540668127
-22.29052305;-12.97146676;3.330134825;0.188460968;-10.45728521;0.346780223;8.264052537;-5.551218752;-18.43691009;2.092910131;-9.297702496;-3.217328263;0.052737051;11.29866335;8.451290382;4.255011504;2.57456824;-2.278689612;-3.668176522
-21.07913211;-13.49137901;7.086942646;4.281195996;-8.14096165;0.33067003;9.472244693;-3.823971915;-12.33902897;3.116269225;-8.777610593;0.753652131;0.890980422;12.26088111;11.08262901;5.365128015;1.876145463;-4.499188282;-3.910632426
-18.54142784;-7.905004249;11.54116709;3.269954247;-7.354088659;-0.065534622;7.539772691;-5.53077656;-9.892385265;1.624878281;-10.93151864;3.011349045;-0.275484077;9.728240415;12.10521931;5.593661109;0.155277563;-5.923018456;-4.283936242
-15.71327341;1.094148392;11.63281411;-3.607154762;-8.169381972;-0.441520325;5.207002814;-8.104349428;-11.76368271;-1.58140048;-14.36350383;3.613487841;-1.557920043;4.820343517;10.97903794;4.812108337;-1.813957538;-5.921600783;-4.438398173
-13.53486662;8.578896453;3.617414154;-12.70348961;-9.371427478;-0.438334264;5.395396987;-8.611899735;-15.18796336;-4.21624359;-15.89058928;3.42932477;-1.701597724;-0.012139571;7.694510321;3.600413224;-2.928509872;-4.750374908;-3.998592518
-12.49651742;10.85642771;-11.02610866;-17.62188663;-9.64673763;-0.068714558;9.380452165;-6.177190452;-16.22628772;-4.124007446;-12.50966647;3.323992734;-1.210629192;-2.756922624;2.947920296;2.688668665;-2.700439684;-3.441939335;-2.990883236
-12.53713807;8.172235403;-25.31606201;-13.30536736;-8.761013223;0.303900286;15.8241191;-2.630929809;-12.85967852;-0.845348983;-3.796962529;3.489618798;-1.686817397;-3.144234434;-1.893705553;2.39618646;-1.66339158;-3.011762968;-1.90118627
-13.18687493;4.366215311;-31.03216732;0.122016292;-7.658065862;0.314239671;21.03720265;-0.816499122;-6.483997528;4.10945105;7.181262354;3.510767522;-3.940400037;-2.478909454;-5.151415522;2.525983762;-0.859806652;-3.580781803;-1.25898526
-13.87121423;3.620900202;-24.63349833;16.6528786;-7.417790192;-0.057381774;20.49577405;-1.984140492;-0.750891482;8.481846328;15.41260167;3.045311848;-6.67080965;-2.280430964;-5.511183696;2.698123662;-0.899268318;-4.213844727;-1.130422452
-14.23490904;6.909584393;-10.19908378;27.73497539;-8.06113713;-0.465365017;11.23134136;-4.514859587;1.215263737;10.98025484;17.04862873;2.422709558;-7.127520836;-2.984983357;-2.752171208;2.71014092;-1.482639117;-3.733799809;-1.033758497
-14.30995518;11.12343905;3.225736206;27.66730135;-8.343995551;-0.524707524;-5.912359169;-5.119558389;-0.941755622;12.10854076;11.92743019;2.551462334;-3.396511668;-3.791219767;1.943505514;2.564072668;-1.826459361;-1.890248474;-0.408026217
-14.40758516;11.70016969;8.139281475;17.39751818;-6.801062363;-0.175525774;-25.62532152;-1.576320876;-4.701034125;13.47452682;3.714728672;4.190298142;3.630048828;-3.633649111;6.452297926;2.21443392;-1.535561237;0.171595771;0.781718444
-14.78646997;6.63467363;4.011867807;3.965995721;-3.167195497;0.257608589;-40.1090395;5.243573559;-6.593878926;16.19560847;-2.414795337;7.243909272;10.46286718;-2.278916179;8.818362097;1.427955063;-1.022680753;0.702502872;1.897833296
-15.33958845;-1.486087761;-2.640666536;-4.173914476;1.080285329;0.369215472;-43.15019373;11.75214548;-4.640166414;19.74602303;-2.900737131;10.73197989;13.46666373;-0.537636755;8.364713894;0.040843755;-1.019148946;-1.128806429;2.143035023
-15.57587006;-7.212172687;-3.673220324;-2.762100931;3.608471749;0.055368825;-33.97156903;14.16518237;0.432280993;22.21401017;2.377487914;13.47491336;11.62254633;0.503854965;6.04648696;-1.565521266;-1.650652125;-4.266508196;1.308498465
-14.96725574;-6.40517233;3.992230233;5.676039228;2.905083345;-0.38547956;-18.09259129;11.1952902;5.883167745;21.78220841;10.5863453;14.90896079;7.271543887;0.409329362;3.761794422;-2.307853707;-2.057877652;-6.315104079;0.064358593
-13.41880407;0.504393242;15.64785662;14.06735244;-0.557682245;-0.531688404;-4.137313263;4.86029934;8.896769576;18.25430926;18.05757771;15.35364153;4.15278244;-0.410754041;3.0860925;-0.94365517;-1.084532525;-5.342035253;-0.530404562
-11.46836173;8.799832151;22.20331321;16.17152426;-4.566137682;-0.238628584;1.555461404;-1.102639684;8.344927588;13.40991917;22.37425901;15.55506232;4.366677869;-1.323492637;4.323971554;2.915342697;1.486805639;-1.548264929;0.078225392
-10.00215747;13.02890005;17.07035413;11.11786217;-6.602460592;0.216898642;-1.216479179;-3.868944626;5.247631773;9.886037885;23.10826351;15.94250022;6.852258742;-2.177423949;6.507293979;8.087455469;4.315909055;2.601718571;1.415204425
-9.667791715;10.93329599;1.23392961;3.766811136;-5.38383912;0.389827851;-7.048262777;-3.183387873;1.790417974;9.415872398;21.13734976;16.22863905;8.670917454;-3.306094395;8.218255346;12.11327043;5.245403994;4.014553222;2.308539739
-10.44269631;4.68840599;-17.27381892;0.725624626;-1.438348164;0.087656141;-9.43236486;-0.96802311;-0.275036722;11.726061;17.52853912;15.64568768;7.921845781;-4.833816154;8.5121422;12.56678446;2.955598111;1.152975082;1.828648982
-11.71118882;-1.294647753;-28.92197656;5.140635158;3.519861131;-0.433183672;-5.728073251;0.524988734;-0.685903473;14.87106517;13.04800112;13.59619624;5.642622976;-6.087613131;7.259443813;8.580974007;-1.811380934;-4.916997999;0.051932858
-12.78084703;-3.95943764;-28.97;14.29170249;7.763125267;-0.685798326;1.276675796;0.420413833;-0.479659587;16.70362499;8.521514448;10.24384463;4.91538835;-5.898477396;4.836017742;1.522861676;-6.560519125;-11.38979621;-1.988347375
-13.39142218;-3.609137154;-19.96560638;21.80896183;10.36405404;-0.394080147;6.279430554;-0.445725054;-0.790587049;16.367585;5.332948402;6.691589331;7.897875506;-3.694864213;1.668830054;-5.703155248;-8.748439819;-15.72880549;-3.103446152
-13.78225832;-2.927187706;-9.067376246;22.70734959;11.22190051;0.24542927;6.220279173;-0.549752565;-1.631509947;14.73254849;5.149659111;4.666557932;13.43901786;-0.392342174;-1.849941794;-10.29198369;-7.565681464;-17.19440071;-2.814332969
-14.29055514;-4.206641817;-2.681491567;17.21986753;10.57479146;0.724440614;2.780470283;0.967064898;-1.723266007;13.5001208;8.69098686;5.806723162;17.55645312;1.908781116;-5.102932752;-11.04215697;-4.396042792;-16.79373811;-1.581940297
-14.88927238;-7.329354725;-2.511479854;10.3704504;8.592586603;0.665764654;0.569846201;3.674413787;0.332543416;13.68346165;14.40660795;10.72832588;16.59628608;1.395385166;-7.154727064;-8.792702196;-1.650097656;-15.95972499;-0.293829027
-15.13100806;-10.10621565;-5.527426165;7.638051814;5.40146906;0.149946126;2.757629217;6.233412652;4.363017329;14.60623054;18.389377;18.20997035;10.46799942;-1.966510665;-7.22529826;-5.627663777;-0.992103978;-15.28882372;0.463794748
-14.57353232;-10.38139695;-7.176492965;10.23335016;1.402319041;-0.366541784;8.132451187;7.266126798;7.874102462;14.19605083;16.20189165;25.05190419;3.103462565;-6.237332296;-5.465877173;-3.485390411;-2.384849239;-14.42978798;0.705088427
-13.27982511;-7.847143394;-4.985585112;13.88636247;-2.524257543;-0.462201378;12.24759189;6.029005299;7.218693835;10.43589197;5.875782888;27.13840408;-0.464648403;-8.889446179;-3.235190636;-3.087171655;-4.560019531;-13.00747873;0.744756537
-11.87603118;-4.019990491;0.011973687;12.26727886;-5.195919848;-0.115292577;11.58623414;2.610402254;0.22636275;3.005277394;-9.851741588;21.62879567;1.867023178;-8.686989316;-2.314867217;-3.751099912;-6.267419286;-11.45814886;0.711128097
-11.0486969;-0.666374001;4.526321228;2.406920446;-5.612892943;0.303105966;6.909735901;-2.186702487;-11.54080342;-6.052700642;-23.97171407;9.208868277;7.45359609;-6.503741757;-3.456319018;-4.034695378;-7.101917944;-10.8009492;0.415373951
-10.91783834;1.646101492;5.480403611;-12.24092688;-3.446063715;0.388014631;2.665061414;-7.057439743;-22.87757613;-13.21729003;-28.72110336;-5.266891482;10.88783623;-4.412763433;-5.475041114;-2.71042869;-7.295619699;-11.51768058;-0.302334053
-10.90246677;3.502595957;1.807671028;-23.70724887;0.735734411;0.071758262;2.931203987;-10.51338353;-27.84896457;-15.49306687;-20.45007813;-14.81488305;8.285488098;-3.872196267;-5.914030206;0.473154114;-6.956518592;-12.72810218;-1.165474104
-10.28508799;5.3288304;-5.306848683;-25.10986952;5.581575889;-0.333067307;7.619748072;-11.41731464;-23.81104698;-12.29493024;-2.756878881;-14.35108608;0.464528484;-4.598736761;-3.044950094;4.570078125;-5.749054634;-12.69316207;-1.509202908
-9.017671067;6.327663711;-13.35326083;-15.71723844;9.363246029;-0.446054842;12.50690668;-9.603505813;-13.62636476;-5.945963739;14.59654085;-4.243034018;-7.517887858;-5.07205254;2.338226787;7.811410803;-3.454208099;-10.41870026;-0.846495164
-8.007492024;4.906851755;-19.69531802;-1.583223077;10.57071424;-0.182538321;13.18892794;-6.132466722;-4.12667389;-0.343337948;20.99693243;9.317897832;-10.10457564;-4.132191604;7.010580279;8.425628865;-0.796077353;-6.932066314;0.554583257
-8.508844678;0.294639859;-22.47142188;8.744702677;8.549917185;0.176649613;9.353081098;-2.792366452;-1.54611384;1.446336452;11.61301799;17.93115097;-5.339599947;-2.158532449;7.582030191;5.58800222;0.531245425;-4.869323239;1.695294695
-11.03704705;-6.252828044;-21.11722073;10.17424764;3.922240482;0.26965041;5.295172623;-1.019157023;-7.083302638;-0.892351708;-8.907879832;16.48757658;3.753913429;-0.734627703;3.338997003;0.048213153;-0.977243823;-6.427865239;1.574975723
-14.72150821;-11.9908447;-16.5313441;4.222626089;-1.530429101;0.014188252;5.97185522;-1.007010381;-15.95445246;-4.821052407;-28.51735574;6.739081682;11.38548479;-1.121883957;-2.697890763;-5.99485259;-5.135884273;-11.30439211;0.04945401
-17.73653799;-14.69055349;-10.73859373;-2.798585483;-5.643117343;-0.306027685;12.09397249;-1.783726264;-20.87390132;-6.815150593;-34.8799697;-3.83152979;12.94842918;-2.980115283;-5.66451444;-9.890546337;-9.649602392;-16.4908411;-1.953023365
-18.57227332;-14.36621161;-5.962491693;-4.88797425;-7.003992812;-0.316967568;18.930845;-2.275761027;-17.5456316;-4.965728649;-23.29862653;-7.295863324;7.789012178;-4.554859402;-2.509524717;-9.985138322;-11.45832238;-18.36805546;-3.117225518
-17.16577891;-13.11220042;-3.471789168;-0.70216667;-5.769033717;0.069159086;20.32107547;-2.471040824;-8.065342084;-0.478140582;-0.281243415;-1.008492867;-0.912063075;-4.19646394;5.369236407;-6.673930389;-8.997911505;-15.55920341;-2.792336084
-14.96431782;-13.11849223;-2.969580321;6.008773041;-3.537953912;0.541397;14.55454729;-3.570150592;0.444988744;3.07772799;19.9154115;10.43622687;-8.572279329;-1.832705603;12.72157789;-2.293226499;-3.572195597;-10.2029891;-1.51747118
-13.83520337;-14.64369453;-3.064049043;9.786184555;-2.265749619;0.662546005;6.69415822;-6.82343354;1.084812806;2.332783724;23.92649168;18.51889295;-11.92568992;0.961177205;14.05325621;0.233912249;1.413523293;-6.469618734;-0.558696485
-14.67629423;-15.84103797;-2.501400317;7.686889491;-2.917087706;0.281735071;4.698116695;-11.96849505;-7.570600422;-3.286043651;7.740861386;16.94330817;-10.30782424;2.372246889;7.625665935;-0.782478215;2.901305857;-7.376607522;-0.848955735
-16.82100687;-14.66407662;-1.104498979;1.080009766;-4.841115687;-0.300712247;12.189977;-16.71803024;-20.15384724;-10.82382116;-20.46053713;6.066419569;-5.233967997;1.953463155;-3.17230674;-4.705310657;0.426226641;-12.40318513;-2.24209044
-18.66437873;-11.10827415;0.445813738;-5.954003718;-6.35365168;-0.583421784;24.102285;-18.01;-28.12765771;-15.54115006;-44.9951416;-7.570879015;0.823937033;0.949349518;-12.12218915;-8.973069187;-3.623057963;-17.80894298;-3.707352127
-18.93277304;-7.611991194;1.747433645;-9.828649072;-6.089611076;-0.312091428;29.47839454;-14.24129341;-25.65992149;-13.97523294;-51.97;-16.03224171;5.49242126;1.047204128;-14.39366537;-10.76020448;-5.913597334;-19.40048749;-4.254947526
-17.53495899;-7.040443692;3.477417307;-9.534912566;-4.069441671;0.282575884;19.80962983;-6.728172254;-13.47504117;-6.20272022;-37.35629804;-15.34312941;7.123974468;2.71842819;-9.55361881;-8.78169036;-4.678696024;-15.55352389;-3.749531101
-15.36222432;-9.935501505;6.765915498;-6.318342884;-1.645057201;0.680827963;-3.637957313;0.901377652;1.935026452;4.236656721;-8.966947509;-7.527142878;5.252479327;4.709306802;-1.324704505;-4.041036876;-0.834854332;-8.180184752;-2.905022332
-13.34568901;-13.5724145;11.45016723;-1.943861598;-0.399838431;0.532482198;-29.65362784;5.062763877;12.84674984;12.61692805;18.52237927;1.734066543;0.934814697;5.188157147;5.367441273;0.914993749;3.052954245;-1.07406452;-2.52369114
-11.69236856;-13.93604208;14.91448638;2.455275893;-0.925409364;-0.035281624;-44.59649475;4.547232547;15.09744403;15.8382171;32.06482456;7.491339632;-3.450426988;3.510852409;7.579519371;3.636182545;4.912697955;2.843808728;-2.730463096
-9.98200841;-9.167317159;13.1462754;5.991903487;-2.46983395;-0.538651325;-41.88271685;1.034802204;9.84821781;13.85801411;26.99218734;8.426351463;-5.339489171;0.95433091;5.478417929;3.158208028;4.552828756;3.152879663;-2.92749847
-7.960232618;-1.575929382;3.822883843;7.043548435;-3.689799634;-0.573195435;-26.10407408;-2.540314795;1.624076965;8.972708777;8.380953861;6.42291607;-3.659597861;-0.326016526;1.077830841;0.290866864;3.253136882;1.376950609;-2.488790665
-6.194418075;3.671174937;-10.87407628;3.396601204;-3.804256398;-0.165461982;-8.801070429;-4.351223788;-5.302525142;3.787433938;-12.99339475;3.912322634;0.170134954;0.761651979;-3.81931484;-3.207329315;2.167355742;-0.900395037;-1.497833682
-5.877652702;2.356935398;-24.42074674;-5.933042626;-3.145695482;0.277395824;0.394989845;-4.802891195;-9.31043583;-0.46050278;-27.04215017;1.695883308;2.988115565;3.142465404;-8.577811123;-5.856495863;1.137426883;-3.410880405;-0.781771452
-7.862082629;-5.452756835;-29.73184293;-18.66312674;-2.682277509;0.363443229;0.096590382;-5.582752647;-11.22632197;-4.072060307;-29.24121919;-0.976769496;2.181171722;4.349126814;-13.08126371;-7.245346566;-0.989508456;-6.93210486;-1.165858891
-11.74921731;-15.23641693;-24.13125987;-29.2614225;-3.009668496;0.081920752;-3.645588977;-7.621578492;-12.41079717;-7.733650936;-21.72892815;-4.649422803;-2.128309866;2.560338915;-16.61480714;-7.988647565;-4.923446503;-11.86272478;-2.63483543
-15.87860799;-21.17970971;-11.62624973;-31.86212667;-3.759316302;-0.203563141;-3.77185333;-9.882437251;-13.15858615;-11.26104074;-10.85383656;-8.324791617;-6.86751651;-1.838180481;-17.76831823;-9.052248955;-9.811517029;-17.16266414;-4.216921053
-18.31385493;-20.19684095;-0.303167115;-24.33668566;-3.956270547;-0.124589246;1.666030855;-10.13040481;-12.70440227;-13.40240918;-3.183967979;-10.03262867;-8.211579142;-6.50644436;-15.66282575;-10.97034094;-13.56255285;-20.73966556;-4.759523794
-18.07895311;-13.73615766;3.54329893;-10.33069059;-2.978948579;0.313480311;8.72286142;-7.043495804;-10.45421492;-12.85163531;-2.268964274;-8.7466033;-4.61399412;-8.981014998;-11.29903037;-13.41654901;-14.39084276;-20.95455999;-3.930283657
-15.68938149;-6.188394899;0.089481375;2.709180361;-1.229612335;0.709687456;12.06354023;-1.77910982;-7.025324374;-9.555482227;-7.527220305;-5.678274853;1.782840403;-8.513072346;-7.504726217;-15.31327278;-12.22759881;-17.88307488;-2.533019116
-12.620766;-1.445916498;-4.35864854;8.397515843;0.101063313;0.634700425;10.11834849;2.488258452;-4.071302282;-5.151987753;-15.336946;-3.536330412;6.635307689;-6.412501692;-7.175529861;-15.39504874;-8.77241548;-13.23382111;-1.822857802
-10.22411714;-0.445454485;-2.690738645;5.590784737;-0.031332473;0.049678911;6.151559108;2.824737542;-3.120735571;-2.10265758;-21.41802366;-4.314529115;6.702368179;-4.759699849;-11.13911042;-12.96655491;-6.182644372;-9.065391393;-2.410393432
-8.978804859;-1.408176289;6.822167988;-1.332117329;-1.711455103;-0.619716673;4.666965819;-1.200856723;-4.525516299;-2.135729276;-23.16758745;-7.640729515;2.31154483;-4.743059159;-17.47336662;-8.492855493;-5.577279159;-6.47598385;-3.732620739
-8.579346479;-2.087940752;18.50920488;-6.288287242;-4.051738097;-0.838782674;6.973487731;-7.10088874;-7.373614263;-5.143972026;-20.76873317;-11.24335586;-3.046375358;-6.068964002;-22.94442719;-3.649933629;-6.598543315;-5.330750152;-4.571281801
-8.583814173;-1.782265136;23.28604397;-6.342924937;-5.924985492;-0.435450694;10.30200919;-11.2590844;-10.25952427;-9.305284965;-16.56185828;-13.09533099;-5.659161724;-7.774371217;-25.41;-0.649684899;-8.224545561;-5.030914037;-4.157464921
-8.916689193;-1.405033004;15.66905658;-3.72920443;-6.749867556;0.240214961;11.20676981;-11.5116784;-12.11629545;-12.27770625;-13.14900297;-13.18083454;-4.604789821;-9.446147165;-25.19639961;-1.066345603;-9.885109277;-5.379109823;-2.868658701
-9.775365381;-1.904151503;-1.687687167;-3.522560412;-6.672421034;0.618957932;9.667040051;-8.518763245;-12.48703567;-12.59726608;-11.52359559;-13.17520351;-2.308381559;-11.56068278;-24.36855973;-4.824749242;-11.76704968;-6.650854611;-1.889079774
-11.14024461;-2.842047742;-19.55799705;-9.016010494;-6.115613124;0.408726248;9.493385763;-4.966824992;-11.32393382;-10.37738892;-10.58626915;-14.35919923;-2.216004136;-14.63316935;-24.66486608;-10.08981118;-14.11126443;-8.917923228;-2.138679291
