Channel 1 - P4;Channel 2 - O2;Channel 3 - P8;Channel 4 - T8;Channel 5 - C4;Channel 6 - Cz;Channel 7 - Fz;Channel 8 - F4;Channel 9 - Fp2;Channel 10 - F8;Channel 11 - Fp1;Channel 12 - F7;Channel 13 - F3;Channel 14 - C3;Channel 15 - T7;Channel 16 - P7;Channel 17 - P3;Channel 18 - O1;Channel 19 - Pz
28.6267629;42.12133969;10.66139361;37.85800022;16.05712586;7.677325445;8.505349421;16.1371564;0.931885872;42.28136541;-29.23333051;10.77547699;10.51162909;19.53748184;28.17989968;28.92523497;24.93958283;37.93582404;15.80252293
43.32089204;49.8615774;28.61038027;47.65572408;26.04947884;16.12090951;41.27601328;30.65804385;20.42618354;52.34;-7.24482336;30.78728178;26.00304037;31.3564051;47.8396029;44.77971543;34.40972644;52.74398077;29.66090593
47.56250073;37.8048532;27.3021671;41.97803382;30.20148094;17.92416429;47.25140993;34.88263015;37.16926799;50.4847858;23.79348145;41.38894345;33.39570444;38.5679431;52.17427283;48.4433941;38.8132926;55.0338099;35.94656136
37.92542737;13.65295469;9.766233563;21.40939343;23.16049086;11.76821584;26.61317123;23.89751137;38.01331219;33.19304263;44.96446932;35.46083712;26.42628919;33.60100108;37.01908819;33.98535946;30.92464076;40.06937444;29.52247753
19.79827784;-7.775871994;-10.17542037;-4.567830017;6.869405739;1.526314914;-3.081649584;2.083357552;20.10186938;6.160297379;43.6963692;15.84769251;8.254192073;16.7417257;10.12399257;6.786156239;11.42047085;13.30523766;13.47053898
3.572663588;-15.24858385;-18.74512036;-23.26914606;-10.13360987;-6.51800648;-20.92659931;-19.26377347;-6.727759802;-18.25799955;22.51171381;-6.189278918;-10.4260469;-3.280234244;-13.8422019;-19.25226705;-10.64875229;-12.36027675;-2.882520267
-2.582601716;-8.306254809;-11.89083102;-26.5690724;-18.53175672;-8.113943488;-17.74871679;-29.23334277;-26.83598613;-28.64298716;-3.499689641;-18.50514868;-18.90252605;-15.32457484;-23.08614229;-30.86078824;-23.92265493;-24.79497734;-10.48025582
2.069723299;4.118842005;3.180538686;-15.39799227;-14.73966883;-3.792022739;-0.793308501;-24.2260166;-29.58142454;-21.75509099;-17.94911235;-15.99895251;-13.88016641;-13.94087493;-16.13558436;-24.27560263;-22.77711299;-20.39937594;-6.702148712
11.30930795;11.74709489;14.79389429;1.858382844;-3.113661846;2.03635975;14.5449474;-9.566707964;-15.92893271;-4.125203683;-14.18547531;-3.157533405;-1.196271556;-3.187978786;-1.68769001;-7.286805798;-11.13430442;-5.79361515;3.359446614
17.27968567;10.75605037;15.84410802;15.45359153;7.69854825;4.713179553;18.09747681;5.03202529;3.605658301;13.04482064;1.909287565;10.28506699;9.284756021;6.839212827;8.567132614;6.901629547;0.847355111;7.575123305;11.20497507
16.24238194;5.314088009;8.106277101;20.27428952;11.22654684;2.757543985;12.12113864;12.42656708;17.3509791;21.6568471;18.32924531;16.82162565;11.37560244;7.98428345;8.419648673;9.186260143;4.471505295;11.59392338;11.27296425
10.44530725;2.44333849;-0.615139879;17.71857561;7.389841239;-1.491100289;7.012911969;12.19880457;20.41975628;21.33311472;26.46891274;15.9647963;6.800790189;0.17044783;0.642982513;0.307291194;-1.468748516;6.303106499;4.476735591
5.226164752;5.278839573;-3.17216494;12.88029095;1.462475521;-4.224121913;10.21995156;9.361559694;16.51356509;17.83338695;26.17536583;13.11278623;2.90879179;-9.041951017;-6.506646868;-11.09119266;-10.80417688;-1.755602807;-3.414653437
4.264992817;10.60703518;2.035843773;9.916029258;-0.869644318;-3.370389713;18.53545112;9.332175631;13.22613724;17.23610184;23.3644185;14.11224393;6.10772604;-10.87206956;-6.363244408;-15.93092645;-15.65263499;-5.617739138;-6.772222287
6.98799954;12.39316709;11.1532903;9.333124336;1.943263558;-0.043555113;20.58602358;13.52401001;15.4179793;20.94453922;23.54680891;20.29291554;16.51640547;-2.381787716;1.269143226;-11.52672004;-12.73381048;-3.210537767;-4.295509651
9.879765782;7.705487865;18.65926722;8.840790705;6.735118686;2.73680039;7.238427773;18.8778701;21.99296468;25.37579226;27.28433253;27.82051356;28.0074978;11.42170805;10.85086935;-2.656357953;-5.320783799;2.06831857;0.712743791
10.03392748;-0.408105734;21.04386776;6.337962049;9.012083675;2.731961942;-19.24045487;21.11760804;27.91710781;25.95011094;30.9250752;31.32592557;33.24475517;21.82324716;16.10684121;3.275424409;0.263034984;5.233765482;3.678031855
7.611699095;-5.561777595;17.68606604;2.120553964;7.035949319;0.242783268;-45.36157422;18.5450769;28.91701518;21.44434675;30.90907188;28.34702154;29.36162727;23.229351;14.77377463;2.473413629;0.187104683;4.218421242;2.569336047
5.207588684;-3.690617505;9.379383886;-1.507567919;3.060226711;-2.414662779;-56.07707081;13.14925153;24.63321637;14.84965145;27.1217143;20.90063717;19.75111976;17.01399144;9.391348778;-2.761884037;-4.068273781;1.134485635;-0.928229452
5.038477389;3.344663648;-3.060136277;-2.549250219;0.919075984;-3.058271569;-46.10709225;8.442422323;18.02487034;10.27662852;22.3594246;13.32343921;10.91818315;9.58407451;4.157327483;-6.88390316;-7.685856034;-0.362872785;-3.471927229
6.726396563;9.328280421;-18.45912411;-1.250065918;2.386817431;-1.461193362;-23.77884298;6.292710316;12.30839718;9.027847429;19.01499228;8.703025776;7.380596875;6.727177376;1.119140402;-6.33624347;-7.135359238;1.180058594;-3.195777511
7.70046535;8.965991427;-33.97564413;0.114930396;5.631055717;0.660061035;-4.460368559;5.652261331;8.525990268;8.549819024;16.64373289;7.050039063;8.851940416;9.142259644;-0.920973575;-2.523231689;-3.233044268;3.6663042;-1.11786387
5.732825832;2.247384047;-44.96162742;-0.683579189;7.035691519;1.317587477;0.912545423;4.127286874;5.692503555;5.180586156;12.89534654;6.401365906;11.61392798;12.6735664;-4.225843797;-0.179287266;-0.095465438;3.570367525;0.189227379
1.181620448;-5.776686549;-47.1117647;-3.852538487;4.61619962;0.012664989;-6.912719417;0.696947971;2.798726912;-1.953096859;6.758676367;5.308926456;12.33172176;12.59285141;-9.127447564;-2.897938885;-1.187157903;-0.61047948;-0.808772779
-3.151415074;-9.410751503;-39.5776347;-7.495278705;-0.092583864;-1.938537076;-17.72993876;-3.063169834;0.342553566;-9.61683884;0.666296892;4.157544574;10.76183751;7.961111928;-13.21932262;-9.884377369;-6.126089816;-6.830505673;-3.201937271
-4.422281304;-6.989315947;-26.33213599;-9.454392823;-3.329563209;-2.688893079;-21.0013964;-4.403862864;-0.160202787;-13.09339808;-0.966455837;4.205853686;9.200876421;2.351706344;-13.49897539;-16.68222751;-11.04402239;-11.27230442;-4.609729153
-2.227093678;-1.862091779;-14.1854822;-9.362183981;-2.366610253;-1.525793594;-14.10814221;-2.128090531;1.944268225;-10.46447311;4.261844553;5.6037101;9.63249736;0.574426909;-9.380131928;-19.04714536;-12.03829948;-11.74559587;-3.501754937
1.066273003;0.898995323;-8.588368165;-9.004314898;2.176260707;0.557001619;-3.357906572;1.941116629;5.203038995;-4.640770348;13.84;6.624899555;11.4978562;4.46378464;-3.668636788;-16.48260637;-8.558495356;-9.577787431;-0.670004883
2.428445719;-1.01367321;-10.29032746;-10.61422476;6.949386313;1.810911318;2.243192324;4.185409945;6.817123181;-1.143058348;21.44813734;5.085241846;12.1953948;11.38574679;-0.476396199;-12.42521021;-3.763806662;-8.279945374;1.474974854
0.847288676;-5.368911071;-15.32640338;-14.56378939;8.785134284;1.286514589;-1.316679535;2.123093915;4.80965952;-3.415128732;21.50335738;0.671138567;9.731707794;16.56464844;-1.858886111;-11.0832111;-1.659144497;-10.21182423;1.0912
-1.770063477;-7.665650803;-18.19270064;-18.48943648;7.292991898;-0.397558828;-10.23061645;-3.474041321;-0.350105025;-9.732331979;13.49072428;-4.138983483;4.923401023;17.01585527;-6.135713813;-13.77882544;-3.632398571;-14.27184716;-1.434451528
-2.226285771;-5.220996678;-15.67524006;-18.71726588;4.919185518;-1.690471968;-16.65595763;-9.103714592;-6.10756014;-14.48765158;2.48;-5.691176082;0.997352255;13.66579382;-9.357129085;-17.91363418;-7.418295881;-16.71323277;-3.832852857
1.253923519;0.561859786;-8.558856281;-12.94937495;4.565617986;-1.509833589;-15.34099412;-11.23643471;-9.784835385;-12.86564013;-4.601714807;-2.099163355;0.864767287;10.03460497;-8.598317045;-19.29252131;-9.267935092;-14.40083191;-3.954613488
7.554110338;5.571732248;-0.363984296;-2.143376177;6.990445573;-0.141871726;-7.476682591;-8.897774959;-10.3728532;-4.942150411;-3.875454011;5.024052524;4.498647903;8.910193624;-4.202526224;-15.68323418;-7.287718293;-7.667004756;-1.620043945
13.6091118;6.572666313;5.44562598;9.835812857;10.29158205;1.108787359;0.95911543;-4.021526378;-8.687363544;4.31060061;3.280664306;11.6369098;8.783009018;10.05072496;0.8884876;-8.594040645;-3.001259573;-0.28119862;1.29456792
16.83174133;3.759552638;7.54617468;18.49552144;11.81976348;1.132068924;4.37285567;0.537074853;-6.038822619;9.139437925;12.13107475;14.32452718;10.01865684;10.82971338;3.955118276;-1.934940927;0.124034764;3.446954528;2.537704505
16.91086664;0.196553709;6.952484878;21.26494525;10.68895536;-0.027851177;1.74291072;3.43886736;-2.902670825;7.749356313;18.54387773;12.800464;6.945919949;9.035345787;4.857685329;1.113809604;-0.240328535;1.982355522;1.39101676
15.57153408;-1.071710388;5.82254792;18.65069372;8.588618319;-1.288648566;-3.245126812;5.602481029;1.112969408;3.663794541;21.53515892;9.819604138;1.731297405;5.195091891;5.858791912;0.365658398;-3.317667414;-2.41856325;-0.852607753
14.75;0.520809637;6.113070103;13.51481584;8.203544083;-1.548368753;-5.556852681;8.744811428;6.154663353;2.627363627;22.59970458;8.728395514;-1.831837115;2.357525083;9.211867107;-1.65827935;-5.975477064;-5.670438801;-2.156473624
14.95625335;3.164413101;8.807013212;9.280722343;10.71655177;-0.65185779;-2.556616847;13.22988954;11.24805328;7.768883114;23.10668544;10.86998399;-1.28625265;3.588060593;14.83620679;-1.999488594;-5.367233604;-4.996592686;-1.52169191
15.24623985;4.975882318;13.55381283;8.30046879;14.65618395;0.541364726;4.578561312;17.31528464;14.81036303;17.13592617;22.65058467;15.0291802;2.85012925;9.401060738;20.2492558;0.556636812;-1.110854865;-0.638212835;0.316210865
14.62543422;6.127063872;18.40364885;11.09881736;17.09806194;0.986337034;12.10835135;18.54753679;16.21949914;25.55786241;20.014857;19.14055323;7.953224509;17.28547862;22.79407362;5.055921431;4.734253425;5.017263602;1.79649712
13.37285151;8.700628919;19.93089464;16.44499921;16.11424296;0.384241222;15.99074748;16.04803153;16.84440255;29.03635769;15.61679248;22.42147141;11.64477982;23.58265394;22.06203481;9.644998199;9.574294082;9.756493073;2.084181478
12.9210857;14.39148766;14.44830805;21.89671544;12.29878652;-0.616952932;13.47690496;11.57545231;19.21925748;27.78714833;12.65545978;25.81296584;13.46703185;26.00883386;20.22363195;13.08110909;12.18779875;13.10220363;1.769875756
14.36890383;22.24578588;0.353473501;24.6599091;8.094519829;-1.080441001;3.716343997;8.318814948;24.73673142;25.41045775;15.27937652;30.33737161;14.56611564;24.76881577;19.90819228;15.14067785;13.01324289;15.88180853;2.097202828
17.07067238;28.66430377;-19.72;22.77976151;5.639869431;-0.648134988;-11.96223319;8.402154038;31.81094325;25.16712656;24.95834988;35.08325299;15.99167997;21.62820385;21.55581793;15.89255103;12.89419041;18.55146257;3.521005873
18.75901797;29.88626723;-38.94281129;16.39414581;5.125732535;0.17919328;-29.80228133;11.24964205;36.36995539;26.85713625;38.23301693;37.01986136;17.40981387;18.10051292;22.71809063;14.93938474;11.80739781;20.14435136;5.043186342
17.28510046;24.94111209;-49.40287184;8.269182648;5.084451412;0.567039416;-44.11684696;14.22332757;34.68041828;27.14190669;48.20243908;33.20839949;17.45607127;14.46839654;20.08209281;11.62582484;8.960375078;18.98636303;5.042716405
12.54520114;16.59029333;-46.79128053;2.806937915;4.197807187;0.150063782;-49.35690884;14.9582637;26.41855763;22.96751862;49.06013505;23.66420141;15.26918674;10.33150375;12.53950938;6.062413052;4.136703475;14.51277854;2.891487792
6.884593183;9.456474242;-33.45242963;3.583441156;2.813058112;-0.642691915;-43.24081961;13.34311505;15.44219691;14.90401598;40.29715243;12.25972332;11.59016096;5.845501735;2.607631149;-0.176136925;-1.197161421;8.367092434;-0.152302615
3.509954356;6.854565936;-17.27700636;10.76275813;2.668858009;-1.022674058;-28.8457543;11.430854;7.414521993;7.250731179;27.2202226;4.527851191;8.268718917;2.234909228;-5.14450188;-4.635339355;-4.384344779;3.557672155;-1.703025712
4.131136702;8.807020631;-6.818413021;20.31391752;5.05096508;-0.60605294;-13.54925319;11.40836335;5.949365502;4.634829144;17.25119622;3.838902778;6.61465917;0.991192838;-7.461247669;-5.594552018;-3.507372042;2.238837911;-0.128753148
7.725384573;12.60793735;-5.948393226;26.04417757;9.130512538;0.21539864;-4.818648586;13.47156922;10.19785428;7.998150261;14.78287987;8.929375331;6.211193545;2.529432122;-4.810498862;-3.380019531;0.886029483;4.009754205;4.015546386
11.39584245;15.17560656;-11.88268788;23.46565297;12.16179126;0.637247464;-5.523872503;15.5296069;15.70746106;13.51842399;18.45882197;14.80663691;5.417887379;5.643605874;-0.882123389;-0.16827712;5.9052088;6.252443162;8.255084992
12.58220834;15.14789711;-17.91706403;12.9177823;11.56787062;0.193765194;-12.27296442;15.03442829;17.82878578;15.54784262;22.77339337;16.38812093;3.172732884;8.353155601;0.35970367;1.660498024;8.379242697;6.274811036;9.999053189
10.83205681;13.20440747;-18.63227034;-0.413312955;7.18956131;-0.800634822;-18.19761255;11.33670835;15.00316033;11.20084354;22.51894173;12.06924245;0.381063491;9.413363306;-2.36936329;1.274995942;7.219837081;3.454782235;8.428477796
7.803974453;10.78640534;-13.54130999;-9.825109201;1.703835138;-1.523686889;-18.14359804;6.472164398;9.479795049;2.768571659;16.56065888;4.536030877;-0.559438721;9.132784081;-7.038265011;-0.213906158;4.11025878;-0.405976436;4.960722045
5.687407482;8.660058594;-6.596130985;-11.5147513;-1.282755147;-1.377223961;-12.24700244;3.623773962;5.132757244;-4.067473482;8.216474795;-1.603709719;2.128476165;8.789090961;-10.29176744;-1.0064233;1.949756437;-2.741909074;1.99003418
5.470991282;6.599024668;-2.391861344;-6.887239814;0.027187756;-0.511225642;-5.178064861;4.519670182;4.297123338;-4.747715741;2.325583416;-3.316913302;7.664009107;9.236984026;-10.23815615;-0.364853925;2.401447159;-2.399859523;1.017376015
6.457407807;4.20170718;-2.437389729;-1.062976014;4.292977225;0.326698346;-1.904139642;7.96675542;6.133842605;0.633609031;1.556160068;-1.029463984;12.77215692;10.0328696;-7.727936138;0.699106143;4.632397061;-0.469632091;1.70527195
7.238895275;1.783086144;-4.469669432;1.242018649;8.208494334;0.464866456;-3.646068951;10.7750616;7.619288475;7.593825522;4.763673615;2.303118901;13.92043628;9.88738535;-5.28027072;0.385377043;6.252087662;0.831108553;2.517417808
7.102608891;0.350113934;-4.982108526;-0.72198541;9.194771366;-0.112725648;-7.362585398;10.31374162;6.118886923;10.95419882;8.317343703;3.803732374;9.995574114;7.994470544;-4.835078542;-2.188243338;5.523220464;0.098327658;2.238516226
6.585180206;0.687245537;-2.438607845;-3.463559393;7.394194931;-0.793534709;-8.92306364;6.580276921;1.395972924;8.8302675;8.988841441;2.669286087;3.219888051;4.960087891;-6.341948855;-6.104256857;2.84965061;-2.253760331;1.00110107
6.766980515;2.486354147;1.65750009;-2.393234087;5.37467236;-0.920994243;-6.928863507;2.103308443;-4.402125171;3.728435388;6.081664307;0.114954486;-2.474363129;2.429187715;-8.24592379;-9.409409717;0.261980566;-4.73384884;-0.00664093
8.046968125;4.39457847;4.497530585;4.175845025;5.875763011;-0.387704678;-3.727026546;-0.166556625;-8.491532534;0.110222732;1.452602827;-2.242659074;-4.293079559;1.726196919;-9.175503663;-10.85262364;-0.552878563;-6.435214442;0.232610722
9.554438931;4.954159185;4.609590512;13.37356541;9.510779089;0.298153481;-2.837160391;0.829972942;-9.349293303;0.695504849;-2.129307594;-3.827115008;-2.352400096;2.746440359;-9.170851286;-11.02031843;0.159126836;-7.974583909;1.574141272
9.731908619;3.587336623;2.889717408;19.76233065;14.28369535;0.511232916;-5.322504426;3.640797771;-7.312005818;4.608334569;-2.758330602;-5.076400826;0.95464924;4.110307299;-9.382499384;-11.78901122;0.467892545;-10.78204608;2.833243906
7.57646111;0.810576422;1.247909906;19.35927232;17.209109;0.095193544;-8.569355277;5.773357305;-3.698267289;8.670058594;-0.094890481;-6.228263652;3.27517433;4.434243947;-10.66487155;-14.49145748;-1.379768129;-15.38714047;2.855330241
3.48325919;-2.355047468;0.453759579;12.50746054;16.61039788;-0.504693373;-8.660165871;5.8833423;0.496289815;10.40405317;5.05460731;-6.366766953;4.222151821;3.554658384;-12.48232128;-18.36656007;-5.175634737;-20.3322108;1.53545896
-0.983540448;-5.094793685;-0.524767197;3.407256466;13.22927486;-0.672075186;-4.138241408;4.770351137;5.10723908;10.00952498;11.47574857;-3.887235603;5.310164799;2.596918677;-13.18452175;-20.70891414;-8.67577996;-22.84884246;-0.116365264
-4.159694289;-6.991051792;-2.985317683;-3.17595246;9.383454462;-0.202513493;2.399745202;4.378737426;10.18557089;9.696326997;17.8896901;1.895497961;8.12597014;2.851004428;-11.40541482;-18.76139875;-9.36141352;-20.89223509;-0.881830094
-5.324940987;-7.734327073;-6.376315995;-5.312000693;7.037844945;0.503038467;6.486913798;5.762608219;15.02394894;11.20925784;22.91612919;9.479659744;12.49884044;4.50944337;-7.320228916;-11.94310578;-6.543668389;-14.89985954;-0.376869924
-4.983745393;-6.948756846;-7.978633444;-4.755220317;6.43282223;0.807927015;5.828928353;7.866349228;17.92258622;13.92609395;25.18888438;15.58573419;16.36506091;6.440636263;-2.651544794;-2.67041567;-2.012904222;-7.795810995;0.680887306
-4.321819319;-4.542829657;-5.109991037;-4.772266505;6.280930265;0.426091147;2.462720501;8.251465436;17.11935797;15.28635571;23.95337878;17.1803927;17.45952123;7.212283725;0.560350407;4.926415801;1.321833766;-3.161202916;1.16716678
-4.37579285;-1.267284784;1.998336559;-6.950196555;5.15685855;-0.315169724;0.917548026;5.205696248;12.2427649;13.15239948;19.80552701;13.63156834;15.32790042;6.427740802;1.363214269;7.515315068;1.664303339;-2.94059499;0.553437206
-5.513575761;1.29710642;9.520336555;-9.723577591;2.784470739;-0.772680645;3.952695045;-0.54844888;5.091536508;7.965725661;14.82167506;7.30355875;11.86794717;5.142184187;0.349811155;4.553370176;-0.392424579;-6.364586638;-0.659965103
-7.42162665;1.694131587;12.70565918;-9.821793353;0.180691349;-0.567728351;9.819837496;-6.044385429;-1.042033535;2.73991737;11.65506157;2.083353502;9.886908179;4.948720658;-1.074151933;-1.550683432;-2.512691357;-10.75276889;-1.408137134
-9.382711926;-0.118666012;9.969977453;-5.358861813;-1.296671656;0.08076196;13.76556114;-8.115385597;-3.222842762;0.815277274;12.01020384;0.903475112;10.85777411;6.518492067;-1.86697379;-7.075581643;-2.550149647;-13.4264834;-0.964521428
-10.55585229;-2.341328459;4.799029574;2.073799467;-1.039969764;0.566762097;12.61003906;-5.722576142;-0.702548377;3.223683562;15.52925506;4.017366974;13.71307539;8.874051394;-1.990115517;-9.216932281;-0.151772023;-13.2713903;0.504573182
-10.18667428;-2.437535034;3.333144731;8.115409811;0.518755583;0.450326939;8.18899373;-0.739572686;4.552195338;7.840560532;19.95639215;9.112873746;15.62602135;10.04447795;-2.132897041;-7.469878464;3.166919868;-10.98554235;2.149350039
-7.851521781;0.871218355;9.11869825;8.65755918;2.538440536;-0.152461949;6.141223618;3.432244836;9.091063122;11.01039231;22.56183492;12.96211183;14.11571906;8.570955706;-2.949857928;-3.474594529;5.340097656;-8.166450913;3.142304407
-3.751947474;6.330260339;19.24073884;2.841771179;4.613219286;-0.688990673;10.60385089;4.361180472;10.24663367;10.32599571;21.87698238;13.332521;8.840791163;4.640029297;-4.518766027;0.31043981;5.258762417;-6.157016489;3.239489524
1.149363471;10.823051;25.38393955;-6.249094496;7.01580374;-0.67682191;19.33420515;2.305410719;7.959892428;6.380097656;18.54031631;9.972771476;1.833568456;-0.01573184;-6.349739267;2.122290267;3.304326029;-5.46463173;2.778005556
5.408081898;11.66496906;19.58574455;-13.65130949;10.15882774;-0.130094604;23.96947706;-0.099424724;4.891333383;2.216718035;14.68597851;4.35845484;-3.791017074;-3.270377501;-7.726718022;1.715299543;0.716243131;-5.882213558;2.237578307
7.774812281;8.748184258;0.53195498;-15.69925818;13.8385308;0.474778055;16.05147702;0.119009833;4.623460178;1.043104328;12.35895434;-1.285729427;-5.573223621;-3.844395262;-7.994433499;0.196036407;-1.442512813;-6.885452164;1.839987085
7.869051584;4.732819502;-24.52843471;-12.00410653;17.01144279;0.645859868;-5.627409069;4.065317171;9.05635248;4.007147116;12.13641901;-4.967252063;-2.771721822;-1.762453481;-6.682428865;-0.829278464;-2.816238915;-7.887917334;1.523495844
6.349824387;3.007019024;-44.00845648;-5.04097914;18.35734523;0.314946152;-32.46956825;10.20629879;16.75071567;9.597520552;12.96149911;-5.537790122;3.603349037;2.060690709;-3.657559542;-0.214258953;-3.530100653;-8.321063161;1.205961947
4.424152052;4.99798692;-49.42928426;1.951597627;17.18327732;-0.129222555;-50.98328121;15.49213093;23.46961626;14.85165354;13.27396134;-2.951899474;11.39444896;6.50521078;0.584811887;2.17104607;-3.683824036;-7.762307545;0.981296785
3.059392562;9.018179671;-40.68318889;6.950957402;13.94025;-0.228372924;-51.89207567;17.43422254;24.73984771;17.25625167;12.52049706;1.743082173;18.02336565;10.59244972;4.754589495;5.510154948;-3.174241431;-6.192636295;1.024227605
2.50573759;11.61118022;-25.39047943;9.653746748;9.963896834;0.108961659;-36.59323807;15.60285993;18.81188323;15.96671131;11.79269934;6.744126293;21.1987436;13.43985856;7.157800976;8.619762998;-1.966672807;-4.149686175;1.33559872
2.454896835;10.31069756;-13.11510024;10.59275398;6.67482186;0.528892865;-15.96397287;11.56923991;7.983270337;11.76178923;12.96563167;10.21;19.71307685;14.24963032;6.692432874;10.65877352;-0.402906638;-2.485405725;1.654004938
2.598926905;5.566693264;-8.942169795;10.07142421;4.846823598;0.577782596;-2.421767567;7.531176201;-2.726754949;6.176601304;16.89026089;11.12303006;14.19466877;12.6519288;3.81752254;11.51999581;0.888507236;-1.780743263;1.683905448
3.019524879;0.303214207;-11.05523608;8.00820553;4.409269116;0.142987343;-1.365382241;4.783946154;-8.724727655;0.678362866;22.06565602;9.767373652;7.244322947;9.178696247;0.584779126;11.66;1.442047229;-1.881411324;1.430708804
4.041028857;-2.457654258;-13.57435678;4.687306593;4.785862035;-0.425798512;-8.43876636;3.175751195;-8.639073851;-3.619333053;25.05460322;7.411803065;2.414816254;5.283275593;-0.605946023;11.51959424;1.294748816;-2.025748887;1.273996953
5.727067107;-1.912193962;-11.86365018;1.420760158;5.402912201;-0.630298537;-14.27946803;1.815736979;-4.79290051;-5.86317932;22.69085106;5.35269011;2.247947293;2.603317151;1.217876594;11.02216671;0.831419471;-1.537928876;1.640579805
7.568095178;0.120605853;-5.971836035;0.164906411;5.986129577;-0.284275044;-12.49856081;0.296740532;-1.072970741;-5.449711128;14.66695273;4.042292122;6.534575958;1.887013798;4.69327599;9.621048417;0.28180511;-0.490548673;2.550462923
8.7343119;0.899467629;0.181231383;2.155400062;6.528103236;0.304067004;-4.386445584;-0.674010847;0.136400296;-2.309048738;4.518974228;3.027658819;12.17640742;2.46163357;6.986724532;6.935508099;-0.568880966;0.321438392;3.487339691
8.710257556;-0.965276625;2.65489121;6.67851873;7.073692741;0.599183852;3.087220267;0.183047781;-0.407638199;2.769220497;-2.059651033;1.755223423;15.06841134;2.793992358;5.949794265;3.469459215;-2.065541523;0.16634331;3.781330188
7.721399209;-4.542122473;0.891893151;11.18833122;7.541824957;0.31618173;3.759740745;3.420756554;0.193155965;8.203203276;-0.736473444;0.496419395;12.88630352;1.779644705;1.920375159;0.717560218;-4.011668185;-0.75137198;3.205479981
6.521531968;-7.558990126;-2.064834325;12.95342232;7.70207792;-0.320719653;-2.454756812;7.912817773;4.242836666;12.23868703;8.471582742;0.464205139;6.797786072;-0.295664471;-2.349308267;0.37480733;-5.361532395;-1.192025019;2.240141033
5.710776588;-8.317140645;-2.414185518;11.10498616;7.299175856;-0.771306785;-9.789302447;11.17692885;11.27264917;13.80931921;20.97734159;2.867268215;0.754380172;-1.975972388;-3.715099374;3.116087292;-4.776234602;0.202389313;1.716019311
5.230982429;-6.864717272;1.124040363;7.478657762;6.257824775;-0.650779098;-11.74845296;10.9528313;18.22174174;13.07859307;30.52849136;7.646488238;-1.209122124;-1.898135218;-1.070402292;7.885112308;-1.748975096;3.663969266;2.104781398
4.555152405;-4.576231321;6.35297305;5.455688388;4.875603737;-0.060790835;-6.482499654;6.978533594;21.79916926;11.28996599;33.26338679;13.05655066;2.293409053;-0.025885019;3.778267705;12.36298511;2.646545507;7.816193369;3.079002675
3.428446567;-2.743211636;9.604040217;7.521064102;3.874718953;0.507165892;2.124749394;1.589196061;21.02038756;10.00710475;29.96944686;16.64345405;9.236337535;2.242889229;7.540300701;14.40633763;6.174541158;10.48676159;3.763809636
2.435406412;-1.553170008;8.869666008;13.29047458;4.177067055;0.600500709;8.242053275;-1.517472767;17.78202748;10.20649256;24.87816539;16.98112921;15.86003906;3.240257668;8.044039213;13.43944529;6.888013337;10.26225992;3.499932199
2.745677242;-0.305077361;5.430677152;19.49450021;6.39014431;0.183269966;9.133922963;0.306986306;15.03518187;11.74718908;22.0007833;14.78441132;19.38281482;2.485805235;5.901375517;10.74740019;4.553894351;7.549035849;2.463923152
5.124173569;1.52791379;2.729591701;22.02506153;10.24253497;-0.360684477;7.008058212;6.692839603;14.1988675;13.49617557;21.98586121;12.41061732;19.62351485;1.161402806;3.885391447;8.439546671;0.907146013;4.259250861;1.585247934
9.040400627;3.538331989;3.528617367;18.67082916;14.39839796;-0.581514601;6.299205598;14.19315776;14.1187747;14.01903559;22.0959795;12.03572682;18.41115344;1.144475433;4.559869842;7.895121848;-1.523162453;2.368456287;1.80024625
12.75413081;4.693047545;7.698258459;10.67202133;16.96498066;-0.346679344;9.151460933;18.34112095;12.51447117;12.4541105;19.33332017;13.90164335;17.50587123;3.384201701;8.129886657;8.904781451;-1.130979549;2.532190547;3.266385336
14.46691329;4.379359621;12.36037328;2.042569796;16.54779206;0.079293743;13.35282092;16.51383015;8.621918657;9.089212706;14.01570721;16.03342902;16.91579304;6.994416986;12.26247881;10.13184863;1.816094305;3.881946548;5.204952546
13.65640811;3.119973704;14.19305252;-2.877030359;13.2062034;0.303800695;14.58811638;9.639048437;4.580252708;5.288067837;10.51738749;15.68858306;15.03916728;9.851169117;13.96558835;10.41934085;5.645980861;5.094007064;6.49885596
11.43623518;2.204590298;12.05962217;-2.026550735;8.568370456;0.15938181;10.84153349;1.535975154;4.099962986;2.740212425;14.09568349;11.44600114;10.43764084;10.22069634;11.93289667;9.788634167;8.657247116;5.730220136;6.52206105
9.533931429;2.534617696;7.958656434;3.251907351;4.876643035;-0.177486605;4.763762663;-3.646702543;9.30414744;2.414330141;26.05865831;4.36681148;3.649737645;8.088583979;7.463180699;9.290220669;10.21293345;6.644630822;5.496196383
8.676677674;3.753528087;5.599958885;9.201102919;3.5440246;-0.386037153;1.646990022;-4.062409927;18.35180661;3.858117244;41.25110126;-2.585008987;-2.56645006;5.134505023;3.335445544;9.899502906;10.73816658;9.109766804;4.115496799
7.78651605;4.504499961;7.630301805;12.03120545;4.267735631;-0.309214752;4.690593784;-1.01229173;26.01024798;5.379027368;50.37191445;-6.34802077;-4.856065359;3.438762661;1.72056607;11.50021521;10.84535973;13.47679765;2.84623074
4.81551849;3.635355581;13.43951867;10.18889367;5.414539477;-0.077507964;11.85054617;2.481782921;27.02949015;5.122333273;45.9643321;-5.461649037;-1.5360999;4.021916547;2.885390593;12.91938324;10.5624194;18.61425092;1.585542607
-1.306064515;1.305896876;19.04951544;5.182171889;5.434788625;0.051329692;17.33103425;4.139886638;19.8726197;2.415544719;27.89663395;-0.59279775;6.187454244;6.359280057;5.595971235;13.03335074;9.441759362;22.68586758;0.002603958
-9.168117195;-0.967467181;19.23132011;0.574419613;4.209830767;-0.037874093;16.68159976;3.948112502;7.977956567;-1.556660781;4.236886944;6.172734315;14.88136933;9.104105142;8.589181863;11.97739035;7.400353129;24.63132852;-1.786845091
-15.1862425;-1.363332145;10.62379741;-0.157463484;3.21465714;-0.208546162;11.08417527;3.604304105;-2.409259814;-4.332358668;-13.33457036;12.50273498;20.83414471;11.2354613;11.63699673;11.33254631;5.369067838;25.06029371;-2.921751951
-15.72919045;0.983838089;-5.965870069;4.382787968;4.276759305;-0.2275886;6.815944215;4.487916823;-6.21710653;-3.742548894;-16.49527078;16.63910775;21.89007813;12.60098062;15.26589396;12.99273487;4.947327512;25.74050711;-2.281727113
-9.632329685;5.494777687;-25.45186669;12.76457567;7.858397855;-0.025936795;9.891218377;5.9939667;-2.482773358;0.552796432;-4.927797101;17.64590769;18.10228824;13.50208527;19.54299244;17.53950366;7.176390772;28.05223356;0.547549779
0.729397579;10.65546203;-40.7276639;21.55247668;12.25395289;0.200201063;20.17172269;5.774589705;5.620515959;6.65465042;14.2214286;15.41478043;11.17018964;13.89678731;23.23422455;23.42;11.42736671;31.66814562;4.63079583
10.63604413;14.90417635;-46.16502993;27.12510063;14.45646616;0.160065918;30.07250145;1.813214079;13.2618015;11.49078206;31.18747403;10.74623646;3.416888297;13.11650907;24.28007813;27.63920685;15.42857225;34.54750533;7.98209914
15.69369299;17.11663485;-40.48628863;27.42250419;12.17085862;-0.240875184;29.48523282;-5.367506345;16.87369501;12.6706267;39.11180592;5.381732209;-2.959732944;10.44559657;21.28946421;27.5231003;16.56887506;34.26809744;8.695694118
14.1945123;16.51788514;-27.39327952;22.70440419;5.533140756;-0.767182563;13.46144481;-12.32546822;15.5947774;9.885458321;36.78726702;1.57786257;-6.229027019;6.036593744;14.7811252;22.32555045;13.56444078;29.66922637;6.123233035
7.714255126;12.53917672;-13.52619761;15.06420417;-2.733922981;-1.018224594;-13.27698856;-14.72553713;10.83105511;4.956801701;27.6968834;1.10218916;-5.402270624;1.255357933;7.082686399;13.62696711;7.266011271;21.59970208;1.258256501
-0.186810942;5.164812724;-4.856714061;7.182243137;-8.86663616;-0.759699216;-38.68998919;-10.39526833;4.948551321;0.610411044;17.03202108;4.168606663;-0.663033465;-1.98231569;0.940557938;4.400287602;0.065163388;12.33732745;-3.90730724
-6.057030748;-4.372696611;-3.594882337;1.150193626;-10.23353149;-0.131563873;-51.09134921;-1.088690126;0.279951211;-1.098297616;9.086388345;9.153752618;6.324044889;-2.434718813;-2.044685878;-2.493210632;-5.568330525;4.261146482;-7.536351997
-8.063362529;-13.37170286;-7.432675175;-2.030974698;-6.68436008;0.454056115;-46.54011821;8.483525348;-1.273050572;0.322677224;6.156914902;13.50017558;12.76496722;-0.364432252;-1.994426005;-5.425874984;-8.320855529;-1.223968391;-8.794662698
-6.258215006;-18.61743175;-11.51342055;-2.263750485;-0.308200992;0.638617545;-30.66344469;13.7440852;1.415515801;3.98375862;8.451487137;15.28542827;15.92074281;2.665221596;-0.118392054;-4.305804092;-8.297671508;-3.933129721;-7.929260079
-1.919316554;-18.2419193;-11.77634651;0.063570515;6.017491927;0.385910515;-13.9617626;13.22405276;8.013339507;8.465473085;14.11152905;14.32043039;14.55902588;4.827366621;2.328801162;-0.276499084;-6.441335295;-4.506727936;-5.752894439
3.279127308;-13.20925628;-7.449913773;4.26058106;10.18505477;-0.029059654;-4.488613339;9.279367729;16.19349446;12.60641836;19.38048126;11.94581145;9.687073288;5.077130855;4.527732927;4.740217338;-3.820318649;-3.95597512;-3.084604378
7.788696763;-7.106969773;-1.102398321;9.238040154;11.5880326;-0.281512364;-3.36949702;6.131350073;22.21290981;15.79334074;19.80049772;9.737368033;3.948803692;3.480592099;5.796641568;8.475778297;-1.348908157;-3.47680296;-0.541892884
10.46489683;-4.070686159;3.604053628;13.50738138;10.86403969;-0.263919654;-5.932011816;6.80419043;22.88890846;17.85632533;12.78715941;8.235905257;0.013181687;0.774409667;5.188704665;8.86937123;0.126777468;-4.34389743;1.371869575
10.85945863;-6.155109738;4.700204305;15.64796488;9.163573904;-0.127329837;-6.693169036;11.24043121;17.85873836;18.92344596;0.259665864;6.774864264;-0.950924334;-2.287373211;1.768610988;4.854080803;-0.141760379;-7.521466529;2.2231966
9.503807573;-12.04172478;3.173274648;15.13344225;7.553163742;-0.085531409;-3.787843415;16.81345181;10.26589299;19.3930361;-11.08132453;4.494664765;0.325431029;-5.213233866;-4.433532915;-2.91610015;-2.388364366;-13.00108248;1.845607155
7.818063134;-18.07276084;1.860436488;12.88094893;6.766937714;-0.187500568;0.468603315;20.55072869;4.904761226;19.85060797;-13.1805276;1.557944641;2.119209352;-7.590748935;-11.69307393;-11.99364849;-5.842536506;-19.3978511;0.600396573
7.375402326;-20.87042714;2.948345985;10.86645461;7.129360756;-0.278619144;2.603056245;21.17618097;4.877287577;20.71984437;-2.244675351;-0.620536847;3.142148438;-8.845230874;-17.05444441;-19.08700405;-8.792803414;-24.39266425;-0.666522313
8.816975851;-19.60809064;6.10159911;10.80025659;8.457879888;-0.178755655;1.428917457;19.46652466;9.273153097;21.77409588;17.37258019;-0.434639219;3.380159673;-8.36533213;-18.00256097;-21.6929058;-9.463763353;-26.00698482;-1.110869184
11.2255618;-16.30224184;8.722413154;12.72007813;10.03332522;0.106938579;-1.135264523;16.95186358;13.84562848;21.97757819;34.51846843;2.453330743;3.792096706;-5.981465374;-14.19487918;-19.44499673;-7.204151749;-23.90935953;-0.507883861
12.63454508;-14.03856575;8.162655752;14.67100407;10.89196909;0.359325398;-2.231255956;14.33278519;14.33727158;20.0271865;37.83281249;6.579447666;5.24636674;-2.348137105;-7.831433237;-14.25211394;-3.045833995;-19.72305808;0.535188859
11.51941987;-14.58882715;4.158798667;13.98465487;10.47267397;0.336017641;-0.875400992;11.04780434;9.866795118;15.39023685;23.476089;9.642102118;7.624328624;1.206787522;-2.214913489;-9.076357899;0.929741814;-15.95408048;1.041102591
8.222350866;-17.21914181;-0.473543044;9.42447134;9.216935287;0.004061133;1.265607875;6.257907277;3.58530675;9.06484259;-1.532471095;10.22152424;9.792601319;3.348674996;0.480923626;-6.154969274;3.034111579;-14.23619677;0.495282319
5.108866389;-19.44669597;-1.583117868;2.598656116;8.539101271;-0.409794789;1.720172565;0.201352236;-0.028438008;3.315430527;-23.157949;8.803206769;10.39878065;3.439475797;0.516022912;-5.857148565;3.126461464;-14.20569144;-0.630176644
5.110784826;-18.98675682;3.260339143;-2.634322618;9.954717294;-0.608171714;-0.23204927;-5.442622388;0.943301366;0.366520879;-29.08792567;7.206481289;8.817857449;1.765854283;-0.040741139;-6.878664988;2.559905054;-13.90576484;-1.150724833
9.575512001;-15.35146127;12.55543003;-2.621214199;13.8557915;-0.483025016;-2.79244782;-8.624430248;4.041262895;0.922625483;-16.46504811;6.89169973;5.541858545;-0.803053468;0.701873043;-7.498553718;2.965153652;-11.45182018;-0.092173106
17.0012612;-10.02579557;21.15890439;3.411521982;18.85368832;-0.206971076;-3.389087042;-8.56075928;4.302393448;3.643450478;6.633067314;7.622661151;1.809542317;-3.360058594;2.784673853;-6.909363326;4.871434154;-6.686363386;2.450043945
23.69236685;-5.333123801;23.05493151;12.46381845;22.32252988;-0.06884681;-1.239157771;-6.517824786;-1.615683822;6.036459848;26.75304611;7.69459509;-1.150503102;-5.256658743;4.41842555;-5.694493744;7.290372835;-1.532752064;5.223388493
25.97666109;-2.999616145;14.91526013;19.46553213;21.90924825;-0.202604257;1.768253384;-5.002802118;-12.41635012;6.128692508;33.56568397;5.593060996;-2.691071204;-6.043158198;3.630827116;-5.241026302;8.573192712;1.249422833;6.617455137
22.4548861;-3.406364815;-1.769235902;20.48704003;17.00107697;-0.459464927;2.80308923;-5.944656842;-22.75768247;3.661691823;25.5141931;1.668907825;-2.817445283;-5.335563965;0.110909464;-6.642647377;7.790654647;-0.016289578;5.760107093
14.72466955;-5.784333463;-21.28936311;15.19627111;9.109923884;-0.543526707;0.894678452;-9.281944522;-27.03007813;-0.038826944;9.345089178;-1.681654019;-1.869714081;-2.930158532;-4.309466932;-9.904387907;5.479253389;-4.743968135;3.084008466
6.16431289;-8.891250828;-36.65157055;6.823054739;0.912494642;-0.288793749;-1.834845367;-13.04165527;-23.31884236;-3.265128666;-5.21375834;-1.632466049;-0.163344989;0.860703415;-6.917212553;-13.91531039;3.171505343;-10.46697193;-0.039516008
-0.225815246;-11.56824346;-43.07631707;-0.252469509;-5.329092352;0.176206535;-1.796222939;-14.79928376;-14.47326901;-5.100048828;-11.35141035;2.879450561;2.147922038;5.035417648;-6.047638659;-17.07441897;2.163409027;-14.42718556;-2.273214746
-3.340706763;-12.95408012;-40.07763592;-3.415723808;-8.833876277;0.529331069;2.893962574;-13.36139947;-5.631874155;-5.602791687;-7.863622381;10.14748218;4.974284364;8.238727628;-2.113934041;-18.09570712;2.57438863;-15.18887513;-3.128403503
-3.913898579;-12.54301632;-31.11598086;-3.092626955;-10.20418509;0.532660239;10.50721076;-9.440520919;-0.406753184;-5.045497607;2.089168692;16.73868501;8.124885557;9.505151746;2.99017369;-16.55513108;3.437751587;-13.20140073;-3.045389233
-3.25362398;-10.31152588;-21.28863635;-1.644596789;-10.45899017;0.237208455;16.86403753;-4.97927471;1.163159619;-3.166758233;14.01470974;19.83017823;11.23979693;8.868981923;7.44731689;-13.0084187;3.645706191;-10.10612561;-2.790681722
-2.01541923;-6.867695702;-14.57018803;-1.065998245;-10.11826735;-0.069131552;18.67084877;-1.829452507;1.480847781;0.611845611;24.25618342;19.06584414;13.86283595;7.319698686;10.63925823;-8.735398358;2.877497726;-7.484534446;-2.750549671
-0.035767099;-3.374022558;-12.16889566;-1.522113065;-9.071705879;-0.120919966;16.15965365;-0.84500363;2.425028265;6.054170182;30.34658206;16.55885048;15.59359008;6.09809588;12.968287;-5.245029123;1.739180088;-6.007511669;-2.710785039
2.80210459;-1.12293205;-12.70450084;-1.871769945;-7.183330175;0.094258645;12.69892239;-1.907913944;3.329409054;11.18261426;30.57963576;15.12591527;16.22963074;5.891714922;14.75678033;-3.689816338;1.091461013;-5.470039063;-2.23937671
5.65032873;-0.975633726;-13.75493665;-1.471064517;-4.916066884;0.340433618;11.69866349;-4.540559326;1.67144678;12.77470335;24.23123178;16.17;15.83366623;6.570825374;15.4297823;-4.387939566;1.239913155;-5.451392223;-1.263132034
6.746350345;-3.042364281;-13.5921968;-1.3694217;-3.284993202;0.362745539;13.57327978;-8.349468327;-4.236923386;8.392238743;12.59365816;18.79714225;14.69285681;7.610579249;13.86387196;-6.692431027;1.708228782;-5.926589115;-0.292766553
4.568120431;-6.785135765;-12.02157136;-3.549144008;-3.115555185;0.126951059;15.54226477;-12.89469653;-13.01046205;-1.400712967;-0.440029297;20.70591059;13.17872439;8.721043056;9.63707139;-9.342352488;1.727696605;-7.322805871;-0.088000052
-0.800398361;-11.35228635;-9.994995493;-8.697467037;-4.27630615;-0.151645055;14.53646733;-17.28107875;-20.43299071;-12.4881284;-9.521659011;20.02829425;11.5798407;10.04436573;3.996048319;-11.15031567;0.931269943;-10.03575178;-1.048304511
-7.279362233;-15.79521466;-8.524994016;-14.53819446;-5.641819893;-0.214163469;10.60189824;-20.12263071;-22.09;-19.16050584;-10.5223358;16.69305906;10.03049061;11.74308616;-0.488728951;-11.60896427;-0.381439163;-13.84796312;-2.842690746
-11.85173841;-19.04599929;-7.80675953;-16.56414665;-5.928660852;-0.006500213;7.537448541;-20.1958845;-16.3571406;-17.55015787;-2.973906441;12.4054518;8.619192877;13.45596352;-1.497783244;-11.00148982;-1.580260524;-17.72824854;-4.582673087
-12.40156271;-19.90782055;-7.160058594;-11.10610123;-4.764111182;0.261314738;9.784871006;-17.38724621;-5.529428276;-8.246549303;9.585191306;9.449453264;7.607375725;14.29053169;1.417317032;-9.950388313;-2.244818667;-20.18359834;-5.398681101
-9.02;-17.40022055;-5.712553768;1.435737061;-3.082121644;0.302501318;17.94821423;-13.12630121;5.554360329;3.79970369;21.67863237;9.303847136;7.528882793;13.52299779;6.480356756;-8.785162383;-2.374916171;-19.9543602;-4.977999951
-3.842595461;-11.44434203;-3.198215905;15.87003906;-2.446024116;0.019027183;26.8471224;-9.795150127;12.17771184;12.12531483;28.84874675;11.99422495;8.955711315;11.42705644;10.93652773;-7.265640247;-2.126253286;-16.64679285;-3.688389383
0.428353806;-3.382610109;-0.225821788;24.9793654;-3.770212309;-0.396024075;28.24445416;-9.393258375;11.84667171;12.47424877;29.44273693;16.39850767;11.97496131;9.386560192;12.95824003;-4.893369124;-1.429946212;-10.9617431;-2.254714939
2.214688857;4.273716075;2.156491879;24.0790849;-6.434198649;-0.614221847;16.64163402;-12.35641679;4.828670935;4.954412706;24.35505128;21.04618409;15.75658774;8.993908883;12.75568384;-1.520150391;0.033479956;-4.414456765;-1.277316017
1.78361895;8.972223461;3.218321593;14.14003906;-8.517688709;-0.449419779;-6.142598678;-17.35156464;-6.531582814;-6.612550619;15.60281723;24.79459659;18.68212401;10.76583212;12.08883086;2.313518158;2.419600853;1.298754661;-0.939304688
0.61607264;9.47979258;3.0356466;1.13933979;-8.03971493;-0.013593939;-31.23806724;-22.15574756;-18.80234243;-17.41032039;5.326081703;27.08956081;19.16717962;13.57194302;12.6418226;5.637994817;5.272143639;4.964323055;-1.045855924
0.060329168;6.509691439;2.382728156;-7.968768411;-4.325496597;0.382003047;-47.901586;-24.95841857;-28.30158208;-24.39690584;-4.076673012;27.90549922;16.7282972;15.3734151;14.57032937;7.68546769;7.549517084;6.216524858;-1.275529527
0.358670027;2.110520362;2.17296278;-9.781460683;1.465444726;0.487567791;-50.00694454;-25.20189509;-32.01329826;-27.37924962;-9.47265713;27.57140896;12.49288812;14.76776384;16.32171942;8.308390344;8.219223367;5.439751729;-1.412260274
0.717277738;-1.756009167;2.889183128;-6.268993707;6.99367032;0.3074455;-39.33918366;-23.52047556;-28.81151507;-28.09520173;-7.54898303;26.55224764;8.614382427;12.08235095;15.78815498;7.795687554;6.964918457;3.313320908;-1.415225193
0.201837797;-4.385326646;4.366309256;-2.755581899;10.08504353;0.064952072;-23.66826437;-21.03754375;-20.47927478;-28.4120087;3.231008407;25.15272039;6.843882276;9.065724062;11.84821363;6.286957958;4.396248805;0.326548768;-1.352240087
-1.384437357;-6.402117238;5.974453867;-3.774652642;9.850330865;-0.01351122;-11.39531921;-18.66121536;-11.45241039;-29.09980336;20.56620658;23.21955744;7.242777188;7.394246113;5.148103941;3.416992288;1.560889702;-3.397154084;-1.315271176
-3.377331147;-8.797413492;6.99507769;-9.946137944;6.913497911;0.106437794;-6.743260372;-16.8408263;-6.745429153;-29.86029652;38.15088455;20.10271691;8.05763842;7.25300749;-2.35568588;-1.347918088;-0.829357889;-7.870835631;-1.399173174
-4.925316336;-11.83072103;6.95890157;-18.01731558;2.754311609;0.261480002;-8.521032019;-15.75543029;-8.969911656;-30.18547836;48.29173442;15.09898176;6.979952757;7.231528657;-8.627141013;-7.888892074;-2.794465562;-12.84877304;-1.725771728
-5.823219201;-14.75147895;5.842701309;-23.67362874;-1.262010176;0.262409537;-12.49834433;-15.56601121;-16.48491029;-30.10025874;46.04835928;8.239487551;2.936032074;5.660973572;-12.61187419;-14.89746919;-4.788726475;-17.66039684;-2.440785609
-6.756021278;-16.53318658;4.109496977;-24.709857;-4.505983917;0.073594111;-14.92321525;-16.43139675;-24.29506013;-30.18853209;32.22339986;0.862948343;-2.942541989;2.249147502;-14.46197733;-20.27875748;-7.029831646;-21.48131833;-3.643746524
-8.721895617;-16.91205901;2.554061542;-22.16910056;-7.057449204;-0.163792145;-14.51873945;-18.31723871;-27.37477547;-31.04724206;13.09692011;-4.629901616;-7.968777747;-1.439209142;-14.96731925;-22.37916785;-9.111838901;-23.84586316;-5.286990119
-12.10432366;-16.76607612;1.911493883;-18.91590154;-9.214921824;-0.273732026;-12.12947487;-20.85653465;-24.11899983;-32.75811666;-3.015025224;-5.942424411;-9.745187888;-3.146218748;-14.78252709;-21.13582964;-10.284842;-24.93498802;-7.124299499
-16.16649952;-17.46657314;2.345355765;-17.17088867;-10.97865917;-0.208154951;-9.18181645;-23.43735579;-17.32257562;-34.80772738;-10.16554512;-2.332852213;-7.827498196;-1.786498728;-14.04840944;-18.16981089;-10.14872239;-25.31623955;-8.767042559
-19.40827171;-19.74092793;3.176615896;-17.12679181;-11.86260042;-0.076144014;-6.608498924;-25.42536169;-11.89612272;-36.40194676;-7.435877838;4.661061955;-3.936532463;1.583935607;-12.57445517;-15.63056946;-9.101746302;-25.29887261;-9.838396521
-20.53701435;-23.00498881;3.245608126;-17.5529758;-11.112476;-0.020687307;-4.807054632;-26.28618142;-11.06980692;-36.81883885;1.486655732;11.86422575;-0.562630666;4.574254593;-10.2849685;-14.62941716;-8.091308859;-24.48526679;-10.1533728
-19.31811225;-25.71293291;1.897306065;-17.46575425;-8.158834947;-0.071276734;-3.928683035;-25.5199145;-14.03603612;-35.55886828;11.0756569;16.19543329;0.940134509;5.412064896;-7.491017271;-14.49511423;-7.853537336;-22.03234124;-9.828734781
-16.672102;-26.42102141;-0.061940895;-17.1158684;-3.042249578;-0.119343632;-3.664079828;-22.59769111;-16.81101236;-32.36864561;17.09800442;16.40983538;1.284827651;4.409844611;-4.776163677;-13.46630184;-8.315312813;-17.55837508;-9.251312535
-13.98178318;-24.71907966;-0.393991159;-17.37311993;3.401593377;-0.039418019;-2.702068338;-17.17218898;-15.49924942;-27.34789564;18.37687927;13.7153773;2.513505274;3.68975557;-2.633676857;-10.2837645;-8.711479372;-11.99417683;-8.897809123
-12.18017806;-21.38015382;3.109678339;-18.23424048;9.695376087;0.16596093;1.076050979;-9.568752849;-9.272341607;-21.15715876;16.65074286;10.88108443;6.225922935;5.371282146;-1.177035845;-5.413361987;-8.337816214;-7.56358663;-9.083355885
-11.3266966;-17.77106969;10.45463736;-18.10288461;14.18434403;0.34507679;9.012732865;-1.165704839;-0.750700866;-15.06519289;15.10164387;10.4783582;12.20733704;9.727636563;-0.151677356;-0.931545221;-7.282843301;-6.677562101;-9.77932644
-10.94680114;-15.1055407;18.21944755;-14.82375694;15.65619171;0.328597021;19.56451756;5.844604295;6.283421116;-10.56595175;16.51977073;13.44128082;18.52334687;14.84889388;0.782706726;0.815935679;-6.482602833;-10.41282916;-10.63025773
-10.76924901;-14.06903021;20.70167396;-7.774428553;13.858622;0.093677602;27.66776116;9.439917606;9.753741332;-8.64063972;21.88499821;18.82411013;22.94839623;18.08505869;1.738145539;-1.280246343;-7.027653474;-17.68536514;-11.1899807
-11.16882689;-14.85294298;13.28594074;0.851787017;9.645104746;-0.196337484;26.95472968;8.977689507;10.37243212;-9.139249578;29.84051407;24.74093205;24.54718846;18.05985386;2.500717071;-6.53653879;-9.301344497;-25.7958055;-11.23718956
-12.87914337;-17.24967458;-3.992833163;6.976992321;4.620176131;-0.321132685;13.96625554;5.749538562;10.2963175;-10.79795888;37.2940947;29.67192587;24.16823911;15.60068007;2.717479014;-13.14564591;-12.66772081;-32.00584055;-10.93790785
-16.17471127;-20.55778764;-25.36559397;7.382976261;0.417603031;-0.189036647;-8.537411795;2.320395204;10.84422673;-11.98196948;41.02369954;33.17631687;23.53948902;12.87818061;2.209120636;-19.37718817;-15.94147911;-35.00941951;-10.69907279
-20.21725903;-23.47084567;-42.00770274;2.218980954;-2.019023128;0.087606843;-31.99449154;0.950588472;11.42874627;-11.67425913;39.57652397;35.60963961;23.78148696;11.5581029;1.144888731;-24.32726086;-18.20372968;-35.25540659;-10.78624363
-23.20037539;-24.3585543;-47.10385283;-4.811572745;-2.748399819;0.293794897;-46.52903394;2.157145135;10.56802305;-10.00946776;34.29336502;37.23945141;24.56219316;11.55114233;-0.080898299;-27.79505275;-19.26936792;-34.00395951;-10.99745105
-23.3295219;-22.06387756;-39.95739776;-8.942380198;-2.558925809;0.295178994;-46.74;4.484330661;7.860430481;-7.98963013;28.56632787;37.59234506;24.52609696;11.36738815;-1.184094963;-29.69215519;-19.47426372;-32.0002318;-10.69765438
-19.99543602;-16.75731962;-26.19691902;-7.724272157;-2.298492641;0.136504081;-34.80330997;5.721935542;4.945838169;-6.644833834;25.59109599;35.64898985;22.5766243;9.679471556;-2.242282177;-29.72031663;-19.08123441;-28.89447997;-9.266322668
-14.27745601;-10.10268452;-13.82713557;-2.700265283;-2.252493889;-0.028257489;-18.68591124;4.716168222;4.474186902;-6.29764834;26.16299993;30.81785369;18.94428111;6.690039063;-3.582424757;-27.64160463;-17.9225598;-23.83209138;-6.661516829
-8.349454231;-4.382430407;-7.929986294;1.960955728;-1.98219175;-0.098363345;-6.792806133;2.410068359;7.979964671;-6.442225749;28.3184319;23.96669364;15.21101978;4.121910626;-5.301720595;-23.77620085;-15.62699056;-16.59711804;-3.645212031
-4.148233172;-1.061457047;-7.853801448;2.840412299;-0.722101858;-0.121113623;-2.892123072;1.270418927;14.5744942;-6.217495432;29.3240241;17.64090828;13.31927592;3.862514507;-6.777354371;-19.09585526;-12.19110459;-8.220185568;-1.4181671
-2.214481824;0.173866817;-8.818829688;0.018829359;1.947015146;-0.228091735;-4.76138822;3.459802773;21.61007813;-5.012345657;28.50934385;15.07574737;14.34607394;6.430375179;-6.658105066;-14.69059181;-8.304815908;-0.460336356;-0.860871276
-1.508740581;1.125623306;-6.432543026;-2.970101035;5.621963891;-0.478290433;-7.051661013;9.09435944;26.67964351;-2.743933175;28.43229312;18.42646526;17.90693312;10.53667551;-3.557204573;-11.04991695;-5.054403872;5.407677075;-1.922659943
-0.310310893;3.704722346;-0.366861931;-1.970710201;9.138651573;-0.767186435;-5.766598802;15.9199379;29.16050266;0.27000061;32.97715998;27.2695977;22.49855474;14.05678611;2.89133084;-7.840215952;-3.203089141;9.433217082;-3.64
2.462195245;8.483905925;5.757203136;4.377573132;11.15332411;-0.900541338;-0.886131496;20.7152601;30.03505093;3.56387575;43.57164985;38.42252577;26.40860242;15.56569803;11.37466615;-4.414637487;-2.654623214;12.70830391;-4.806218127
6.448943638;14.26511822;8.006772431;13.30059822;10.88253476;-0.772521878;4.488123577;21.4461052;30.38627689;6.613548555;56.66231204;47.40945;28.53740347;15.20482364;19.28597146;-0.580778926;-2.5665106;16.21172302;-4.805277667
10.10227672;18.94213892;6.011835498;19.68079204;8.53878957;-0.480601581;7.222019328;18.62036206;30.18098092;8.776410939;65.03896188;50.85616281;28.70604852;14.2936361;24.10611624;3.121175878;-2.023541269;19.81157514;-3.979821985
11.76253989;20.94360957;3.539372097;19.62718545;5.196521988;-0.259689861;6.69589437;14.8694582;28.57048153;9.353302916;62.65570505;48.38814679;27.46586421;14.15309194;24.9320986;5.914546363;-0.712236358;22.32786659;-3.263590965
10.76171798;20.16473856;5.037881031;13.15064718;2.183835183;-0.283340453;4.888864694;13.07633403;25.34200736;7.950759506;49.51362346;42.77328343;25.69096949;15.15980373;23.0378761;7.567487939;0.933653883;22.61280038;-3.392977021
7.799846376;17.80179657;11.00651384;4.023767729;0.384327054;-0.508149054;4.344349553;14.41281894;21.90275409;4.946605015;32.6104238;38.1012747;24.19950762;16.70328906;20.94598492;8.647051913;2.1653586;20.68498484;-4.342246081
4.409896441;15.405347;16.34928958;-2.919547999;-0.1298113;-0.70624337;6.01998533;17.67116251;20.53390058;1.592095305;21.70048932;37.10678497;23.47934903;17.87766196;20.58499157;9.920205935;2.49582675;17.88359259;-5.424449108
1.974695219;13.99;13.64510749;-4.920844741;0.058061095;-0.663705457;8.802162352;20.28725202;22.35158587;-0.545762298;22.66893424;39.41693588;23.51873127;18.18138144;21.87907725;11.44650072;1.932630238;15.86896335;-5.93189797
1.010311359;13.80336366;-0.819018702;-2.59845337;0.237486152;-0.370799984;10.80297523;20.22154812;25.857745;-0.558743131;33.43463417;41.97263454;23.80088186;17.66018073;22.89092842;12.31254423;0.763815261;15.3322035;-5.737684419
1.144097406;14.67837552;-22.99798374;1.277738157;0.0911329;-0.033555233;11.04954051;17.3064838;27.69105018;1.104159571;45.58143154;41.39440484;23.55618732;16.55603191;21.49155917;11.43462305;-0.775965343;15.5587611;-5.331511801
1.661356364;16.43146266;-42.59936608;4.257456683;-0.145174958;0.104829578;10.07879959;13.16026031;25.28237062;2.821052184;50.56415694;36.63627043;22.23501321;14.97632835;17.30447657;8.81575833;-2.571821249;15.24563509;-5.27587091
2.110711791;18.89963856;-49.5404601;5.845776308;0.030790083;-0.026684979;9.144324972;9.877823877;19.24401285;2.838947608;45.77051285;29.96628816;19.93843667;12.96684253;12.35636421;6.056304701;-4.389808308;13.84125831;-5.595743903
2.506243035;21.70868887;-40.78452956;7.134050073;0.886955987;-0.273451921;8.998107135;8.571942231;13.26347169;0.454957304;35.84;25.45194535;17.46014039;10.84987003;9.789867746;5.420844269;-5.683760205;12.16928376;-5.688486104
3.051547953;24.17840691;-22.46995077;9.028090012;2.125936294;-0.401944988;9.410338714;8.825888887;11.2745147;-3.547196857;28.40291435;25.9577845;15.80969558;9.338882702;11.49817925;8.01899095;-5.810511317;11.69595935;-4.881800964
3.700700817;25.58850764;-5.680483329;10.81382068;2.980898802;-0.309834429;9.708286682;9.316251965;14.10024712;-7.548589022;27.79368511;30.83631083;15.48778777;9.134496751;16.45465613;12.57436012;-4.604313511;13.01707202;-3.168233004
3.967185462;25.58072018;1.036220027;10.40692351;2.679891814;-0.107176856;9.614089912;8.95271549;18.44543194;-10.33875631;31.77940879;36.07843945;16.037586;10.26205458;21.07589403;15.94789984;-2.812388966;14.9153579;-1.43558009
3.157290119;24.27196078;-3.081100037;6.104013888;0.945041465;0.001972329;9.493491588;7.577348761;19.30577228;-11.99368416;33.76832939;36.9240851;16.25077385;11.77300753;21.46365792;15.20418047;-1.873375678;14.9577475;-0.902273629
0.855851404;21.94764692;-11.636153;-1.693277673;-1.835176946;-0.07739714;9.84646165;5.753574081;13.98183398;-13.72416971;28.48827029;31.10904238;14.93554566;12.20999839;15.95985797;9.697034406;-3.021297358;11.33133651;-2.146071254
-2.697156432;18.69587256;-16.68288795;-10.34198652;-4.87831012;-0.236550921;10.67060244;3.992319442;4.394849499;-16.84445821;16.41799117;20.42740554;11.7221952;10.58826568;6.212907512;1.556586146;-6.316739381;4.508272152;-4.507784293
-6.612251518;14.47941871;-14.74583736;-16.66629011;-7.509674309;-0.267595393;11.40236449;2.209038763;-4.319895025;-21.68709367;3.454884894;9.518693114;7.341989791;7.14995864;-3.933200598;-5.780403419;-10.38451814;-2.662200064;-6.405672451
-9.743293967;9.698716858;-8.706631671;-19.21382005;-9.513499066;-0.070222172;11.47557109;-0.074023252;-7.887092475;-27.29484827;-3.703254952;2.819396438;3.20141504;3.269457483;-10.834643;-9.788297423;-13.16223742;-6.665989872;-6.388509898
-11.23136144;5.667450837;-4.531528139;-19.24796729;-11.08699336;0.235774494;10.87148295;-2.996891146;-6.274965322;-32.07851383;-2.557527618;1.903332658;0.573621403;0.550376305;-13.00478653;-10.07819253;-13.18879882;-5.659328396;-4.157278653
-10.89820219;4.279127607;-5.906052422;-19.62861028;-12.47688715;0.404913692;10.07143474;-5.845570801;-3.516893858;-34.88241183;3.804766852;5.016758844;-0.046850073;-0.200956558;-11.4086791;-7.845548675;-10.5196807;-0.7235104;-0.788125293
-9.302618516;6.770882776;-11.2546782;-22.41458367;-13.63355663;0.288189679;9.501200073;-7.341526257;-4.060233134;-35.64306391;9.759445024;8.873571461;0.930799854;0.638310391;-8.213784246;-4.334693191;-6.621658939;4.874875937;2.004901869
-7.46329556;12.41808011;-15.38667787;-27.071975;-14.19319476;-0.019753445;9.12819591;-6.61205586;-8.712589511;-35.22226371;11.79191818;11.11127142;2.547310922;1.986023235;-5.193105213;0.099623284;-3.36490333;7.85708545;3.006090204
-6.402311031;18.3469306;-14.11070199;-30.74221746;-13.81156251;-0.249829545;8.69750712;-4.05316454;-13.70429408;-34.66900727;10.78933207;11.50325714;3.813598308;2.93849689;-2.988728142;5.470292469;-1.878165831;6.96450675;2.203112963
-6.71905855;20.96156083;-7.82177457;-30.43398845;-12.56040587;-0.191270561;8.332422338;-1.283936255;-13.832082;-34.55036762;10.26239683;11.22641044;4.107143136;3.342652365;-1.518295839;10.86198551;-2.059817891;3.470828494;0.605641404
-8.369004722;18.19508537;-1.099182943;-25.48924602;-11.02344574;0.116670187;8.711861961;-0.091421815;-7.169131587;-34.81428246;12.34071749;11.13065122;3.351361294;3.683836196;-0.816458742;13.96177392;-2.96677598;-0.022070486;-0.587877581
-10.72556583;10.97999076;1.230349494;-18.41521496;-9.963705036;0.408257178;10.41;-1.122822938;2.651251686;-35.1255013;15.22827156;10.68214867;2.020634467;4.512136648;-1.3768734;12.35946197;-3.636969543;-1.482920272;-0.792748004
-12.88142972;2.766586336;-1.808578542;-13.37705204;-9.791325447;0.415597558;12.95848609;-3.369320137;8.722443881;-35.23478986;14.44560338;8.514547673;0.988742874;5.95195604;-3.691971559;5.831855729;-3.672304317;-0.666976921;-0.245143665
-14.04178419;-2.650210122;-6.510408268;-13.39524302;-10.24678312;0.100243814;14.74921406;-4.914865166;6.126780703;-35.01683415;6.865356675;4.022228869;1.175667684;7.656130622;-7.522677793;-2.415062523;-3.238103644;1.063158059;0.419008376
-13.82704166;-3.44;-7.598503274;-18.26630611;-10.56900538;-0.310060425;14.28709685;-4.416109245;-3.99195605;-34.22932975;-5.897965877;-1.524396438;3.025359585;9.114004882;-11.6955003;-7.071584905;-2.668750404;1.955182198;0.765170939
-12.36413186;-0.542972337;-2.687869082;-24.70590189;-10.05003906;-0.511233451;11.90985512;-2.153793636;-14.94121315;-32.38609028;-17.73276559;-5.466510343;6.062234393;9.946829935;-14.71700754;-4.132403511;-2.131629029;1.124029696;0.836211344
-10.17089941;3.457105893;5.585299383;-28.60757983;-8.577487969;-0.373279115;10.23868765;0.202961603;-19.39377394;-29.06480011;-21.97127728;-5.589674544;8.900219407;9.947709711;-15.7235935;5.994907853;-1.617408067;-0.982276418;0.952841672
-7.941988209;6.330292841;11.54838985;-27.81419448;-6.768356605;-0.035600044;12.36323932;0.950872232;-14.97372564;-24.53284694;-16.10515542;-1.861382912;9.886600379;8.963289661;-14.96803404;18.17229765;-1.13879334;-3.036744999;1.308100575
-6.351943612;7.466502865;11.04178625;-23.48519041;-5.597155194;0.228103608;18.75209155;-0.275717637;-6.138806899;-20.16311207;-3.699028869;3.354325735;8.10025385;6.891712452;-13.45635368;25.55291268;-0.827766302;-3.714722672;1.754533176
-5.909312962;7.615457507;4.901170542;-19.18312422;-5.780537643;0.247899426;25.44568432;-2.26744584;-0.807320855;-18.12108972;7.951183402;6.84636187;4.047700162;3.901257884;-12.08992787;23.95498939;-0.786816412;-2.383017635;1.952989501
-6.817340705;7.683062177;-1.461246601;-18.3935051;-7.331896825;0.087022018;25.62483487;-3.369309774;-4.271627247;-20.29134122;12.69728752;6.737397518;-0.509413912;0.647527008;-11.05988192;14.49873725;-0.868308635;0.70911028;1.707823157
-8.816930164;7.876931144;-2.18614257;-22.1949713;-9.549976148;-0.043310572;14.15372078;-3.042239607;-15.08514304;-27.02848562;9.454740116;3.704732993;-3.577022404;-1.847527543;-9.952289176;2.667496998;-0.678323253;4.655976041;1.166605543
-11.09911876;7.954415505;4.274430757;-28.5733295;-11.39716917;0.006062681;-7.963750008;-2.484599162;-26.11875982;-36.58168253;2.496159499;0.423488342;-4.124607161;-2.727835635;-8.353526379;-5.407620596;0.113230492;8.2982185;0.716473154
-12.45398903;8.117847648;13.40375936;-33.68890028;-11.99546532;0.184698183;-32.79389624;-3.656666725;-30.01647479;-45.7078102;-1.863550458;-0.256772305;-2.598356241;-1.900187731;-6.324538319;-6.68286712;1.415619812;10.63677326;0.692601999
-11.738758;9.409693187;17.33107377;-34.15308637;-10.96302632;0.300365843;-49.55354236;-7.397359948;-24.91;-51.24767354;0.285216284;2.939057443;-0.395896236;-0.186846211;-4.308175742;-2.405763053;2.685866725;11.19847866;1.162124951
-8.504891836;12.9619669;10.20925577;-28.87291588;-8.483320093;0.211323262;-51.12654659;-12.20486521;-16.05211498;-51.7864132;7.904081168;9.148364313;1.244839411;1.176391894;-2.623980889;3.674478512;3.333366174;10.28039944;1.944809847
-3.404176459;18.67450951;-7.481476767;-19.48513486;-5.175509413;-0.030806318;-38.52671957;-14.88039206;-12.10715105;-48.40451681;15.88607654;16.13479825;2.039926069;1.370103396;-1.109020824;8.32692562;3.25401158;8.924369422;2.801833028
1.977714384;24.64113638;-28.71209574;-9.365289932;-1.892129355;-0.222445403;-20.09803157;-12.8021752;-18.8220336;-44.04485567;18.51927146;21.64499606;2.535365607;0.518579469;0.701637369;10.6955417;3.00958564;8.507935934;3.589547333
5.876293892;28.12221543;-43.95176336;-1.969611748;0.48572844;-0.195745404;-6.005898956;-6.197792831;-34.69941488;-41.85199214;13.13581168;24.45080628;3.272162676;-0.496209213;3.02270642;11.88592529;3.428254782;10.05173417;4.248286826
7.274600325;27.47129829;-46.7875467;0.565816175;1.253117968;0.021796515;-1.952685238;1.427559593;-51.7710254;-43.45851055;1.665410972;24.64222588;4.067933538;-0.769191368;5.464129908;13.14024605;4.900753791;13.59379638;4.685293038
6.395786842;23.42801609;-37.45775404;-1.990009766;0.082157429;0.224945079;-6.449883523;5.293362973;-60.8534263;-48.21187128;-10.68313623;23.31143008;4.119716464;-0.050636557;7.280455777;14.43752133;6.949059752;18.03322917;4.722835084
4.413009428;18.57634135;-22.16356873;-8.23066796;-2.838805292;0.212315919;-13.16081985;2.526317029;-57.53741974;-53.74636228;-18.58069533;21.98312818;2.858673887;1.160195604;8.041931399;14.6714193;8.465043002;21.60039592;4.211154785
2.580321143;15.29652528;-8.885260529;-15.92170718;-6.813088336;-0.03145779;-16.07217841;-5.735510549;-44.82025629;-57.48060603;-19.53461747;22.00404208;0.745041525;2.116813893;8.092757426;12.98924257;8.48403254;22.7195123;3.225675846
1.42304035;13.89204314;-2.638541977;-22.94761488;-10.82490148;-0.31741657;-13.47169951;-14.91589875;-30.81077439;-58.07939329;-14.89060291;23.952497;-0.831441207;2.435830767;8.301958708;9.870367928;6.913381986;20.77816715;2.155580839
0.582832276;12.50836285;-3.22228806;-28.04450858;-13.84770402;-0.414337456;-8.102599821;-19.94569139;-23.36039397;-55.99628694;-8.437300038;27.21438305;-0.613186291;2.286802302;9.253985979;6.898086342;4.654042038;16.38793354;1.556490837
-0.603068217;8.95557963;-6.581399577;-31.06518679;-15.14876127;-0.246165509;-4.064705702;-18.53282931;-25.35673727;-52.85019295;-3.677552736;30.05210766;1.34638388;2.061943096;10.59213075;5.472818423;3.02072223;11.04314321;1.829151958
-2.299904381;2.877773067;-8.374302335;-32.6784194;-14.4867287;0.049453658;-3.374628649;-12.45699853;-33.61047213;-50.16027919;-1.624308738;30.40815909;3.465478398;1.917196039;11.17380731;5.692040103;2.897661769;6.417375511;2.935920905
-3.845420129;-3.643433283;-6.977357218;-33.65507088;-12.16582539;0.248777883;-4.863678418;-6.037798813;-41.59662796;-48.35375677;-0.570262665;27.20112496;3.736551938;1.672542985;10.02068967;6.421276989;4.237136298;3.669850586;4.354287264
-4.196554581;-7.644498988;-3.865874155;-34.16021927;-8.955560952;0.236973593;-5.805861705;-2.99171662;-43.80016666;-46.71085856;2.09412956;21.32693338;1.38679472;1.178521436;7.318399512;6.451201612;6.20629695;3.042701457;5.308813526
-2.80179548;-7.710124849;-1.47268243;-33.54419796;-5.885095692;0.09668453;-4.440618659;-4.017740409;-38.73138389;-44.2046958;7.393093234;15.52814335;-2.239033522;0.763726117;4.591341059;5.647612957;7.790659035;3.846558317;5.147493688
-0.169203216;-5.195753481;-0.58598501;-30.84920899;-3.921946182;0.018216588;-1.179026731;-6.801226343;-29.01612716;-40.53978052;13.50574085;12.96692226;-4.396715014;1.249990914;3.801604072;5.041129285;8.375100302;4.790311786;3.656698825
2.374597044;-3.164038038;0.38184483;-25.72673858;-3.600764993;0.121520497;2.216962344;-8.233559388;-19.10912728;-36.56701972;16.7801125;15.31562416;-2.844097044;3.399492603;5.999004453;5.794284559;7.936936265;4.537024024;1.164484051
3.581941678;-3.910295901;3.554870983;-19.06708709;-4.760351988;0.354272813;4.364326519;-6.986508677;-12.54499687;-33.74475745;14.38652868;21.67079634;2.469881284;7.208943449;10.54935384;8.001190122;6.845622904;2.309049953;-1.599612668
3.137893404;-7.160923199;8.749882677;-12.74657711;-6.575732234;0.55269754;5.231727637;-4.418288316;-10.4582432;-33.05313129;6.682704316;29.10936011;9.225845037;11.67947283;15.54556724;10.41200905;5.541596502;-1.695686374;-3.815468507
1.793039437;-10.44071027;12.26573043;-8.523063479;-7.950307835;0.598754173;5.690350811;-3.197848145;-11.82762745;-34.1924825;-2.527664825;34.53192507;14.23200081;15.34301588;19.09752246;11.34383176;4.359282774;-6.306082525;-4.921169898
0.681103789;-11.23653008;8.841043032;-6.827132694;-8.099051984;0.521888907;6.392408921;-4.866180206;-14.67702929;-35.68483437;-8.15972737;36.48140055;15.49313697;17.19495194;20.5328046;10.00737049;3.539958629;-9.869307028;-4.848198487
0.38829548;-9.068047871;-4.24235405;-6.412157761;-6.977928626;0.452325791;7.204155661;-8.360670916;-17.15766358;-35.81933998;-6.964648238;35.66715473;13.3343561;17.31340154;20.6388702;7.145601459;3.289925155;-11.02709959;-4.019625083
0.530102096;-5.721579601;-23.97101034;-5.27463386;-5.268343503;0.477145705;7.651820806;-10.70623669;-18.01738317;-33.76485181;0.569933468;33.95034442;9.82890316;16.67176648;20.83073608;4.489004902;3.745014094;-9.362580506;-3.083561775
0.153586467;-3.551985792;-42.15722874;-2.281283394;-3.914448312;0.543153016;7.727489602;-9.319822981;-16.696931;-30.08285406;10.76902795;32.7255164;7.090493452;16.29715711;21.92444547;3.50515366;4.856520552;-5.545897395;-2.505511703
-1.407397296;-3.436437749;-49.99652886;1.707579848;-3.53489762;0.504905257;8.082804648;-4.097412895;-13.47353011;-26.35201043;19.18442155;32.00991334;5.801847994;16.45455759;23.43459103;4.423551134;6.332915011;-0.915623826;-2.266470833
-3.95712591;-4.200331643;-43.77241112;4.172517565;-4.127647237;0.275860183;9.363621627;2.347171877;-9.643274061;-24.2567304;23.03607312;30.84872057;5.05309181;16.5048494;23.8697283;6.194141044;7.733277693;3.204137284;-1.892480019
-6.610125264;-3.957108351;-27.64135651;2.627095014;-5.258195108;-0.062081685;11.39688691;6.444304109;-7.277209745;-24.79267512;22.09483308;28.49618146;3.45402169;15.52619722;21.76720988;7.261340261;8.66419583;6.011703106;-0.837177819
-8.525333888;-2.070448944;-11.24482965;-3.510904991;-6.537687098;-0.302544629;13.12754657;6.035523983;-8.216393916;-28.01488612;17.84098475;25.2292823;0.489241787;13.17186395;16.73800578;6.49419475;8.937845454;7.311561776;1.03217977
-9.544262561;0.088717313;-3.567351164;-12.2830001;-7.970411591;-0.283866929;13.43941304;1.557266309;-12.69999425;-33.26107953;12.04049977;22.08021866;-3.014159479;10.06579367;9.85910262;3.681116896;8.596462158;7.275159807;3.218384624
-10.18328562;0.298244823;-7.274481658;-20.33888614;-9.874466446;-0.036110483;12.08231367;-4.717625956;-18.67949655;-39.47675303;5.997229715;19.81038435;-5.622890752;7.429211418;3.215355529;-0.533267954;7.83498947;6.190181011;4.85833917
-11.01371386;-2.48546256;-17.51377844;-25.07422284;-12.45501026;0.228852347;9.815022644;-10.57076039;-22.70007813;-45.3823413;0.731601219;18.14707997;-6.542739805;6.243948451;-1.109223151;-5.015798688;6.92016899;4.414644987;5.314702099
-12.00642256;-7.061046411;-25.92183557;-26.17477101;-15.4176757;0.283372686;7.676284457;-15.2298025;-22.12708183;-49.57172083;-2.702186018;16.04505412;-6.297544277;6.593938547;-2.040961941;-8.553328681;6.149258831;2.470779781;4.655801271
-12.44636866;-10.85627976;-26.7579226;-25.41221277;-17.98397232;0.067696421;6.178631326;-19.19205402;-17.25241157;-50.81184464;-3.568975001;12.76917242;-6.28565601;7.646870202;-0.02958114;-10.23436329;5.796627929;1.035154986;3.630237039
-11.51525519;-11.98624054;-20.60171066;-24.88854138;-19.33106503;-0.263968051;5.250854619;-22.84154101;-11.54348041;-48.60478328;-2.30416332;8.806862806;-7.604109832;8.23168086;3.179856766;-9.806001743;5.991916395;0.688355721;3.12153387
-9.044497157;-10.69090297;-13.05244232;-25.15520719;-19.11856791;-0.471626142;4.886124359;-25.2925657;-9.458349694;-43.66995206;-0.791886872;5.728844912;-10.11796062;7.555562766;5.427521242;-7.859682906;6.584017766;1.574845007;3.492418733
-5.777624997;-8.914972464;-9.774629523;-24.75042232;-17.69524899;-0.420528785;5.606625648;-24.69213775;-13.13304919;-37.84356171;-1.253424118;5.033124294;-12.52860224;5.579928134;5.263655728;-5.586342823;7.145948375;3.293729272;4.341433128
-2.893996382;-8.452747031;-11.97587906;-21.57172477;-15.85180917;-0.17588907;7.994558733;-19.90017359;-20.38330511;-33.22811694;-4.284700458;6.914792982;-13.37989742;2.891937672;2.724238104;-4.052002766;7.218207339;5.192020111;4.877335467
-1.175754236;-9.340139794;-15.8444962;-14.997268;-14.35268222;0.067832337;11.6235287;-12.14482587;-25.78648418;-31.04103438;-7.767604179;9.996274841;-12.20590805;0.270877766;-0.734301258;-3.40589153;6.675171945;6.870163498;4.611401292
-0.50254058;-9.917469442;-16.139731;-6.989744594;-13.61597507;0.149151068;14.64434516;-5.063699674;-24.41246848;-30.9687224;-8.061388454;12.25097289;-9.934629425;-1.712972935;-3.188581001;-2.693835009;5.919450222;8.4723902;3.79383945
-0.07592111;-8.462440667;-10.76153509;-1.142480016;-13.7132024;0.050548359;14.92516019;-2.720918406;-15.63957753;-31.54660692;-3.019258501;12.36834145;-8.249568457;-2.854931357;-3.543754451;-0.615655785;5.672292431;10.47735551;3.221622471
0.842938098;-4.882334184;-2.458886317;-0.23230045;-14.53886096;-0.124567201;12.11504517;-6.83798015;-4.142069121;-31.31431167;5.513988179;10.49471225;-8.392288586;-3.23800415;-2.293472367;3.22520333;6.441600652;13.14031054;3.567762775
2.318807387;-0.918103387;3.649426765;-4.082387293;-15.87470777;-0.2660542;8.701471199;-15.26915466;2.971279112;-29.85870961;12.15037983;7.878506859;-10.27586764;-3.061209658;-1.136900619;7.611490069;8.064930938;16.08471913;4.790937693
3.755261467;1.332173966;4.512606034;-9.415463012;-17.26597717;-0.345698907;8.53478464;-22.99898609;1.042618888;-27.9228066;11.62159465;5.87894346;-12.52266329;-2.501536325;-1.641432987;10.31505492;9.738715342;18.45902293;6.127722374
4.482548141;1.243455643;1.700600848;-11.94184544;-17.93226719;-0.404084953;13.41117003;-25.15234101;-8.701655536;-26.52305759;3.114572504;5.226366566;-13.37433488;-1.658936377;-3.914554396;9.748573342;10.5856031;19.59327216;6.686321271
4.377558331;0.196672807;-0.110460118;-9.252647325;-17.01338877;-0.467201626;20.41239419;-20.02208266;-19.75177867;-25.86444654;-8.289572178;6.016073635;-11.84253627;-0.581848286;-6.354425624;6.405603602;10.34890483;19.61742063;6.15588614
3.968964338;0.316992038;2.612829076;-2.45315307;-14.16168947;-0.492329732;22.72567532;-10.06405798;-24.65322293;-25.04103005;-14.71747946;8.132660608;-8.353957224;0.644708597;-6.791439057;2.803037598;9.642191792;19.47567275;5.047998614
3.952189158;2.516041932;8.992591125;4.631360848;-10.07047517;-0.406903068;14.14831524;-0.233389718;-20.04581961;-22.85279812;-11.20570418;11.42958431;-4.516955821;1.790754016;-4.225096218;1.759833064;9.50466682;20.25477941;4.27960613
4.562905461;5.560019531;14.37169151;8.086282087;-6.395301969;-0.202846024;-5.73583947;5.120078125;-8.840543386;-19.08658737;0.296864847;15.38686212;-2.205404755;2.438864599;0.211747457;4.261553301;10.5835175;22.3425135;4.453670424
5.375181729;6.996136562;14.4297885;6.48;-4.898483152;0.015707547;-29.8591043;4.665197332;1.926629946;-15.13965813;11.94476928;18.71069021;-2.545571475;2.098174029;3.923456658;8.648060476;12.60245869;25.11608607;5.430175267
5.705973688;5.162785954;9.291517375;1.590097656;-6.291020242;0.095092221;-47.35769945;0.31245278;5.887389745;-13.34288218;15.56748212;19.61597334;-5.393223067;0.472069633;4.74833228;11.89260687;14.5671824;27.43776254;6.513641851
5.265722841;0.591319966;3.958252302;-3.106427884;-9.620739959;-0.038348735;-50.43410409;-4.620207593;1.29906718;-15.39962476;8.685863485;16.96067933;-9.548342941;-2.274812614;2.630971259;12.02652618;15.55081102;28.54767186;7.055964291
4.471924596;-4.348977446;4.362650729;-4.952710124;-12.77251446;-0.298781797;-39.47881975;-7.776908956;-8.484129141;-21.11795064;-3.657967095;11.44746473;-13.50874894;-5.477171094;-0.301853344;9.735290222;15.40438444;28.58925132;6.943558362
4.131378132;-7.21586482;12.06119969;-3.777255918;-13.84357962;-0.493627875;-22.59768327;-8.977710171;-17.96336752;-28.42793463;-12.72794827;5.716402367;-16.27565837;-8.266476504;-1.416026644;7.748792932;14.78843888;28.31202847;6.57746091
4.743925277;-7.186298306;21.95648197;-1.596104777;-12.44263453;-0.47439112;-9.860973054;-9.63659783;-23.35981203;-34.6814217;-12.65077568;2.856370721;-17.74276907;-10.05679537;0.271089065;8.457947868;14.49898845;28.22354687;6.419024633
6.012331149;-5.356980683;25.24729364;-0.760697971;-9.93820874;-0.258913954;-6.597034483;-11.12040309;-24.52806973;-38.24648365;-4.649882982;4.202464729;-18.49226941;-10.87887737;3.173149031;11.72073729;14.67818317;27.97520436;6.541713334
6.977144396;-3.579577266;15.71167538;-2.07696344;-8.430434751;-0.017005226;-10.66540184;-13.44649563;-23.88948157;-39.23735963;4.230853912;8.11427498;-19.19919075;-11.28944019;4.253279757;14.74588292;14.61704766;26.59333322;6.585719358
6.678573154;-2.954850454;-5.317516811;-4.335401486;-9.190058594;0.071597078;-15.38093417;-15.26524784;-23.7601943;-38.97311017;6.749991834;10.89690359;-20.07640014;-11.89569101;1.360029297;14.25663456;13.35648625;23.42421487;6.121195961
4.820625978;-3.25127223;-29.11046818;-5.534550143;-11.73499781;-0.034088862;-15.31887717;-14.98506731;-24.48464272;-38.77119143;0.93316534;9.405284408;-20.73454524;-12.85241154;-5.035737946;9.218683322;10.59411048;18.98259373;5.058554399
1.929407388;-3.571127168;-44.87915929;-4.765388461;-14.23888914;-0.208250024;-10.23080473;-12.06433563;-24.76554948;-39.10500288;-8.822101259;3.437859851;-20.52695779;-13.73215271;-12.07411824;1.887016481;7.114604855;14.89137367;3.730577426
-1.072603387;-3.470331862;-46.51889081;-3.234167527;-14.94508849;-0.272314244;-4.251091727;-7.497348624;-23.53847608;-39.68401929;-15.60596872;-3.974013467;-19.10680633;-13.8757425;-16.53087659;-3.732686196;4.344361654;12.8270191;2.601987137
-3.48606904;-3.433188175;-36.01823663;-3.565753103;-13.49003906;-0.148836748;-1.654911576;-3.232589419;-21.46;-40.13458124;-15.51462322;-8.713309732;-16.78065339;-12.93238103;-17.04731745;-4.799516364;3.369523374;13.25442296;1.91086618
-5.141850945;-4.304650615;-21.3627357;-7.825119558;-11.12906073;0.078615983;-3.129811562;-1.04312915;-20.58040037;-40.47978748;-10.41834367;-8.563736802;-14.39842999;-11.13690968;-14.84920201;-1.600534764;4.217355179;14.99957254;1.583308793
-6.203022072;-6.283316835;-10.78414897;-15.66753493;-9.72416635;0.246754803;-5.674070833;-1.638940723;-22.49741777;-40.94039122;-6.00743208;-4.717501386;-12.85809626;-9.096430356;-12.47691854;2.959647767;5.982462077;16.09751179;1.465785268
-6.724609086;-8.462673156;-7.640241663;-23.99317843;-10.30930922;0.257012741;-5.804297295;-4.481789046;-26.68205027;-41.34818471;-6.983389313;-0.622679977;-12.57405419;-7.283192739;-11.63271566;5.818823316;7.664086922;15.32702543;1.589908845
-6.435291654;-9.378306642;-9.361897701;-28.48353702;-12.34149813;0.153775491;-2.876178012;-8.216862673;-30.52305002;-40.91157942;-13.36486929;0.89118838;-13.26693945;-5.685168428;-11.89610584;6.085157476;8.981757555;13.23580918;2.152828201
-4.987298858;-8.110133624;-10.65301117;-26.13374428;-14.1765393;0.072593145;0.523348669;-11.32442016;-31.14573519;-38.7475755;-20.69315078;-0.118699081;-14.18679377;-3.921255804;-11.27746628;5.369018413;10.46880031;11.7942692;3.201382981
-2.479127156;-5.027837787;-8.071555026;-17.2115821;-14.34980597;0.113765274;1.285470507;-12.66113484;-27.53827831;-34.79233312;-23.63997623;-0.882119591;-14.57961544;-1.707982725;-8.058681548;6.008300907;12.77749621;12.86260336;4.349827942
0.227521684;-1.616250351;-2.481766033;-5.398284783;-12.65650146;0.259965855;-1.102524291;-11.79250371;-21.2728799;-30.20645101;-19.92141089;1.623145998;-14.07337595;0.75698274;-2.369354631;8.836267144;15.81821901;16.60003906;4.88578747
1.75447398;0.404225133;2.137277201;4.03413318;-10.23916268;0.40889301;-3.990414677;-9.130863309;-15.30068674;-26.73488934;-11.50992785;7.943669886;-12.76881229;2.859177836;3.751254903;12.41897147;18.50575159;21.03698316;4.268261258
0.940282088;-0.051666999;2.172545424;6.980104413;-8.685811433;0.481442422;-4.033600211;-5.83128343;-11.86783816;-25.4202316;-2.584664106;15.39100812;-11.05507536;4.038168946;7.770718304;14.31478836;19.37253126;23.18367901;2.609762302
-2.422186208;-3.130507304;-2.73475517;2.622237789;-8.871995757;0.497004638;-0.327494242;-3.352647098;-11.21882262;-25.75580157;3.728168031;19.87858235;-9.337583046;4.243823025;8.354612231;13.13489635;17.57377179;20.91276;0.669816248
-7.380039063;-8.30266841;-9.496670355;-6.266123358;-10.40115092;0.543177045;4.745336321;-2.751023188;-11.96818568;-26.11207094;7.105878301;18.88208085;-7.86171728;3.951724893;6.016086322;9.562736909;13.47912355;14.2892272;-0.721040377
-12.33706815;-14.78693804;-13.9526575;-14.9664727;-11.98127954;0.67154145;7.724742806;-4.064258102;-12.58787253;-25.20485711;9.146872056;13.17550876;-6.693742918;3.698136483;2.36122188;5.515040938;8.391545674;5.447601837;-1.360569155
-15.98670364;-21.7972485;-13.81473034;-19.44152061;-12.37558344;0.82439949;7.234331456;-6.263006347;-12.62673599;-23.39477301;11.03345711;6.035219624;-5.809207758;3.536281977;-1.27769732;2.329854228;3.650726804;-2.819343465;-1.874316071
-18.05986533;-28.60835466;-10.00256781;-18.45727611;-11.21440125;0.869778332;5.119263066;-7.948512194;-12.70023219;-22.61860777;11.96980663;0.667137242;-5.21351614;2.914691612;-4.637551191;-0.290106874;-0.143010645;-8.702084259;-3.170878435
-19.39390371;-34.62352556;-5.600058594;-14.04656343;-9.155108344;0.719092415;4.521529066;-8.401980975;-13.489606;-24.84264786;9.713053474;-2.011412913;-5.045557149;1.132453693;-8.190841345;-3.603541343;-3.195872312;-12.11076525;-5.553110587
-21.26289908;-39.48561094;-3.449050588;-10.12620179;-7.390976277;0.420236866;6.76501092;-8.198481292;-14.85553757;-30.22406924;2.618339826;-3.512904524;-5.620710138;-1.974872383;-12.15264673;-8.093970114;-5.912741668;-14.11513178;-8.23728374
-24.38520103;-43.04671996;-4.23277514;-10.12077963;-6.920618259;0.136151828;10.05669649;-8.803854465;-15.95469173;-36.54543636;-8.594679257;-5.913621661;-7.347217717;-5.688926129;-15.82344744;-12.37107129;-8.205125775;-15.66309095;-9.75195083
-28.24293446;-45.06214878;-6.331179807;-14.9721947;-8.04116434;0.020967689;11.27713593;-11.32712041;-16.20953574;-40.54690666;-20.77264484;-9.698175256;-10.47331468;-8.720439057;-17.88452979;-13.88469437;-9.338977177;-16.62372886;-8.974894577
-31.17806056;-44.83179837;-7.337617439;-22.64169186;-10.28176878;0.099550784;9.150946024;-15.34531905;-16.11373861;-40.2364742;-29.92272444;-13.18175393;-14.74640701;-9.977833989;-17.37826103;-10.99233775;-8.458547245;-15.87166262;-6.011614329
-31.26988396;-41.2830105;-5.975110437;-29.31864093;-12.70089446;0.255228893;5.695313467;-18.80502435;-16.9680411;-36.38582466;-33.21676004;-13.96354339;-19.22124206;-9.233459588;-14.51418653;-4.629220551;-5.346819335;-12.2993985;-2.205259329
-27.51494693;-33.75299987;-2.988744084;-31.5713462;-14.32911152;0.334845118;4.429927771;-19.26118758;-19.64050136;-31.98614412;-30.08686717;-11.12214987;-22.47289353;-7.218541226;-10.62765199;1.95261115;-0.796385756;-5.948667512;0.754498875
-20.60666599;-23.04756013;-0.41949089;-28.18125861;-14.56135246;0.276799646;6.969373364;-15.65559628;-23.42592802;-30.0316695;-22.01577024;-6.256282199;-23.24660945;-5.12174083;-7.35919822;5.332608448;3.709795788;1.618773548;1.941919724
-12.79831915;-11.82979845;0.150615519;-20.66142405;-13.38014186;0.150093689;11.32779417;-9.30706595;-26.13598348;-31.33569502;-11.59551095;-2.470188122;-21.21875736;-3.889808914;-5.741301796;4.317261409;6.771912448;8.024128147;1.683949171
-6.850326806;-3.651576407;-0.951956628;-12.28159276;-11.34595507;0.07549083;13.7939439;-3.27107508;-25.577969;-34.06549953;-1.660268489;-2.123646792;-17.34088904;-3.807640366;-5.861863566;0.69364951;7.757748135;11.39315766;1.106644544
-4.624610304;-0.965063989;-1.509863484;-6.283892578;-9.342603406;0.106752252;12.80027027;-0.419833226;-21.37180967;-35.3136224;5.198542444;-5.162743639;-13.42749698;-4.555755496;-7.205546713;-2.234340008;6.98293787;11.41411923;1.173346284
-6.146733771;-3.454832647;0.930341836;-4.355518839;-8.163112864;0.182857987;11.0107529;-1.587729033;-15.63493649;-33.4152951;7.001976019;-9.326036307;-11.16265235;-5.578585347;-9.209121;-2.134602712;5.372474899;9.438254636;2.00879115
-9.713792072;-8.069027205;6.799696341;-6.138299808;-8.136672645;0.192519952;13.14831592;-5.124691861;-11.82649322;-29.17663649;2.961304371;-11.97031506;-11.16587985;-6.441582449;-11.49924372;0.78689077;3.914468185;7.57590671;2.993968835
-12.99293023;-10.97632976;13.29743956;-9.841893811;-9.019896479;0.086146223;20.98045664;-8.168468087;-12.42286096;-25.11226609;-5.870663708;-11.99267509;-12.77017069;-6.976684808;-13.70860474;4.252092199;3.247271593;7.394545961;3.437863117
-14.42072938;-10.15340553;15.40513888;-13.38118571;-10.23019238;-0.073345631;29.93316072;-8.670514341;-17.03541553;-23.40766319;-16.44924283;-10.35529642;-14.65520623;-7.238443064;-15.23390998;5.853502937;3.517343482;9.05416149;3.179720481
-14.00978921;-6.679323481;8.876961332;-15.28258001;-11.25773264;-0.170506603;31.02433049;-6.67821912;-22.35852364;-24.29147607;-24.5787163;-8.944636609;-15.8222604;-7.400879022;-15.34988116;4.827721706;4.439007556;11.39048241;2.61518587
-13.06533841;-3.709160339;-6.550360834;-14.94694029;-11.94878614;-0.15153697;17.47922933;-3.993005717;-24.10815042;-26.07029175;-26.61772372;-8.846729813;-16.13668817;-7.667620862;-13.69513651;2.336187821;5.441027547;12.81590321;2.20368801
-13.06404687;-3.894931459;-25.98828379;-12.40432766;-12.45321492;-0.082306947;-8.937850727;-2.587281723;-19.75735897;-26.66272793;-21.24891928;-9.492180685;-16.04555405;-8.174640564;-10.70353139;0.270265819;5.861669117;12.38755743;1.975840168
-14.52685691;-7.27861038;-41.46442854;-8.017814407;-12.91510114;-0.090031433;-37.30420011;-3.07387904;-10.32230329;-25.27557427;-10.31268126;-9.290304317;-15.80383939;-8.874251747;-7.514815601;-0.244442426;5.201222108;10.33181219;1.515136807
-16.69935382;-11.32986991;-46.30542676;-2.468908724;-13.21671557;-0.237566651;-53.89766836;-4.388044953;-0.036194339;-22.85465907;1.858869923;-7.105095024;-14.98876954;-9.484741882;-5.324160783;0.573160718;3.377631178;7.734878776;0.410641238
-18.23544835;-13.07642359;-39.14728684;3.066244607;-13.04287524;-0.446589159;-51.22098196;-4.82117897;5.952549269;-21.05326215;10.37837835;-3.292837137;-12.83060236;-9.622379812;-4.639489454;1.749361793;0.836666829;5.702145982;-1.272443952
-18.31616737;-11.57252998;-24.84475777;6.966353169;-12.22984971;-0.547187316;-32.98803436;-3.485985687;4.535469671;-20.70468499;12.09976434;0.516918392;-9.122177739;-9.100660978;-5.035440984;2.545702083;-1.611553379;4.633630898;-2.964492714
-17.30669334;-8.67909507;-11.48390369;7.759965015;-11.06325872;-0.418819555;-11.28364532;-1.027504751;-3.456563751;-21.12273938;7.142452045;2.632857883;-4.855729108;-8.178284413;-5.596059427;2.901023312;-3.184917879;4.124033104;-4.038239559
-16.42349091;-7.520039063;-5.377454098;5.092932353;-10.18262383;-0.101929784;1.915155539;0.92287803;-13.52686316;-20.76228368;-1.160002441;2.477253135;-1.860947027;-7.485210325;-5.664519974;3.081622103;-3.514375718;3.492894857;-4.312606932
-16.67312462;-9.884209357;-7.40597005;0.397109035;-10.08153831;0.220688379;2.433249045;1.031326901;-19.8638237;-18.58875059;-7.948136959;0.836847127;-1.548604866;-7.577712327;-5.270856568;3.119144311;-2.762474518;2.470682044;-4.145183246
-17.91969335;-14.68792979;-13.16668782;-3.445880672;-10.59195763;0.363318551;-4.731429961;-0.764028571;-18.50178011;-14.95296638;-9.371496609;-0.869287915;-3.716764767;-8.423520849;-4.904943294;2.752283703;-1.411068044;1.474283662;-4.037705561
-18.86149605;-18.7240979;-16.66347581;-3.566628385;-10.84067747;0.283169795;-10.73398047;-3.297263588;-9.525759973;-11.27192603;-4.632518529;-1.601195853;-6.477377651;-9.273468495;-4.880545491;1.953120778;0.088781614;1.261159423;-4.141195107
-17.9940841;-19.06665178;-14.71765959;1.045670541;-9.828923537;0.110880552;-10.13424357;-5.092415019;2.966366024;-8.87955972;3.66054968;-1.199648558;-7.531413406;-9.131342385;-4.890380041;1.396485395;1.519867506;2.263422304;-4.141573244
-14.84969599;-15.21685992;-8.852076018;8.544215174;-7.257127366;0.040743782;-4.29378392;-5.368363914;13.17526762;-8.087918158;11.12554498;-0.148301946;-5.892289194;-7.534967652;-4.176057531;2.18749837;2.829394585;4.158018356;-3.641098969
-10.55262059;-9.378819919;-3.446466641;14.94810334;-3.941859771;0.172823496;1.188202982;-4.396030843;16.85782878;-8.230524522;14.27307052;0.998203311;-2.685511332;-5.029131124;-2.189137566;4.889092399;3.925424043;6.02523482;-2.667618189
-7.222802812;-4.802825052;-1.883941931;16.37435258;-1.420228377;0.436380918;2.074405888;-3.084482367;13.57294084;-8.536733938;12.49287008;1.956210383;-0.304729616;-2.881114451;0.822158004;8.695169296;4.596777107;6.961046717;-1.800473258
-6.62157916;-3.605406117;-3.891774677;11.45504063;-0.951730345;0.652274743;-0.952821354;-2.273424221;6.535210745;-8.954596517;8.018110352;2.633341867;-0.515516654;-2.183678618;3.822868925;11.65067253;4.671883667;6.647546265;-1.744984187
-9.001638217;-5.698239366;-6.153994883;2.32503947;-2.627465074;0.676044047;-3.565931316;-2.316191019;0.218173896;-10.13835017;3.93458379;2.906051982;-3.004215229;-3.030937734;5.633263259;11.97256771;4.26290457;5.447705443;-2.708311526
-12.96801238;-9.386916048;-5.486793383;-6.583507206;-5.263801449;0.502560731;-2.246212727;-3.148177181;-2.645822228;-12.62559768;1.778080181;2.632244193;-5.580430596;-4.453377994;5.721782058;9.48929132;3.811700684;4.010581035;-4.14435378
-16.41119784;-12.85049017;-1.737564809;-11.22346434;-7.18999502;0.254487785;2.375126795;-4.5724687;-2.597086122;-16.00219341;0.622956199;1.941227003;-5.931857009;-5.205126501;4.548200513;5.955199149;3.809950212;2.779103739;-5.131343415
-17.81612928;-15.2137322;2.128668597;-10.31228554;-7.368362747;0.077770049;6.264195197;-6.382272942;-2.479914353;-18.89254762;-1.606362488;1.450827904;-3.540801923;-4.778177544;3.216636479;3.837341386;4.381771862;1.831125346;-5.084900695
-17.04346692;-16.55463607;2.815961721;-5.806611728;-6.035540494;0.038334338;5.928673199;-8.226835838;-4.7716624;-19.88463007;-5.733830379;2.041536006;-0.177046933;-3.792488003;2.727459017;4.455219976;5.098232098;1.132425523;-4.197312888
-15.13630528;-17.23178286;-0.122598043;-1.222983884;-4.419173135;0.09888745;1.807405863;-9.479992432;-9.293502313;-18.64898644;-9.997150797;4.224251158;1.510174504;-3.407202515;3.387999409;6.971848665;5.244349714;0.868694563;-3.221398409
-13.43176197;-17.39280844;-3.600714226;0.887878729;-3.777074018;0.176278714;-2.010419669;-9.417354498;-13.12012123;-16.29115687;-11.15073758;7.589919612;0.23034167;-4.228440574;4.764902572;9.099949066;4.380426284;1.441402825;-2.790475237
-12.69043032;-17.09940775;-3.570783049;0.429065473;-4.488465053;0.213593938;-1.434171715;-7.697790944;-12.82243288;-14.58726987;-7.29768702;10.86912364;-2.684669608;-5.650517595;6.117964584;8.983531364;2.755455675;3.05046805;-2.874733616
-12.81388115;-16.71909945;1.275900022;-0.80523491;-5.843345426;0.203218143;3.95860077;-4.783614459;-7.33439781;-14.67563128;-0.080944901;12.66700144;-4.092061482;-6.241440457;6.919412233;6.716735145;1.207847454;5.239956406;-2.850817422
-13.18931155;-16.92271702;7.957767683;-1.099224205;-6.62160707;0.156248248;10.53804978;-1.885795425;0.823546768;-16.23159362;5.86659741;12.35673205;-1.411985972;-4.913986984;7.079480934;4.235802249;0.590030518;6.915446629;-2.113319143
-13.24354098;-18.0905918;11.39924104;-0.424946358;-5.976518584;0.067385499;13.82196553;-0.360238803;7.020757956;-17.76316906;6.15706582;10.43594441;5.204097673;-1.933886163;6.804116161;3.66733105;1.15222036;6.98551197;-0.673279149
-12.74567401;-19.66745466;8.778187822;-0.27003479;-3.969423652;-0.078664331;12.344195;-0.923418704;7.672694588;-17.76755747;0.174151834;8.061941537;12.58208157;1.097874242;6.316738593;5.517111215;2.375698421;5.212817968;0.79837029
-11.72798135;-20.22655866;2.3973242;-1.83119031;-1.428501776;-0.265686424;8.732795303;-3.218227642;2.734631621;-15.82980258;-8.010511908;6.151364385;16.40516931;2.338110044;5.733224482;8.238365998;3.398037293;2.584685342;1.527912168
-10.25666334;-18.42074402;-1.59762842;-4.227780544;0.671903876;-0.421266592;7.103067744;-6.009143448;-4.329243041;-12.84424958;-12.32910707;4.786460151;13.96662873;1.042420002;5.174488277;9.579166231;3.701464441;0.813995266;1.306498611
-8.358989404;-14.1295471;1.973146461;-4.526002585;1.805265316;-0.450921485;9.201945372;-7.841791799;-9.048282085;-10.27359401;-9.146769366;3.402170479;5.892839108;-1.886868035;4.942624429;8.614915265;3.525889265;1.253411599;0.680321932
-6.175926752;-8.799132382;12.63083262;0.093088648;2.058575932;-0.314754667;12.85108426;-7.729696246;-9.020097656;-9.099489138;-0.070797725;1.560418279;-4.273572274;-4.560331792;5.509087801;6.764511321;3.686725644;4.001062064;0.496941748
-4.122385698;-4.574848635;23.51742297;9.605724147;1.849165397;-0.080065918;14.14660083;-5.510600329;-5.312125315;-9.275897808;9.041656978;-0.381560164;-12.21389332;-5.437189444;7.23065265;6.8775398;4.939499339;7.864253535;1.202400757
-2.790987671;-2.851180842;25.60493646;20.1944381;1.50363278;0.107015484;11.45057968;-1.809038024;-1.314054141;-10.00379384;12.13088107;-1.312000022;-15.17804444;-4.31306087;9.973378242;11.02549995;7.36609873;11.19655581;2.487665416
-2.578781925;-3.394124693;13.99488613;26.22914754;1.052673581;0.121356552;7.493069607;2.236936924;-0.108133226;-10.46724279;6.982419057;-0.122198021;-13.0797026;-2.272794445;12.95993041;18.68313104;10.21455978;12.95688599;3.561695544
-3.318045063;-4.726874908;-8.247107602;24.03043967;0.364370928;-0.045124414;7.43470614;5.33027408;-2.403522912;-10.37334934;-3.622621638;3.405543353;-7.926839013;-0.768889152;15.03991194;26.71329807;12.2732603;13.20201612;3.783577071
-4.257717199;-5.401994952;-31.5495552;14.66796902;-0.549530531;-0.270972691;14.23422767;6.416479012;-6.417465046;-9.915105096;-14.16229533;8.270517887;-2.309295801;-0.625974997;15.29059579;31.21155304;12.49897764;12.719491;3.105385598
-4.486661574;-5.053737622;-45.57960434;3.546344744;-1.341865544;-0.391674876;25.13955232;5.120268073;-9.455711503;-9.323860688;-19.97709035;12.73119167;1.917197151;-1.707877974;13.5957781;29.90535715;10.50898176;12.21021065;1.991809423
-3.521823882;-4.375887324;-45.26482147;-3.120918553;-1.432531592;-0.320192578;32.4525425;2.065024442;-9.736701633;-8.503384091;-19.50719547;15.22745819;4.063081997;-3.342536138;10.81379641;23.46510546;6.713872533;11.7494937;0.968578857
-1.623672489;-4.163574168;-33.11669794;-2.439077328;-0.357529318;-0.108397161;28.41449146;-1.204368549;-7.12449891;-7.092525988;-14.02142398;15.1123806;4.266181966;-4.979015129;8.372092038;14.94661506;2.119177476;10.94336406;0.252883039
0.402215661;-4.387710355;-16.74039227;3.481894667;1.85966659;0.096344039;10.78808418;-2.854997708;-2.594447538;-4.870781128;-5.894614285;12.78413348;2.969339518;-6.471956191;7.479412688;7.907447762;-2.043564933;9.549867781;-0.226398841
1.760515266;-4.192304205;-3.779360622;9.483297812;4.560402648;0.16246501;-14.93617066;-1.735151728;2.680509894;-2.11031748;2.671961906;9.28228642;0.676448487;-7.85204625;8.404796131;4.521686548;-4.720068359;7.927519989;-0.53381432
2.151817813;-2.80685293;2.085736581;11.34923231;6.64873043;0.066623774;-38.35802208;1.895243402;7.684120809;0.45237173;9.669233315;5.722680025;-2.007750813;-8.965161572;10.26483164;4.789267016;-5.398094917;6.852862077;-0.546712908
1.841997227;-0.484549421;1.826419492;8.691936993;7.069910194;-0.098674942;-50.10034918;6.419834649;11.27794253;2.004633885;12.90546334;2.896291771;-4.354547777;-9.45128881;11.47801227;7.038265025;-4.348871189;6.842306389;-0.13135071
1.323027352;1.472665367;-1.123296166;4.571077958;5.34901412;-0.198895069;-46.91799183;9.767925351;12.04250852;2.094538913;10.57933293;1.104023165;-5.714889169;-9.130918479;10.65030049;9.114035923;-2.601265779;7.586886567;0.500157729
0.897241462;1.710343869;-3.689200151;2.393844879;1.913702615;-0.15061084;-32.86544093;10.6131173;8.911771077;0.816409532;2.889992207;0.140642875;-5.837826588;-8.388322172;7.390391095;9.461287821;-1.535955372;8.042762377;0.689665092
0.54122081;-0.004322313;-4.60034405;2.856211232;-1.9974827;0.03241315;-16.21914701;9.074668102;2.342498051;-1.298052805;-6.873613937;-0.599247746;-4.99918311;-8.072685896;2.586237571;7.665702136;-2.188048991;7.172140337;-0.261507911
0.12421435;-2.473685003;-4.088060074;3.574549301;-4.845999962;0.261529862;-4.509650774;6.480125169;-5.085235917;-3.49584617;-13.48126836;-1.806415943;-3.769818166;-8.870413962;-2.009050582;4.467811253;-4.608131531;4.772033568;-2.430849118
-0.2730685;-3.928486547;-2.888513984;1.706158005;-5.497340681;0.434068794;-0.805287553;4.433549072;-9.570746322;-4.947043649;-13.03682943;-3.723524483;-2.578419783;-10.64098996;-4.632069755;1.426120374;-7.717773715;1.734369057;-4.946008748
-0.278155599;-3.339490621;-1.668891969;-2.770838454;-3.753690812;0.48560753;-3.124972068;3.90246437;-8.244968069;-4.835975307;-6.014279147;-5.668215744;-1.425652708;-12.33689972;-4.321623933;0.320502904;-9.856325566;-0.480008545;-6.395542075
0.506685964;-1.084980452;-1.026582674;-6.12654262;-0.412799773;0.407498766;-6.719366245;4.920702544;-1.114060474;-2.558139234;2.717018771;-6.090416975;0.00730735;-12.68577439;-1.277813669;2.347975603;-9.761239317;-0.772610991;-5.780348894
2.118028515;1.536999563;-1.414486005;-3.408762548;3.189452188;0.235234402;-7.403134423;6.938951434;8.74877123;1.918531145;7.426512046;-3.43015691;1.943070366;-11.16;3.339277299;7.347179998;-7.378754879;0.914059674;-3.292255876
4.086433577;3.449072691;-2.577829912;7.396193068;5.883560508;0.027061153;-3.896808927;9.353647392;17.05699422;7.733143556;6.018621316;2.574183363;4.132572956;-8.466244063;7.965135676;13.52227595;-3.954777475;3.599631006;-0.262181395
5.699641691;4.556502815;-3.012343519;22.93728812;7.194521563;-0.155811567;1.948001848;11.73303256;20.89801015;13.20526585;1.679735734;10.04277955;5.842706764;-6.129557075;11.21307933;18.06694586;-1.31129136;5.876634519;1.747261628
6.480740892;5.512306646;-0.433590432;35.97374156;7.394098847;-0.267870238;6.836781882;13.68992512;20.1472013;16.47615255;-0.010870848;15.43821524;6.251687334;-5.459498838;12.25794299;18.57822302;-0.761075166;6.686008911;2.028633618
6.483155294;6.81644147;6.456432422;39.89523652;7.105392342;-0.296441729;8.408139992;14.76228174;16.77210419;16.46765681;3.714245749;15.41380097;4.992869935;-6.675633702;10.98227449;14.50633431;-2.357011151;5.811497445;1.148761143
6.146533718;8.183841297;16.01486528;33.01518462;6.787752046;-0.267204056;6.792364037;14.62914966;12.83215166;13.57998203;9.810320104;8.983177566;2.480857225;-8.840194047;7.946585741;7.66178364;-4.936754476;3.913304201;0.379450073
5.837360731;8.826114774;23.3553601;19.50863276;6.483357675;-0.226861158;4.402031081;13.54355648;9.00035229;9.626436474;11.56635663;-1.510657455;-0.203857103;-10.60722529;4.21494124;1.302547204;-6.886923045;2.187863858;0.618459808
5.487426339;8.389656836;22.65125394;6.442969376;5.978337664;-0.208091952;4.126408169;12.47942119;4.837181851;6.980355219;4.441418611;-11.51265104;-1.826520365;-11.18100517;1.013303542;-1.718181398;-7.099598746;1.840563419;1.685122268
4.676732955;7.624019282;10.96108436;-0.72984977;5.200743451;-0.202250876;7.179839477;12.62214944;0.351376231;7.439966884;-9.354413348;-16.92466374;-1.639801551;-10.76642184;-0.748333628;-0.552266119;-5.525960251;3.542485305;2.547958719
3.120533546;8.049365668;-9.057506093;-0.902015507;4.499367081;-0.166224793;12.16544747;14.44177072;-2.894144649;11.48948651;-21.82094057;-16.60303531;0.178122305;-10.24026555;-0.901213347;3.365074008;-3.050147784;7.04647961;2.260910513
1.135858571;10.78961767;-29.79304915;3.386190908;4.550892767;-0.063597466;16.11139735;17.11589539;-2.532777623;18.31736961;-25.37837023;-12.95283156;2.528868693;-10.37908367;-0.102451479;7.508462861;-0.851899521;11.17647203;0.808542798
-0.374467279;15.53110158;-42.67;8.915250262;5.936630966;0.092704787;16.75907126;18.94215463;2.338158014;26.40894698;-19.3128311;-10.16194628;3.877571979;-11.26253734;0.57958497;10.0285927;0.302260286;14.33535025;-0.836455493
-0.506838418;20.53151432;-42.98990461;14.28199042;8.683343652;0.236632807;14.32090759;18.58337323;9.341870118;34.19836395;-10.78534699;-11.28805026;3.009051042;-12.25615923;0.398175056;10.81684808;0.433469041;15.39378922;-1.465244607
0.900978056;23.75173529;-32.39490164;19.98914562;12.09188994;0.2942506;11.22974533;16.17422224;13.41755272;40.38518513;-9.052193757;-16.2354544;-0.326603035;-12.50014867;-0.503452843;11.17879512;0.236453774;14.45894547;-0.552707578
2.982504917;24.24739568;-17.37641394;26.54385026;14.98083151;0.243597296;10.00114832;13.26659894;9.954101902;43.93894388;-17.40430283;-22.00237706;-5.260282127;-11.49286478;-1.145395257;12.51106151;0.601382293;12.91701691;1.397320953
4.322336485;22.74206875;-5.040162632;32.74360789;16.20967192;0.136648869;10.99595459;11.48366985;-1.640475866;44.12463073;-29.69342252;-24.9243;-10.28360841;-9.380154072;-0.429673859;15.1070666;2.057150387;12.53367926;3.309132946
3.921450126;20.98053446;0.862432168;36.00250501;15.19839352;0.059541153;12.12284133;10.91340165;-16.76417008;40.79380733;-34.86303767;-23.2278971;-14.11545354;-6.843071255;1.954917178;18.03243332;4.428517626;14.11024184;4.35800706
1.946252717;20.43596298;1.128270836;34.5372955;12.19392826;0.06087886;10.94312206;9.679749125;-28.12219692;34.79027795;-26.25203016;-18.08528027;-16.4132404;-4.742988428;5.128119877;20.08538485;6.885884041;16.6841094;4.47286841
-0.329285254;21.39931494;-0.733708767;29.37259346;8.18479132;0.109167755;7.428708026;5.307136291;-30.43996966;28.01187505;-8.124130106;-12.56253762;-17.83248531;-3.752614092;7.475436897;20.95536942;8.38052309;18.03073022;4.173842576
-1.391199935;23.07552864;-1.487779414;24.13460291;4.520162797;0.118665564;4.731252911;-2.994385976;-24.112609;22.79486585;6.282563141;-9.422715243;-19.36198486;-4.109899354;7.682839495;21.54714414;8.255899666;16.30280626;3.992369802
-0.545385197;24.45066707;-0.010760024;22.50515527;2.38533006;0.024425455;6.767395937;-12.93257877;-15.12198442;20.80801612;4.154888006;-9.475270899;-21.39929973;-5.532563814;5.599983507;23.1573214;6.694942108;11.68200861;4.036798385
1.609649818;25.1239266;2.928739121;25.33461501;2.324300593;-0.15710376;14.23196019;-19.95172933;-11.18838244;22.13871259;-17.24244586;-11.57105907;-23.27085543;-7.307546494;2.291405881;26.17908416;4.705046021;6.723704389;4.057015642
3.638679689;25.4507656;6.072463308;29.87045696;3.998834504;-0.335176267;22.45476699;-19.95543776;-16.81019618;25.26339185;-48.28119073;-13.98316576;-23.61044436;-8.565395481;-0.74582739;29.45222713;3.588478076;4.924794949;3.85974535
4.291455928;26.002282;8.709801302;31.88770382;6.315387296;-0.41490308;23.52915432;-12.08604921;-30.56438398;28.02781689;-73.87764411;-15.89973994;-21.36324867;-8.673502907;-2.579802555;30.89601913;4.180395533;8.376888937;3.607385759
3.308141438;26.90035913;10.62739442;29.09300937;7.912434123;-0.370840655;11.8288157;0.46767853;-46.31200506;29.01654601;-84.10853403;-17.83973794;-16.6696983;-7.555350842;-3.29910003;29.03322197;6.33248758;16.15628699;3.678099375
1.423123014;27.59840156;11.55477786;23.06290158;7.811443968;-0.261431169;-11.02661327;12.28235882;-57.1629777;28.35666121;-80.22212101;-20.81364021;-10.93269407;-5.707658106;-3.640698156;24.25613963;8.999575299;24.67248992;4.21604864
-0.366097154;27.22695771;11.1374706;18.12575283;5.905242051;-0.173924418;-35.83801009;18.88262802;-59.31118412;27.38302464;-71.67544448;-25.0948574;-5.981213651;-3.852011317;-4.189092259;18.81574307;10.89040131;29.80890685;4.825190293
-1.618262364;25.16880708;9.667523783;18.0606116;3.005570111;-0.150332983;-50.99187481;19.1024522;-53.33019378;27.43575497;-67.19960504;-29.70043849;-2.946931249;-2.441184045;-4.863115675;15.45257361;11.24444762;29.38471871;4.753122207
-2.670751344;21.44137929;8.655748769;23.2250004;0.409143509;-0.160007935;-49.77314628;15.14428049;-42.62986638;28.7244297;-67.55620083;-32.98712291;-1.698211138;-1.399810733;-5.100476821;15.61737981;10.20460518;24.25514913;3.470329809
-4.109879902;16.72014824;10.13545294;30.3276319;-0.770915687;-0.140367015;-34.61560985;10.60333961;-30.76098483;30.1495846;-65.83373638;-33.80168428;-1.227928829;-0.327420436;-4.503571257;18.55790399;8.561619738;17.40943379;1.176232856
-5.990983713;12.11345985;14.73055289;34.90929659;-0.125668654;-0.064599326;-15.19617284;8.106787283;-19.66730047;30.23251292;-54.55992088;-32.20616793;-0.623772455;0.992967989;-3.301627429;21.92207472;7.121677464;11.89451181;-1.206024428
-7.54203728;8.846519058;20.01102374;34.48860945;1.941288734;0.02873375;-1.821737535;8.211325469;-9.767390747;28.42962464;-33.2170736;-29.23110583;0.206471549;2.235048918;-2.175107041;23.42299733;6.213728236;9.142231894;-2.575328775
-7.68539109;7.890078125;20.97954323;29.95717425;4.50120941;0.072607241;1.015087505;9.968832416;-1.122971148;25.77799955;-9.671738748;-25.96198056;0.644916427;2.690499625;-1.600766633;22.35942118;5.692098761;8.772837065;-2.336849091
-6.000915435;9.529297653;13.08039888;24.36335366;6.540243776;0.040004272;-3.606220012;12.23648879;5.721125666;24.30291767;5.580104836;-22.78673504;0.165763478;1.883724634;-1.348521902;19.93543059;5.342616958;9.677241193;-0.7303803
-3.322065039;13.02614206;-4.088240886;20.32474599;7.296546797;-0.022107857;-8.711053351;14.4637951;9.976968;25.55819534;7.346877753;-19.41081102;-0.922947556;0.13498495;-0.651768326;18.23317458;5.254075824;11.22160006;1.390199875
-1.384170095;16.69902038;-25.24651336;18.23215025;6.408654064;-0.028724724;-9.193236143;16.47282299;11.48094271;29.35380047;-0.782886201;-15.5281528;-1.513731795;-1.464648882;1.037929789;18.66028679;5.774265008;13.52138085;3.102401571
-1.67831897;18.6262756;-41.7537727;16.52097591;3.956442161;0.066868957;-5.118700145;17.81540199;11.14220841;33.63166303;-10.02305854;-11.47365656;-0.562955005;-1.75109656;3.368434394;21.00668971;7.079387352;16.71610531;3.875026395
-4.327292258;17.72827063;-46.63913157;13.48445545;0.48199523;0.22544002;-0.461027239;17.63542793;10.41398932;35.64501089;-13.59962634;-8.246730313;1.900279699;-0.361133391;5.131290485;23.71580587;8.7775639;20.12423491;3.687535652
-7.850523237;14.53879779;-38.96830454;8.940938402;-3.054765629;0.348555241;1.00234379;15.33022403;10.24120422;33.6727164;-11.35950913;-6.886533672;4.488994483;1.920705093;5.084902007;25.05207903;9.976584301;22.2374148;2.861224558
-10.05713798;11.00609494;-24.38540993;4.414392248;-5.52090167;0.359243671;-1.116796662;11.37291554;10.47409392;28.12649792;-8.22248818;-7.748830815;5.231964153;3.664115488;2.918488413;24.24050103;9.844810694;21.69103787;1.828212426
-9.471827927;9.288152187;-11.33679554;1.874241295;-6.0864513;0.266673764;-4.018606579;7.368879715;10.30080707;21.33498141;-8.485534866;-10.28993975;2.910900582;3.787253807;-0.447734003;21.78353161;8.230313402;18.39161105;0.992313458
-6.298009831;10.30087064;-5.633899247;2.233828523;-4.714673838;0.157744333;-4.622048851;5.078954894;9.280244993;16.18368287;-11.46750611;-13.49310097;-1.995434055;2.276647402;-3.503968424;18.85832335;5.801382103;13.76360993;0.656556678
-2.260416879;13.07302309;-7.20680005;4.808219413;-2.296627649;0.122820447;-2.27784647;5.135900773;7.982664297;14.51411175;-12.41469074;-16.52498875;-7.449847902;0.083396409;-5.228778904;16.38110785;3.549551639;9.804702663;0.923500403
0.521837718;15.43337807;-11.19371332;7.956268387;-0.210342595;0.181124248;1.065804221;6.555444456;7.616018234;16.26490614;-7.565537015;-19.0704637;-10.99615526;-1.680578019;-5.731500153;14.48087429;2.04326976;7.672399663;1.581009492
0.818194017;15.55965508;-12.23194506;10.15979558;0.507132304;0.271000413;3.043134087;7.50804794;8.984496129;19.78140085;1.591562244;-21.15220002;-11.14154841;-2.55983684;-5.957393222;12.69464802;1.056049567;6.95655682;2.118808259
-1.125057016;13.24649618;-8.516865719;10.65275678;-0.169091388;0.311651383;3.087281973;6.724382376;11.77842112;22.96021215;9.065414597;-22.73549052;-8.124900049;-2.92453777;-6.746786007;10.58678998;-0.108525523;6.235473372;1.986676485
-3.974875404;9.965165355;-2.621903853;9.364928322;-1.254129641;0.2788972;2.583304463;4.353302729;14.9014858;24.44325771;9.64922268;-23.58278847;-3.694294527;-3.412888511;-8.074169307;8.208677518;-1.869436554;4.441598407;0.988147654
-6.266306235;7.731167467;1.2131239;6.627925682;-1.489444126;0.225787563;3.019022006;1.594464633;17.55112135;24.16762726;3.971560547;-23.52081946;-0.157529999;-4.198637287;-9.114246212;6.042507404;-3.851844872;1.890605656;-0.491929642
-7.205806868;7.698386938;0.840475439;3.129048695;-0.309329988;0.229779544;4.163260348;-0.464416901;19.99894493;23.06630437;-1.485082255;-22.82287013;0.688621277;-4.764624216;-9.05365536;4.563233481;-5.075792299;0.119063568;-1.671917561
-6.864783134;9.531279613;-2.122749999;0.049121816;1.680831166;0.31536805;4.207383672;-1.683786529;23.22357221;22.23582091;0.187292195;-22.24592922;-1.755948703;-4.388281054;-7.925536597;3.861205855;-4.725678701;0.669891859;-1.899596557
-5.837490397;11.9020729;-3.944608952;-1.131735135;3.092965275;0.423656912;1.792126511;-2.629449121;27.60493724;22.13434649;9.976186568;-22.57014916;-6.769105097;-2.894549976;-6.738805453;3.647684325;-2.867781302;3.817115182;-1.131015762
-4.785756359;13.55280751;-2.187941535;0.544120989;2.733919759;0.458065228;-2.117024398;-3.58546292;31.86613764;22.26968981;21.30875793;-23.98877908;-12.6542274;-0.985421426;-6.792654008;3.565392553;-0.506694725;8.2363973;0.041690732
-4.218601063;14.01979974;2.084394573;4.508559349;0.43820526;0.366550606;-4.526182684;-3.927871694;33.41541761;21.51212924;24.8983353;-25.91102628;-17.39717802;0.171599065;-8.758211941;3.437994826;1.084884092;11.83597065;0.869125211
-4.510078125;13.56942177;5.182737886;8.425562923;-2.863425931;0.187511365;-2.870481415;-2.650058594;30.11871866;18.82481539;16.30583484;-27.43181928;-19.46360374;-0.241106836;-12.27655608;3.187080225;1.226733907;13.05782068;1.05131299
-5.908922039;12.65710687;3.999342628;9.277725114;-5.858618934;0.018640933;2.524041988;0.32632911;22.22539311;13.998349;-0.040442649;-28.13240371;-18.49792259;-2.160120884;-16.34425273;2.527162369;0.199135454;11.67880253;0.959177724
-8.3691217;11.57455838;-1.15489761;5.281559782;-7.767970495;-0.06366884;8.323486125;3.343616631;12.82289627;7.972776281;-13.84599182;-28.52754097;-15.58844382;-4.820009766;-20.07965249;0.842159422;-1.135817448;8.647848288;1.269427716
-11.32640622;10.60375267;-6.50488107;-2.720457712;-8.755396257;-0.063519728;10.72460934;3.741794115;6.207798023;2.525176416;-16.69757426;-29.71201212;-12.82956375;-7.435469049;-23.18646577;-2.460675854;-2.086119639;5.286458815;2.319844886
-13.73445261;10.34569883;-7.691846472;-11.54600857;-9.573696263;-0.052446608;8.515852759;-0.149844628;5.186716291;-0.573470779;-8.370625114;-32.4218294;-12.25377952;-9.748422328;-25.77643666;-7.279388266;-2.59751678;2.572650647;3.752361235
-14.53040997;11.62226723;-3.30336819;-17.58144898;-10.80986454;-0.097864911;3.958317965;-7.312210111;9.249989757;-0.510990006;3.301825384;-36.26313325;-14.66153825;-11.9595065;-27.83708767;-12.39635389;-3.073833252;0.960124601;4.776689462
-13.3154464;14.76772043;3.811457238;-18.98392559;-12.38159531;-0.198031253;0.695414215;-14.19511429;14.99325516;2.052682334;8.742962061;-39.79411233;-19.0806921;-14.15929959;-28.95147278;-15.82908424;-3.784715186;0.596177762;4.843849824
-10.75723081;18.84990954;8.592483275;-16.58689141;-13.66708224;-0.28140698;0.600816071;-16.91335392;18.49597909;5.273481006;3.944657377;-41.48488506;-23.28336107;-15.86090264;-28.60527152;-15.92861007;-4.460228122;1.477172478;4.140144873
-8.331913007;21.6622786;7.674048082;-12.9231696;-14.08287719;-0.270396619;2.47236595;-13.95086844;17.90300245;7.123417319;-6.988830932;-40.84682118;-25.10566692;-16.15814207;-26.81334939;-12.55402093;-4.48143944;3.292612342;3.445216528
-7.482187235;20.82664935;2.118911131;-10.23572499;-13.55813896;-0.152799637;3.775807665;-7.277916837;14.35170059;6.552401417;-15.74960344;-38.82613243;-23.73298229;-14.45119738;-24.43107078;-7.44318501;-3.507732404;5.189973719;3.44604684
-8.723623489;15.40377096;-3.22386118;-9.057110292;-12.49194006;0.001596205;3.725165922;-0.927695462;10.71348493;4.106870809;-16.63706956;-37.09;-20.09535704;-11.11726593;-22.74123175;-3.366166861;-1.951561556;5.916741661;4.090330502
-11.31052682;6.84076755;-3.39648535;-8.349247635;-11.27690145;0.09352381;4.557699117;1.938641881;9.301310937;1.603334288;-10.64272626;-36.69999421;-16.1232322;-7.481330087;-22.54422673;-2.496912761;-0.814806564;4.49763423;4.558310789
-13.69563733;-1.55770892;2.634719645;-6.855885569;-9.872481878;0.071203443;9.380703674;1.238355527;10.39471557;1.04889183;-3.774147317;-37.18387028;-13.41289542;-5.010514632;-23.46640173;-5.046319624;-0.957734978;1.041069598;3.917096132
-14.46884236;-6.392721417;10.64025571;-4.384911662;-7.858701765;-0.031583717;18.22658318;-0.225316439;12.63018554;3.486956931;-1.466345202;-36.76496597;-12.24884967;-4.333495141;-24.09601809;-9.087367681;-2.393212661;-3.013135822;1.930750687
-13.15296694;-6.011440121;13.6404768;-1.954338977;-4.949600259;-0.124658949;26.02698549;0.87286866;14.7032456;8.476422496;-3.982509702;-33.65277403;-11.63436966;-4.87748883;-22.92332287;-11.71882027;-4.21745667;-5.568536619;-0.65437539
-10.380422;-1.227403864;6.654488202;-0.823341553;-1.503639172;-0.130479827;25.03936495;5.750851423;16.76437378;14.46146167;-6.555287521;-27.48950062;-10.23186359;-5.432621164;-19.41961552;-10.81148471;-5.271700473;-5.120475017;-2.604611754
-7.426846898;5.43168639;-9.584250719;-1.380304614;1.466737936;-0.037128577;10.56167104;12.64592371;20.22671921;19.69037431;-3.873487829;-19.88886517;-7.483021002;-5.191503754;-14.46596653;-6.206143518;-5.013484812;-1.720307534;-3.083448606
-5.477889998;11.27657309;-28.56606908;-2.863973432;2.87448917;0.101485831;-14.38113655;18.23663084;26.13250553;23.03574396;5.044869235;-13.62309016;-4.113649943;-4.413346488;-9.827960753;0.359285928;-3.891514713;3.054720713;-2.216797714
-5.083236401;14.73121678;-41.73338415;-4.042033957;2.310972833;0.209647564;-39.4675383;20.08882061;33.53742666;24.25627599;15.66835665;-10.9606232;-1.722869492;-4.167740503;-7.068141395;6.439037244;-2.9274653;7.118624125;-0.906802188
-6.024176594;15.68358368;-43.56148436;-4.112971484;0.389933003;0.238650032;-53.00122583;18.18706336;39.45804918;23.72933562;21.33328609;-12.25435318;-1.797644062;-5.371559569;-6.652268647;10.32;-2.866748643;9.150275012;-0.088090168
-7.527724085;15.05068719;-34.66614487;-3.017750014;-1.592650044;0.186915231;-49.35804731;14.534175;40.68637326;22.05253566;18.35726756;-15.7176868;-4.818987427;-7.913958197;-7.800744173;11.78037827;-3.611208961;9.234189298;-0.058975597
-8.627827403;14.13611906;-20.9889188;-1.047022375;-2.436990002;0.088078354;-32.56014333;11.42418666;36.20180584;19.87456194;8.832406995;-18.53563614;-9.972217262;-10.59336934;-9.082097841;11.79525067;-4.397448582;8.491753628;-0.410438855
-8.528755502;14.18191144;-9.765808493;1.638741373;-1.70151837;-0.012813205;-13.32882207;9.926676354;28.2885949;17.95542176;-0.917059838;-18.59145561;-15.54086468;-11.93558145;-9.287232511;11.55990166;-4.551920911;8.08164193;-0.538588907
-6.918732084;16.06564747;-5.082202943;4.938826902;0.175235927;-0.076256825;-1.80533184;9.676309901;21.3387749;17.14792169;-4.808662727;-15.7173331;-19.69102814;-11.26444351;-8.053089961;11.59273546;-4.172885319;8.354930803;-0.242313855
-4.177793383;19.92012825;-5.946418003;8.256041013;2.28893261;-0.076791639;-1.268323219;9.784873351;19.04867363;18.05259594;-0.971556568;-11.71288289;-21.23706197;-9.211235153;-5.968267234;11.50430475;-4.156297287;8.735550862;0.113864716
-1.350881531;24.7386519;-7.948022322;10.20401559;3.854185543;-0.01133473;-7.204265855;9.786081387;21.97722716;20.48822576;7.482421101;-9.165141587;-20.08154639;-7.296222559;-4.217258168;10.47566721;-5.528331872;8.293949417;-0.034047719
0.230971807;28.4038406;-7.051789695;9.231577346;4.560779845;0.092220993;-11.8779814;9.737800977;27.24485057;23.26219129;14.98262462;-9.831195358;-17.19313428;-6.913920262;-3.989544498;8.005311817;-8.609844082;6.494249056;-0.929137463
-0.391187133;28.51328711;-2.680107591;4.930230992;4.558627074;0.178903592;-10.48832092;9.609566789;30.62734933;24.64058693;17.15153612;-13.57049238;-14.13852715;-8.455556347;-5.890783022;4.374709674;-12.6616073;3.56708606;-2.290221168
-3.199788041;23.76564446;2.095217544;-1.072201385;4.213697944;0.193789282;-4.193440532;8.840702297;29.5618812;23.39311179;13.07802694;-18.43532688;-12.3338015;-11.1386933;-9.564242695;0.555147916;-16.26778577;0.329740667;-3.56460804
-7.070930093;15.01760764;3.226558174;-5.661871975;3.864927202;0.121867021;1.856136647;6.732964068;24.9126304;19.7324958;5.152186118;-21.80958594;-12.33421261;-13.57068951;-13.71175693;-2.31814639;-18.15237995;-2.311880791;-4.350381458
-10.30237465;5.10304068;-0.912664214;-6.158370349;3.698438901;0.009632843;3.319829034;3.391340202;20.23420774;15.39084697;-2.797513591;-21.87540068;-13.54872386;-14.59144595;-16.61282013;-3.531169481;-17.84281506;-3.801724793;-4.582515497
-11.53673904;-2.692297297;-8.034363238;-2.270145796;3.713757135;-0.057490071;0.18710453;0.217932561;19.07424331;12.63071021;-7.5304259;-18.54141656;-14.61188101;-13.84751163;-16.99808187;-3.092751048;-15.7822871;-4.092550703;-4.356178607
-10.4975965;-6.550993595;-13.48482671;3.513061667;3.734163056;-0.014406859;-3.649102864;-0.755280344;22.27396832;12.79654453;-7.516719502;-13.3455868;-14.26703213;-11.82955419;-14.83427755;-1.634717917;-12.94088194;-3.551372321;-3.645276396
-8.044557312;-7.071273504;-13.64295979;7.592458342;3.484434199;0.130123508;-4.010571133;1.655212288;27.24446903;15.42979983;-3.050100575;-8.489866344;-12.23127436;-9.48183832;-11.48153632;-0.031297613;-10.29680185;-2.753501035;-2.276623747
-5.522512346;-6.526507474;-8.560445617;7.852097509;2.77936141;0.290843291;0.013194353;6.702519527;29.801686;18.61769111;4.197498541;-5.661145253;-9.440387509;-7.692448317;-8.98442836;1.025094576;-8.526168082;-2.261659612;-0.233781167
-3.884152306;-6.991267133;-1.821716405;5.194408174;1.758305912;0.362106326;5.503290257;12.03039734;27.31211359;20.34748067;11.80550976;-5.339189195;-7.447393356;-6.928904661;-8.83853441;1.284210737;-7.956340066;-2.411853187;2.026958545
-3.208110801;-8.762748902;2.253132616;2.783537105;0.96634067;0.292285347;8.403559095;15.25;20.91373214;19.87936283;17.34174547;-6.89149605;-7.351324863;-7.12148862;-11.01966879;0.94383246;-8.604725588;-3.141761642;3.657263292
-2.901944403;-10.26239668;1.881836095;3.534851026;1.108668324;0.118818207;7.049529934;15.52573463;15.13628891;18.13675822;19.1730737;-9.211613664;-9.010920764;-7.770118645;-13.97462572;0.439439126;-10.14871334;-3.968480021;3.963102243
-2.33974175;-9.427914301;-0.977425743;7.776907405;2.550579851;-0.06272135;3.568616356;13.88368529;15.00118968;16.8696593;17.0911433;-11.36100447;-11.12510175;-8.205567487;-15.63550096;0.146953557;-11.88364938;-4.215300804;3.007043075
-1.375863986;-5.454151464;-2.411221924;12.88591151;4.918625536;-0.168282978;2.06019973;12.05408528;22.46058935;17.2841457;12.37495656;-12.81319329;-12.13375214;-7.917956804;-14.77891204;0.156812505;-12.86824762;-3.433375827;1.70226819
-0.339664131;0.467631162;0.126533702;15.15677235;7.191866017;-0.176531699;5.118721555;10.92840891;34.61757821;19.20903;7.167783762;-13.3179497;-11.28265789;-6.829407308;-11.78426691;0.236351599;-12.34712096;-1.767947432;1.202468449
0.405820991;5.906524037;5.642553454;12.47108799;8.34086979;-0.124364943;11.55934845;10.01816808;45.10294759;21.39756634;3.50571244;-12.72990053;-9.084449137;-5.367738906;-8.28376586;-0.002111678;-10.25407218;0.0219959;2.002996677
0.882589628;8.766113715;10.37165364;5.789209115;8.097292438;-0.060542361;17.2022772;8.350762698;47.91293999;22.63373423;2.561099713;-11.09845866;-6.879370172;-4.263938375;-6.011926697;-0.825324865;-7.411392495;0.974007099;3.484235071
1.481553139;8.463134251;10.91286565;-1.522554704;7.230659193;-0.006132886;18.14705219;5.884985443;41.29153389;22.6872867;4.431099262;-8.949976037;-5.873101361;-4.151132173;-5.717405234;-2.160283935;-5.168997036;0.520298839;4.328748658
2.516898368;5.960881583;7.203641453;-5.88654494;7.016971102;0.042425824;14.01917658;4.01358072;29.0613366;22.33948556;8.35132569;-7.36728695;-6.371507846;-5.186949493;-6.873770576;-3.570399838;-4.621992965;-1.145195054;3.538702604
3.771480949;2.87832629;2.830908388;-5.605172645;8.224013647;0.078968268;8.636475774;4.54417945;18.38177216;22.51640823;13.00420345;-7.537600995;-7.704326553;-6.930519765;-8.259357259;-4.452619295;-5.90430709;-3.20704465;1.255838957
4.495496686;0.52306295;2.236116453;-1.541721025;10.39876572;0.067785079;7.401057971;7.993499349;15.26930901;23.33017217;16.79572752;-9.90645976;-8.766650932;-8.553082605;-8.838610779;-4.351607714;-8.070695452;-4.780009766;-1.292121654
3.941924612;-0.475750057;6.879627084;3.743890621;12.0948128;-0.029462999;13.11527185;12.77383723;20.78216285;23.90203404;18.28428419;-13.55518002;-8.690484773;-9.254754733;-8.271121494;-3.219140304;-9.698541142;-5.466593672;-2.700178157
2.042256856;0.057261175;13.40615457;7.542158201;11.96896237;-0.198848362;23.16976059;16.16533537;30.43007813;23.16525162;16.90171155;-16.43545663;-7.191912853;-8.650921253;-6.81525959;-1.478548587;-9.829354851;-5.518776792;-2.432884011
-0.341934568;2.146839435;15.47205211;8.228971074;9.943042838;-0.348756079;30.29550245;16.40187;37.25944381;20.98578967;13.64330228;-16.51934443;-4.508346511;-6.943340286;-4.93080699;0.140742732;-8.610160792;-5.518180336;-1.178193583
-1.856298258;5.639763274;8.156822997;5.761637244;7.48341545;-0.355708893;26.77770846;14.13309691;36.57161245;18.6176224;11.01017242;-13.15509735;-1.162518004;-4.833344615;-3.035084504;0.919129417;-7.189644961;-5.858634747;-0.248253097
-1.510969349;9.95135465;-8.145008641;1.578147585;6.672174051;-0.160432902;9.660861139;11.95354654;29.08439732;18.00871871;11.75662925;-7.608459024;2.206565197;-3.2466622;-1.552073424;0.466276133;-6.938323937;-6.44597784;-0.543910727
0.650386501;14.03281212;-27.21994886;-1.871416681;8.683502062;0.162017063;-16.42422042;12.3062337;20.39054435;20.40274651;16.94707915;-2.267770999;4.94;-2.970058594;-0.988581737;-1.102151546;-8.526468126;-6.829495843;-1.930188063
3.552897095;16.81323763;-40.44254336;-1.962491764;12.79684443;0.427354539;-40.93099591;15.49207673;17.12062683;25.29248666;24.71170489;1.002130628;6.53422384;-4.298406406;-1.719735623;-3.216646859;-11.48053038;-6.626608967;-3.487585392
5.76;17.84574231;-41.88185307;2.880504662;16.73574886;0.459925206;-52.93934473;19.48304024;22.49173808;30.57292257;30.97121614;2.140499696;6.925170364;-6.818834348;-3.536551725;-5.123188576;-14.49876116;-5.88348308;-4.35283046
6.336430007;17.58684786;-31.74455183;11.98456694;18.1490721;0.220948276;-47.37277485;21.72354935;34.29347797;33.86052232;32.0696909;2.778289558;6.64951224;-9.488687405;-5.414494958;-6.252518885;-16.29066301;-5.087924633;-4.392819312
5.325485217;17.00425448;-15.98879278;22.11816727;16.18843632;-0.153585487;-28.01406664;21.3880082;46.56703365;34.06399063;27.61550163;4.754837104;6.588012622;-11.09037896;-5.934364045;-6.504007628;-16.37181307;-4.83416782;-4.157430104
3.571872641;16.81408795;-2.547831002;28.75034479;12.04985924;-0.441366591;-5.276214869;20.13202316;53.59573058;32.08224179;21.28492418;8.405256301;7.30520999;-10.91996889;-4.252548494;-6.278155407;-15.30707213;-5.397773544;-4.227882107
2.084503686;17.00945418;3.252625941;28.55186605;8.107066039;-0.485919175;9.993862178;20.63619615;53.28735591;30.12244066;18.591395;12.02938115;8.450220292;-9.312290543;-0.923064577;-6.216724252;-14.28311048;-6.525739072;-4.610584259
1.410593034;17.08475335;1.21878289;21.66313865;6.287427611;-0.297965959;12.75483123;24.13925626;47.68929497;30.1110355;22.91325786;13.0837429;8.814449928;-7.568725532;2.194168634;-6.78740157;-14.32673078;-7.575808009;-4.752145737
1.415516162;16.70555646;-4.520215326;12.01744783;6.857941818;-0.03079509;6.041747537;29.06731914;40.6598595;32.29970016;32.64212215;10.26371135;7.208069112;-7.177480891;3.073426898;-7.967600805;-15.68294483;-7.898546029;-4.150432545
1.540866299;16.14515704;-8.715686611;5.150465343;8.435860485;0.146124611;-2.067165716;31.99028347;34.82320339;35.01486009;41.77769912;4.855024784;3.594776865;-8.746246824;0.976780559;-9.239874799;-17.72108882;-7.213933078;-2.963130105
1.300073242;16.03649027;-8.319416024;4.755431656;9.121509897;0.172575862;-4.470992326;30.19877997;30.24851319;35.70692886;43.86023852;0.206456617;-0.457915819;-11.39992519;-2.881598583;-9.913158731;-19.37403811;-5.760343272;-1.997204003
0.663745806;16.67682388;-3.901114136;10.33674463;7.874515618;0.125332567;0.27763499;23.83018045;25.65603718;32.59706517;36.57415978;-0.411109512;-2.56474822;-13.18983658;-6.051473992;-9.558780781;-19.7867986;-4.141612832;-2.026324334
0.105977462;17.61109313;1.400573519;17.6813053;5.167517606;0.134608338;7.836234498;15.83074312;20.7624679;25.86653893;23.68177088;3.967081259;-1.141227046;-12.36717133;-6.493656723;-8.267355065;-18.76050352;-2.969098065;-3.024645378
0.308035579;18.00326616;4.379985973;21.85584389;2.549914764;0.265331521;12.20138889;9.812761543;17.45124162;17.67174666;12.77660569;11.3159961;3.313690394;-8.677841383;-3.966156319;-6.565151072;-16.75666609;-2.506330468;-4.036221256
1.704891134;17.54047999;3.965940507;20.56368669;1.538444391;0.462226467;10.65037854;7.554944808;18.53919573;11.01930572;10.36098432;17.96608058;8.321042567;-3.71127414;-0.130697572;-5.079778705;-14.5293686;-2.528199423;-3.875964801
4.134577612;17.0127015;1.768325512;15.44302372;2.647811362;0.598676031;5.605878266;8.101668958;25.08165898;8.199237832;17.68054274;20.9583273;10.96077017;0.03949389;2.669198945;-4.216430141;-12.67067792;-2.495314067;-2.121575959
