Channel 1 - P4;Channel 2 - O2;Channel 3 - P8;Channel 4 - T8;Channel 5 - C4;Channel 6 - Cz;Channel 7 - Fz;Channel 8 - F4;Channel 9 - Fp2;Channel 10 - F8;Channel 11 - Fp1;Channel 12 - F7;Channel 13 - F3;Channel 14 - C3;Channel 15 - T7;Channel 16 - P7;Channel 17 - P3;Channel 18 - O1;Channel 19 - Pz
-13.04230469;4.098653729;58.2592606;-49.2291271;-32.00255098;-7.997643894;42.56800563;-41.94076236;-26.08052581;-40.47460736;-34.71887911;0.17242431;-26.25289786;-30.66155858;-22.03227811;-20.94557598;-25.56633589;-26.05611788;-17.81289352
-4.990019531;4.899678634;44.36515301;-47.70089817;-26.3568743;-6.175265729;40.58327047;-36.01161337;-33.52575809;-31.72917087;-33.82439909;3.940019531;-24.38597132;-33.63403204;-15.13090385;-15.98846225;-22.42016057;-18.22414714;-16.14377889
7.936109002;1.503498021;15.8673082;-41.88578513;-13.70027151;-2.415724047;22.38332948;-19.82035321;-17.75382861;-12.65452953;-11.24007813;14.3097695;-12.07754798;-27.33592656;-0.401995044;-4.897968811;-11.76203274;-3.899458462;-8.817691901
20.39697243;-2.873978398;-12.64920043;-36.10570385;-0.854094871;1.173086067;0.122693698;-2.439640291;6.253729094;5.212553316;16.61044455;23.81428346;3.201384352;-17.23702154;15.06218706;5.967468833;0.320496896;9.044555494;-0.162038891
28.25526308;-4.421870687;-27.38040128;-33.717057;6.515186376;2.889907535;-14.67713521;7.737841924;21.24071306;13.09524166;32.9860022;26.80583524;13.49670845;-9.875483922;24.96353837;11.20269546;7.828368126;14.95134562;5.450273962
30.65510263;-2.028821193;-24.65727261;-35.4710901;7.117505259;2.411206113;-17.38062079;7.6961767;18.88501767;9.959128068;31.14882533;22.82843807;14.94890612;-8.689445255;27.2784483;9.62926277;8.493773215;13.46969504;6.201032814
29.70782325;1.734761156;-12.27815816;-39.46089579;3.952268664;0.754394467;-11.30721457;0.782077758;4.011507905;1.827203378;17.3346993;16.20757969;9.310078125;-12.41958776;24.76472979;4.669104604;4.62528526;8.778786758;3.424155796
28.39743997;2.759110854;-2.298240995;-42.34950855;1.457436968;-0.607425954;-3.852264559;-6.266238226;-10.56022233;-3.392782935;4.994907401;12.64097867;1.867535874;-16.79304154;22.4716404;1.729043109;0.926329044;6.026157292;0.126952614
28.40992086;-1.145290009;-1.499113261;-41.12943989;2.267621514;-0.771471809;-0.96026059;-7.952554987;-14.03558869;-1.412159424;4.875365962;15.414972;-2.371440685;-17.91449003;24.13029653;4.470248801;1.066771529;7.761493624;-1.249081886
29.34650051;-8.339198079;-7.169677618;-34.64920875;5.852797297;0.127509448;-3.649461844;-3.229367773;-4.907960429;6.408509603;17.94938053;23.67181542;-1.542463041;-14.87104667;29.8347691;12.44718435;5.368840348;12.68886994;-0.235683917
29.58059023;-14.53684561;-10.99787505;-24.30617553;9.622491514;1.225718451;-8.290676764;4.538761642;9.429719108;15.2676757;35.72708765;33.43183125;2.78414767;-9.937728954;36.36665798;21.54670815;10.94503936;17.11996659;1.83536482
27.84681501;-16.07222641;-7.08624964;-13.55627429;11.25500411;1.674436619;-9.759484025;10.39810319;19.48697494;20.98717412;47.06537604;40.26761514;7.52490149;-6.597391143;39.68825233;26.7486182;13.89764913;17.69317268;3.14542626
24.31023808;-12.60325024;2.936792294;-6.325978264;10.37343819;1.240521842;-5.135857503;11.25778821;21.01692287;22.64669308;46.20816173;41.79083029;10.46423337;-7.005654895;37.77121075;25.27077575;11.95369367;13.42236627;2.739059304
20.44054851;-7.165573879;11.74165994;-5.012646698;8.494829095;0.375937421;4.183900373;7.690257264;17.28807904;22.18791346;36.36264297;38.61545258;11.38796503;-10.66825843;31.8695202;18.06800471;5.845595366;5.981622394;1.01418471
17.95139931;-3.686477901;12.93542808;-9.182945409;7.600258089;-0.206395546;12.91087749;3.12972535;15.20998477;21.98281922;26.68135121;33.56883358;11.47920348;-15.06145521;25.51734447;8.881640649;-1.290609699;-1.563295696;-0.788953266
17.66142559;-4.055443558;6.456823023;-15.86540032;8.592008765;-0.080435591;14.48272014;1.288182221;19.12660048;22.72318979;25.30904562;29.86267973;11.826934;-17.55781513;22.08218986;1.686351342;-5.955949878;-6.538817074;-1.557731795
19.05449451;-7.048533501;-1.835092798;-21.39803028;10.76152388;0.621472059;4.62051344;3.65698888;27.48041007;23.25526847;33.72;29.31043237;12.38887969;-17.23813509;22.59761404;-1.659756181;-6.412323404;-7.918952157;-1.013948073
20.73852995;-9.775548202;-5.615678486;-23.69086245;12.48538873;1.366315893;-15.88834965;8.709824996;34.67804727;22.08207777;46.25096317;31.49686328;12.17179344;-15.39081302;25.295502;-2.069946571;-3.588204815;-6.546184983;0.241530182
21.39056214;-10.28246284;-3.474969463;-23.35995998;12.46900117;1.642930224;-40.76322738;13.15979611;36.05976123;18.91612358;54.72805576;34.26230583;10.32390145;-14.46673363;27.02908499;-1.98175789;-0.282381709;-4.418626492;1.243963832
20.52614827;-9.139594535;0.534924203;-22.92739106;10.58593849;1.321352784;-60.80574393;14.24848839;31.60397262;14.9065111;54.44698886;35.17910352;7.132897423;-16.29019176;25.49658922;-3.314454216;0.748305204;-3.529534989;1.312344393
18.63818208;-8.817213579;1.383974753;-24.69981044;7.787878137;0.702951217;-68.49497096;11.45889096;25.5130308;11.54850821;47.09687868;33.14117118;4.072196092;-20.76919141;20.70985859;-6.168225836;-1.450498667;-4.860366641;0.408253884
16.71193448;-11.48979283;-1.804160514;-28.94531757;5.278630335;0.25873068;-62.12084692;6.578358542;22.51042053;9.463390884;38.8097215;29.07480084;2.842296369;-25.95477425;14.77909003;-9.104790717;-5.559384353;-8.008629764;-0.958146244
15.51876517;-17.10512191;-4.87813588;-33.74153032;3.632797615;0.274384036;-46.79983622;2.259265429;24.27299383;8.203153593;35.24085349;25.28286744;4.151617225;-29.35802215;10.31380235;-10.59693914;-9.062215745;-11.60455781;-2.135226744
15.1838956;-23.22846409;-2.990019531;-36.52525777;2.506037684;0.667268284;-31.41819096;0.247552291;28.87076313;7.145918325;37.60325338;23.8375403;7.170599273;-29.58164361;8.676535437;-10.38321313;-10.06775468;-14.22934655;-2.742829964
15.28498005;-26.71071839;3.798792932;-36.02305779;1.10947596;1.09274146;-23.25360876;0.55690953;33.17501367;6.479922883;42.49836516;25.140956;10.06770251;-27.13721469;9.318788064;-9.634225368;-8.560351178;-15.2271045;-2.82660644
15.34484735;-25.85675231;8.993148818;-33.0056493;-0.947768111;1.234070651;-23.80302506;2.027953848;35.65546608;7.206235867;45.24572461;27.7042725;11.22663672;-23.92533713;10.53895635;-9.852767955;-6.195815992;-14.8647533;-2.691011372
15.30356873;-21.51372754;4.197888989;-29.37655589;-3.122251838;1.039704468;-28.66095007;3.606177651;37.00245873;10.05117585;43.76355391;29.3141611;10.26610614;-21.82196555;10.93785169;-11.46480813;-4.849594142;-13.77192461;-2.571726727
15.58583026;-16.42562061;-13.64734729;-26.54365611;-4.175363597;0.728265588;-31.41926819;5.172914484;38.34698122;14.27112573;39.90873662;28.69553092;8.170792389;-21.43661117;10.4129646;-13.29033356;-5.068209428;-12.16378062;-2.408148092
16.70298422;-13.48030325;-38.37335219;-24.57341733;-3.0906867;0.575400938;-28.59300801;7.251714444;39.21007813;17.55581565;37.48010209;26.39034949;6.516221675;-21.9260649;10.01056743;-13.34480149;-5.63655124;-9.541212007;-1.886981115
18.71221543;-14.13016089;-57.69212337;-22.81529613;-0.026415444;0.671763943;-21.86508102;9.961527148;37.49094275;17.3647476;38.83023506;24.20474162;6.401537677;-21.90594051;10.9065724;-10.33053989;-4.584744498;-5.166544594;-0.71336391
21.00062521;-17.92497482;-61.3989356;-21.25232759;3.456053744;0.857417868;-16.12582997;12.29749775;31.6893844;12.79236103;42.9857585;23.73347984;7.833493976;-20.66119846;13.42946757;-4.627477823;-0.812228983;1.075338692;1.113397346
22.63216595;-23.1784597;-48.54169522;-21.10263264;5.190519251;0.883072984;-15.14590965;12.56172986;23.19331239;5.500524003;46.6884795;25.19104889;9.887447005;-18.67795006;16.88687088;1.977457427;4.975727723;8.206559904;3.244915437
23.04213796;-28.06488731;-28.07074895;-23.87563805;3.784837452;0.652319915;-18.53068725;9.73253321;16.13271712;-1.126508166;47.22377802;27.45608124;11.38212214;-17.12970206;20.20548418;7.54798214;10.7480318;14.56224503;5.1942886
22.5397059;-31.38422377;-12.47784292;-29.60438564;-0.364355974;0.327785328;-22.38257865;4.634109528;14.43116869;-4.12249353;44.48828439;29.16307355;11.5130799;-16.83169014;22.72081656;11.19730794;14.61438653;18.80636976;6.63794088
22.16843293;-32.71959322;-9.274429527;-35.9444541;-5.193446547;0.201177946;-22.89838767;-0.213389824;18.39094199;-2.886758767;40.59910443;29.79881668;10.07370035;-17.58808669;24.42383556;13.30408397;16.06885836;20.73034514;7.561729791
22.9499361;-32.22969965;-16.62642534;-39.28022364;-8.223847859;0.434880473;-19.67384957;-2.163791801;23.913335;0.45705657;37.61820082;29.84610934;7.318924414;-18.4654842;25.55844945;14.70114667;16.04161107;21.15975871;8.143172017
25.04429328;-30.45302887;-26.02599923;-37.27270164;-8.106504335;0.901504505;-15.85183336;-0.329488757;25.41487115;2.564942804;35.62061523;29.9597562;3.785291692;-18.69113357;26.09317684;15.65826789;15.82641307;21.0592676;8.494747776
27.48773503;-28.24591231;-29.42013149;-30.87341302;-5.380870772;1.270112551;-15.07694646;3.690573441;20.3014824;1.194765403;32.93070959;30.07766784;0.260924058;-18.33545836;25.67462199;15.5928307;15.88538453;20.63624817;8.515670184
28.77494284;-26.67217615;-25.06980389;-24.02087944;-1.937117263;1.275442011;-18.02783315;6.87735812;11.3006929;-3.260104982;28.28381451;29.40750785;-2.225356927;-18.16600053;24.14296462;13.7333995;15.56990585;19.25286501;7.999007977
27.915304;-26.64153169;-17.87628868;-21.00718061;0.373520865;0.942469287;-21.64261889;6.899963571;4.52274956;-8.062973327;22.81327784;27.34870038;-2.676573847;-18.8380642;22.06437006;10.07913731;13.93431457;16.23026424;6.903297506
25.20207817;-28.3807213;-14.53045857;-23.4356284;0.931465106;0.569653401;-21.75129162;3.694114483;4.639832288;-10.02025913;19.80771349;24.43854737;-0.712081617;-20.2045417;20.6306774;5.730311758;10.83743217;11.8046827;5.53567723
22.11143556;-31.12337982;-17.79311408;-29.13684877;0.512848341;0.479028744;-16.80550494;-0.636104426;11.09386314;-7.655897135;22.14471392;22.28803365;2.904660115;-21.4169376;20.83445915;2.241533641;7.294845515;7.322818214;4.457367103
20.37713226;-33.38924138;-24.4744897;-33.90953581;0.436583866;0.744271964;-9.412554354;-3.425704566;18.55482091;-2.202914945;29.4852631;22.36777482;6.335880872;-21.74688124;22.55751032;0.542934477;4.750521068;4.42251555;4.160623908
20.89077567;-33.82914246;-28.35432612;-34.68761265;1.477448832;1.130198028;-4.295641965;-3.270517173;21.40439445;3.238534079;37.76116697;24.62888679;7.539069905;-21.36256677;24.42070115;0.375633001;3.928562028;3.86153889;4.76812923
23.19588544;-32.12816537;-25.28854477;-31.58619791;3.411372609;1.295829344;-4.424504751;-0.718816587;18.62817147;5.796855934;41.71863201;27.24445047;5.491186065;-21.29810188;24.67655568;0.73080445;4.305114547;5.005830479;5.989968093
25.89322277;-29.30169106;-16.28802743;-27.23566462;5.435541457;1.08491959;-8.643274638;2.51374377;15.01480707;4.771769168;38.72692583;27.88389872;0.912432492;-22.57592897;22.52978144;0.875351937;4.668867087;6.435423094;7.354187066
27.61110336;-27.08209935;-6.353764045;-24.10577509;6.951429667;0.652980786;-12.78953583;4.991377285;17.46999827;2.121187998;30.87815783;25.59518576;-4.116817086;-25.23762495;18.82986543;1.011836204;4.241988462;7.146187546;8.502124738
27.82369664;-26.75631792;-0.409010223;-22.2260538;7.966876493;0.324835156;-13.24756192;6.476750744;29.23139898;1.145800399;23.63899446;21.74318768;-7.459495881;-28.17119281;15.52327231;1.950601748;3.322653919;7.29196618;9.309586459
26.98;-28.2761618;0.189597469;-19.35713487;8.82240362;0.313301799;-9.807424519;7.749134644;46.57719833;4.216559477;22.00141554;19.13899776;-8.235138669;-29.94337063;14.24946401;4.084734632;2.855000733;7.814666809;9.778392836
25.95935196;-30.32659022;-2.073889147;-13.51604635;9.620921156;0.548095262;-5.413867728;9.720968243;60.76388105;11.04821799;27.03771748;19.96337507;-7.193289556;-29.94512457;15.18122426;6.634766349;3.331926919;9.30668065;9.861558975
25.34835681;-31.34503151;-3.58874841;-5.614537078;10.0017624;0.760311268;-3.206547352;12.70972458;63.88156076;18.70508757;35.41727675;24.10788156;-5.91947808;-28.85132467;17.02412165;7.943901267;4.078609635;11.15720988;9.432097884
25.09203574;-30.73709409;-2.723672281;0.302485318;9.520019531;0.737041455;-3.640223536;16.36275463;54.29758563;23.40833585;42.10594901;29.25346612;-5.560409333;-27.9804923;18.142065;6.691087018;3.651273304;11.81116139;8.439675865
24.70958337;-29.32821377;-0.731379478;-0.198838658;8.252478103;0.511155413;-4.307067734;20.02593697;37.71707108;23.00381456;44.0521619;32.61642006;-6.104169798;-28.11408127;17.86056325;3.041633906;1.079075817;9.994829691;7.086143319
23.81283592;-28.64499788;0.000776658;-8.222936626;6.979706878;0.316629216;-2.54624994;23.0217376;23.24693233;18.45233336;42.06487527;32.96754429;-6.738015052;-28.82752629;16.88693932;-1.267731958;-3.12481685;5.886429553;5.804287908
22.47303594;-29.552128;-1.494482974;-19.93255057;6.669123118;0.357890099;1.667123021;24.62299689;17.50778887;13.29547848;39.66596344;31.35684699;-6.866186967;-28.94100959;16.55991863;-4.059781794;-7.120984685;1.20677941;5.00059886
21.16263433;-31.34946924;-3.768102325;-28.66661313;7.663176965;0.611895042;5.347638149;24.04174767;21.00624992;11.38496686;40.07321784;30.06219438;-6.812348803;-27.69588402;17.62693736;-4.201597134;-9.027822073;-1.907123076;4.761322559
20.36362008;-32.14752946;-4.316209223;-29.48348898;9.3125586;0.848422276;5.131144467;20.84105611;28.96655531;14.3602113;43.74353234;30.69684792;-7.5406192;-25.59340339;19.60534808;-2.276437088;-8.31122125;-2.364047003;4.789803642
20.18003906;-30.34307707;-1.945437469;-22.7527506;10.43937859;0.849108263;0.582578647;15.65014649;35.41939094;20.57603117;48.21451526;33.00096259;-9.636044964;-24.10567154;21.23091581;0.054843641;-6.140827843;-0.756569102;4.659656105
20.25162113;-26.07227907;2.054210293;-13.94112373;10.26876896;0.619080564;-4.911791722;10.45780932;37.23571228;26.22183163;50.07959848;35.18611136;-12.48960476;-24.4607312;21.5405554;1.424153746;-4.427806222;1.290947285;4.186481747
20.00937094;-21.41844127;4.988334818;-9.56512958;9.014309482;0.38998925;-6.700694377;7.814203776;35.37763846;27.86739538;47.41488511;35.41677298;-14.50090682;-26.54342899;20.61444249;1.708112344;-4.353137795;2.46786623;3.597435688
19.06490679;-19.05806357;5.107220181;-12.26431529;7.584475207;0.406412334;-2.803611465;9.143323701;33.09893399;24.67515245;40.92510864;33.17474693;-14.23910753;-28.89053996;19.34973292;1.816667305;-5.593456725;2.689374994;3.337442833
17.45616493;-20.28024471;3.118265697;-18.74077403;6.66679314;0.690981001;4.214573166;13.35847602;33.03528915;18.76434727;33.27735909;29.48337255;-11.64189596;-29.83109389;18.51961117;2.590674398;-6.826044157;2.875670603;3.664413675
15.60419314;-23.90404674;1.514258057;-22.22679836;6.033128042;1.008061069;9.207995176;17.09277019;35.47797912;13.54591924;27.41374298;25.97193342;-8.240804113;-28.83178977;17.99898213;3.833636161;-7.000660896;3.886751479;4.379419789
14.04088264;-27.0089136;2.315079946;-17.7244991;4.741059775;1.066290632;8.707861271;16.77095313;38.72446629;11.30729724;25.08764423;23.65535352;-6.175753632;-26.91537405;16.87099947;4.359989015;-6.24532822;5.597106553;4.935896516
13.10267162;-27.00234308;5.228143634;-6.108551637;2.104872148;0.780263965;3.843281381;11.21601725;40.68735326;11.83526745;26.35840889;22.40070216;-6.74932055;-25.79604693;14.33621422;3.046822619;-5.637763528;6.928454898;4.856447887
12.7809972;-23.4689453;7.868366746;6.044935581;-1.416924804;0.353907167;-0.660752593;2.808000376;40.3033213;13.0374505;29.97406133;21.38334314;-9.634022227;-26.45189071;10.63563854;0.002228132;-6.08065305;6.809499627;4.126133313
12.80462562;-18.37428113;7.864673477;10.89981221;-4.257767867;0.107573369;-0.633472961;-3.884034139;37.92365425;12.97887148;34.15397586;20.03325295;-13.28767857;-28.31156317;7.18111441;-3.155203312;-7.290282688;5.238411585;3.247588576
12.88178495;-14.47912781;5.007413989;4.903291036;-4.774833295;0.202887603;3.813490497;-5.17325548;34.88692915;11.66486528;37.36770227;18.67363874;-16.14578005;-29.69811906;5.751200738;-4.195856479;-7.798960815;3.539279058;2.916556908
12.93148945;-13.24253618;1.530587193;-8.57238544;-2.486192201;0.511617235;8.305161782;-0.807479065;32.88725854;11.11334422;38.9219054;18.39803225;-17.58688169;-29.12559394;7.366899565;-1.711143012;-6.005332402;3.561875924;3.57066031
13.13539617;-13.89075678;0.242219323;-21.40027597;1.476959524;0.742734107;8.115453073;5.918539006;33.41111865;13.61541062;39.19991197;20.34173163;-17.96256529;-26.37812106;11.6763055;3.962728539;-1.435413697;6.4063779;5.138650333
13.75197462;-14.35689882;2.111799202;-26.13713197;5.054796747;0.706809799;2.671096206;10.57144927;37.0913477;19.54064284;39.35025716;24.8863069;-17.84;-22.54913964;17.21998215;10.9437644;4.780342506;11.5983177;7.131525642
14.80372938;-13.24180593;5.431000313;-20.90056065;6.514651244;0.474882329;-3.379466114;10.65512928;42.96287519;26.46520213;40.41406877;31.28757711;-17.25313219;-19.11637152;22.26213464;16.89110412;10.56299318;17.27328187;8.950058594
15.87221765;-11.10249844;7.310995128;-10.34968402;5.309292293;0.291217853;-3.814956322;7.035327807;48.17104087;30.43856742;42.35894427;37.89444748;-15.65765015;-16.88648919;25.54126609;20.16766292;14.14510591;21.200593;10.16116357
16.20876505;-9.957161068;6.222042725;-2.259416858;1.997762419;0.329736258;3.524334318;2.767482931;48.89333186;28.5784892;43.81674329;42.8089327;-12.58381303;-15.64798074;26.52770031;20.36393002;15.0072931;21.95128416;10.59091294
15.16862727;-11.42557399;3.323559458;-2.236549391;-2.47681356;0.52772088;13.77989574;0.453720979;42.52102151;21.13508148;42.99523754;44.67671735;-8.341623365;-14.69059072;25.27049582;18.06041728;13.90601595;19.52721337;10.27048733
12.71618308;-15.10982572;1.359685932;-10.25238185;-7.383594989;0.65414586;17.59240288;0.328965062;29.90061554;11.50100037;39.28719374;43.27336615;-4.116409891;-13.62187091;22.18928801;14.24941619;12.13701189;15.20152108;9.366623087
9.626119684;-18.64571102;2.061929461;-21.18264434;-12.18979482;0.545476563;7.615980849;0.519158291;15.81140161;4.117815231;34.28354553;39.61363884;-1.361782758;-12.74830317;18.01717355;9.918444968;10.68390494;10.79791887;8.164117046
7.155242688;-19.45207778;4.41531218;-28.65344311;-16.17024975;0.28030055;-15.72835421;-0.966789795;6.722988068;1.732212542;31.07534072;35.47744009;-0.995736277;-12.75816556;13.76697438;5.957444918;9.83658657;7.855327335;7.044533212
6.319716282;-16.75741091;5.495368976;-29.30366745;-18.30350404;0.119112332;-43.65326089;-4.344623592;6.862943169;3.877087275;32.01113168;32.53013843;-3.000625243;-14.06811773;10.47497128;3.1774993;9.385968363;7.051028587;6.37422536
7.232974376;-12.2252194;3.324447063;-24.5554598;-17.82033175;0.25804774;-64.18323888;-7.871124516;15.2147656;7.515999011;36.5176803;31.49843384;-6.596495654;-16.42470264;8.71760533;2.169249239;9.061833334;8.05058374;6.3172027
8.977640678;-8.660334524;-0.757400188;-18.96928482;-15.02660816;0.627236259;-69.48321405;-9.416635883;25.8028207;9.237738487;40.8874086;31.91096279;-10.66798838;-19.04843334;8.240582818;2.990765767;8.807546498;9.771395314;6.712922563
10.14492506;-7.874588483;-2.580170315;-16.69572323;-11.56983222;0.931695321;-60.23301291;-8.337617628;31.42248892;7.382626254;40.59510597;32.58870864;-14.05019551;-21.1161232;8.091849483;4.959341588;8.743303434;10.92621853;7.157796366
9.703954838;-9.46657181;1.428611647;-18.68734407;-9.658383556;0.909940893;-44.26650266;-6.020740397;28.3895776;2.711157452;33.64928108;32.54154355;-15.62844077;-22.15365778;7.287580566;6.832988331;8.964564727;10.62474342;7.274574906
7.615618739;-11.45994697;10.44154222;-22.51851937;-10.63978891;0.57734736;-30.9020363;-4.697515217;18.94956184;-2.585850368;22.41188267;31.60608625;-14.53932931;-22.10024838;5.562036736;7.383826429;9.40563925;8.768077421;6.978585552
4.78358377;-12.1567031;18.35741045;-24.63620722;-14.00494789;0.224644958;-25.24489826;-5.622259327;9.56834017;-6.552200562;12.28672896;30.36076717;-10.65688745;-21.15020559;3.6107714;6.040655313;9.866201511;6.039080379;6.525266833
2.414967963;-11.56386084;17.17191182;-23.16630247;-17.66779677;0.161201454;-26.24818034;-8.169445587;6.321293491;-8.514887372;8.074218859;29.46286447;-5.075241734;-19.62154426;2.605736876;3.19484971;10.13260545;3.494389707;6.291365511
1.278617362;-11.18798129;2.603103795;-19.19197293;-19.38975665;0.430456002;-29.16421404;-10.50944736;10.73455284;-8.917689596;10.71645227;29.05837176;0.016548372;-17.94391909;3.348199506;-0.014226689;10.08130984;1.999672368;6.464488371
1.381581627;-12.45596656;-22.05090776;-15.71044831;-18.2851747;0.760234958;-29.82950823;-11.13440375;19.05284941;-8.382977772;16.96075739;28.8405864;2.370608685;-16.63037576;5.722112215;-2.280555776;9.720408969;1.843273779;6.89538963
2.221989193;-15.22287949;-46.88856256;-15.21610534;-15.26557898;0.803978279;-27.37516704;-9.869223588;25.30103441;-6.982353779;22.19257935;28.69732048;1.137607811;-16.08331339;8.851983517;-2.729995506;9.190487211;2.724977493;7.229848684
3.322270846;-17.72411779;-60.9206615;-17.78069742;-12.1452184;0.463108627;-23.76327737;-7.614797189;25.69281098;-4.361130731;24.13473094;29.25318754;-2.335430134;-16.31104477;11.78059737;-1.241543543;8.736349647;4.045833217;7.201474318
4.56709878;-18.03011486;-58.54792356;-21.02344365;-10.21213756;-0.001617099;-21.26007813;-5.286857394;21.07327146;-0.517283096;24.39596344;31.61088128;-5.182228725;-16.83378989;14.07768152;1.592817;8.623775647;5.240961466;6.838965969
6.09289159;-15.72192903;-42.68681095;-21.93178769;-9.45158778;-0.180318476;-20.33941951;-3.087007457;15.75346479;3.573289591;26.62149409;36.31378252;-4.909817934;-16.96877463;15.91029418;4.766660352;8.998004647;5.942691437;6.427105478
7.890787191;-12.30409619;-22.57917538;-19.1791429;-8.981931223;0.130779708;-19.67524926;-0.786062878;13.9127796;6.170619836;32.82763105;42.3866613;-1.18841372;-16.33640949;17.6138531;7.249577436;9.765294525;5.968825804;6.274093672
9.533053231;-9.975898925;-7.978776525;-14.28669023;-8.190308326;0.74060567;-17.83034137;1.396125306;16.48856027;5.789873182;41.04845549;47.45693022;3.874208083;-15.15851203;19.22670059;8.335551088;10.62215903;5.28767575;6.486655413
10.31181151;-9.8153534;-3.695113415;-10.82041496;-7.473684256;1.211099942;-14.83792234;2.386030132;20.86561781;2.291506609;46.3769332;49.15861211;7.30187994;-14.0368781;20.42177577;7.863803121;11.26766078;4.068891955;6.918820334
9.707723764;-10.93573944;-7.861773547;-12.15146641;-7.891445218;1.217268843;-12.2040929;0.964339521;23.3409746;-2.803176194;44.68652018;46.88020998;7.524520715;-13.3574802;20.8512422;6.256885267;11.65973882;2.750253406;7.295059992
7.810622375;-11.32187556;-14.46562208;-19.22406855;-10.04327545;0.808976142;-11.44312727;-2.91028937;22.19951332;-7.063778248;36.0756884;42.44174237;5.579768123;-12.85400154;20.52994104;4.358473993;12.08555408;1.946725605;7.376629026
5.341594561;-9.602589457;-17.83711173;-29.72202549;-13.20338272;0.351762314;-12.59354686;-7.416163259;18.9422604;-8.493896519;25.23679942;38.99574372;4.247978088;-11.78632087;19.88256564;3.120999261;12.93339918;2.139152741;7.050744548
3.241602337;-6.23417548;-15.92554754;-39.1257338;-15.54334775;0.206258794;-14.10195978;-9.690365408;16.85297938;-6.591092356;18.3764158;38.84987418;5.764056256;-9.657088555;19.43629673;3.259596717;14.3118365;3.318211574;6.333478963
2.123403159;-3.116043266;-10.57451714;-43.03325962;-15.34535881;0.430749878;-14.16065552;-7.759591444;18.2382959;-2.486290009;19.01901751;41.84873081;9.920392054;-6.859717964;19.48146805;4.997430558;15.83218755;4.881814059;5.354403372
1.965465152;-2.02448911;-5.324744136;-39.45303087;-12.25969225;0.761407823;-12.26976123;-2.128520936;22.608847;1.82671295;25.8374306;45.58627817;14.0978619;-4.629238939;20.01081064;7.968676109;16.77281889;5.934249514;4.355956966
2.218396719;-3.230420306;-2.74195809;-29.87353566;-7.616780264;0.872112674;-9.627677251;4.306057415;27.14954668;4.595922691;33.99088048;47.28449896;15.23125916;-4.228308208;20.91699826;11.27896193;16.53408667;5.816024716;3.653701275
2.191780976;-5.435131262;-3.07497858;-18.61891062;-3.57630068;0.670399344;-8.029542321;8.084973491;28.92932515;5.062997948;38.73875553;45.83883589;12.16707661;-5.980808324;22.14257478;13.71124148;15.03767803;4.489721305;3.493118837
1.434924601;-6.972451393;-4.724057658;-10.86583925;-1.804388533;0.365659152;-8.276344895;7.4462983;26.99932299;3.518077066;38.5162853;42.42322635;6.565370585;-8.954737915;23.55311322;14.08946539;12.76141433;2.517480897;3.849241509
-0.097097436;-7.160557983;-5.732738923;-10.29365928;-2.660261012;0.260975222;-9.498756471;3.342744219;22.79731305;0.803228296;35.34791186;39.269964;1.672547311;-11.5914968;24.67601798;11.78063999;10.40804887;0.699299813;4.340153821
-2.107387275;-6.657787644;-5.12453612;-17.4446235;-5.361119798;0.470023193;-9.961986282;-1.488896826;18.76293721;-2.296160976;32.6936646;37.75750405;-0.025263368;-12.79295548;24.70900818;7.17547374;8.506961773;-0.308151905;4.40408216
-4.137062931;-6.641414626;-3.344318939;-29.50882932;-8.781833659;0.819250276;-8.613606135;-4.61374742;16.48161132;-5.374595753;32.69791134;37.4590278;1.565919249;-12.5928282;23.01884369;1.832562321;7.263546443;-0.134336439;3.686291996
-5.753579371;-7.669838523;-1.751311621;-41.60843615;-12.13845147;1.016643444;-6.014700341;-5.523294425;15.88990042;-8.318513307;34.93629699;36.89485545;4.40433169;-11.90022923;19.82979181;-2.000130946;6.69416709;1.362827841;2.357022298
-6.708178587;-9.275861687;-1.570525511;-48.99782266;-15.08542578;0.922237462;-3.870516731;-5.647673863;16.02258008;-10.96768789;37.27958237;35.20386201;6.086917745;-11.60037982;16.44473241;-2.448663055;6.793711909;4.105381566;1.064450766
-7.042926841;-10.56376084;-2.879027786;-49.17806593;-17.38189677;0.668487612;-3.607156932;-6.917306923;16.4247347;-12.82589232;37.80392654;33.14948761;5.631685407;-11.8302025;14.58121064;0.844899942;7.477473563;7.614994274;0.488764528
-7.087394069;-11.12018662;-4.215588001;-42.93569637;-18.64662142;0.525276301;-5.23548664;-10.10916883;17.83596087;-13.07292815;36.12772209;32.50415727;3.905969574;-12.04818085;15.14243321;6.252995484;8.336040439;10.83477635;0.813008049
-7.279214527;-11.30751969;-3.241823891;-33.79635928;-18.5248619;0.643009544;-7.432893181;-14.24064222;21.4641107;-10.94524454;33.36216163;34.34675272;2.55466767;-11.77482418;17.35961942;10.83967412;8.537002206;12.32539533;1.549873018
-7.84953382;-11.68355434;1.609749152;-26.15589857;-17.08676743;0.915685089;-8.677871349;-17.34398672;27.45867386;-6.31823004;31.1040447;37.82893625;2.493314684;-11.26601015;19.11961649;11.93681494;7.162828556;10.96958249;1.909889395
-8.574844489;-12.20125655;9.33400394;-23.04727893;-14.99063909;1.087422972;-8.385915622;-17.89179784;33.96686585;-0.145345949;30.47247706;40.59662066;3.252961655;-11.45041406;18.40868426;8.688557807;3.869422085;6.803912383;1.445132487
-8.84119736;-12.08814802;15.7617829;-24.72881975;-13.15723392;0.996178616;-7.08719749;-15.77360091;37.76090744;5.601316489;31.7867574;40.60222314;3.608728279;-13.14832543;14.83967368;2.540293794;-0.65398308;1.287736468;0.438493711
-8.082827627;-10.63122459;15.17038814;-28.85546386;-12.1914888;0.72326591;-5.625636361;-12.2207218;36.17762416;8.624314431;34.715915;37.78527654;2.800569491;-16.26677703;10.03058469;-3.694153701;-4.918285764;-3.397351111;-0.311508933
-6.339346848;-8.140222984;3.693595776;-32.10684857;-12.06210406;0.511109962;-4.255811421;-8.92104236;29.01229996;7.379152996;38.41752365;34.1519926;1.22300571;-19.71661155;6.43175045;-7.573234356;-7.533888339;-5.673443128;-0.157454642
-4.489032677;-6.068332431;-17.45642294;-32.29081275;-12.32702735;0.532265653;-2.543175124;-7.062945367;18.93691956;1.960745116;41.53119288;32.12557905;0.017431917;-22.16956882;5.445237105;-8.387994119;-8.14167105;-5.565752988;0.834707223
-3.873633896;-5.97846968;-41.39430169;-29.64683856;-12.6797202;0.731074062;-0.128172031;-6.907693346;10.03988076;-5.790496818;42.37210192;32.51926733;-0.010269456;-23.02930398;6.317280545;-7.245344776;-7.611319564;-4.547996207;1.921486436
-5.473819799;-8.146906009;-58.63430061;-26.55810327;-13.28173778;0.886504764;2.486802862;-7.97394012;5.434384131;-13.15080596;39.64079771;33.82770625;0.828943501;-22.79588852;6.732770732;-5.932650819;-7.281418457;-4.26988875;2.308271999
-9.192466377;-11.06531804;-62.33925814;-25.87545646;-14.54934946;0.832090121;4.044785231;-9.511794829;5.544840956;-17.9203019;33.37900547;33.44304486;1.29422428;-22.53044914;4.694033349;-5.507899148;-7.817913509;-5.141453936;1.839249069
-13.80538875;-12.43476498;-52.42405759;-28.94451215;-16.59589643;0.619122222;3.590620576;-10.90803191;8.177764497;-19.54289577;25.37605006;29.80866952;0.197277295;-22.90276982;0.207802845;-5.691052775;-8.640908725;-5.9478351;1.145602621
-17.68655897;-10.96235335;-35.63436626;-34.62681697;-18.89149574;0.464636948;1.52571567;-11.8801417;10.21302658;-19.23095427;18.42101409;23.76803732;-2.628170564;-23.64407345;-4.580878606;-5.426439202;-8.441624375;-4.880924093;1.099681473
-19.82784427;-7.493282266;-21.36645018;-39.96426742;-20.53086375;0.533497037;-0.44536641;-12.50003906;9.658228805;-19.0162452;14.68570885;18.05404764;-6.118114721;-23.84499693;-6.945072059;-4.031257897;-6.395963787;-1.196121331;2.028265811
-20.41795809;-4.466891916;-15.98845587;-42.05511378;-20.93506612;0.766166831;-0.641760523;-13.10054033;6.666254362;-20.36587094;14.3589841;15.3770432;-8.648264189;-22.79399218;-5.608380892;-1.915276256;-3.050607539;3.882186938;3.367218661
-20.55174595;-4.04346953;-19.48996832;-39.90346693;-20.37113629;0.924310405;1.06953088;-14.06127768;2.965031198;-23.2887669;15.61650312;16.63248397;-9.055569501;-20.60840929;-1.658209556;-0.275769586;-0.082667766;7.835444209;4.077887536
-21.29433258;-6.373931518;-26.55213504;-35.02236646;-19.78022281;0.819359059;2.99449296;-15.51246809;0.30790479;-26.49376291;16.01544552;20.53100312;-7.31;-18.1389086;2.356780829;-0.060315619;0.935411221;8.657755157;3.492977969
-22.81883062;-9.412463853;-30.90047923;-30.41320774;-19.99444545;0.509346316;3.04087145;-17.12827587;-0.836923205;-28.40810234;14.24635869;24.731553;-4.47;-16.28765555;4.396087217;-1.099114302;-0.226433934;6.384436347;1.880324154
-24.27703341;-10.44538644;-29.5630484;-28.64074762;-20.98157623;0.269591977;0.749989176;-18.2324235;-1.470489637;-28.28371911;10.86052794;27.41056381;-2.056301817;-15.3661345;4.388665007;-2.14963449;-2.251285153;3.103970997;0.243016152
-24.49095117;-8.143963676;-24.07974039;-30.31358897;-21.77833621;0.350205881;-1.920043945;-18.25633673;-3.170218817;-26.62824035;7.43245502;28.04355861;-1.274392873;-15.01785335;4.051298319;-1.832751063;-3.303010375;1.408302454;-0.478453553
-22.91806582;-3.563381421;-18.31169051;-33.95176272;-21.21509984;0.737190129;-2.020164911;-17.27175334;-6.95391506;-24.75608644;4.920579581;27.01664427;-2.490621377;-14.68394531;5.254070469;0.280040283;-2.463683654;2.481679396;-0.130205782
-20.14154975;0.616417591;-15.0912024;-37.21589943;-18.86678191;1.141543565;1.718890296;-16.15648322;-12.79079326;-23.90309723;2.644024725;24.70294308;-5.158502403;-14.12399126;8.261504839;3.268483199;-0.415845722;5.305942207;0.604463372
-17.51644192;1.942678425;-14.48627312;-38.52091032;-15.46092628;1.238578339;7.254835124;-16.15878173;-20.01404856;-24.58971778;-1.25927042;20.96290408;-8.178086783;-13.53064594;11.24823119;5.435866164;1.166352018;7.553787679;0.84397993
-16.2532839;-0.278223812;-14.70504512;-37.85742562;-12.41209285;0.94977361;10.34496493;-18.09527382;-28.13388808;-26.61470191;-8.301537871;15.47987836;-10.51278779;-13.21887748;11.48156427;5.403357087;0.988769507;7.409824124;0.26874244
-16.63208019;-4.779958329;-14.31477894;-36.33058671;-10.85971773;0.514224447;7.886627752;-21.76636983;-37.29022593;-29.51751168;-18.34477126;8.510097656;-11.76863072;-13.27188212;7.299672937;2.950029297;-0.857973292;4.885509472;-0.646063941
-17.90996453;-9.376365957;-13.54350474;-34.95527767;-10.9692541;0.282029871;0.886024065;-26.06886794;-47.98193714;-33.02592661;-29.59993968;1.266247997;-12.39796606;-13.50598628;-0.547882075;-0.91119602;-3.040720425;1.681051333;-1.095217165
-18.94532369;-12.30809812;-13.60340756;-33.80540881;-12.00687191;0.411992185;-5.634254937;-29.76347889;-60.37265536;-37.13238455;-39.87224003;-4.480039063;-13.33095646;-13.73388585;-9.130078125;-4.559672019;-4.082386015;-0.169172976;-0.670579319
-19.04227701;-12.98418513;-14.98062407;-32.25348439;-13.049502;0.743062575;-6.233157827;-32.32504831;-73.81914074;-41.84264824;-47.98149264;-7.303441478;-15.19010996;-13.97619268;-14.95249985;-6.620564406;-3.47352341;0.257181646;0.286578912
-18.40401166;-11.89547561;-16.57274077;-30.0453725;-13.69983506;0.952225227;0.327951627;-34.21384355;-87.02825587;-46.92708971;-54.23191589;-6.877894166;-17.61102206;-14.34177445;-15.88605008;-6.561662403;-1.929032528;2.283749366;0.985705022
-17.91736161;-10.11236571;-16.61153983;-28.15700704;-14.23530564;0.852568116;9.121016656;-36.35412635;-98.67909819;-51.93990939;-59.69748423;-4.102064354;-19.24619827;-14.69179652;-12.22654121;-4.821240162;-0.697843931;4.299567261;0.837828717
-18.48463241;-8.841816982;-14.46408209;-28.47625698;-15.14339579;0.559821715;11.7082905;-39.23820073;-107.9762357;-56.46323895;-65.09676746;-0.61940404;-18.60376302;-14.49753193;-6.349709476;-2.523927825;-0.597180127;4.904470236;-0.122907918
-20.40166076;-9.131108438;-11.4660188;-32.32927049;-16.51467703;0.377882364;1.903782362;-42.37643627;-114.7433562;-60.30553873;-70.2765081;1.897909791;-15.20848557;-13.15861448;-1.297584809;-0.949147614;-1.555264971;3.675631934;-1.375814558
-23.18466381;-11.5157153;-9.827788225;-38.95619737;-17.84791079;0.511608978;-19.43948063;-44.54147463;-119.1466255;-63.45533624;-74.65269089;2.349795355;-10.20245472;-10.57208872;0.82288338;-0.92793982;-2.892079316;1.186898202;-2.413697009
-25.89688758;-15.57227239;-10.53524215;-45.3032931;-18.4308143;0.872448595;-44.23126492;-44.63214146;-121.4639219;-65.87036143;-78.0355507;0.554979299;-5.816137954;-7.406788129;-0.233472055;-2.384187576;-3.917170037;-1.467413676;-3.107782789
-27.69868592;-19.73927069;-12.23695484;-47.61617689;-17.955222;1.155622024;-61.88445003;-42.50833915;-122.1631216;-67.36928092;-80.93771581;-2.676127379;-3.983797141;-4.723568183;-3.003333187;-4.286144575;-4.268278279;-3.185419169;-3.621207019
-28.25166362;-21.85826183;-12.29712124;-43.90681172;-16.83387364;1.117160601;-65.73433907;-39.18299966;-122.0840686;-67.78605063;-83.99876049;-5.800385806;-5.096730179;-3.17626525;-5.361230894;-5.172232441;-3.822355221;-3.195745386;-4.026089774
-27.76198333;-20.39543989;-9.190781063;-35.53937764;-15.94528937;0.795455658;-56.69643671;-36.24532557;-122.2490169;-67.24741656;-87.03308806;-7.18542934;-7.849867961;-2.485371511;-5.829285412;-4.078478284;-2.503444992;-1.30465198;-4.07520902
-26.70390993;-15.59357629;-4.082076128;-26.66705036;-16.00264634;0.473736681;-41.8464769;-34.93440126;-123.1165431;-66.25412295;-88.61557663;-5.966308663;-10.30309811;-1.719716396;-4.406589405;-1.310723981;-0.367355596;1.886400697;-3.412395865
-25.4503066;-9.591117881;-0.054188032;-21.76722295;-17.03301062;0.41891604;-29.33208651;-35.48378556;-123.7519221;-65.39648908;-86.70096827;-2.632943185;-11.30357039;-0.222716687;-2.443804158;1.561038127;2.079234366;4.994853085;-2.039475078
-24.06212214;-5.191597586;0.448005813;-22.93427967;-18.35194908;0.638199124;-23.46428099;-37.11450132;-121.7751353;-64.89856101;-79.91035035;1.164762173;-11.12629097;1.6138445;-1.641643933;2.655666503;3.787655731;6.389833786;-0.551915041
-22.36744897;-4.047679651;-2.266481485;-28.7913707;-19.03643084;0.878052814;-23.23935602;-38.59553753;-114.5568259;-64.40831093;-68.56064326;3.65049335;-10.86285252;2.483515201;-2.811882646;1.121216288;3.675699963;5.170453767;0.172394033
-20.27109837;-5.619288949;-5.372683178;-35.69236802;-18.54570308;0.866058575;-24.6285957;-38.95680788;-101.1227251;-63.28115329;-54.70747264;4.169885894;-11.16588103;1.210545823;-5.244327655;-2.124344575;1.510078125;1.965065563;-0.365789646
-18.0773973;-7.768070847;-5.9582109;-40.21641126;-17.06457818;0.571311403;-24.214154;-37.91910138;-83.40681929;-61.15575964;-41.20580667;3.717639711;-11.504247;-2.1229164;-7.163048908;-4.920509264;-1.599134564;-1.22115152;-1.847797314
-16.57125538;-8.572469019;-3.503631492;-41.10543314;-15.36341174;0.240804037;-21.25665375;-35.84604713;-65.67371687;-58.30545613;-30.43819595;4.248086998;-10.60717796;-5.960039063;-6.998196649;-5.400078125;-3.72589485;-2.292572955;-3.352166619
-16.72836626;-7.926961417;-0.210232682;-39.39316001;-14.29824887;0.175116502;-17.12466304;-33.32885864;-52.16957587;-55.39778882;-23.44711871;7.212256452;-7.684030684;-8.246851242;-4.56574034;-3.432865512;-3.496712983;-0.697146522;-4.094461431
-19.16835163;-7.618490937;1.091400839;-36.98162327;-14.28916927;0.447850911;-13.35404994;-30.70800365;-44.48358215;-52.82652959;-19.78962032;12.43563057;-3.278217054;-7.882101287;-1.254721725;-0.84334125;-1.286263094;1.881532906;-4.072699342
-23.68091674;-9.800379721;-0.47550793;-35.07853617;-15.10206129;0.827751107;-10.40707574;-27.84315889;-40.53523442;-50.22769216;-17.94858291;18.22973826;1.074395551;-5.483434127;0.957052872;-0.156417498;0.827981933;2.518904687;-4.040840695
-29.17537749;-15.10839424;-3.124855431;-33.79155235;-16.0562052;0.979235202;-8.014558704;-24.28337106;-36.05743271;-46.70830244;-15.95833092;22.63466312;4.11517977;-2.851830292;0.917078408;-2.775566247;0.515081368;-0.824549717;-4.799232329
-34.16455464;-21.97033852;-4.198259811;-32.96438826;-16.5178343;0.762958428;-6.1906034;-19.73943159;-27.61538954;-41.70844455;-12.02866934;24.74691482;5.901426162;-1.585204799;-0.974207532;-7.977958156;-2.974114589;-7.622175375;-6.397355862
-37.52496028;-27.68067226;-2.750985907;-33.14992584;-16.36207852;0.365101084;-5.420876826;-14.53970845;-14.99423908;-35.78750804;-5.100500291;25.03656403;7.613256307;-1.97809256;-3.30641991;-13.49345621;-8.047815912;-14.93322681;-7.950058594
-39.04248774;-30.36532122;-0.472439725;-35.52007813;-16.09047178;0.137430708;-5.658024797;-9.701420862;-1.207099867;-30.56310889;4.763013853;24.4773654;10.24550745;-3.060039063;-5.003936589;-17.18871945;-11.79868473;-19.40819017;-8.263079031
-39.36347169;-30.26021381;-0.033404253;-40.59811623;-16.49161794;0.290428411;-5.372252944;-6.457546408;9.839784938;-27.6724255;16.35673758;23.39977019;13.38604719;-3.629232906;-6.299323949;-18.51438637;-12.11680212;-19.67566549;-6.775518013
-39.38475907;-29.33622477;-2.400933771;-46.97518821;-18.03333837;0.712765104;-2.23122503;-5.467732999;16.21246773;-27.4809256;27.83162332;21.23256078;15.30984964;-3.307802672;-8.443378319;-18.60543738;-9.27888023;-17.26855128;-4.050941046
-39.53783201;-29.67283036;-5.710575368;-51.43594854;-20.39356043;1.074653866;4.519427361;-6.252169966;19.17161764;-28.59533993;37.54450322;17.44842177;14.48010087;-2.69990111;-12.34573763;-19.05777963;-5.763529523;-15.36248422;-1.421990261
-39.51369994;-31.94377537;-6.887481152;-50.82688549;-22.50183417;1.117120272;11.91423635;-7.339347604;21.91739241;-28.69643805;44.77152444;12.81685683;11.20940847;-2.59680076;-17.32775428;-20.48669585;-4.420250448;-16.32606382;-0.088191484
-38.6380222;-35.15982361;-4.596345615;-44.43591803;-23.14664061;0.866255312;13.78595749;-7.156633425;26.97832831;-26.17248228;49.81327884;9.627657767;7.919768362;-3.050218272;-21.1756392;-22.09859523;-6.403889041;-20.00763039;-0.384818231
-36.58690465;-37.68384193;-0.715820791;-34.98442919;-21.790983;0.586240968;4.501206396;-5.10816462;34.36355171;-21.34090393;53.45170957;10.36739363;7.529633586;-3.232389614;-21.62847586;-22.58674746;-10.43651891;-24.04497167;-1.743117513
-33.84806354;-38.5140543;1.228638425;-27.24270571;-19.03249814;0.524982167;-16.39412341;-2.045416647;41.86511619;-16.29509951;56.23358405;15.75287005;11.12566741;-2.242220533;-18.17595922;-21.4975026;-13.87457991;-25.82534066;-3.25683168
-31.52467194;-37.77253263;-0.598383902;-25.10962693;-16.33868375;0.690766579;-42.29692102;0.293425175;47.09;-13.44876455;58.18359431;23.77688487;16.83426247;-0.10572434;-12.66825746;-19.81070172;-14.65182727;-24.43407754;-4.305878602
-30.60865571;-36.18767456;-4.337541379;-29.25750465;-15.1847139;0.861600213;-62.50910027;0.533467001;49.43620868;-13.85735759;59.1397588;30.74664037;20.96134047;2.000854057;-8.13936854;-19.17806713;-12.5804039;-21.06329536;-4.751855221
-31.28881328;-34.27588658;-5.860917442;-37.0557733;-16.16421244;0.809696168;-68.52017845;-1.312500422;50.40132667;-16.5634139;59.30576481;33.68080233;20.64881677;2.592292112;-6.709891993;-20.45330432;-9.140850353;-17.73315651;-4.697411602
-32.84235233;-32.07618262;-2.619591359;-44.72382616;-18.68084756;0.526417002;-59.32357137;-3.841558389;52.10829425;-19.40397522;59.38907081;32.24345752;16.00867466;1.092672121;-8.228855016;-22.79361146;-6.157326914;-15.58355084;-4.208467545
-34.19354022;-29.60647963;3.539885848;-49.9506643;-21.40888403;0.237696983;-41.89326817;-5.302581448;55.4267941;-20.5904876;60.08251678;28.69773025;10.05063499;-1.633384725;-10.72607638;-24.15372026;-4.554651494;-14.22961701;-3.349697231
-34.69043888;-27.4116276;7.451649672;-52.95622907;-23.15013366;0.197848926;-26.40542228;-4.87392572;59.31384221;-19.82790911;61.31641264;25.95849698;6.462672229;-3.924548576;-12.23617568;-22.82272656;-4.122112687;-12.60544521;-2.457458314
-34.48788513;-26.45652643;5.103483862;-55.34871678;-23.45494397;0.454872857;-19.65898248;-3.171177896;61.84787614;-18.18703298;62.02630039;25.37409985;7.004467622;-4.605278935;-12.39984339;-18.77053485;-4.213558975;-10.35145753;-2.228183119
-34.25992933;-27.29676388;-2.25693595;-57.97568264;-22.61693305;0.80394536;-21.39482594;-1.606811853;61.95208179;-16.97311225;60.80649473;26.04;10.52721841;-3.812225213;-12.45745185;-13.71940414;-4.527665688;-8.358847963;-3.320863364
-34.51124963;-29.2653524;-8.30139184;-59.72645939;-21.17935492;0.969365381;-25.87214488;-1.169460453;60.28511218;-16.58687809;57.04445656;26.09041199;14.25026321;-2.679344902;-13.67523931;-9.896972623;-5.20128196;-7.928293973;-5.68319956
-35.06096978;-30.5391688;-6.595863409;-58.31589737;-19.45346637;0.84506258;-27.03281015;-1.656855744;58.61473913;-16.26993988;51.64671593;24.70558394;16.08735013;-2.209784923;-15.66712604;-8.475162961;-6.241913042;-9.328577666;-8.219399169
-35.09796466;-29.22195446;3.375322963;-52.30660622;-17.44991488;0.574122241;-23.0618006;-1.979464545;58.3677646;-14.82359641;46.73445406;23.00249176;16.05980064;-2.373820596;-16.23861219;-8.89377147;-7.024585749;-11.13655659;-9.272698814
-33.72582562;-24.64824267;14.29217201;-42.55469116;-15.18181382;0.40120378;-17.01769035;-1.20960472;59.71167495;-11.60625165;44.49848339;23.02944008;15.74519982;-2.246378606;-13.08643067;-9.494237922;-6.517911844;-11.06821282;-7.739351199
-30.5436488;-17.84535548;15.43016478;-31.802208;-12.93607958;0.442305626;-13.56551701;0.591615906;61.91073665;-6.988500969;46.05470728;25.81624514;16.44762921;-1.039831285;-6.012786622;-8.840259167;-4.157873741;-7.684156897;-4.009509892
-25.83994787;-10.76939569;0.597108471;-22.78425887;-11.16674005;0.587919779;-14.8683926;2.510559383;64.43433929;-2.005177323;51.07066486;30.29135281;17.82639162;0.940956777;2.289187301;-6.649848748;-0.579702599;-1.562816933;0.0710524
-20.34197337;-4.968049898;-26.39110309;-16.50854621;-10.07888666;0.624658428;-19.01460932;3.727869138;67.5882356;2.36423863;58.2398845;34.09734192;18.21341645;2.34711583;7.766193846;-3.717139486;2.561304877;5.024892559;2.322646007
-14.81519962;-0.787368797;-53.13772304;-12.16866702;-9.335290693;0.453022142;-21.95363041;4.370087891;71.96049344;5.640514029;66.023754;35.61349824;16.28465769;1.87483368;7.845414401;-1.090129716;3.684941519;9.643681664;1.673658299
-9.848129765;2.289332089;-66.31564885;-8.658170577;-8.255455687;0.190676368;-20.97226419;5.440558622;77.22716109;7.755757583;73.05176701;35.37689277;12.52792436;-0.513590109;3.415706139;0.694486973;2.470777282;11.16688169;-1.147101648
-5.894845075;4.622221704;-60.14536462;-6.197700432;-6.415580974;0.062766803;-16.70203232;7.858416986;81.6351039;8.729885074;78.12598086;35.59796607;9.132875276;-3.30969751;-1.648510697;1.737375973;0.161283822;10.09100517;-4.193882973
-3.36696927;5.766763649;-39.69933747;-6.476220086;-4.123430133;0.18543168;-12.17942961;11.48666597;82.97;8.588740959;80.2849893;38.16033275;8.331673717;-4.423655839;-3.13312297;2.35839396;-1.296029079;7.659184085;-5.711329128
-2.545440833;4.858169467;-16.95055093;-11.05546365;-2.273618995;0.451248847;-10.07093437;15.08090866;80.41489317;7.64704848;79.26972623;42.86948704;10.59473121;-2.656837562;0.672716277;2.697302059;-0.607260042;4.750154384;-5.290731572
-3.32739751;1.672281572;-2.779254542;-19.41109204;-1.613270033;0.628481391;-10.571892;17.26292536;75.68290156;6.778811496;76.08554772;47.52933506;14.23401695;1.476877546;8.035583064;2.751628057;2.054641593;1.531540867;-3.935407141
-5.072857138;-2.691889028;-0.743159954;-28.43505286;-2.017502369;0.581250619;-11.64553703;17.65974278;72.19426095;7.186569448;72.88834494;49.81942858;16.77003906;6.197423194;15.32223056;2.71985755;5.349338188;-1.989061784;-3.082993878
-6.799578839;-6.276944256;-6.551841619;-34.06136319;-2.451137271;0.399665673;-11.11630877;17.15362063;72.65316841;9.623431915;71.77948553;49.33336939;16.92311762;9.761972254;19.70088227;3.146831073;7.839647959;-5.286278357;-3.436421805
-7.681477566;-7.613333608;-12.67200595;-33.87253268;-1.74993928;0.311398724;-8.616096972;16.98469944;76.85246207;13.6298505;73.12817387;47.95976864;15.57446758;11.57247874;20.89142855;4.559028673;8.93;-7.365489557;-4.5317262
-7.503624866;-6.831951414;-13.98957666;-28.64796562;0.370871532;0.453909728;-5.723031864;17.53364549;81.55878297;17.52208165;74.81656741;48.22370924;14.92678806;12.27974071;20.76957068;6.844533396;8.991828387;-7.598799706;-5.29916512
-6.711214462;-5.553554727;-10.44493291;-21.62019482;2.937728652;0.723878312;-4.354557107;17.9679295;82.76870008;19.36268046;73.41940828;51.00798146;16.59309684;12.94406681;21.40713033;9.002490128;8.743092862;-6.533381593;-5.048970467
-6.001070117;-5.586374405;-5.523467731;-16.05062439;4.354131952;0.854684846;-4.97490714;17.16958388;78.70443666;18.32239029;66.84233592;54.65075037;20.19415863;14.04226242;23.29415446;9.653428683;8.542803989;-5.76910117;-4.020780217
-5.777548406;-7.489806894;-2.697176473;-13.07404968;3.592589403;0.660698641;-6.197012658;15.12094652;71.23714871;15.40546299;56.50550849;56.24575674;23.56857147;15.12338489;25.14988687;8.029514923;8.215197101;-6.824565516;-3.077715066
-5.897982775;-10.18595856;-2.897579032;-11.47432642;0.990319656;0.225068772;-6.032523006;13.36034893;64.59917364;12.88455734;47.11943366;54.06289083;24.35753433;15.28401182;25.28348907;4.658777559;7.450058594;-9.888953764;-2.879497651
-5.872962537;-11.90802797;-4.559494852;-9.405001439;-2.004952489;-0.149958602;-3.632519169;13.84485307;62.35457463;12.74105055;43.76728388;49.02458358;21.6628567;13.95618594;23.18524207;1.11577398;6.296078267;-13.5596732;-3.281532641
-5.298303352;-11.64677876;-5.45937528;-6.461931338;-3.931221202;-0.197655859;-0.05656472;17.02477753;64.93705772;15.19767467;48.20462572;43.97669827;16.53093357;11.33966768;19.95926453;-1.050774581;5.241830482;-15.86;-3.460009766
-4.126555116;-9.873089657;-4.475680376;-4.290470577;-4.347184276;0.077139194;2.473401426;20.84517364;69.56617019;18.42443409;57.19646167;41.38517039;11.04683096;8.217014865;17.31263222;-1.401759314;4.829493585;-15.71818771;-2.616459293
-2.577477884;-7.986364209;-2.062387936;-5.217504596;-3.972039529;0.395085406;2.149437208;21.82447803;72.45932919;19.67703861;64.40155926;41.42971222;6.906584947;5.429043978;16.07722021;-0.843280384;5.202685898;-13.67478318;-0.643270774
-0.845295253;-7.048086305;0.4073355;-10.1004903;-3.871719745;0.441707728;-1.213694002;17.65931571;71.52856016;17.10745823;64.6469162;42.09912134;4.596717812;3.480302546;15.58080058;-0.827242145;6.025145184;-11.2589732;1.785770328
1.058425332;-6.930102634;1.566500544;-17.24607006;-4.443055544;0.140588128;-6.074929077;9.367542235;67.54764376;11.02748944;57.49426385;41.15107868;3.640835139;2.495966026;14.37380435;-2.16951701;6.819485533;-9.637998212;3.720313809
3.152733115;-6.572522636;0.699723013;-23.34650017;-5.09045811;-0.280376136;-10.04702422;1.107917192;63.15134068;3.817990162;47.41836159;38.19956952;3.444088632;2.381781617;11.61862563;-4.439601775;7.368201371;-8.757172381;4.577046567
5.197723375;-5.040731512;-1.866661953;-25.70760242;-4.850396299;-0.486713869;-11.11681735;-2.454606742;60.75443089;-1.389440083;40.47146046;35.11134644;3.87932229;2.921218225;7.905741728;-6.388339988;7.787802779;-7.700464287;4.418471458
6.619780437;-2.404966456;-4.583726328;-24.0007848;-3.36780934;-0.322040941;-8.601839646;0.623560397;61.13488764;-2.368635736;40.0109946;34.37859286;5.158568083;3.741700548;4.80317399;-7.019373943;8.242357134;-5.865636068;3.730505504
6.828148804;0.303652397;-5.093280311;-20.19265559;-1.318225872;0.07096834;-3.521905882;8.205211156;63.5937147;1.193957741;44.74476848;36.88850543;7.265571576;4.322317981;3.555879558;-6.396821288;8.636140604;-3.799971146;2.981532473
5.717748006;1.949488533;-1.650164621;-16.79007813;0.129817634;0.392356518;1.759002268;15.67506586;67.14259954;7.794738241;50.43756452;41.02343889;9.60632233;4.205145395;4.059877043;-5.530765593;8.640376324;-2.863642765;2.358071979
3.926078086;2.170408136;4.905345563;-14.84916361;0.353205016;0.451868614;4.649902259;19.30507357;71.39167589;15.0576993;53.67382778;43.87762017;11.26963453;3.313831729;4.96522383;-5.463223993;8.052473261;-3.982736163;1.833430499
2.571254634;1.566129158;10.19668105;-13.30532299;-0.106585463;0.317360353;3.902297237;18.79973455;76.31935389;20.87337411;54.48954084;43.57314252;11.68373594;2.071642573;4.790480949;-6.329487054;7.117583294;-6.621574049;1.40197412
2.620592941;1.171969329;7.950800405;-10.07831517;0.085235109;0.218453549;0.777652156;17.09637655;81.32795549;24.14601852;55.75130479;40.73968808;11.08160325;1.118047514;3.106450618;-7.166370661;6.440195766;-8.948373321;1.202877903
4.350453004;1.795466282;-5.928616167;-4.022613385;1.975659214;0.308295495;-1.269857281;17.67479016;84.74752833;24.92412662;59.96;37.94451026;10.36038106;0.792364081;0.841023957;-6.613489066;6.500117624;-9.122004727;1.422929684
7.276623863;3.766648823;-29.36480258;3.797237982;5.424696632;0.513890992;1.20174723;21.58141307;84.55074702;24.04285906;66.34655309;37.57617674;10.44507471;0.829139502;-0.479891917;-3.940722386;7.197039008;-6.630601099;2.106528318
10.53591192;7.106246163;-53.53916244;10.45772403;9.126802286;0.615476471;8.588074537;26.54218631;79.87217405;22.57277964;70.88338086;39.93959876;11.66527017;0.583703308;0.114039599;0.394902044;7.873901372;-2.559979016;3.073510456
13.34966497;11.66665703;-67.16566857;12.90181234;11.52185959;0.474725617;16.60338849;28.82523311;72.07106899;21.35171669;69.37052866;43.09034374;13.60496286;-0.356565894;2.406894789;5.06018912;7.85809565;1.395370538;4.008720237
15.21291777;16.93022479;-63.37625404;9.86436972;11.8497735;0.18827164;17.89707344;26.3244053;64.32922818;20.76601956;61.12275166;44.47118752;15.47954856;-1.704589858;5.304327019;8.750603196;7.076824128;4.284145959;4.6119851
15.79347824;21.70738862;-44.4850878;2.768558395;10.53947696;0.012254895;6.640902917;20.40922125;59.93059181;20.81013478;50.17680832;42.96567144;16.70076055;-2.601953077;7.721542299;11.00458792;6.200179206;6.449614609;4.672008838
14.84113749;24.32400579;-20.88788102;-4.913203594;8.722731578;0.121457327;-16.71218213;15.10420787;60.43141445;21.319015;42.86129649;39.72512853;17.21177934;-2.284723388;9.294479465;12.37038385;6.156455953;8.878904614;4.060414493
12.36907977;23.55198382;-4.472085569;-9.406495384;7.373183899;0.428929501;-44.11312951;14.24610142;65.00183452;22.1818567;43.46211188;37.19456028;17.41080484;-0.729736627;10.40655336;13.87618702;7.409505458;12.03409501;2.761128435
9.001486769;19.74505555;-1.093623984;-8.487991801;6.78789342;0.644167329;-63.70661907;18.76334419;71.27675178;23.37606121;51.24332425;37.21491381;17.79111095;1.293877728;11.63777779;16.23202889;9.599565147;15.27954691;0.999199311
6.057809669;15.16332631;-7.516850896;-2.465393515;6.723422328;0.529704368;-66.76465629;26.0316722;76.92463717;24.82169828;61.05207753;39.73090616;18.57441126;2.835380259;13.18091234;19.31690569;11.83598082;17.42906165;-0.647255854
5.038863206;12.89668093;-14.86878188;6.181822847;6.89310944;0.127395566;-53.19613474;31.65170169;80.75358995;26.24166626;67.01177774;43.03403717;19.55439678;3.512098698;14.70354733;22.25574261;13.37315929;17.8851969;-1.367215912
6.685612825;14.90904783;-15.69702412;14.25557017;7.280429963;-0.256717916;-31.67767409;32.27876788;82.75379662;27.24549682;66.54751209;45.202275;20.21055526;3.741663241;15.69301176;23.99420276;14.09491347;17.29379357;-0.540787881
10.26998098;20.59416152;-9.112244933;19.55849034;8.005872424;-0.306974923;-14.11039321;27.56210786;83.41905819;27.65765966;61.88248917;45.51745173;20.01868368;4.261451102;15.91888064;23.9970151;14.43630846;17.07768695;1.764629622
13.764871;27.02163197;-0.317070504;21.88491184;8.976605282;0.027457771;-8.181805933;20.08;83.15554122;27.8252552;58.13359025;44.79377391;18.80636006;5.386094792;15.60876665;22.65427857;14.8817779;18.23045847;4.637158534
14.94598083;30.81152157;4.503531491;22.68783937;9.759158979;0.48147117;-13.18165586;13.60299627;82.25254443;28.54411288;59.58425476;44.50417612;16.96424115;6.69297698;15.23355554;21.15209921;15.52513433;20.42096998;6.744258875
12.74327398;30.28706126;3.340577768;23.65518688;9.861267073;0.694804429;-21.77286683;10.98726978;81.1896942;30.49923861;66.80425989;45.51790335;15.34888917;7.428197842;15.13751065;20.84479846;16.06336905;22.1908333;7.138662045
7.900946399;26.31660467;-0.646814613;25.21056032;9.16796464;0.513536958;-26.01151285;12.94884938;80.70654535;33.56949737;76.40472948;47.45642454;14.85136932;7.249073031;15.33888349;22.43982024;16.15902421;22.07875243;5.888973028
2.47534259;21.30982453;-2.667138183;26.0981906;8.098156207;0.110802343;-22.93796402;18.16778067;81.37615437;36.59818536;83.25973815;49.08167506;15.83690822;6.590910912;15.63085087;25.4556555;15.77164794;19.72862199;4.037373066
-1.451561619;17.31122174;-0.830922219;24.47084913;7.307641167;-0.173408542;-15.75468795;24.32874156;83.03928489;37.9780705;83.51217669;49.30215091;17.82902748;6.283946683;15.8384412;28.33149527;15.13343877;16.09800831;2.869156469
-2.917996566;14.78503637;2.432921762;19.70232402;7.20118129;-0.126307496;-10.26551967;29.33885875;84.71481599;36.75553962;76.53072822;47.97;19.72699801;6.753287113;15.97698303;29.23162194;14.43063399;12.68129683;3.016142531
-2.346366225;12.96813487;3.130948478;13.41368107;7.694994316;0.168931488;-9.87510915;32.11343454;85.21068595;33.43437009;64.97073886;45.89440905;20.48704963;7.555910095;16.18066314;27.14053734;13.5571613;10.46289918;4.063205072
-0.916424615;11.2361891;-0.168847834;8.652829515;8.416163321;0.429317785;-13.2092264;32.69715779;83.97902075;29.75833031;53.28039949;44.13728533;19.80871116;7.733084965;16.48990345;22.57277665;12.22797805;9.437984971;4.944193281
0.310658446;10.06243722;-4.797448776;7.623030147;9.093679584;0.433953357;-15.92433627;31.8238184;81.46105546;27.49933812;45.61795196;43.17764906;18.29493409;6.709961515;16.7057505;17.3730021;10.35804572;8.949321497;4.799715468
0.829779863;10.61203888;-6.48185593;9.716415113;9.722274809;0.211075472;-14.76241986;30.22965118;78.58387804;27.12047489;44.10797049;42.57625315;16.93103621;4.933419491;16.45147713;13.64090132;8.313555296;8.382495572;3.62116866
0.530475998;13.36867963;-3.507034189;11.65528472;10.34338057;-0.011354831;-10.27682211;28.13289199;75.85321259;27.39994514;48.03618611;41.3738467;16.29072648;3.621054962;15.40421041;12.43577525;6.734973048;7.569582546;2.200576663
-0.654062931;17.17892216;1.436109379;10.01112308;10.72270106;-0.03239256;-6.075478358;25.22880969;72.90684186;26.4247447;54.26315743;38.92374312;16.14303366;3.769705554;13.52697011;13.13399493;6.0434679;6.666629085;1.471641142
-2.792430484;19.7885875;3.59296893;4.343483451;10.35648616;0.134835952;-5.493760121;21.2559292;69.0199574;23.26618017;58.7910545;35.55438901;15.81868595;5.259978049;11.14017731;13.9098462;6.07723398;5.815223793;1.793886984
-5.636752338;19.58133459;0.645308355;-1.633785211;8.920403963;0.286584758;-8.673636068;16.74938145;64.17507945;19.01742759;58.90986649;32.56219451;15.01759323;6.862586846;8.795035392;13.03056733;6.221904579;5.029538393;2.731613352
-8.371830625;17.04371999;-4.789259833;-2.196579286;6.775329812;0.232018944;-12.47065282;13.31874748;59.70522031;16.27583211;54.83980342;31.47530016;14.28779794;7.197723225;7.042487167;10.06467796;5.952220595;4.390743949;3.447004202
-9.884919255;14.58666958;-7.145456329;6.158077391;4.972699534;-0.020224371;-13.10351072;12.99234275;57.77023038;17.33436714;49.75780476;33.03209788;14.63179615;5.865884457;6.237766524;6.158407191;5.302833603;4.213796257;3.344914011
-9.506399838;14.72284812;-2.830132206;21.48741288;4.58885504;-0.26851282;-9.223508935;16.84893475;59.87745189;22.38842496;47.88837739;36.56153376;16.4718342;3.792708416;6.466616159;3.2146093;4.823762432;4.851801367;2.463522177
-7.622076088;18.05181395;6.263985052;36.82857949;5.854002528;-0.309023748;-2.920453275;23.84808116;65.52362661;29.11768912;51.64257863;40.24694939;18.87435283;2.482263051;7.582324352;2.601193532;5.039748188;6.236015967;1.371632238
-5.532079673;22.7396247;13.92528049;44.29779193;7.830291389;-0.128736992;1.96435113;30.86058695;72.06626068;33.99777405;59.67826813;42.18650346;19.85631118;2.79851968;9.279253176;4.318721044;5.903290906;7.645697742;0.738463409
-4.532926344;25.94626426;14.67311247;40.05761994;9.007280685;0.081923885;2.680621493;34.17021422;76.06251813;34.41580724;67.3834917;41.58505999;17.74501113;4.294349976;11.13900297;7.155032233;6.762265644;8.089404276;0.939494604
-4.922317509;26.00446594;8.389393473;26.57418049;8.406559501;0.108388331;-0.67883593;31.62409092;75.22204649;30.11045778;69.69201728;39.24719572;12.61299883;5.636948078;12.65129014;9.591064366;6.904035479;7.094043868;1.935112527
-5.790706424;23.52902709;0.458337869;10.57266697;6.302330987;-0.086018259;-5.635144119;24.00137256;69.6654433;23.03326354;64.40464571;36.97148811;6.596298714;5.747812726;13.27145593;10.70814714;6.198236613;5.199019932;3.386389333
-5.849534113;20.59018241;-2.804667931;-1.663663756;3.940571981;-0.325679163;-9.296078205;14.60310336;61.69507133;15.92571427;53.67382514;36.22357968;2.689757412;4.685597036;12.5693938;10.4612001;5.242312565;3.59225093;4.824170424
-4.641659244;18.77912133;0.482200104;-8.075013427;2.479344951;-0.388679453;-10.18113205;7.291219823;54.33294609;10.75493125;42.54019587;37.03011775;2.808674972;3.544723727;10.43923194;9.273567081;4.845521733;3.07201418;5.762139372
-3.084785714;17.93015814;6.280524555;-11.01067277;2.052921676;-0.217467633;-8.70277137;4.305880809;49.65237683;8.034551583;35.55127473;37.92332025;6.530586504;3.489111508;7.23579904;7.452085927;5.289584405;3.217238461;5.800019531
-2.811713;16.61564305;8.340606306;-14.1013866;1.765982702;0.024178662;-6.34700909;5.309266522;47.91029246;7.196234954;33.91914894;37.00431541;11.44229263;4.752000173;3.683282735;4.974601209;6.027233255;2.598299726;4.793465273
-4.796800741;13.88435481;3.864506135;-18.68254784;0.610726865;0.102821755;-4.470629362;8.151203288;47.81631543;7.373239114;35.25031936;33.34052337;14.79268235;6.419288201;0.523708221;1.774571536;6.106845206;0.001737203;3.030122361
-8.415576187;10.55752797;-3.870756268;-22.75607375;-1.521033958;-0.065179033;-3.577772809;10.59260658;47.54199022;7.862079927;35.90534574;27.6466196;15.18765653;7.128478207;-1.916634083;-1.842215043;4.967251436;-4.311406786;1.218455135
-11.7724094;8.784484205;-8.286823509;-23.14302913;-3.648661172;-0.332296093;-3.303626065;11.64492039;45.78169088;8.091566272;34.05365501;21.75960128;13.1322075;6.074061817;-3.92804879;-5.12456461;2.911822833;-8.458752498;0.16165861
-13.07875172;10.16107241;-5.281999378;-18.72619835;-4.517062436;-0.454918992;-2.832323621;11.68263597;42.37258883;7.510579243;31.03623178;17.37155642;10.22206908;3.529558211;-6.163091817;-7.278214965;0.852408776;-10.18507059;0.254693877
-11.96374091;14.08962964;3.070757737;-11.84260536;-3.683130722;-0.320959118;-1.433966431;11.56226782;38.34131092;5.818567423;30.06355775;15.0484105;7.839289035;0.568222338;-9.02324288;-8.01288507;-0.43894529;-8.589627325;1.170007324
-9.639707545;17.94225452;10.22125338;-6.603949624;-1.882561449;-0.057377274;1.037006588;11.70435718;35.46066927;3.431757476;33.39989503;14.26456809;6.440964585;-1.677184875;-12.11639258;-7.751090817;-0.90436569;-4.92717267;2.034662838
-7.813367654;19.03356019;10.82332607;-5.644994091;-0.329823912;0.085861745;3.852321145;11.91339926;35.45261562;1.602253517;40.32291602;14.27705082;5.830204353;-2.598887095;-14.27250883;-7.306700781;-1.111604528;-1.780358643;2.038469255
-7.301814018;16.77194142;5.433524514;-8.151809308;0.41496869;-0.028657158;5.637359545;11.89453818;39.05023483;1.756446524;47.43888462;14.93780604;5.865305539;-2.199274886;-14.25901236;-7.303293361;-1.628561136;-1.238547935;1.035496334
-7.549773837;13.11325068;0.032299235;-10.86353667;0.953544365;-0.288845033;5.282806892;11.77250302;45.31485234;4.345512626;51.01781127;16.64480876;6.755496174;-0.821580205;-11.78335843;-7.816368933;-2.470936537;-3.544834427;-0.34485329
-7.434656436;10.86015171;0.666598235;-11.12535079;2.414045474;-0.426003936;3.106872047;12.00803036;51.70462399;8.133607303;49.46437175;19.48188273;8.6412731;1.099558937;-8.032160954;-8.504612889;-3.140240064;-7.258951238;-1.192729601
-6.591130948;11.23066531;7.84772413;-9.291816845;5.202463698;-0.258504014;1.238681597;12.79399315;55.13;10.70783846;44.06456849;22.4322423;10.98143602;3.081802668;-5.206339279;-9.053170704;-3.190561147;-10.67656997;-1.036375678
-6.005105251;12.81131944;15.70634818;-8.370390366;8.283918672;0.134159954;2.387106464;13.59841012;53.60553437;10.06294128;37.6297218;23.58820619;12.53887343;4.58234743;-5.204146875;-9.490588458;-2.744948844;-13.18834262;-0.200347755
-7.258435733;12.86561462;16.89180068;-11.21138204;9.736807489;0.468574593;7.378661997;13.42604055;47.52980631;6.138629053;32.32272306;21.42632065;12.19078133;5.167042005;-8.296571463;-10.09025393;-2.421952641;-15.38833414;0.493382637
-11.01507835;9.933271658;9.188489608;-17.68251621;8.225688803;0.499886772;13.25917038;11.67870158;39.64947683;1.057111862;28.45503809;16.19331998;9.924322809;4.842024485;-12.77267998;-10.97858215;-2.706413667;-17.93577472;0.429168395
-16.07014733;5.47691952;-1.879990954;-24.28537231;4.197082491;0.234942822;13.97490475;8.866686206;33.54078179;-2.255165583;25.06912179;10.18055968;7.069709521;4.218399838;-15.92394083;-11.86175434;-3.371243534;-20.35819079;-0.291325669
-19.87715669;3.054799225;-7.027487648;-26.59790418;-0.230268077;-0.074549364;4.028439445;6.471052063;31.50711538;-2.082242933;21.57046232;6.462201277;5.422710702;4.200359185;-15.7799757;-12.18235028;-3.571091649;-21.07185084;-0.967237762
-20.24766545;5.549650653;-0.864650888;-22.5652771;-2.651823988;-0.153624568;-17.00162574;5.966692104;33.31;0.980449806;18.85435115;6.917008587;5.908574443;5.296359653;-12.41394567;-11.61566417;-2.630248934;-18.77500407;-0.944753527
-16.9160514;12.65035404;12.89416269;-14.00279221;-1.963254844;0.056162094;-42.5242763;7.759235556;36.63483545;4.705538372;18.90544687;10.99997057;7.914754747;7.087700439;-7.886161121;-10.47604155;-0.860652305;-14.02846857;-0.235725298
-11.73727975;20.65804006;23.09804992;-5.200801059;1.075225814;0.350377813;-61.72710381;10.89485695;38.94434602;7.137006944;23.20419359;16.20295897;9.88903065;8.391706669;-4.842769372;-9.63696209;0.384827196;-9.503014607;0.427745172
-7.378554542;24.86257252;18.79780456;0.137153106;4.648115751;0.446793128;-65.88060335;13.77131355;39.33598368;8.163502667;31.28401912;19.8491883;10.69835749;8.133849835;-4.741101011;-9.957629616;-0.379059689;-8.411119263;0.161526602
-5.555660255;22.70913952;-2.722154075;1.200553469;7.300540168;0.234955101;-54.0079544;15.26590038;39.01935333;9.477529348;40.63858441;20.85942101;10.55780362;6.304491204;-6.923882204;-11.62562751;-3.545811176;-12.20351987;-1.347313761
-6.16329102;15.39024291;-33.4437309;0.029632364;8.782181642;-0.12988611;-33.75199631;15.40105658;40.10962776;12.96761639;48.06813371;20.2180257;10.70965628;4.198530121;-9.134595268;-13.91809413;-7.877679485;-19.34887095;-3.558251938
-7.841670018;6.781097965;-59.42728926;-0.489581054;9.746916063;-0.3658669;-16.51809102;15.10970519;43.74337488;18.886081;51.43864843;19.9383937;12.15240332;3.638228067;-9.045932505;-15.57653819;-11.17198279;-26.2487526;-5.461080081
-9.330929927;0.688722636;-69.40632631;1.194035963;10.77386962;-0.307088452;-10.17519744;15.40888186;49.02495236;25.32137418;50.59819726;21.46364858;14.58521948;5.688470396;-5.723478956;-15.53614491;-11.70720263;-29.66664762;-6.304902358
-10.40298865;-1.450580572;-61.19315688;4.511837771;11.70978117;-0.034806764;-14.48472362;16.68459317;53.60713984;29.43180824;46.95470714;24.72926423;16.55131149;9.820464099;-0.102813044;-13.50819359;-9.403820944;-28.84512928;-6.090557664
-11.65775838;-0.855636598;-41.92262666;7.576400378;11.92142791;0.209887234;-22.4106775;18.5520599;55.38627374;29.46216241;42.26777757;28.42035006;16.68082578;14.17294458;5.679811908;-10.05240053;-5.834944932;-25.74100914;-5.46858688
-13.53073758;0.207250581;-22.71973342;8.56737623;11.12053975;0.241673203;-26.03611383;20.19581556;53.93444054;25.94905353;37.68281694;30.96978177;14.92538766;16.73344208;9.517640698;-6.155904408;-3.098846169;-23.29808155;-5.178042944
-15.53078229;0.411751869;-11.94126529;6.644008979;9.865533171;0.077652353;-22.4260387;20.77055705;50.58049641;21.20802502;33.63297168;31.41764799;12.66450312;16.58269574;10.3275348;-2.653627702;-2.408958406;-23.17159508;-5.500359024
-16.44863812;0.191828916;-11.35303713;2.143728523;9.171065432;-0.107370834;-15.07982785;19.60454211;47.20560726;17.58551511;30.39559966;29.63981611;11.57249454;14.34604827;8.361725915;0.132341724;-3.408934018;-24.63252625;-6.128156952
-15.34827735;1.006644001;-16.88940902;-3.512316256;9.547492616;-0.159210821;-10.28157158;16.31855414;44.8465704;15.89862635;28.56385544;26.14232971;12.25175928;11.63521002;4.904774212;2.366086424;-4.610048828;-25.34297718;-6.471205264
-12.43241994;3.921898358;-22.43994591;-7.9457892;10.39597217;-0.081734818;-11.66815501;11.0822951;43.25090986;15.23784092;28.88326223;21.89061734;13.84176778;9.990557363;1.682725868;4.382934292;-4.510383457;-23.22866631;-6.089714828
-8.995733044;8.726047;-23.6933674;-8.324458247;10.41251954;-0.009275788;-17.48176662;4.928547798;41.60878233;14.13873575;31.56650327;18.29181708;14.91091214;10.08056784;0.236368436;6.327804894;-2.548485865;-17.96254569;-4.922068751
-6.502327347;14.12260819;-19.90917687;-2.686287768;8.732349004;-0.052990995;-22.47810685;-0.308221637;39.63576081;12.03849238;35.72;16.96195206;14.75730088;11.56971794;1.349825268;7.962148345;0.689085118;-11.07379651;-3.220557953
-5.587216302;18.5923855;-13.34076799;8.290348729;5.817468491;-0.179059405;-22.54193861;-2.769240978;37.9244861;9.795311761;39.45642171;18.93823718;13.88125177;13.51327411;4.632832784;8.734612771;3.965457489;-4.84879096;-1.357912101
-5.807352708;21.14311009;-7.351430846;20.4561168;3.245540056;-0.240668101;-17.99685525;-1.788686911;37.22827394;8.905850777;40.71937942;23.63899457;13.19706344;14.86136364;8.49582203;8.083206506;6.115013848;-0.998070297;0.302086267
-6.266480501;21.5394405;-4.46011464;27.64494884;2.493712907;-0.132688186;-12.97148344;1.342302933;37.39682568;10.14218361;38.29985757;28.4982494;12.78555858;14.80120696;10.75306899;5.834298388;6.530829158;0.028303642;1.440170333
-6.470950155;20.19851972;-5.102376653;25.21789983;3.709252637;0.084304355;-11.65067462;3.894509681;37.0807628;12.756484;32.41304795;30.03262988;11.48661427;12.96448618;9.753537624;2.491932164;5.287093359;-1.094441044;1.835595857
-6.633040855;18.10882551;-7.472852014;13.51906562;5.514302055;0.21817704;-14.78084496;3.437589727;34.66827958;14.88504142;24.56022214;26.03255933;7.881864425;9.615242438;5.45292831;-0.792851086;3.027542737;-3.095208014;1.50463326
-7.218212679;16.78734752;-8.555182519;-1.530673317;6.037336615;0.114947019;-19.342593;-0.348072012;29.76834307;14.81628039;16.87548788;17.42629408;1.871333049;5.746325689;-0.341906959;-2.658999344;0.750014648;-4.583422395;0.814448576
-8.263639734;17.9275495;-6.020221293;-11.75383945;4.334977599;-0.191041662;-21.42180309;-5.226849452;23.93963719;12.16430731;11.37540606;8.23703037;-4.646073934;2.834321281;-4.899816448;-2.219800696;-0.517559982;-4.39871447;0.379744083
-9.188512049;22.53286021;-0.009433524;-12.01007813;1.05381964;-0.49003418;-19.59319635;-7.876529649;19.88284607;8.140851728;9.403694301;3.290466101;-8.810969791;2.144727066;-6.1808271;0.393267547;-0.16515067;-1.996070112;0.698903334
-9.305511069;29.93887798;6.529931064;-3.664009806;-2.158801575;-0.569126626;-15.88003906;-6.32429424;19.58356509;4.823029517;11.3170964;5.086526953;-8.876345389;3.905766156;-4.064273275;4.024817896;1.594538458;2.154751027;1.759854074
-8.529990596;37.58251733;9.639349625;6.530152249;-3.942721257;-0.392735487;-13.63685176;-1.523836395;22.84255302;3.973275864;16.3614359;12.08519987;-5.616011089;6.975814464;-0.300082397;7.126433173;3.690925361;6.51545578;2.967021809
-7.560872152;42.07868171;7.379963038;11.47800333;-4.133583272;-0.129806705;-14.41034567;3.212905089;27.40827067;6.134818903;22.78265589;19.75688717;-1.808544502;9.422627477;2.794216783;8.671743456;4.724981739;9.121368165;3.536854317
-7.301033584;41.18399148;1.85416721;8.938295488;-3.62456288;-0.003721718;-16.60936762;4.589510998;30.65725671;10.4156601;28.30471552;23.70083619;-0.122899864;9.760667272;3.915979067;8.737437667;3.838225975;8.749357138;3.110466923
-8.034329655;35.34733167;-1.782021053;2.830118669;-3.447602294;-0.100379789;-17.08677062;1.726442602;31.48622807;14.93265519;30.9751473;22.54177341;-1.113520462;7.986719707;3.452883643;8.308618978;1.329892099;5.837786549;2.088124255
-9.159106296;27.61161248;0.790095215;-0.346754291;-3.955528815;-0.305407223;-14.1270362;-3.250787425;30.87884236;17.62606105;30.06306481;18.48736092;-2.984428765;5.587599661;2.799721538;8.417262595;-1.496255785;2.343446877;1.359422819
-9.792202573;21.74902226;8.905479529;2.955202265;-4.773780273;-0.421445818;-9.144058014;-6.872980654;30.70278761;17.11684261;26.47726148;15.26777966;-3.301577064;4.439220859;2.964093546;9.249970378;-3.225259017;0.447323616;1.590152393
-9.725671976;19.86574858;15.97581093;10.38432772;-5.410335162;-0.352469263;-5.592532084;-6.917165403;31.79389519;13.32116166;22.33056646;15.20834716;-1.177936414;5.408467787;3.663703242;9.931428076;-3.324112387;0.987744004;2.630669494
-9.819436512;21.19246725;13.24094389;15.74964111;-5.818327354;-0.18477987;-6.050259033;-3.9099854;33.02362446;7.571717355;19.79217465;17.76290882;1.940058594;7.750638962;3.662394836;9.197311198;-2.459852011;2.849264356;3.561851295
-11.36256175;22.9274155;-3.887378989;14.35691177;-6.334153515;-0.094473425;-9.981222384;-0.445948437;32.24078777;2.100677332;19.88721154;20.51984905;3.541069531;9.78012592;2.012755918;6.466555368;-1.879840811;3.86297354;3.394545813
-14.87504307;22.44766157;-31.42198523;7.142955931;-7.099757747;-0.173723766;-14.05714665;1.020299566;28.35720344;-0.986608273;22.00084059;21.6146168;2.252423968;10.25696101;-0.907987271;2.467182216;-2.358039108;2.559316585;1.886923162
-19.40771543;19.18084408;-57.99032941;0.104353605;-7.634063858;-0.341817529;-14.73157932;0.083904692;22.76819926;-0.763411348;24.39594329;21.3842293;-0.938783979;9.341985083;-3.497174429;-1.121884952;-3.582465507;-0.627839025;-0.18769608
-23.05594121;14.7545704;-71.40459804;-0.56741764;-7.096436991;-0.424360756;-10.92826304;-1.48456442;18.72528325;2.071073985;25.36323687;21.86255378;-3.498000015;8.342647356;-4.104263755;-2.788840787;-4.493952081;-3.70305249;-1.568772118
-24.3727221;11.44036742;-66.33247011;6.364672007;-5.094053104;-0.324141548;-4.718957494;-1.386323456;18.93964273;5.685961986;24.20459201;24.63693756;-3.474584237;8.500654109;-2.301521;-2.224471695;-4.274442753;-4.733593679;-1.438419801
-23.5318143;10.2419673;-47.6943649;16.0234419;-2.289225384;-0.119988236;0.406925198;1.196852327;23.25536598;8.269859643;21.41981586;29.00647653;-1.112732382;9.886872768;0.80766126;-0.468612455;-3.118082698;-3.423122728;-0.02893151
-22.21547989;10.18013441;-27.30359293;21.2277817;-0.154088982;0.00279248;2.162378048;4.839206401;28.36055769;9.05538344;18.08458884;32.10946758;1.419579517;11.36657851;3.463370978;0.95188804;-2.098782557;-1.338580255;1.561520275
-22.23805043;9.279905841;-16.08570448;18.15548506;0.045647631;-0.072039692;0.898487592;6.883515103;29.99501753;8.496809616;14.9883946;30.99647623;1.907202958;11.66401918;4.529338715;1.211865637;-2.230649974;-0.618513913;2.18614788
-24.00845358;6.365818144;-17.35688187;9.250924133;-1.765714198;-0.274550758;-1.101108477;5.360798367;26.10944261;7.522366697;12.20647514;24.97921507;-0.065101476;10.59473551;4.111149243;0.754188108;-3.528368469;-2.251139577;1.457012489
-26.13322929;2.158160899;-25.74468025;1.091032133;-4.365119194;-0.403496181;-1.682128932;0.344199441;18.54879518;6.515916446;9.360727664;16.3613338;-2.847458793;9.377730068;3.091694365;0.781849388;-4.89186989;-5.33906367;-0.054992885
-26.55218573;-1.210026855;-32.11664248;-0.930255724;-6.127868457;-0.308716006;-0.505331078;-6.167913352;11.85155756;4.895839539;6.246642791;8.989916389;-4.188547402;9.722464453;2.140043945;2.096328311;-4.942141342;-7.904456444;-1.31645416
-24.31573153;-1.837703088;-30.56610527;3.27147971;-6.212533561;-0.036941987;0.902453792;-11.58432523;9.94953102;1.647933032;3.235321596;5.790058594;-3.106324007;12.43169723;1.16987314;4.246131343;-3.124936443;-8.495843059;-1.580672685
-20.53547385;0.454318198;-22.29534059;8.763038925;-5.074850376;0.193732897;0.63063278;-14.21637508;13.2183208;-3.651890453;1.092745395;7.136593653;-0.577817871;16.67320554;-0.277528314;5.714389381;-0.175992688;-7.243570996;-0.817957905
-17.67735264;3.924460577;-13.87577228;9.81357677;-3.930973474;0.17294542;-1.833772621;-13.97223878;18.13155441;-10.21925486;0.370429907;11.09977521;1.434049042;20.50993413;-2.185921399;5.038732539;2.410710712;-5.56314807;0.412201602
-17.71339291;6.099826041;-11.66979185;4.421994602;-3.678585203;-0.124308514;-4.896911097;-12.01341907;19.82228239;-16.39990883;0.881414239;15.0777109;1.651327611;22.23763457;-3.693425241;1.990676108;3.438359377;-4.889733392;1.422430099
-20.59470157;5.424812332;-16.86566821;-4.467228344;-4.207326753;-0.514729167;-5.782250078;-9.833146257;15.64833894;-20.69424886;1.704162261;17.39742319;0.371324855;21.45222336;-3.695440673;-2.131138511;2.719299595;-5.591061092;1.773573878
-24.26808009;2.198489976;-24.74995049;-11.72482335;-4.639272535;-0.754344914;-2.540672891;-8.410690167;7.106202886;-22.61279384;1.73917485;17.79954689;-1.092786702;19.06259549;-1.945810819;-5.350388854;0.938958411;-6.922465056;1.340826504
-26.22573086;-1.741985298;-28.4138412;-14.15865249;-4.209458694;-0.725388801;4.116979111;-7.835344781;-1.284160851;-22.68220846;0.428895805;16.84602672;-1.758491802;16.38062488;0.403907142;-6.358155911;-1.069751529;-7.885822598;0.186235639
-25.3623862;-4.219639184;-23.82268866;-12.51948013;-2.969288226;-0.505211785;10.40746875;-7.443850172;-5.204488873;-21.69885641;-1.847133984;15.12998484;-1.808745893;14.14687018;1.487502302;-5.314455946;-2.913585232;-8.080406823;-1.502728011
-22.70047399;-3.925921564;-12.46968641;-10.01636176;-1.714345011;-0.273123881;11.01305767;-6.331267849;-3.427244888;-20.00153087;-3.939291835;13.04512278;-2.200931798;12.28725892;0.203192984;-3.504747152;-4.586911516;-7.770039063;-3.320148239
-20.48007813;-0.950186996;0.044081641;-9.042538473;-1.26462721;-0.154670389;2.010909835;-4.032889893;1.69046735;-17.48120323;-4.525975799;11.07231104;-3.534173393;10.46176209;-2.747529002;-2.168455583;-5.95801988;-7.245853788;-4.580601218
-20.40783394;3.481923094;8.064882052;-9.169465219;-1.784069445;-0.145874402;-16.33336719;-1.079404297;6.248098553;-14.29572383;-2.796457643;9.944347508;-5.333588061;8.755093493;-5.252316709;-1.476963114;-6.444831177;-6.281631515;-4.536404582
-22.46409458;7.706206154;9.440250039;-8.061513652;-2.730600551;-0.169920331;-38.70214818;0.969314681;7.627769602;-11.49858095;1.097896978;10.24744799;-6.45609527;7.798262595;-5.433710019;-0.505739444;-5.344006675;-4.359517875;-2.863607518
-25.13198222;10.31639973;6.203138556;-4.208625533;-3.408901129;-0.188085131;-56.76501389;0.270196024;5.952649624;-10.75865346;5.977371943;11.75617935;-6.208377817;8.206247408;-3.253367191;1.778701755;-2.599476463;-1.50631861;-0.067387534
-26.72822122;10.62096236;2.376742207;1.221170345;-3.554759384;-0.241855516;-63.39743239;-4.013284385;3.312942804;-13.14420696;9.966257811;13.26440663;-5.068554225;9.887596861;-0.707042489;5.349235364;0.728491061;1.14898415;2.611332749
-26.67565367;8.822190246;0.911821917;5.182908978;-3.408664059;-0.383697227;-56.74091032;-10.6914145;1.721116173;-17.89880349;11.15906963;13.3233649;-4.282374117;11.90703634;-0.342613884;8.784790938;2.8785313;1.856654642;3.871779497
-25.71316607;5.930726032;2.036329023;5.47258127;-3.275890096;-0.576524723;-41.45610874;-16.71979805;1.619001896;-22.36666979;8.45956082;11.41332846;-4.695964335;13.06905374;-3.221430766;10.14367692;2.527855999;-0.410447763;3.202790805
-24.99412879;3.40922511;3.884516559;2.840351638;-3.081068743;-0.682232677;-26.06116783;-18.80319538;2.045608265;-23.4249648;2.273395358;8.520909789;-5.946174855;12.73314907;-7.952274252;8.432122589;-0.193339553;-4.832011605;1.275720158
-24.94336169;2.600941925;4.47494852;0.51290023;-2.412604239;-0.573810868;-17.84010424;-15.55921666;2.020299822;-19.54385009;-5.370604145;6.480910539;-6.820588716;11.1757892;-11.60513253;4.523619734;-3.66274401;-8.909305908;-0.465459833
-24.87438069;4.153868509;3.303788343;1.475803197;-1.036619611;-0.274763387;-18.6376909;-8.704905128;1.688267283;-11.95638137;-11.54851455;6.505468321;-6.493102696;9.239184876;-11.82041037;0.744770147;-5.814555166;-10.0025528;-0.765045754
-23.65811293;7.741076169;1.440159985;5.889213915;0.64850778;0.015946197;-24.41064223;-2.209282504;2.14208098;-3.979377585;-13.83657939;8.116889797;-5.472785893;7.637496426;-8.492685595;-0.657066063;-5.514806905;-7.139491111;0.619780842
-20.82337966;12.25452596;0.356474051;10.91377209;1.738634433;0.061941969;-28.78015199;0.206669186;4.159610042;1.094877532;-11.6617077;9.452344559;-5.310520621;6.542890816;-3.782315527;0.925201751;-3.231748213;-1.687148767;2.825759266
-17.12545231;16.35953907;0.664129598;13.10797731;1.513126426;-0.213596429;-27.89517285;-2.490775201;7.140526782;2.004991156;-6.727284992;8.761991413;-7.236956861;5.74121238;-0.552214776;4.022926917;-0.536356317;3.653880048;4.559112769
-14.09547333;19.06791703;1.798441056;11.30546414;0.098399924;-0.645295536;-22.95823691;-8.079080877;9.334630787;-0.038272735;-2.094482472;5.858455097;-10.93210769;5.079101916;-0.513441723;6.123790699;1.103579488;6.732514575;4.999140925
-12.94411861;20.01572186;2.757407897;7.471748007;-1.529866988;-0.943419401;-18.63122508;-12.84343454;9.227201581;-2.719523371;-0.382889949;2.257842057;-14.58694036;4.676666938;-3.445537855;5.432915416;1.257039704;7.224987772;4.251007731
-13.71169418;19.38548896;3.096396709;4.817889206;-2.285944092;-0.924712033;-18.81264887;-14.34361117;6.824446864;-4.633022291;-2.242241181;-0.151627965;-16.30197003;4.678820971;-7.855244008;2.094151513;0.517984044;6.377084024;3.065314797
-15.32902975;17.65714194;3.241596095;4.844972777;-1.862776614;-0.662976929;-23.3315599;-13.06149969;3.621366043;-6.313568922;-6.154090826;-0.79340091;-15.65817243;4.849377914;-12.26972472;-1.980848263;-0.294909754;5.584070424;2.13212301
-16.502923;15.39801565;3.863039097;5.923167406;-1.005291751;-0.42762395;-28.24244582;-11.70451577;1.231933565;-9.491149464;-9.708965791;-0.972562864;-14.0884657;4.528765754;-16.01515651;-4.492656029;-0.941015519;5.114067261;1.558408236
-16.69619621;13.13317167;4.932941066;4.682186361;-0.908001809;-0.458608127;-29.3364334;-12.82740591;-0.065524579;-15.23416925;-11.40237435;-2.788746257;-13.69020561;3.137249521;-19.01138113;-4.297732962;-1.865333444;4.059504274;0.927907959
-16.43839067;11.19693111;5.426931555;-0.933614401;-2.226532846;-0.768013732;-25.78199732;-16.76204503;-1.46398562;-22.54846512;-11.56916173;-7.267211264;-15.47355596;0.822456763;-21.10750894;-2.02003418;-3.592451863;1.45799613;-0.172475248
-16.76512795;9.53588357;4.102184893;-9.534286008;-4.526660464;-1.135974184;-20.76039976;-21.50819323;-4.220420484;-28.63267445;-11.73286668;-13.27818906;-18.53913394;-1.39668133;-21.85041077;0.605481503;-6.029640186;-2.51552018;-1.653347416
-18.26483313;7.638835047;0.810402951;-16.91791655;-6.616633305;-1.300394272;-18.59819308;-24.53485793;-7.969242114;-30.66638662;-12.93143237;-18.17960301;-20.87209869;-2.256849303;-21.01007813;2.044582723;-8.344893145;-6.410162091;-2.885883428
-20.481853;4.83689018;-2.813659932;-19.02934324;-7.454690882;-1.17396261;-20.94032253;-24.8356747;-10.43680362;-27.79061251;-14.47444152;-19.68987749;-21.03578258;-1.211661751;-19.2745579;1.912004322;-9.527713825;-8.555892656;-3.148349574
-22.11627371;0.965105232;-4.118812339;-14.91232711;-6.857705335;-0.90353412;-25.31618973;-23.45091481;-9.096905647;-21.78367973;-14.30915686;-17.49033012;-19.2836761;1.088319055;-18.19856892;0.940293956;-9.112649485;-8.362301863;-2.173773029
-21.85492553;-3.041763759;-1.357014944;-7.3603553;-5.455455762;-0.729506031;-27.33128198;-22.10693064;-3.52649584;-15.93399944;-10.86085809;-13.31353356;-17.15279447;3.271485934;-19.12815051;0.17803149;-7.418643403;-6.682471711;-0.353805482
-19.2346734;-5.223208937;4.639387357;-0.842844594;-4.019554146;-0.777265886;-24.53339234;-21.34673952;3.616710027;-12.95848244;-4.890468194;-9.548259546;-15.96197254;4.339598326;-21.88056338;0.180171808;-5.128009464;-4.910707524;1.543614833
-14.96493731;-3.581644489;10.52423326;1.589578406;-2.822632302;-0.964786483;-18.55278219;-19.9881245;8.105360358;-13.47143222;0.297946973;-7.579548655;-15.60405216;4.466776566;-24.4273582;0.819136822;-2.647465062;-3.637870873;2.893246299
-10.54353412;2.498440803;12.58914074;0.041765845;-1.592503386;-1.098362454;-13.66617067;-16.50962115;7.175521765;-16.0133847;0.781039644;-7.189862648;-14.73838038;4.78894973;-24.16;1.709807224;0.115625338;-2.112907548;3.560735488
-7.459078728;11.40952985;9.650225698;-2.999539966;-0.030463215;-1.058010563;-13.09763427;-11.1125471;1.677345788;-18.44324741;-5.167302626;-7.338095813;-12.21789506;6.317136719;-19.97677127;2.703067903;3.341345811;0.942105588;3.850910768
-6.478066729;19.85795841;4.415568398;-5.062759765;1.671148048;-0.899713348;-16.33454201;-6.416599005;-4.530493706;-19.5304614;-15.47937019;-7.429124508;-8.45627254;8.886376665;-13.55111654;3.932339688;6.663267172;5.841311624;4.161554481
-7.386431133;24.65431631;1.870354641;-5.634445617;2.857468303;-0.786562232;-19.77245053;-5.810443452;-7.617036318;-19.56189895;-25.27032988;-7.839285753;-5.456006403;11.07171746;-8.577416553;5.426530343;8.990100862;11.11767852;4.653830435
-9.243414765;24.64205593;5.376468356;-6.10775226;2.988273975;-0.822142835;-20.00182142;-10.5621913;-6.832403819;-19.64499864;-29.84738408;-9.238463606;-5.367398715;11.21425892;-8.304346545;6.796552234;9.091025775;14.23029731;5.182164631
-10.93308286;21.39793121;13.19761128;-7.926404916;2.215680274;-0.947478707;-16.72111362;-18.10220744;-4.99939364;-20.42389498;-27.63467674;-11.41938449;-8.729221797;8.758823737;-13.09867804;7.459840089;6.557354727;13.37249203;5.478918328
-11.70142646;18.12213963;18.36579554;-10.60903841;1.375782247;-0.9988705;-12.68955457;-23.19934239;-5.895897567;-21.33241357;-20.90942169;-12.84955238;-13.84672707;4.813923344;-19.92463046;7.298710184;2.345965818;8.97384033;5.389198985
-11.44066267;17.43494245;12.71854544;-11.43950361;1.327356354;-0.870674176;-10.89595863;-21.5002197;-10.61386009;-21.01503915;-13.88633667;-11.54462241;-17.83937483;1.461305095;-24.27324906;7.093823217;-1.628486385;3.641869605;4.953009358
-10.63889595;19.63113727;-7.163681786;-7.285327695;2.179918295;-0.628006387;-11.6741602;-12.88635836;-16.00647118;-18.57538211;-9.69041001;-6.662242365;-18.53922607;0.351056774;-23.22609105;8.119693993;-3.64613092;0.481462208;4.300959359
-10.06429178;22.64246821;-36.22943209;2.699840024;3.096306418;-0.460674925;-12.49552691;-2.013455392;-16.78052724;-14.62168937;-8.536463212;0.512808539;-15.77898144;1.67377472;-17.42839716;11.00093392;-3.261567798;1.005833855;3.498141083
-10.35007813;23.71277521;-62.52630629;15.54223637;2.891291856;-0.517060928;-10.61785953;4.597687681;-9.809262231;-11.19287207;-8.369419622;7.123636537;-11.17291866;4.253545414;-10.51747919;14.72278255;-1.518529997;4.187927563;2.496403727
-11.67320579;21.53366234;-73.69678988;25.449925;0.976181434;-0.76827523;-6.033941258;2.965143434;2.750592626;-10.47934486;-7.185432354;10.55049406;-6.731282048;6.575255346;-6.438446117;16.8057153;-0.154263347;7.334988544;1.23663889
-13.67163079;17.27106056;-64.4633239;27.0035857;-2.101005239;-1.026193511;-1.809584086;-5.573561657;14.2398969;-13.18724756;-4.9231496;10.15386336;-3.502677147;7.845088502;-6.645583945;14.84359573;-0.397188746;8.096698135;-0.200106001
-15.63488967;13.76262753;-40.13565329;18.60738332;-4.949389451;-1.099615826;-1.318052842;-15.17580749;17.90342159;-17.74328077;-3.285367074;7.633279872;-1.251045085;8.263563537;-9.24378729;8.436588558;-2.225174541;6.106745211;-1.536556143
-16.87043494;13.51842161;-13.61952226;3.902897951;-6.234739564;-0.949299302;-4.864668303;-19.30676456;11.73204704;-21.02514221;-3.724703956;5.726284004;0.795213039;8.441679105;-10.64453465;0.005225758;-4.551970475;3.099144134;-2.399616623
-17.05817457;16.9913562;2.255141757;-9.995415893;-5.512469214;-0.707011521;-8.946294397;-14.89534973;0.050554735;-20.26180051;-5.510925286;6.223039757;2.95106817;8.623735555;-8.435117695;-6.376375149;-6.097137327;1.515473023;-2.511431438
-16.41032841;22.31436111;2.088313945;-16.5715978;-3.429453504;-0.549302341;-9.093518162;-4.08413714;-9.448727011;-14.89418526;-5.823745942;8.757218957;4.729413436;8.464606831;-3.299529141;-7.528468503;-6.237318489;2.702651673;-1.838430497
-15.55628174;26.59701056;-9.779751863;-13.81066944;-1.247006542;-0.546254142;-3.909524161;7.377811333;-11.07233055;-7.130650666;-2.089520949;11.2095289;5.340585105;7.518578529;1.408122551;-3.340775271;-5.252567566;6.006625112;-0.602871007
-15.21796131;27.79626272;-23.19299379;-5.368677729;-0.109176685;-0.6210844;3.379129303;13.78122498;-4.917315552;-0.750932521;5.284153246;11.34937284;4.4766814;5.903427236;2.074917248;3.055337811;-3.913156821;9.323459801;0.838330291
-15.84999871;25.88481099;-29.28814928;1.914663094;-0.554174954;-0.647657974;7.484303028;12.68181726;3.654381751;1.1225526;12.24287278;8.475580686;2.653004468;4.443562388;-2.5633294;7.344288467;-2.839833889;10.60166709;2.158849405
-17.43260283;22.64823754;-25.8117241;2.662553436;-2.469205348;-0.584008427;5.66171267;5.838800806;8.297045515;-2.147846014;13.47820287;3.905662622;0.865202301;4.09892944;-10.47411754;6.892166338;-2.148595906;9.188126119;3.170359232
-19.51904606;20.4107596;-17.31747426;-3.3310497;-5.340606324;-0.511132943;0.284783242;-2.330092773;6.364675865;-8.472445033;6.378543834;0.060010071;-0.05720353;5.173558397;-17.63172796;2.386681646;-1.56617054;6.13892438;3.824659477
-21.50096442;20.6126369;-10.75594393;-10.97759784;-8.537235618;-0.541967291;-3.072697246;-7.48911332;0.497861963;-14.49019218;-6.451572461;-1.123175521;0.167251094;7.030338843;-20.55975511;-2.866309567;-0.798039852;3.410542056;4.139984556
-22.93580256;23.09541452;-10.10765774;-13.60128743;-11.49364187;-0.69289514;-0.551919357;-7.609909675;-3.866728949;-17.68336884;-18.27;0.670848201;1.37228202;8.59936448;-18.32369536;-5.365732326;0.216447103;2.588334895;4.128110083
-23.74614158;26.38026496;-13.96119996;-7.946087387;-13.81823337;-0.847865713;6.382770462;-3.609923035;-2.907214141;-17.69587423;-22.40900084;4.125399963;3.260789108;9.252551574;-12.71968496;-3.720029297;1.343369353;4.010911675;3.787951689
-24.17610528;28.61724553;-17.37585572;3.166838475;-15.36588027;-0.857096109;12.00747263;1.613874258;2.728532601;-16.02941156;-16.71549797;7.275520742;5.537406701;9.275387449;-6.758298212;0.775406478;2.466339901;6.764999659;3.170648744
-24.54250862;28.5992895;-16.12084839;12.63387543;-16.22544806;-0.681500691;11.39928376;4.985414478;8.685170014;-14.50695661;-5.000015259;8.718263184;7.759488753;9.512382892;-2.680204223;5.474567907;3.609422547;9.404428004;2.451780714
-24.96;26.32740677;-9.881358372;14.16017257;-16.55770447;-0.444719232;5.152259331;4.884363964;10.43917825;-13.78417293;5.59307228;8.258674891;9.196443885;10.49499274;-0.884243703;8.379619633;4.834834533;10.82865838;1.921794024
-25.25;22.91430618;-2.175314988;6.909582893;-16.35690439;-0.335757934;-0.585395201;1.854044898;6.712697906;-13.07713619;9.39028229;6.693951559;9.033500763;11.83103118;-0.309530492;9.223311992;6.029110194;10.76870298;1.856745314
-25.11778624;19.93480156;2.60335218;-3.857045363;-15.36109507;-0.443626935;0.78168762;-1.892023543;0.170550476;-11.24514772;5.698585707;5.046595359;6.897840225;12.42282904;0.292251614;9.000690761;6.824130391;9.683176454;2.334199639
-24.4718882;18.57121943;2.53594285;-10.74950815;-13.28429139;-0.67275623;10.09943157;-3.880172437;-4.910819386;-8.232705749;-1.40236999;3.862259036;3.281992038;11.36630551;1.299368609;8.651449991;6.793432626;8.276931282;3.136247004
-23.61465527;19.00490096;-0.579657212;-9.820833905;-10.2543411;-0.819880263;20.49360312;-2.949784292;-5.968029857;-5.552352406;-6.577283079;3.034224495;-0.582834431;8.784068609;2.133110849;8.186669237;5.813837058;7.047603197;3.853624865
-23.09338942;20.40569791;-2.823411343;-3.377225065;-7.059890901;-0.749168567;21.71243631;-0.078281999;-3.842658098;-5.267792531;-7.233371482;2.171859537;-3.423705306;5.880800069;2.027098419;6.978981416;4.30625344;6.151623482;4.163715735
-23.26170701;21.54741385;-1.231510463;2.252573618;-4.856728746;-0.512734893;7.730778791;2.115215126;-1.698804782;-8.21230809;-4.992556863;1.133157672;-4.706554472;4.148389263;0.871437757;4.793722864;3.122498058;5.583515957;4.095462567
-23.87676652;21.66068597;3.87381016;2.240260565;-4.411893441;-0.310072632;-18.23344909;0.997049573;-2.269244736;-12.91247209;-3.744022371;0.262248398;-4.895576556;4.346393355;-0.615022327;2.476208845;3.094437575;5.414822925;4.056344757
-24.11222987;20.91350799;8.802409801;-2.43794881;-5.439856244;-0.321270244;-45.24867204;-4.279129061;-5.729382666;-16.23880931;-6.06775372;0.143076092;-4.986383109;6.054837011;-1.486743421;1.582954116;4.51972964;5.824154714;4.547572468
-23.09799728;20.12513933;8.575215391;-5.590262438;-6.64672805;-0.55849899;-61.65273274;-11.96951071;-9.798370266;-15.47344944;-10.97436065;1.084023392;-5.690249615;8.112373423;-1.367024644;3.255379232;6.930333336;6.870560459;5.744825266
-20.66745951;19.90451353;-0.195966243;-1.04423349;-6.594581115;-0.861285471;-62.28510947;-18.53558308;-11.77349218;-10.31061928;-14.7060143;2.775592839;-6.91280148;9.535882592;-0.705092994;7.332754339;9.318676223;8.23471292;7.272080237
-17.73845298;19.93437456;-17.25751367;11.62495303;-4.794147095;-1.032953085;-50.82461647;-20.60088938;-10.70191893;-3.251553624;-13.83623132;4.43375271;-7.903374105;10.16657381;-0.255664013;12.46175216;10.69786599;9.237099197;8.391349258
-15.92964963;19.10995755;-38.49066498;25.67687811;-2.146515927;-0.994786999;-36.07470405;-16.85282915;-7.938377647;1.982482283;-8.118360072;5.345723267;-7.898227958;10.56990204;-0.250286364;17.04021179;10.64939965;9.237149266;8.515325369
-16.55465006;16.58097111;-57.54503506;31.61075377;-0.304534115;-0.827306488;-25.5766422;-8.720335875;-5.776397914;2.896265845;-0.832902219;5.383722449;-6.716581477;11.36150812;-0.041964351;20.11023917;9.515004596;8.163887344;7.663311461
-19.65595802;12.90525678;-68.55323025;24.2150317;-0.401126902;-0.675677311;-21.44173115;0.506078647;-5.428540621;-0.258450308;3.566017108;5.04583764;-4.871877006;12.58486497;1.367484453;21.46072038;8.118900573;6.728288894;6.478362757
-23.80986634;10.23234913;-68.72555644;6.795390154;-2.162767351;-0.616994195;-20.9067248;7.443899167;-6.085782861;-4.962836448;2.603944407;4.960019531;-3.192455922;13.66788869;4.278644594;21.04738145;7.213963564;6.038629127;5.748627919
-26.93216577;11.06889836;-59.62830089;-10.82658509;-4.161335592;-0.611896848;-20.15604179;10.1542648;-5.806932647;-8.45618181;-2.664082968;5.258962723;-2.310503838;13.95586909;7.613263355;18.54705629;7.026815497;6.805323468;5.789290027
-27.57748442;16.34398932;-46.42932467;-19.11475529;-5.024460264;-0.574759923;-17.75161741;8.65923421;-3.435895409;-9.697505879;-8.719965568;5.39357267;-2.393960137;13.32669861;9.297358549;13.71157391;7.206597043;8.721367932;6.194815766
-25.8160869;24.25372571;-35.31883875;-15.24676805;-4.594894078;-0.48264304;-15.07476305;4.427624368;0.103790398;-9.777915216;-12.21495854;4.618585655;-3.221216362;12.34783099;7.591433066;7.282818845;7.199055784;10.56877778;6.201242323
-23.04439427;30.98733085;-30.35377044;-4.368181431;-4.034411171;-0.410677183;-14.15549522;-0.597003454;2.267369876;-10.57886837;-12.05375089;2.790267476;-4.425257814;11.84323709;2.442173948;1.448444943;6.760758746;11.08169118;5.393709815
-20.87185585;33.07011772;-31.50043219;4.965002707;-4.746172614;-0.458093381;-15.3855723;-4.80408695;0.792100737;-12.87437255;-9.50481301;0.765235182;-5.687371829;12.23682691;-4.202023064;-1.002814629;6.217183282;9.964295094;4.169650432
-19.93330293;29.72391726;-35.12546485;7.252431801;-7.015966647;-0.638843037;-17.22260945;-7.28969311;-4.448405211;-15.48216751;-6.640078125;-0.064651863;-6.806336608;13.21194177;-9.461998976;1.45398198;6.247397563;8.245927361;3.522911438
-19.53721098;23.46199105;-36.70978484;3.2869379;-9.558826576;-0.847934217;-17.8189482;-7.875158508;-11.1190023;-16.17291345;-4.672924209;1.14430218;-7.701238413;13.95397005;-11.29844187;7.587874363;7.333224037;7.601177571;4.26030217
-18.40301093;18.37091361;-34.02607866;-2.001059072;-10.42504395;-0.943567233;-16.73771319;-6.936630381;-15.91413281;-13.58571645;-3.566520122;3.837559538;-8.393088933;13.77250746;-9.733823008;13.71135844;9.284414966;9.075305311;6.263774982
-15.86998568;17.29229513;-28.57615729;-4.675982638;-8.566788832;-0.873379015;-15.0944403;-5.117457294;-16.73296849;-8.554572843;-2.934964069;6.241418189;-8.927551864;12.61642813;-6.654810785;15.91914541;11.22538939;12.18923568;8.433447213
-12.57464733;20.00312644;-24.22764382;-5.17948045;-4.774499376;-0.727045668;-14.17756777;-2.964988657;-13.88675787;-3.701176799;-3.036006671;6.601863823;-9.214957426;11.10440919;-4.374423841;12.79602722;12.10010842;15.17492356;9.430594181
-10.02;23.73992705;-24.02819759;-7.072949045;-1.182543608;-0.66211876;-14.07505674;-0.650750945;-9.476529555;-1.535727915;-4.662331747;4.608981296;-8.906631541;10.07630709;-4.048933687;6.531628358;11.35489405;16.22888244;8.682462724
-9.371416668;25.56927598;-27.61295558;-12.54655051;0.282226105;-0.766283946;-13.69169907;1.98435429;-5.54704953;-2.527415255;-7.934606429;1.850747005;-7.523830444;10.01364571;-5.111685516;1.437735916;9.302138921;14.83921454;6.855827636
-10.47276674;24.65080332;-31.27613148;-19.07736076;-0.73437747;-0.979194848;-12.05613566;4.992146486;-2.589525157;-4.690048828;-11.25180784;0.796339474;-4.910357623;10.7351399;-6.057331922;0.839128201;6.889575941;12.13606831;5.390551365
-11.92996894;22.5737806;-30.78360743;-20.66076685;-2.910874818;-1.144349822;-9.520968989;7.7992162;0.3607405;-5.093939893;-11.74900099;2.954095569;-1.732576348;11.54303589;-5.850039063;4.640521655;5.044557869;9.968563425;5.421828892
-12.24863058;21.58772223;-24.82427153;-12.94889352;-4.43042802;-1.144116882;-7.602643292;9.151897805;4.162032056;-2.225030417;-7.353357556;7.579275056;0.481196331;11.68122697;-4.782600463;9.438101157;4.087333256;9.439561764;6.918295069
-11.12453803;22.33867242;-16.35568566;2.046608704;-4.423383562;-0.996753176;-7.583239903;7.81645632;7.981058584;2.594767929;1.041580282;11.9881991;0.066452138;10.79155896;-4.121717968;11.11786237;3.649318478;10.08781896;8.70876678
-9.802847359;23.15132459;-10.60462325;16.03924128;-3.492987107;-0.830844157;-9.220314404;3.679431463;9.259397596;5.886252922;9.228289298;13.35259453;-3.585385851;9.104153953;-4.903733548;7.961235548;3.12925264;10.39073189;9.376201198
-10.12628194;21.56694327;-11.07111983;19.88075507;-2.972855902;-0.765311545;-10.80617633;-1.622360141;5.564857317;4.434992887;11.90893098;10.7;-9.209333439;7.289690958;-6.94076868;1.888706061;2.291050676;9.170204081;8.319505312
-12.94746116;16.8551314;-16.56962952;10.34209119;-3.642273487;-0.807614879;-10.53065107;-5.257054396;-3.008154813;-2.204939576;6.215911677;5.643808274;-14.0095615;6.090078125;-8.895293156;-3.067508061;1.500284195;6.717799962;6.166619263
-17.14553992;11.26577786;-21.74274772;-7.093314898;-5.033295813;-0.861883504;-7.900855808;-4.810661303;-12.93708966;-10.93446165;-5.963464177;1.293325368;-15.18975985;5.932263744;-9.362278394;-3.817366195;1.401908775;4.667517705;4.251497667
-20.08961216;8.745946244;-20.94434141;-21.80587982;-5.890701987;-0.833640711;-3.986332572;0.075511264;-18.96292788;-16.73449232;-18.69666883;0.144812612;-11.75;6.709595031;-8.038215011;-0.40432777;2.311726206;4.682443566;3.604373145
-19.31259207;11.97535946;-12.77731524;-25.38627153;-5.329905402;-0.727440124;-0.404314793;7.260198021;-17.46814989;-15.72841292;-25.4559655;2.48678037;-5.268114484;7.828467028;-5.975129626;4.310739622;3.840692072;7.030904536;4.254329757
-14.22488136;20.09535769;-1.884798845;-17.19987956;-3.666764756;-0.642326132;1.915615384;13.27858316;-9.135126612;-7.701498914;-23.00612325;6.422275848;1.000269246;8.503726809;-4.683232723;7.112527677;5.088113021;10.2566274;5.345308584
-6.630729097;29.08369914;3.568706861;-4.071702163;-2.225344285;-0.668824664;3.102364037;15.37294727;1.232512916;3.599196412;-13.09580694;9.382070332;4.164185346;8.173744379;-4.819956554;7.019651783;5.275106887;12.26622589;5.895529442
0.332428133;34.62605921;-2.786373721;5.365122093;-2.324366802;-0.787019412;3.739878196;12.96748097;7.829779194;12.63141093;-0.928974594;9.940039063;3.467948904;6.830466231;-5.573531822;5.948105821;4.325048945;11.98301214;5.546829893
4.081674554;35.25783665;-21.00468371;7.053347591;-4.302323512;-0.867569513;4.125382504;7.627005258;7.751849639;15.32971612;8.296468976;8.627803503;0.545339382;5.072004321;-5.301176461;6.970965949;2.932026569;10.22400699;4.727665971
3.997900367;33.24780715;-44.25289448;3.740599239;-7.328661487;-0.782717392;4.196904195;1.720905748;2.797097673;11.40117547;12.24485051;7.28783493;-1.964953922;3.811786663;-2.955579596;11.59115327;2.061236367;9.066690382;4.181721717
1.459133679;32.48691679;-62.66441531;1.716201931;-10.03471215;-0.529615484;4.049749024;-3.049516499;-2.209762578;4.207842294;11.85662665;7.590449705;-2.353217511;3.774887404;0.839320637;18.18892888;2.266378067;10.19130851;4.323576088
-1.376192122;35.0995709;-69.09886692;5.094969243;-11.35495175;-0.251230254;4.233407294;-6.168022846;-3.306128476;-1.613597581;9.484294054;9.848113326;-0.87806952;5.063965567;3.973871142;22.87363629;3.335119335;13.5143049;4.95972519
-3.059340704;39.57870247;-63.04845726;12.37518173;-10.93600806;-0.12845621;5.281517769;-7.727913921;-0.476195355;-3.167442709;6.592434046;12.89839616;0.76909018;7.068462784;4.253215312;22.13428113;4.497526443;17.19079735;5.540039063
-3.567854467;42.01682284;-50.27919731;17.83381676;-8.986054002;-0.232085688;6.913029537;-7.597116472;2.499274129;-0.941419152;2.942217717;14.98307982;1.008520749;8.798451778;1.024592073;15.35711032;4.993249138;18.96077797;5.642384208
-3.891982368;39.43333617;-38.71068067;16.2938127;-5.950109693;-0.461235589;7.934958399;-5.286730457;1.328475983;1.958696542;-2.277674987;14.90322361;-0.368179039;9.456914362;-4.16284026;5.410749492;4.54638823;17.75136896;5.242332953
-4.99765382;32.40675826;-33.46792143;7.247581102;-2.421803375;-0.621340173;7.290265806;-0.698685976;-4.982138576;2.348713476;-8.626156657;12.68778531;-2.179353844;8.899048459;-8.384919888;-3.087422924;3.41908329;14.28276183;4.575347134
-7.046350436;24.73673515;-34.35705575;-4.841071424;0.722668642;-0.575425694;5.396910972;5.020155111;-12.88559956;-0.569449869;-13.70487702;9.467516094;-2.964695951;7.687190087;-9.133357958;-6.600673019;2.074495516;10.26602486;3.792437701
-9.4113687;20.319289;-37.13213956;-13.96342644;2.362264572;-0.342530252;4.287031019;9.506423535;-16.72444315;-4.582484901;-14.3952957;6.76917953;-2.22361053;6.707171964;-5.893990438;-4.702594333;0.769543933;6.917455806;2.778598647
-11.32211636;19.81121665;-37.25683672;-16.74693683;1.62847654;-0.067235622;5.969286206;10.34754163;-13.03017207;-6.111997198;-9.187464666;5.692790154;-0.765670787;6.597884499;-0.502482067;-0.057089789;-0.600600904;4.022859775;1.313448929
-12.49115985;19.96517554;-33.2962211;-14.17717726;-1.372578122;0.103627036;10.25137893;6.616050595;-3.369560946;-2.928379908;0.222937185;6.370078125;0.03092865;7.365540954;3.913533017;3.487966962;-2.332131012;0.28453404;-0.59346249
-13.18851668;16.39031856;-27.60551136;-9.953211472;-5.258811827;0.12726574;14.20470239;-0.398379797;6.493071446;4.040130866;9.409962561;7.903044455;-0.650502349;8.424244332;4.714902446;3.348219348;-4.606146006;-5.380058594;-2.534768772
-13.77509254;7.609498498;-24.1033808;-7.28479099;-7.957877487;0.07034051;14.31534854;-7.835523266;10.50748569;11.12030303;13.59026055;8.796028196;-2.503034184;9.014242909;1.180674586;-0.370431816;-7.303929538;-12.67072781;-3.895650151
-14.1971794;-2.98030135;-25.03512446;-6.839012344;-7.943246614;0.025149662;9.856942821;-12.80440698;6.378714226;14.24546276;10.36157717;7.730395198;-4.502384964;8.699833558;-5.193948044;-5.246729647;-10.05488952;-19.81069248;-4.26703187
-13.96148158;-9.143044108;-29.23804424;-7.148247611;-5.255051219;0.023556358;4.401652809;-13.71751188;-3.208849174;11.58829826;1.059167228;4.354398266;-5.841731988;7.611899552;-11.60353434;-8.313980877;-12.42713629;-24.59820525;-3.745666529
-12.65630589;-6.559654852;-33.15562294;-6.56948717;-1.487183376;0.025537534;3.467452244;-10.6355499;-12.87050346;4.665250505;-10.037111;-0.349470394;-6.550668855;6.296314595;-15.44586107;-7.993031392;-14.0912748;-25.79795936;-2.881711882
-10.55888018;3.320980363;-33.70930762;-4.801533525;1.318016809;-0.019416963;9.574642641;-4.719741651;-18.33090464;-2.750125699;-18.03593664;-4.434553111;-7.288066363;5.313821193;-15.57633402;-4.95959976;-14.86741978;-23.85858291;-2.32571291
-8.728881033;13.54431522;-30.73482297;-2.761015611;2.058836816;-0.108689346;18.73427814;2.492961605;-18.83840868;-7.009572024;-19.87940412;-6.002806298;-8.539623178;4.902542664;-12.65574135;-1.478297761;-14.6946271;-20.50404216;-2.449144166
-8.372216638;16.23472712;-27.05878875;-1.317649523;1.20131035;-0.18659073;21.93425722;9.424332066;-16.64331098;-6.565623581;-15.61601585;-4.290298538;-9.955583575;4.942630521;-8.486186641;0.260188085;-13.61052165;-17.58121393;-3.189334246
-9.872380264;8.367874233;-26.13722518;-0.352615685;0.210828512;-0.205127914;11.40431188;14.47896633;-14.44236754;-2.321938634;-8.0309465;-0.102500486;-10.43022418;5.212355094;-4.794571658;-0.353399313;-11.77089708;-16.00635373;-4.159072785
-12.23573392;-5.511084885;-29.09518773;0.948843571;0.309814752;-0.17981428;-12.77015814;16.25306661;-13.14678097;3.552033494;-1.029639255;4.738192532;-8.898392334;5.690700078;-2.215585141;-1.999076469;-9.460646654;-15.45783443;-4.87548235
-13.47891179;-15.81409419;-33.52363455;3.029952203;1.582057125;-0.179847705;-41.08984572;14.15972813;-11.71214821;9.185860582;2.343189768;8.564925127;-5.236064496;6.627717162;-0.087441705;-2.439291897;-7.042964403;-14.85862543;-4.952045862
-11.82974612;-14.12937353;-35.07912392;5.363840244;3.087696496;-0.258617653;-60.04869398;9.05400587;-8.790447859;13.76071648;1.333039456;10.81086193;-0.562091733;8.300795842;2.834096208;-0.161448355;-4.864520858;-13.18460437;-4.217091332
-6.98883334;1.100630284;-30.76373784;7.023728049;3.778520195;-0.392438606;-60.97958596;3.14414347;-4.420534389;17.1574827;-2.273650804;12.04977533;3.313261933;10.64849486;7.230405543;4.500633918;-3.192624854;-10.05700436;-2.804087399
-0.573619883;23.33354316;-21.3976537;7.839986965;3.373913713;-0.491045879;-45.83606682;-1.050813966;-0.147228299;19.19716704;-5.206802039;13.18499727;4.92822723;13.10064482;12.43471878;9.536096896;-2.23033286;-5.870058594;-1.207055505
4.641300692;41.91684502;-11.3252525;8.854056116;2.485746456;-0.475653951;-25.51140331;-2.065417566;2.445291064;19.40315398;-4.593324723;14.53171908;4.000853591;14.79042602;16.58572494;12.56209453;-2.161112695;-1.550092773;-0.19134885
6.285712331;48.5479473;-5.468924855;11.39464311;1.99482403;-0.35398665;-11.9776521;-0.126842716;3.301512391;17.5583989;0.334107635;15.59548106;1.519016226;15.03660317;17.67381103;12.30954509;-3.120918368;1.822524854;-0.466786744
3.805739594;41.91906038;-5.894540114;15.4941353;2.315516571;-0.221017548;-10.2577986;3.441097621;4.021034973;14.44293888;7.744717566;15.70459609;-0.933031673;13.75933604;14.80825094;9.253013116;-5.057919101;3.377601179;-2.223281897
-1.158563971;27.73843707;-10.47608611;19.18819577;3.193506087;-0.181348722;-16.18762299;7.47711804;6.371544471;11.85887658;14.34451977;14.86429192;-2.139071957;11.5292031;8.857508825;5.040661332;-7.575849356;2.767327209;-4.842706598
-5.671722524;14.57024622;-14.66817485;19.62532647;4.118315009;-0.261610065;-21.16278357;11.71288111;10.52547239;11.6535583;17.48543189;13.97780138;-1.872571016;9.224262147;2.03421265;1.298301149;-9.933215347;0.384058328;-7.092786221
-7.124308331;8.585107864;-15.00498566;15.31221221;4.862807202;-0.390866364;-19.55348466;16.28164086;14.63483;14.40161732;16.82478968;14.14887515;-0.800252134;7.561006949;-3.283315544;-1.207159159;-11.29092403;-2.642548585;-7.799250754
-4.596036458;10.61762725;-11.60784479;7.661234898;5.612894228;-0.464688428;-12.70556548;20.54625244;16.18223337;18.83698707;14.32170579;15.64784915;0.205058936;6.831332576;-5.708926782;-2.474463623;-11.10878387;-4.79675884;-6.589989513
0.817555459;16.94951604;-7.77521983;0.406108288;6.622700727;-0.432756317;-6.709845572;22.59890758;13.99678614;22.61083285;12.55332455;17.49686316;0.795910909;6.96959624;-5.291946304;-2.543167811;-9.44536603;-4.829858826;-4.161918325
6.814417287;22.61547384;-7.04955212;-2.829278687;7.82463313;-0.331215021;-6.465124928;20.29982255;9.273460357;23.89101727;12.66715408;18.13341017;1.337056223;7.782776272;-3.120850585;-0.994293331;-6.950966811;-2.417810054;-1.819750169
11.23642653;24.63639519;-10.16890076;-0.934256332;8.843265356;-0.235572407;-11.42081783;13.24644983;4.817575097;22.60419465;13.6438652;16.65425385;2.362271512;9.069273213;-0.538728178;2.717734558;-4.54535835;1.580229826;-0.586693471
13.10192028;23.17128088;-14.39437177;4.23582697;9.399632857;-0.184692727;-16.50289548;3.925493238;3.20897311;20.36881283;13.51037663;13.58024412;3.722852941;10.52599264;1.43672959;8.342759097;-2.98291689;5.487297076;-0.54903246
12.76555047;20.39582698;-15.76671729;9.6755569;9.635212354;-0.150342523;-16.98440754;-3.321064035;5.342713982;19.18677974;11.47262341;10.45390258;4.210394693;11.62593369;2.237212848;14.23834198;-2.563064323;7.643499331;-0.942207557
11.27711581;18.47129547;-12.43970145;13.71355706;9.927632837;-0.078510192;-12.70284484;-5.108862555;10.2804692;19.91995825;9.04136708;8.594625194;2.195051011;11.74421689;1.619165625;17.86789915;-3.114284453;7.239641501;-0.904073056
9.515448238;18.2224065;-6.327499681;16.99432974;10.30943391;0.043370812;-7.891272262;-1.493020366;16.15085032;21.70413383;8.977104752;8.099309969;-2.964032277;10.58405648;-0.356142605;17.25698609;-4.188070111;4.662485509;-0.274486791
7.727357466;19.1924377;-1.661657585;21.10640608;10.10671437;0.164314787;-7.002152408;4.025723733;21.11417855;22.67813399;12.76990872;7.985292189;-9.764064655;8.588767661;-3.151483789;12.37301509;-5.300713553;1.170228037;0.228883686
5.712036726;20.55058615;-1.59830766;26.12095102;8.330706813;0.217414043;-10.47773584;7.231435468;23.73483908;21.39182024;18.81;7.361223537;-14.78342548;6.887561634;-5.671552952;5.317966182;-6.105086874;-1.866540085;-0.381086293
3.376247474;21.84429907;-5.661322177;29.38953279;4.667615814;0.189663568;-14.30903956;6.589040059;22.98736885;17.8164843;23.05272724;6.56294447;-14.54968107;6.622551983;-6.600289126;-0.898911815;-6.476498958;-3.678616542;-2.46609256
1.130199571;23.03162868;-10.16360069;27.00011748;0.224617655;0.140587963;-13.67687284;4.48212041;18.54907437;13.3028065;21.96943276;7.165545305;-8.00142211;8.056267197;-5.120300209;-4.120820322;-6.540385815;-4.363406557;-5.334629922
-0.231695402;24.03260741;-11.29847588;17.02197995;-2.80048782;0.144631165;-7.288983641;5.104477485;11.52290012;9.685215993;15.53541359;10.73952991;2.252935845;10.18460178;-1.52601464;-4.040991037;-6.631818961;-4.61683978;-7.664176296
-0.076942275;24.44846493;-8.338449786;1.965039393;-2.533658896;0.209675462;1.47920261;10.61015191;4.848641892;8.291344515;7.728619547;17.34003906;11.09856902;11.31368802;2.823446381;-1.81037648;-7.143259654;-5.177721507;-8.457892247
1.537839056;23.81825859;-4.21741602;-11.77361778;1.063361759;0.254214216;7.527939489;18.73591675;2.448204113;9.492507557;3.891631539;25.0173875;14.03406602;10.31645698;6.302716923;1.208820514;-8.274593939;-6.362563461;-7.773530569
3.799108854;22.16378817;-2.912540022;-17.4736641;5.840894242;0.175030267;8.268610306;24.0670341;7.06569094;12.85872193;6.866547155;30.8343523;10.18745278;7.64303214;8.030664037;4.369695409;-9.821011541;-7.947971842;-6.639768806
5.612774989;20.23059837;-5.769627544;-12.28716875;8.733383984;-0.050026245;5.354670496;22.15789572;18.10514145;17.5324235;14.90205946;32.65465483;2.987465363;5.206992821;8.324619266;7.614674453;-11.18571773;-9.396922326;-6.230222148
6.28782553;19.08188165;-9.956687759;0.92843018;7.835771258;-0.320455903;2.588451877;13.26644799;31.24589367;22.46997978;22.96924558;30.3682413;-2.17822854;5.076773883;8.254328158;10.65806045;-11.68275796;-10.21072157;-6.95643723
5.932624282;19.30386191;-10.62115052;15.46131962;3.744864732;-0.480282159;2.240982088;2.614482545;40.56029908;26.56605026;26.39819387;25.73072118;-1.73124945;7.881285855;8.696609479;12.54377635;-10.96115456;-10.15186362;-8.187872218
5.293157887;20.4815952;-5.267382876;24.92675018;-0.880586775;-0.443450866;3.335914573;-3.189178439;41.96097055;28.9104033;23.94231928;21.12426566;3.670700253;12.1772954;9.70481882;12.26291291;-9.238315358;-9.22579898;-8.787274186
5.185173805;21.43248977;3.173866814;26.81679998;-3.227460013;-0.26911418;3.368480379;-0.833283306;35.62203517;29.2482907;18.00116141;18.29715846;9.883466848;15.36468585;10.70101485;9.966319383;-7.14234897;-7.514447241;-8.005152737
5.959740576;21.07247111;7.387375329;23.11030052;-2.250865859;-0.117315553;1.512207631;7.536721135;25.63345159;28.31572231;12.19762855;17.90874851;12.60656042;15.53137782;11.22947179;7.489733683;-5.27559739;-5.067543885;-6.030314398
7.376247602;19.24934585;0.548182219;17.94910533;0.826553382;-0.119693412;-0.089278327;16.27859942;17.16555994;27.57695377;8.636057467;19.82047174;10.6629489;12.82211527;11.47841076;7.305214312;-3.863815262;-1.993204998;-3.815744993
8.906957645;16.86641025;-18.35024673;14.49344869;3.721115526;-0.275979801;1.578976363;20.63392203;13.24299459;28.27477202;7.131528132;23.43765652;6.635282665;9.24049185;11.99798808;10.41864396;-2.799250315;1.309553659;-2.38924956
10.15727948;15.15925665;-42.75152412;13.36202456;4.938354378;-0.465010656;6.917061984;20.00127631;13.39251125;30.36110221;6.648652632;27.62509655;4.413417683;7.018325885;12.84884296;14.9348904;-2.032234513;4.012370855;-2.221618673
11.03291514;14.65592039;-61.98861792;13.46297729;4.767877467;-0.557078432;12.47846573;17.66041223;14.86050773;32.20330179;7.097404029;30.5064855;5.747565406;6.851668551;13.06530826;16.81678889;-1.913602433;5.048088798;-3.095596063
11.5512673;14.62139593;-67.77865151;13.96754561;4.716967268;-0.524691457;13.69197483;17.5068772;15.13834854;31.54862496;9.473253164;29.91472281;8.725579813;7.436951618;11.15349836;12.71388931;-3.080171128;3.644832217;-4.45946123
11.54207955;13.45196095;-59.31287274;15.38447204;5.997270995;-0.452981241;9.36779904;20.71675706;13.76621696;27.27903096;14.20775991;24.77193828;9.475947177;6.69233439;6.425031118;2.896301004;-5.86921439;-0.084347706;-5.876314339
10.60218528;9.796939918;-43.42246173;18.73736649;8.411892264;-0.445125947;3.667823469;25.0647371;12.27777146;20.72502495;19.63379883;16.58534482;5.660382587;3.653686016;0.078564415;-8.105120467;-9.729443347;-4.931840819;-7.190039063
8.443421247;3.653150374;-29.78820333;23.73427502;10.55815912;-0.51527052;3.061402191;27.18197718;12.74877029;15.40708791;22.57126415;9.614556971;-1.233483148;-0.550206533;-5.066564656;-14.02561221;-13.21905818;-9.033590747;-8.357870954
5.382619686;-3.325327492;-24.63979438;27.8642061;11.08848068;-0.571518425;10.27780953;25.55131373;16.30890582;15.08519068;20.95252288;8.911998873;-6.812573747;-3.499431085;-6.275749418;-11.0165556;-14.77042115;-10.80451946;-9.216387458
2.508318712;-8.550078125;-27.32400828;27.62365399;9.885610469;-0.50528082;20.4455483;21.60956617;22.57615438;21.24238355;16.0961886;17.07148635;-7.211849769;-3.441701311;-2.894322442;-0.472918084;-13.74952981;-9.833147601;-9.470380764
1.237385286;-9.845356431;-31.89590354;21.17285237;8.144242871;-0.301327295;23.3864409;18.19078932;29.93392929;31.68635979;12.09871451;31.85082398;-2.187653746;-0.797707142;2.925121269;11.59517789;-10.99858948;-7.145139898;-8.933756982
2.444948179;-6.635578343;-32.2194742;10.28561477;7.338930512;-0.061502782;11.07635351;16.93697758;36.01961613;41.35571119;12.31091857;46.62220179;4.722052189;2.060053711;7.462844948;18.29205226;-8.362036694;-4.61538938;-7.778035545
5.751919992;-0.303580314;-26.66422387;-0.220429982;8.011103158;0.084199509;-15.33341115;17.09347861;38.15802354;45.01848447;15.85367404;53.78033823;9.089717199;2.62206239;7.838917912;16.05;-7.46356859;-3.86994731;-6.518723307
9.542751595;6.463441827;-19.03022651;-5.466489771;9.41210989;0.09736043;-44.76272096;16.68245347;34.10210009;40.28418946;17.66555245;49.09095681;9.084477477;0.202201309;3.850824976;6.424334168;-8.614537461;-5.373192101;-5.708373365
11.81907947;10.97349953;-15.28385975;-3.807457803;10.24982312;0.06663521;-62.89174336;14.79417508;23.37349816;29.07629495;12.73773597;34.15776278;6.630188434;-3.532654839;-2.080578376;-5.550716613;-10.66941539;-8.272426358;-5.576795565
11.38947757;11.79300515;-18.77235104;2.074352904;9.828951967;0.120004578;-61.59634681;12.72990941;8.586967895;16.62665105;1.229542159;15.4106362;5.359174696;-5.874129154;-6.730218685;-14.92603835;-11.92265988;-11.05;-5.911962361
8.604482906;9.340350187;-27.55442447;7.200281966;8.583211711;0.291706594;-44.14974801;12.85738897;-4.630969571;8.571750045;-10.2668369;0.384981665;7.261547946;-5.145389411;-8.211412154;-19.58900523;-11.33728981;-12.49183195;-6.268036876
5.114016116;5.531091699;-35.74220701;7.980756975;7.586900979;0.470307633;-22.42645682;16.2258535;-10.01192924;7.889862545;-13.19337503;-6.194868088;11.01509452;-1.87693213;-6.868210028;-20.42315755;-9.166697679;-12.31345131;-6.31475102
2.786874268;2.675457658;-37.71012199;4.772863757;7.545818621;0.485423984;-8.464579477;21.20568395;-4.389957591;13.4974962;-4.063700547;-4.137741984;13.43271034;1.785386656;-4.449914821;-19.31256495;-6.56113121;-11.09351785;-6.046625732
2.520501973;2.213783535;-31.97796543;1.366787369;8.192087306;0.263385243;-6.839888749;24.5389204;9.739818048;21.28430079;11.91207072;3.325215434;12.65505182;3.845960992;-2.479781022;-17.04472233;-4.585094616;-9.687816225;-5.718633303
3.751686115;3.979090306;-21.96649804;1.824092658;8.598581422;-0.087321928;-13.2205692;23.99814254;25.18120191;26.85641928;24.30365421;12.18157228;10.13571335;3.899951737;-1.237976624;-12.93933971;-3.505717149;-8.628436527;-5.612762011
4.983850247;6.416274869;-13.2486651;7.141613493;8.084966182;-0.344791736;-19.34515236;20.33593572;34.44754124;28.21514311;25.79569217;19.80264198;9.528753857;3.130696243;-0.063469655;-6.301836315;-2.894432458;-7.92576636;-5.850236194
4.925328804;7.654451265;-9.502534612;14.34042081;6.86988815;-0.34615007;-19.81944933;16.75291155;34.69943759;26.67749753;18.54773642;25.46439702;13.36951725;3.02805956;1.55282893;1.870752228;-2.321360129;-7.306267171;-6.370290684
3.406542546;6.793809584;-10.20581152;18.67987058;5.875152982;-0.118883849;-15.36381603;16.26;29.45072489;25.5154346;12.78373853;29.51724929;20.47623153;4.045080833;3.252047679;8.699439843;-1.902954515;-6.578302892;-7.019105331
1.421694425;4.570598817;-11.65465731;17.26330401;5.859209935;0.142049249;-10.66980914;19.16447499;25.51264766;27.3160789;18.12465656;32.34426319;26.46244386;5.351559354;4.159968038;11.13450693;-2.148612789;-5.786790396;-7.615263026
0.291500748;2.89700662;-10.31136521;11.23794248;6.655562333;0.232553006;-9.556853323;22.82524846;27.3947068;31.93885421;34.63144003;33.97279612;27.07442414;5.787308061;3.903110993;8.231600814;-3.260364018;-5.073158182;-7.942049084
0.591342153;3.500019531;-5.750970936;4.912063905;7.200717917;0.09842367;-11.86527487;23.8755944;33.59;36.53746028;51.40796861;34.32628405;21.58916503;5.040959152;3.208871294;2.076634759;-4.610594041;-4.440129724;-7.748176863
1.661055534;6.553070458;-0.873954263;2.514685248;6.356187149;-0.137337691;-14.38066999;21.00310098;37.83080567;37.64850136;54.67591935;33.53617788;13.41049484;3.935762766;3.389335344;-3.511520242;-5.010780269;-3.681402541;-6.855498868
2.083612252;10.30865615;0.750339821;5.11706659;3.860775415;-0.293984275;-14.31605671;15.94649199;34.40547965;33.82647995;39.15920275;31.90934395;7.381803589;3.582237674;5.090332622;-5.587019096;-3.662444721;-2.550733766;-5.341235542
0.802651032;12.12746408;-1.766041499;10.04274805;0.654023732;-0.287508759;-11.87370077;11.95077291;23.22245879;26.85123492;13.31107744;29.69752506;6.114766366;4.230301921;7.46304097;-4.026280693;-0.994240039;-1.011818169;-3.621440145
-1.936125129;10.30953356;-5.404672088;13.11424855;-1.664407335;-0.184545046;-9.686188571;11.10120998;10.39976524;20.55622838;-6.426863217;27.06395293;8.391867918;4.935705616;8.637511255;-1.37048895;1.416739152;0.652578441;-2.284500862
-4.535538213;5.45806441;-5.393207976;11.90410108;-1.803416341;-0.117232915;-10.01115019;12.83103056;3.789759955;18.12486885;-8.092329082;24.33252276;10.8088249;4.395350517;7.247415865;-0.744386347;1.907246663;1.951115877;-1.729378274
-4.989497337;0.300661235;0.665009752;7.46658561;0.524658638;-0.147723257;-12.51349021;14.76079003;7.03530023;19.91243389;6.7056377;22.14552818;10.98954901;2.204692676;3.76115941;-3.471551222;-0.02106534;2.405136135;-1.876341618
-2.218347788;-2.078222793;9.831250723;3.300484962;4.582714363;-0.212133912;-14.66663422;14.94994044;16.96804034;23.47602167;24.64981125;21.14415795;9.441289535;-0.638048183;0.42001709;-8.15329425;-3.285804884;1.721003011;-2.218389249
3.096344245;-0.453944671;14.63288325;2.46860803;9.113421368;-0.193820377;-14.21367552;13.47765367;26.35825329;25.7525639;32.05259014;21.32611828;8.496491217;-2.505320023;-0.316892197;-11.79764778;-6.02384917;-0.138356465;-2.224451989
8.758416144;3.474218745;7.622500239;5.164345335;12.90769848;-0.051388283;-11.25769468;12.0019761;29.58712948;25.57490582;26.16524519;21.76975679;9.511839467;-2.558900069;2.327429291;-12.04902383;-6.989489493;-2.915847793;-1.79178383
12.26335948;6.08105116;-13.14317366;8.566130116;15.10042837;0.125558591;-8.058047078;11.84516523;26.51396859;24.41601887;16.89751912;21.27681174;11.08215038;-1.560519729;6.698656267;-8.840589485;-6.425596632;-6.00833118;-1.36011203
12.22343947;4.340068359;-41.53870312;9.001149529;15.21372851;0.191706686;-6.861757722;12.48;21.56191229;24.72925968;17.52282646;19.63741022;10.05493724;-1.311323072;9.753031004;-4.334904144;-5.712182167;-8.487210802;-1.553346762
9.138098341;-1.846008965;-65.86506769;4.712406959;13.17818585;0.085986507;-7.900997768;11.87465162;19.2380671;27.33482902;32.40682909;18.40970977;4.50971409;-3.144376885;9.164427383;-1.325626987;-6.112857236;-9.349229329;-2.616801036
5.057552308;-9.244115029;-75.22569636;-2.820737688;9.448103646;-0.095292126;-9.395948223;8.414726603;20.24161036;30.21242028;52.41867895;20.21497834;-4.005394669;-6.737308134;4.981132493;-1.337311824;-7.68523025;-8.01564476;-4.124710949
2.372126886;-13.28537146;-65.90546129;-9.871990457;5.060009766;-0.166770127;-9.410243635;2.657668858;21.48209438;29.92306525;62.09601955;26.7;-11.1004008;-10.26367294;-0.313879774;-3.756368963;-9.264505853;-4.81988234;-5.242742958
