Channel 1 - P4;Channel 2 - O2;Channel 3 - P8;Channel 4 - T8;Channel 5 - C4;Channel 6 - Cz;Channel 7 - Fz;Channel 8 - F4;Channel 9 - Fp2;Channel 10 - F8;Channel 11 - Fp1;Channel 12 - F7;Channel 13 - F3;Channel 14 - C3;Channel 15 - T7;Channel 16 - P7;Channel 17 - P3;Channel 18 - O1;Channel 19 - Pz
-58.87180282;58.0635958;108.2890583;-66.26992323;-102.1522469;-29.86714673;56.96126552;-83.67714263;-32.14977704;-69.11936893;-94.86319813;-131.1261343;-99.5807077;-134.744614;-121.9827428;-108.8568811;-136.802575;-125.2284945;-81.44657671
-46.61414419;49.36728305;95.24879075;-52.15724755;-81.90394575;-22.11544692;62.51454454;-58.53614157;-16.65988231;-37.13256707;-84.40489736;-118.44;-81.91499051;-111.0745604;-100.1081616;-87.33530364;-113.9164606;-101.9030414;-67.25935116
-20.80410888;28.27475883;44.22209088;-18.59738399;-37.28657917;-8.677437672;50.42736371;-14.65581748;7.673824981;13.54582819;-48.41463081;-74.04742683;-39.0625183;-56.53975398;-50.84111997;-39.69557101;-59.58216776;-47.41326955;-34.05253146
3.247916903;5.548990744;-17.85491829;15.22499873;6.36668136;2.99036511;26.09505903;24.40300843;26.2189805;55.99;-6.590078125;-23.56867679;4.358866903;-1.126427612;-1.747139588;6.896174886;-4.116737463;7.434368747;-0.448478709
13.49519423;-8.057076107;-58.58958879;31.9550393;27.21678232;7.524891168;2.104135827;40.56846214;29.73042807;70.41805956;20.70598127;6.932916947;26.52112789;28.5943106;23.83889299;28.96647219;25.58892365;36.12798754;17.27235815
8.548245098;-8.680591803;-60.76652451;26.63252113;20.47769322;4.788701607;-9.239770831;32.28319399;19.93343943;56.44178593;23.86677147;6.805315096;21.54597726;25.32901262;20.44236675;21.18367949;22.09825613;32.1004472;14.86469014
-3.048446903;-1.105539043;-31.91628312;8.243112752;-0.797228819;-0.862756691;-3.260087891;13.39383541;7.163741841;31.07701774;7.930412408;-14.84936594;0.863058752;2.658193109;0.725509717;-2.687443804;-1.108329595;9.202891653;0.747390698
-10.40860649;5.554628577;3.209451684;-7.988588727;-17.24124328;-4.285296861;14.54003906;1.580823375;2.297109961;14.9278538;-12.64814225;-38.23224273;-17.03281362;-17.2977718;-16.20206183;-21.77505138;-22.19498516;-11.47669024;-11.87748723
-8.513045735;4.681243576;20.91353841;-11.32739951;-17.56813998;-3.239641711;32.129737;5.526946348;9.124563562;17.54681732;-24.0470675;-47.54468647;-20.00570967;-19.96781866;-18.70395696;-23.2363912;-27.05214971;-17.24617178;-14.79502818
-0.877803304;-3.667699308;14.0265185;-1.599743649;-5.085035612;0.594575997;38.17796571;20.2056914;22.53616024;32.72934031;-21.11443405;-40.36571172;-9.096346464;-6.461217868;-8.671533723;-9.460947922;-17.06852319;-10.33131265;-9.220101846
4.669481287;-13.95613335;-5.95664924;12.84537417;7.513244946;3.65717701;28.2093199;32.81446912;33.23169971;46.07410015;-8.700901027;-25.94394098;5.092970797;10.75298365;3.242667473;6.691029568;-4.350659971;-2.112329765;-2.554609078
3.007655925;-20.20076046;-20.14373626;22.53418121;9.663514639;3.623032249;6.202510684;33.69784343;34.88007813;47.57990857;3.473555232;-15.57620013;12.14406139;19.40148628;7.723026093;13.32214529;-0.04392519;-1.683742065;-1.179694117
-4.327332978;-20.57267076;-17.27445659;23.49554143;1.121434089;1.045221441;-18.61517835;23.45764493;28.27623146;38.91212843;8.039804425;-13.71787535;9.485128381;16.40568241;3.598950036;8.043254102;-5.7889302;-8.738538417;-5.483549113
-11.09075071;-18.1320047;-1.074784276;18.5981752;-9.174707449;-1.547569528;-37.11927394;11.31184347;19.83520412;30.25606975;4.226618919;-16.56779381;2.581436756;8.010512696;-3.289221506;-2.370873521;-14.4181809;-15.80416226;-10.66686041
-11.98305805;-17.64562287;14.63762265;13.7770501;-11.5565228;-2.019040602;-44.40108882;7.011458807;16.24691921;30.52311196;-3.112037826;-17.86529273;-1.154964431;2.595237316;-6.75436856;-9.444409116;-17.78538543;-16.45528196;-11.75188519
-7.003690374;-21.48380554;17.99991456;13.08630353;-3.766572555;-0.337229874;-40.78072912;13.30785091;19.74126602;39.69527149;-8.002795905;-15.70718477;1.173872405;3.244393043;-5.921313503;-10.41891801;-14.15517588;-11.53710945;-8.02283366
-1.006737227;-27.94038544;8.283810938;16.57552469;7.806819485;1.69451687;-30.14539849;24.70416661;27.37019847;49.5142589;-7.54755337;-14.10879853;6.389505129;6.231024613;-5.152053784;-9.498070068;-8.96396297;-8.058650067;-3.219589318
0.779468109;-32.9984753;-4.623129591;21.89383332;14.13760974;2.218389671;-17.38954108;32.65479348;34.1934336;51.24050577;-2.895949785;-18.33701567;9.048905125;5.742435493;-9.052524303;-12.70824753;-9.10161129;-12.33850887;-1.818253829
-2.791194201;-33.72372679;-9.099800293;27.28289787;11.20237365;0.934707191;-6.514355524;32.35647128;37.26539915;43.36558889;2.968849314;-28.78418019;6.597610886;-0.154146325;-17.59097297;-21.59620866;-16.37701103;-23.93077182;-5.017010455
-8.089023373;-30.42893915;-1.286479789;32.92981922;2.823053073;-0.810808669;0.171179032;25.6932322;37.15978666;32.69480999;8.113050295;-39.33167692;1.288326458;-7.758619748;-25.80096824;-31.46768458;-25.98079648;-35.74816849;-9.925469341
-10.10171504;-26.10971358;12.37947276;39.71858877;-3.190403799;-1.3832263;2.161018187;18.66165764;36.2532834;28.24546814;12.56982394;-41.96303659;-2.335689392;-11.37177366;-28.13293774;-35.46070251;-30.92419953;-40.04496962;-12.36720558
-6.790174193;-23.98804937;21.05928551;47.0690915;-1.814543965;-0.342666201;0.601755657;16.1565406;35.81874642;33.51899811;16.79303829;-33.69230985;-1.632998358;-8.620930493;-23.3828759;-30.58843472;-28.1692248;-34.81737845;-10.55590639
-0.682173948;-25.30766189;18.54105872;52.34464625;5.335559496;1.252460176;-2.158330444;18.59753643;34.76834577;43.7617541;19.58136939;-19.70090479;2.120234891;-2.576546258;-15.82110974;-20.40923503;-21.00891587;-25.09842249;-6.394647719
3.463795828;-28.92410371;8.023372692;52.67586876;11.96583765;1.895096419;-3.546623381;22.66221565;31.13920055;50.25282299;17.98238282;-9.761613458;5.360606276;1.054906963;-11.6602972;-12.16085018;-15.87620775;-18.32503211;-3.483986288
2.728055249;-32.54814379;-0.8498569;47.63499825;12.69701302;1.007222071;-2.080369224;24.72280533;24.79630848;47.64160887;9.847225156;-10.74912019;5.597397056;-1.07640074;-14.04658733;-10.99910109;-16.68625293;-18.08437457;-3.852164585
-1.667286361;-34.31194667;0.107568741;40.25116691;7.330273454;-0.593293738;1.746205829;23.68443948;18.65643898;38.05071967;-2.995956328;-21.36097724;3.292492668;-7.264543604;-20.82018333;-16.23512179;-21.72087753;-21.65260488;-6.357976683
-5.616942836;-33.5066972;11.21652959;35.21899384;0.42377144;-1.491020059;5.772908055;21.0762147;17.00092637;28.76851502;-14.12580583;-33.32088719;0.785486545;-12.52831017;-26.67348239;-22.46534312;-25.52958501;-23.11933368;-8.01142395
-5.66989748;-30.4090969;24.79699654;35.57923494;-2.945613236;-0.954890726;7.668780446;18.98121305;22.02759546;25.91900972;-15.97471092;-37.96793032;-0.317057186;-13.01785944;-27.54517264;-24.24624652;-23.85078531;-18.96859514;-6.804470991
-1.778553268;-25.89237177;30.91366577;40.50260988;-1.291472289;0.455128959;6.609052225;18.11049678;31.47179699;29.67372075;-5.457919937;-32.81223803;-0.578327074;-9.057275417;-23.44814342;-20.21357875;-17.13341114;-11.09745106;-3.43594861
2.912706041;-21.32739264;24.26611282;45.94089541;2.686180215;1.451497411;3.848919795;17.7024184;39.46062075;34.84931339;12.46660115;-22.89328048;-1.67406388;-4.330573441;-17.65106308;-13.44182482;-9.790544751;-4.834081874;-0.499571178
4.80018893;-18.53208991;7.204045563;47.60604293;5.053846935;1.188682094;1.703989898;16.90003906;40.2658556;35.91026635;26.70684598;-16.20756337;-4.104278181;-2.282326528;-13.43915906;-8.279854353;-6.20151106;-4.039050291;-0.059275806
2.626151163;-19.18992561;-12.65153639;43.9506831;4.174092561;-0.025179768;1.733141103;15.89897613;32.30125373;31.76531794;26.98014043;-17.24693572;-6.17525808;-3.15859827;-11.57283073;-6.742901434;-7.166242276;-7.780615903;-1.894624986
-1.884798232;-23.69944279;-27.6013267;36.97159335;1.708578163;-1.073043434;3.605216992;15.65289802;19.41912129;26.29885336;11.29166506;-23.89569602;-5.475983595;-4.267696113;-10.53316815;-7.470809238;-9.782966887;-11.40733405;-3.926962271
-5.768504457;-30.2965887;-33.81724892;30.48580726;0.554681815;-1.063084844;5.577506287;16.57856992;8.518501762;24.5387748;-11.59966012;-29.82534272;-1.535553698;-2.958395076;-8.87465998;-7.678637548;-10.485417;-10.81405177;-4.270153456
-7.189278599;-35.49807242;-31.82532305;27.44254694;1.933184446;-0.09887777;6.144945851;17.77032078;5.148894388;28.10632958;-27.14330999;-29.94321029;2.99026183;0.617899578;-7.127547441;-5.933553224;-8.262356369;-5.979616057;-2.924630046
-6.425995384;-36.01738112;-24.39691063;28.31942146;4.359365138;0.878937752;5.402848332;17.67807003;10.15639979;33.93547004;-24.52231646;-24.24519519;4.054920732;3.539178261;-7.340646568;-3.222183608;-5.218184224;-0.740686585;-1.591213168
-4.942087587;-30.98;-14.35940923;31.50282242;5.25741981;0.984223737;4.909443598;15.64420777;19.53542457;37.14045938;-4.310395529;-17.19215753;-0.366337406;2.844201553;-10.76930674;-1.665903394;-4.259416254;0.750297474;-1.896076794
-3.731013057;-22.73685451;-3.97127114;34.90205867;3.498934494;0.176071707;6.161463754;12.73631126;27.30779732;35.26797366;21.22721362;-13.66303992;-8.150762339;-1.606925518;-16.06;-2.437823045;-6.277129789;-2.423365757;-3.76786511
-2.569022111;-15.47355936;4.574756116;37.28475319;0.431763313;-0.749296824;9.05841926;10.93552047;29.24794463;30.16967298;35.70716362;-15.18796062;-14.24839085;-6.77566009;-19.85188215;-4.921683106;-9.438060344;-7.451175155;-5.489170442
-0.717516299;-12.51022751;9.084700088;38.41996163;-1.470887882;-0.914785074;11.79428813;11.35154459;24.98817285;26.05379328;29.1078354;-19.46280382;-14.48897756;-8.916916789;-19.4458209;-7.684914414;-11.05884894;-10.51697546;-5.331895106
1.848992945;-14.26538447;8.493334075;38.35187515;-0.95152749;-0.152531358;12.37259;13.15396787;17.46254057;25.68314134;4.148745579;-23.02607672;-8.932413861;-6.681603432;-15.20785234;-10.00239934;-10.12595271;-10.049636;-3.212472915
4.058906772;-18.36420686;4.222024304;36.83927158;0.93492599;0.878921139;10.45410176;14.30467143;10.54930861;28.15397653;-25.57546346;-24.32937063;-1.988008997;-2.158568555;-10.49869832;-12.25821642;-8.055181131;-7.57806519;-0.815786771
4.648277352;-21.67255836;0.038329256;33.62788876;1.936779724;1.319661829;7.848696804;13.47569446;6.75477725;30.07072264;-44.20582963;-24.47294339;0.849419449;0.952800705;-9.056146315;-14.86731576;-7.073618819;-5.667299627;-0.07936178
3.459717719;-22.55421822;-0.182049468;29.23661162;0.795936489;0.878190841;7.07764636;11.34796209;6.328997459;28.83599923;-43.1006621;-25.30389601;-2.947721508;0.357121754;-11.98774788;-16.99962598;-7.883121854;-5.129389451;-1.441958974
1.79619457;-21.61478937;4.64843139;25.30898259;-1.588177007;0.050006561;9.148653799;9.979081088;7.919493607;24.99723858;-25.17454014;-27.02609712;-11.25818674;-3.212126858;-16.89174791;-16.68116238;-8.89551438;-4.248901328;-3.458504719
1.365852886;-20.58901143;11.70487405;23.89689359;-3.09682398;-0.380697551;12.49724456;10.71;9.84123935;21.60362251;-1.953067466;-27.75138138;-19.14536668;-6.958532491;-19.8204025;-12.47543224;-7.787941326;-0.740426142;-4.116469234
2.715682637;-20.59758399;16.16380806;26.01426322;-2.508017883;-0.06879605;14.1624781;12.52308222;10.9455544;21.28270932;13.93792893;-25.42291787;-22.53152426;-8.491664699;-18.42620079;-5.254206184;-3.910068359;5.478695692;-2.642389259
4.606235831;-21.38391411;14.93850228;30.55931835;-0.769474591;0.605028151;12.34952695;12.49372653;10.73840211;23.73901989;15.68304558;-20.21329932;-20.77139023;-7.568272742;-13.72022608;1.755568345;0.742206327;11.41870085;-0.169132488
4.983554496;-22.07169669;9.330262186;34.57954995;-0.207799116;0.928085068;8.213394341;8.163364663;9.111361214;25.90727938;4.688855346;-14.99910166;-16.37621808;-5.77102708;-9.125049038;5.006526565;2.959536195;13.03764486;1.305315903
2.766410928;-22.4975398;4.33977772;34.91308384;-2.378256381;0.540087891;5.191217196;-0.113035816;6.213707765;24.59466979;-11.8907674;-13.26521377;-12.58479413;-4.744347576;-7.758748757;3.177557762;0.931691198;8.494162984;0.692925185
-1.105724475;-23.65130645;4.957642704;30.20739418;-6.524642087;-0.231963279;6.225074866;-8.91596691;2.603082592;19.29174278;-25.92299908;-16.17244044;-11.03619733;-4.781507503;-10.21069034;-1.925252173;-4.249052831;-0.175062699;-1.274955685
-4.313297772;-26.6688009;12.18425996;21.96923155;-10.07744634;-0.686973724;11.11125596;-13.98928712;-0.653562906;12.7584892;-32.17697995;-21.37190991;-11.29312661;-4.975600005;-14.45191127;-6.907337734;-9.471955255;-8.41119629;-2.775935044
-4.978256171;-31.30062064;21.82495407;13.88636672;-10.78570811;-0.407053347;16.32475747;-13.25450993;-2.315256851;8.946850894;-29.69613984;-24.70774965;-12.096886;-4.51623843;-17.6554613;-9.437105691;-12.03969771;-12.38034297;-2.545632612
-3.136928029;-35.42347244;27.02129531;9.765229618;-8.622886925;0.352618095;17.74982361;-8.237386194;-1.718202505;10.03116865;-21.03192213;-23.48645525;-12.79626301;-3.65429382;-18.24945954;-9.730269078;-11.51866704;-11.43391922;-0.939978881
-0.640654714;-36.31582935;22.69537426;11.31252925;-5.821181477;0.895079741;14.27101225;-2.818190815;0.564735557;14.92288633;-10.59567;-18.64668443;-13.58400858;-3.334592807;-16.62537101;-9.683195139;-9.531862688;-7.920058594;0.503061738
0.389666994;-32.80637846;8.779630988;17.10580001;-5.040855975;0.714548409;9.206790775;-0.362120727;2.765976758;20.27664271;-2.988467491;-14.06669111;-14.598817;-3.950164768;-14.27714206;-10.62225593;-7.933264237;-4.818561606;0.525199439
-0.775829714;-26.48083162;-9.82203586;23.39964248;-7.273541485;-0.048842293;8.054085079;-1.492454904;2.851091313;22.95692898;-1.457619077;-13.58574463;-15.12261324;-4.61769903;-12.43634799;-11.86853309;-7.186193013;-3.41194395;-0.74513793
-3.062551176;-20.78879813;-26.163644;26.32638212;-11.22342958;-0.739563428;13.93415728;-4.100324264;-0.138898835;21.95382451;-6.540199824;-18.1072646;-13.91272066;-3.865728197;-11.41684026;-11.4920513;-6.395603089;-2.892560061;-2.030029297
-4.667848151;-18.62323197;-34.8663168;24.199823;-14.55362436;-0.773694132;24.2029519;-5.313627656;-5.194414836;18.47227576;-15.45122292;-24.96728403;-10.43522576;-1.165236936;-10.96185326;-8.50709902;-4.755599601;-1.882953618;-2.194660107
-4.61261431;-20.26809661;-34.21092894;18.5158504;-15.79096913;-0.147561935;31.15603816;-3.68889684;-9.573037773;14.53542479;-23.00235336;-29.87456417;-5.73225396;2.228515977;-10.90783342;-4.32062243;-2.808660456;-0.154122781;-1.33791236
-3.438442355;-23.35982159;-26.01319972;12.97388086;-15.24888703;0.581682411;26.8412089;0.024717261;-10.17712167;11.49301752;-24.13714473;-29.79061532;-1.912486413;4.11753497;-11.35715452;-1.869224707;-2.153295825;1.141052481;-0.648918478
-2.554626074;-24.86793396;-14.11459347;11.05073992;-14.34228934;0.808076137;8.818083047;3.830227141;-5.359851388;9.554322334;-16.88851465;-24.64246435;-0.567982972;3.289853361;-12.26807589;-3.047279115;-3.818617878;0.812147765;-1.182722643
-2.924889159;-23.45561156;-2.740376114;13.63831051;-14.12339847;0.408399499;-17.28300151;6.055946431;3.879478166;8.346889781;-3.844522402;-16.92682324;-1.513237344;0.792045095;-13.09037461;-6.751705578;-6.91313292;-0.91582672;-2.737900622
-4.274637347;-20.32169243;4.671403158;18.33950944;-14.43980362;-0.179305183;-40.48438739;6.239251185;14.06591241;7.652824597;9.084774331;-9.916045694;-3.028618862;-0.754581795;-13.03445855;-9.495414809;-9.001132602;-2.374194505;-3.934948376
-5.429955585;-17.94691483;6.305172001;21.02530251;-14.37480428;-0.379995605;-50.85722037;4.892089355;20.80014138;7.576914526;15.99540533;-5.949354271;-3.426464581;0.627678468;-11.82469144;-8.299234146;-8.069440438;-1.944908545;-3.47433999
-5.35861047;-17.91599778;2.626541142;18.73155291;-13.36466417;-0.007173798;-45.35180422;2.762164373;20.92528901;8.168036876;14.26304056;-5.773859163;-2.511997969;4.404990899;-10.15276889;-3.432872519;-4.391557925;0.348511887;-1.43206132
-3.927851663;-19.67734015;-3.511857251;11.93517486;-11.80926247;0.585979968;-29.19278137;0.443074892;14.16267211;9.095472942;5.620132524;-8.820912977;-1.574249111;7.730299765;-9.222595225;1.486070813;-0.550075684;2.726868508;0.633091736
-1.771631957;-21.19633369;-7.923998763;4.51271929;-10.5940626;0.850296773;-12.06907591;-1.450943108;3.316172798;9.832764382;-5.479283923;-13.71558317;-1.898440133;7.689562509;-9.652498325;2.334304909;0.553677383;3.219141611;0.938909247
0.455740673;-20.8001935;-7.258548331;1.212510711;-10.07653496;0.549871963;-1.915399832;-2.069640328;-7.093793875;10.16812403;-14.75480401;-18.59890734;-3.205984948;3.771650916;-10.72616993;-2.025363282;-1.9251017;1.505518555;-0.956498409
2.626584259;-18.55303976;-1.128608923;4.26581583;-9.63427078;-0.029001674;-0.556471032;-0.644075626;-13.0386506;10.45101556;-20.0643789;-21.45960208;-3.574818902;-1.534783846;-10.79841625;-8.592569276;-6.046767192;-0.678701164;-3.664025353
4.960575361;-16.02390214;7.404022621;11.51085732;-8.304127138;-0.347754397;-3.898702196;2.756185945;-12.82964817;11.23068728;-21.28500735;-20.83090209;-1.084067621;-4.574863334;-8.655056397;-12.51676915;-8.655923759;-1.016911674;-5.018553697
7.37580431;-14.78236387;13.69189065;17.46366821;-5.926801022;-0.105836684;-5.992665291;6.769697279;-7.620972523;12.58318237;-18.82680446;-16.70325961;4.185835501;-3.311431049;-4.700868781;-11.00512579;-7.928761768;1.31470249;-3.819121631
9.126061198;-15.04263652;14.65707904;16.7342491;-3.643939386;0.495426969;-3.665137976;9.244794755;-0.390148051;13.79604975;-12.58365786;-10.91666777;9.618996313;1.201702342;-0.893134311;-5.596634682;-4.754811904;4.831687682;-0.799859665
9.210308706;-15.64412757;10.99832663;7.51608609;-3.148271779;0.942621624;1.628033733;8.529142459;5.87262638;13.7937281;-2.511279836;-6.379409784;11.65388343;5.787893727;0.62410786;-0.866976596;-1.83617814;6.950374965;1.967588543
7.264585013;-15.27869506;6.715451227;-7.184568205;-5.262131886;0.866942413;5.70197291;4.598815922;9.604910767;12.00463823;9.717236975;-5.326877902;8.353448513;7.648995758;-0.901629468;-0.614480898;-1.34815773;6.197282898;2.71813739
4.115864948;-13.74449971;6.169922681;-21.3144729;-9.109610574;0.352284652;5.400375459;-0.893668672;10.92013965;8.942997628;19.83329254;-7.76885372;0.927275614;6.301497185;-4.332528419;-4.697865472;-3.184021545;3.507860722;1.317189044
1.414050249;-12.04104784;10.79606367;-29.2141607;-12.67892231;-0.167800225;1.120541277;-5.711633291;10.71805482;6.005624473;22.37278155;-11.36616751;-7.02208868;3.474717005;-7.590374548;-9.148102898;-5.21487834;1.499279331;-0.773610269
0.562310436;-11.2534995;17.87868042;-28.42724695;-14.34459459;-0.307421986;-3.736833174;-8.395614541;9.505268528;4.64376702;14.01180393;-12.99863247;-11.95073099;1.307159039;-9.190359693;-9.433768599;-5.214567381;2.355865443;-1.758006195
1.801118487;-11.3402175;22.26032076;-20.30198574;-14.0495669;-0.049254148;-5.679354482;-8.861830187;6.907118355;5.549905878;-3.375201242;-10.97058369;-12.64862476;0.552775689;-9.052142214;-4.154130271;-2.717853159;6.125162344;-0.883490441
4.180736767;-11.05109375;19.68222216;-8.545969172;-13.13939885;0.288294046;-3.881177276;-7.938579218;2.230009766;8.392947515;-22.46277165;-6.24632707;-10.71111803;0.303407893;-8.014274453;3.850734926;0.735378189;10.80153197;1.159730194
6.387692977;-9.149715142;9.394699152;2.795956464;-13.04109614;0.377776362;-0.582146756;-6.466428582;-4.462152604;12.11021324;-33.88466152;-1.815038298;-9.072252505;-0.754140824;-6.695086135;9.768642963;3.022324601;14.00285679;3.000636757
7.672827142;-5.849968042;-5.572510343;10.54239261;-14.00144551;0.181934721;1.030740908;-4.849827291;-11.7541385;15.36007813;-31.60905694;-0.698181747;-9.907371825;-2.894129632;-4.912543884;10.47339245;3.155482439;14.73627548;3.728050628
8.106348915;-3.077435272;-20.28462728;12.52284485;-15.01632268;-0.047290029;-0.437283859;-3.348131555;-17.40440414;16.81262221;-16.96725889;-4.087628415;-13.46615638;-5.107483766;-2.268012193;6.57076855;1.809318384;13.81069198;3.433044947
8.05644171;-3.147588639;-30.38379133;7.504145907;-14.97189754;-0.045453256;-3.530387631;-2.56743148;-19.70872178;15.34013638;1.43;-10.88104499;-18.42080013;-6.210889501;0.715065685;1.350800117;0.360414859;12.73643532;2.829757775
7.513486364;-6.878650905;-33.68284798;-4.305763607;-13.8956439;0.194440068;-5.36016134;-3.401629805;-18.67928491;10.37581039;12.21139533;-18.71690883;-23.07835841;-6.161229426;2.170097656;-2.191473033;-0.508695789;12.25019769;2.469400985
5.985901992;-12.75765772;-30.4356392;-20.40275765;-13.10601254;0.420708271;-4.185548513;-6.292429475;-16.07308998;2.459893417;7.732249136;-25.51040459;-26.35240632;-6.260687328;-0.105435219;-3.621016625;-1.3101597;11.7848135;2.32748917
3.091363227;-17.97457152;-22.79337957;-35.92485222;-14.05876461;0.38369698;-0.899730936;-10.50692735;-14.16106556;-6.459970298;-11.28332125;-30.32134489;-27.92918586;-8.018255886;-6.837502239;-4.819624863;-2.983452953;10.20959881;2.068015442
-0.758873882;-20.57332369;-14.03085338;-45.28994385;-16.9022871;0.096916938;1.834663724;-14.29796301;-14.13041407;-13.51918882;-35.79102281;-33.15821994;-27.91550314;-11.71845244;-16.18114957;-7.744291119;-5.723363132;6.99081678;1.591330984
-4.332205021;-20.97128672;-7.608465854;-45.06251723;-20.07040575;-0.161208445;1.997801689;-16.06542835;-15.34544793;-16.26533455;-53.29043002;-34.26230103;-26.58644705;-16.03643357;-24.45823556;-12.37773219;-8.612185744;2.642327264;1.232439435
-6.360841825;-21.54926626;-5.900300523;-36.22730865;-21.36190822;-0.112044144;0.01445025;-15.63486122;-16.05087014;-14.11355878;-54.77621652;-33.70176429;-24.46634036;-19.07832205;-28.38835702;-16.70788535;-10.43567896;-1.867732555;1.387718776
-6.508275903;-24.57554138;-8.897180003;-24.03255137;-19.65581473;0.245214953;-1.676169017;-14.49091261;-14.96301573;-8.889349413;-39.76466332;-31.59259827;-22.41902062;-19.92088686;-27.19444264;-18.62632352;-10.88433411;-6.046103235;1.969665855
-5.641578663;-30.11588123;-13.84104873;-15.13788184;-15.83979536;0.613700963;-0.914698396;-14.60885578;-12.46563039;-3.92765102;-16.45944631;-28.538859;-21.34702937;-19.27917385;-22.97499106;-17.90773513;-10.94622242;-10.15164764;2.295531202
-5.103413595;-35.64090003;-16.59192969;-13.81819651;-12.18509319;0.666348982;2.108179061;-16.76430061;-10.41864769;-2.21945179;3.03346672;-25.66483564;-21.58123777;-18.73682285;-19.06939468;-16.44531548;-12.05563692;-14.54958911;1.602614941
-5.567227525;-37.71098292;-14.29689509;-19.78757515;-10.70086686;0.35488753;4.990952447;-19.75217382;-10.70109739;-4.816260304;9.581372543;-24.06433014;-22.52497027;-19.27260403;-17.70466295;-16.57070612;-14.74986319;-18.85081064;-0.245607154
-6.464237782;-34.47635086;-7.561790216;-29.06468906;-11.81181114;-0.032263837;5.512594442;-21.25;-13.65980476;-10.51003906;1.873879582;-24.12275814;-23.01310682;-20.4182801;-18.7110924;-19.02348863;-18.07997654;-21.81105293;-2.527224687
-6.50078309;-27.09587073;-0.235055544;-37.04467957;-14.3515851;-0.126731038;4.165283221;-19.66832963;-17.75523659;-16.84942007;-13.59607434;-25.33407642;-22.18476112;-20.76320285;-20.14904994;-22.38894918;-20.35025785;-22.2420672;-4.162664622
-4.833211124;-19.03456715;3.422736463;-41.36546028;-16.70969909;0.178767608;4.30115824;-15.45305916;-20.74705254;-21.62039364;-27.18037248;-26.77700726;-20.1034292;-19.28206981;-20.13279969;-24.42515519;-20.54369529;-20.15948678;-4.538629423
-1.875610592;-13.82457105;2.16333895;-42.52287455;-18.04731839;0.62;9.252915005;-10.74191498;-21.48445491;-23.75550631;-32.17638937;-27.79600916;-17.52088332;-16.25046711;-18.27870501;-23.98089106;-19.15557788;-17.05721065;-3.939293497
0.978697228;-12.96796267;-1.084163798;-42.16310434;-18.58313651;0.789808178;18.54225254;-7.67151004;-20.80746249;-23.2856439;-28.36885151;-28.26756014;-14.99853893;-12.95476031;-15.70094695;-21.74159737;-17.69173257;-14.91690757;-3.217221091
2.492682344;-15.41155141;-1.556132171;-40.8924755;-18.88978668;0.503895996;26.54634792;-6.778638687;-20.72964496;-20.77136014;-20.88702424;-28.28044429;-12.29739618;-10.54653719;-13.80562542;-19.21537036;-17.30032886;-14.70539153;-3.020663943
2.590058594;-18.72820734;3.199575216;-37.69343627;-19.03618044;-0.026802366;25.4366672;-6.828723242;-22.479699;-16.91003906;-15.58725825;-27.66581317;-8.774674165;-9.15490959;-13.10083802;-17.05393884;-17.78311337;-15.63334658;-3.282210281
2.345916202;-20.88960768;10.87819026;-31.4466794;-18.46012693;-0.375613302;10.82161648;-6.141665026;-25.00626737;-12.56962314;-14.5873714;-25.960979;-4.534645524;-8.058729933;-13.04884809;-14.41308073;-17.86681898;-15.84333606;-3.410377458
2.96590977;-21.27139827;16.04292177;-23.03769335;-16.66947005;-0.272420698;-14.01862678;-4.188842648;-25.32013761;-8.885067816;-15.29222498;-22.91609511;-1.175530045;-6.664798028;-12.90733532;-10.02619151;-16.45380066;-13.97698524;-2.961348537
4.647670259;-20.36522077;14.79476102;-15.8582317;-14.02460558;0.164042183;-38.88119756;-2.04421431;-20.65737354;-6.936840304;-13.44504592;-19.02485905;-1.103982528;-5.260234882;-12.58161868;-3.963353737;-13.68417025;-10.31417532;-2.124818037
6.331075681;-18.78638595;8.606442759;-13.8320004;-11.7515286;0.53938699;-52.45034291;-1.332933523;-10.94167728;-7.041486993;-7.538226939;-15.43522469;-5.610039063;-4.750291582;-12.58306841;1.711294525;-10.83824299;-6.54901799;-1.54900097
6.576923334;-16.62223252;3.744434326;-18.31229211;-11.06094531;0.536302928;-49.35243538;-2.666231813;0.393246491;-8.281176602;-0.821097779;-13.16010199;-13.19635333;-5.619620696;-13.15068199;4.2275837;-9.194561604;-4.435502912;-1.673881688
4.833204639;-13.66625372;6.227380262;-26.40979636;-12.11707526;0.18854872;-33.44215119;-4.980797071;8.08354789;-8.903201341;0.92945592;-12.25216976;-19.79279716;-7.173526083;-13.50378433;2.358520717;-8.926156755;-4.473556187;-2.23060798
2.006743928;-10.16083508;16.21358183;-32.39819238;-13.7937766;-0.164930731;-14.90895884;-6.355578862;8.255116643;-7.511026919;-5.773487501;-11.77994647;-21.13929055;-7.917378056;-12.16219754;-2.381762435;-9.073744165;-5.712901946;-2.429946102
-0.152949975;-7.176115153;26.64695565;-31.46278601;-14.48598275;-0.194613489;-3.318243884;-5.547304957;1.011194054;-4.160413774;-18.62662251;-10.78124692;-15.78896015;-6.864925243;-8.278999614;-6.813394458;-8.622101254;-6.74924428;-1.715263591
-0.346692249;-6.103180401;27.83990093;-23.11299563;-13.31599734;0.12681627;-1.670777363;-2.873674333;-9.440650821;-0.373398937;-30.39735008;-9.414513608;-6.433685052;-4.616129763;-2.870058594;-8.667011932;-7.659857143;-6.979640231;-0.39252711
1.369630598;-7.591190432;14.82113298;-11.68007813;-10.72684754;0.515252065;-5.651652353;0.289666092;-17.26754083;2.093118909;-33.79072982;-9.179727706;1.649623166;-3.130087891;1.301690901;-8.44808459;-7.491487239;-7.035112543;0.492532005
3.776982304;-10.83429977;-8.259909835;-3.446257943;-7.99823432;0.646460499;-8.168077561;2.854945095;-18.44240893;2.78638666;-26.70628373;-11.76988473;4.054392026;-4.224578325;1.413162046;-8.845930291;-9.50901013;-8.089504985;0.005033302
5.55286368;-13.89492393;-30.33415799;-2.457467179;-6.160341271;0.450205376;-5.275297664;4.924610226;-12.86755785;3.073665709;-13.80329164;-17.33811153;0.100549801;-7.996857169;-3.285088502;-12.03042129;-13.77670172;-10.71670038;-1.802096471
6.267622046;-14.91224388;-40.75740467;-8.018403712;-5.275371841;0.156955597;1.192414435;7.419840842;-3.929349742;5.054578198;-3.086480248;-23.65805727;-7.000940604;-12.52527862;-10.54411381;-17.12209735;-18.59774796;-14.28453211;-3.768192689
6.5042326;-13.29967125;-36.27627108;-15.55785311;-4.678576984;0.062549841;6.017543056;10.8195865;3.955789182;9.624254678;-0.101994221;-27.114557;-12.71019811;-15.18585549;-16.2610863;-20.1838238;-21.52166591;-17.32416341;-4.433291776
7.087391061;-10.01554979;-22.44144847;-20.04875753;-3.880509279;0.238559;5.581390496;14.24216258;7.954191854;15.24121863;-4.200117887;-25.02369714;-14.4163943;-14.56906633;-17.01368763;-17.08140925;-21.02408153;-18.46266126;-3.156503391
8.172114503;-6.721053079;-8.757138328;-19.39913803;-3.239630247;0.46286243;1.04264298;15.8056731;7.871228329;18.49850086;-9.666293872;-17.60827524;-12.9342575;-11.47204726;-12.23142446;-7.097468112;-17.51969419;-17.12535518;-0.641049999
9.018698816;-4.519079847;-1.727457127;-15.4613738;-3.743863619;0.435800248;-2.884730449;14.03911925;5.274921656;16.21120028;-10.66821392;-8.071761781;-11.28852152;-8.208288979;-4.490585056;5.664076522;-12.9392146;-13.5728816;1.565856578
8.638069701;-3.279708318;-1.253213321;-12.21259031;-6.069701114;0.078472332;-2.255484512;9.145318793;1.750311497;7.537980809;-6.007048655;-0.609941899;-11.99672803;-6.853205711;2.220922751;14.47442946;-9.29345121;-8.505374804;2.200206066
6.717796462;-2.054820746;-2.64660138;-12.69306719;-9.764955809;-0.368978839;2.611251237;3.015632997;-2.205323464;-5.381400661;0.05683617;2.21690792;-15.11836504;-7.854964807;4.99867388;14.37069837;-7.424094626;-2.774951106;1.146613371
4.007361977;-0.184959892;-1.756115091;-16.96596198;-13.32264791;-0.547359414;7.543516668;-2.033835754;-6.920451793;-18.65957766;1.404774009;0.842898772;-18.51652933;-10.03356517;3.576055989;5.54687284;-6.867107432;2.556563236;-0.602231158
1.826150876;1.862547489;1.559977691;-22.36121888;-15.15432829;-0.298625893;8.391217267;-4.759695642;-12.4607247;-28.79803948;-4.927099741;-2.106924114;-19.87299134;-11.78100273;0.043039859;-6.770130524;-6.735317764;6.116408166;-1.787682271
1.11028589;2.663376651;4.351562949;-25.53332109;-14.70119272;0.185482082;4.841087559;-5.540423607;-17.92244861;-34.24919634;-16.32411524;-3.989531217;-18.63390699;-12.33476985;-2.821483109;-15.84799388;-6.690641133;6.54475948;-1.809723381
1.781242112;0.931848059;4.380618622;-24.72733053;-12.80212801;0.524313224;0.720457078;-5.673327028;-21.86798691;-35.56802444;-26.53536483;-3.908905369;-16.30407389;-12.09501668;-3.299326513;-17.76211124;-7.128872464;3.290898943;-1.022823158
2.912663411;-3.299941889;2.764036666;-20.78570656;-11.0510103;0.476048384;0.494317678;-6.181086574;-23.54051507;-34.45596395;-30.25014301;-2.782803621;-15.01392812;-11.90894748;-1.439243056;-13.42633831;-8.51797861;-2.679409391;-0.26373174
3.493581697;-8.361234409;2.809189311;-16.48492945;-10.67932507;0.138887565;5.107527214;-7.192431276;-23.704765;-32.66046507;-26.6517353;-1.916300295;-15.70305964;-12.14383581;1.479586024;-7.146722347;-10.62466507;-8.985942849;-0.091292784
3.130362997;-11.79040977;6.296493598;-14.85629706;-11.82413794;-0.151826276;10.98011695;-8.29250281;-24.21087052;-31.44052706;-19.38112025;-1.507510377;-17.43852965;-12.42995897;4.046129071;-3.142182378;-12.42311528;-12.93280012;-0.379626841
2.155887672;-11.79798009;11.10596071;-17.54904051;-13.66069283;-0.132367812;13.18412793;-9.286055027;-26.48111395;-31.55844417;-13.35483134;-0.450001221;-18.30057442;-12.21020289;5.490313194;-2.808153379;-12.80292815;-12.97932822;-0.5336446
1.160969222;-8.352895111;12.89198209;-24.01950813;-15.16742033;0.156728919;10.03149837;-10.49118848;-30.13706691;-33.30338755;-11.24777956;2.436996339;-16.9556782;-11.44390975;5.722214374;-4.600679174;-11.44370067;-9.582697412;-0.061409635
0.429415382;-3.192440548;9.52017384;-31.79962693;-15.85473887;0.422213737;4.885016258;-12.25653797;-33.01354773;-36.28315096;-12.33503094;6.925598006;-13.60571937;-10.72032171;4.892438179;-6.174334261;-9.08738617;-4.832736153;1.002320831
-0.236481587;1.182079687;3.963058307;-37.67061993;-15.93694569;0.400288372;3.345723473;-14.26858951;-32.74584494;-39.28331949;-14.13695889;11.0664597;-9.691619518;-10.6792364;3.029598029;-6.692616795;-7.001163796;-1.18316006;2.124829673
-1.216432774;2.81836869;2.346632163;-39.2851341;-15.95;0.106504191;8.120885822;-15.50282662;-28.79030589;-40.69249053;-15.00296537;12.4588753;-6.807893285;-11.34969817;0.09354034;-7.351276366;-6.127822742;-0.192115231;2.656366895
-2.631859293;1.145795463;8.235276341;-36.54497824;-16.23442979;-0.176710847;16.16977683;-15.0610241;-23.24474197;-39.52080934;-15.31631191;10.12762855;-5.791808165;-12.09798329;-3.673253754;-9.852485216;-6.62244162;-2.038354567;2.224389317
-4.1705317;-3.012364042;18.12962693;-31.93403305;-16.70011727;-0.162502556;20.97623952;-13.19918766;-19.64999013;-36.32107754;-16.56144896;5.453735367;-6.562590531;-12.25616681;-7.494567489;-14.33669696;-8.038527023;-5.870693798;0.884608344
-5.296146939;-8.024388369;22.77284446;-29.30958435;-16.96387363;0.169722918;18.32742672;-11.5098527;-20.50659329;-33.12183535;-19.48522112;1.332003581;-8.512708153;-11.80304342;-10.21408515;-18.67187896;-9.819813138;-10.44099863;-0.975178506
-5.619369292;-12.16308369;14.11854435;-31.49595703;-16.64580876;0.544616178;10.61981359;-11.87422013;-25.3265502;-32.14360517;-23.2130288;0.150597424;-10.86822499;-11.38989086;-10.81774886;-19.78645197;-11.56400642;-14.47292424;-2.823124828
-5.113731894;-14.13504669;-7.369390986;-38.0109698;-15.57503973;0.631909416;5.552798877;-14.90902141;-30.76314045;-34.11450559;-26.04090668;2.134543075;-12.72511916;-11.64044214;-8.995536337;-15.99800119;-12.89199255;-16.72533367;-4.149554106
-4.054861867;-13.40992813;-31.38697887;-44.59521164;-13.83319672;0.342080824;9.68285425;-19.19634302;-32.86322834;-37.50256386;-26.93956613;5.309349413;-13.01633873;-12.39748925;-5.373392084;-8.469446427;-13.25769637;-16.13844005;-4.618575587
-2.814657127;-10.43067776;-44.2586935;-45.34754502;-11.71692961;-0.088885398;21.93192276;-22.04270361;-29.87410949;-39.40093379;-26.20388457;7.081328113;-10.82858025;-12.70139807;-1.251113405;-0.628314752;-12.12384873;-12.33207723;-4.230730205
-1.707919997;-6.622921703;-38.61497293;-36.51633968;-9.679586953;-0.30155736;32.75068881;-21.28169307;-23.54967444;-37.52778414;-24.66427257;6.217860411;-6.070861773;-11.61936643;2.030138475;4.026549067;-9.494472016;-6.176443285;-3.413445767
-0.946474628;-3.963226339;-18.74192649;-19.54465519;-8.203104971;-0.122137303;30.40802193;-16.75709089;-17.94836398;-31.87200852;-22.40851911;3.771969416;0.056621761;-9.203550069;3.766993767;4.121345967;-6.282355097;0.221246551;-2.881540399
-0.602876402;-4.022473896;2.722233363;-1.058472497;-7.546760224;0.293346096;10.05975557;-10.35814264;-16.54393925;-24.73306723;-18.50385213;2.345215938;5.404242093;-6.648654501;4.267316081;1.090213051;-3.969837139;4.482585883;-3.228198049
-0.510310006;-6.870411684;14.18142573;10.64787171;-7.476398068;0.601206309;-21.39641844;-4.629900036;-19.71981627;-19.12722621;-12.20003906;4.299994549;8.035389733;-5.39057438;4.70262827;-1.981038291;-3.607431568;5.432537855;-4.467434953
-0.195640741;-10.61625556;13.12296207;10.59851281;-7.227468683;0.566435697;-48.80331103;-1.077602083;-24.45204525;-16.77473795;-4.498058899;10.19503829;7.461352664;-5.860907607;6.469714724;-2.378095473;-4.884487328;4.014556573;-5.9014991
0.962646023;-12.19843347;6.585167988;0.299796799;-5.876369845;0.251762506;-58.40177738;0.570050049;-26.40100972;-17.14132285;1.63775602;18.42488378;5.002089969;-6.994967376;10.35341625;0.772522548;-6.121516379;2.793582777;-6.519515346
3.309234582;-9.246861999;4.146187801;-13.17358789;-2.973978981;-0.056876182;-46.7316527;1.73557412;-22.90419742;-18.11226427;3.068100631;26.14300982;2.936813307;-6.993821558;15.93718745;6.404625902;-5.36972704;4.207500875;-5.717454853
6.477838124;-1.926989462;9.62814112;-21.66685872;1.004213863;-0.10746492;-22.37710292;3.686755607;-14.75754667;-17.61030311;-0.950083008;30.75917623;3.04401818;-4.758344498;21.63997613;12.54318735;-1.870549273;8.760167876;-3.805643208
9.357587818;6.602419716;18.48698288;-20.98486785;4.800940164;0.112980141;0.435261189;6.635976925;-5.600863289;-14.86867667;-7.576510544;31.11923707;5.594432718;-0.801235029;25.44727263;17.54464493;3.261481092;14.51706586;-1.861053359
10.64997601;11.73512009;22.75080545;-13.06369609;7.104293812;0.397974254;11.37397555;9.812954959;0.543822543;-10.54918387;-11.8227242;27.85956203;9.458890253;3.137403852;25.99073032;20.72916356;7.724265778;18.35117393;-0.974542097
9.728334568;10.20283231;18.8198739;-3.926346386;7.366825824;0.527638312;9.713075768;12.20270508;1.781093576;-5.932045384;-9.748214338;22.96686443;13.08953787;5.443964845;23.36859133;22.22433485;9.603285455;18.07234172;-1.452919873
7.173976092;2.313079664;11.06868236;0.901085926;6.102977882;0.460511961;2.655260871;13.20064473;-0.796830116;-2.065221857;-1.070833994;18.89500375;15.51043948;5.806661425;19.19287779;22.42554102;8.644893837;13.89939052;-2.615663729
4.51135034;-7.963226355;7.974750042;0.109406512;4.439708068;0.339670119;-1.490492729;12.73190947;-4.296087416;0.460389473;10.73028127;17.62193281;16.60741896;5.243560639;15.78526258;21.60276046;6.283448466;8.241947088;-3.368158339
3.252058756;-15.26630052;14.1199638;-3.112494806;3.293323126;0.325359759;0.502770255;11.00383365;-6.189557353;1.217254715;20.75866074;19.93460536;16.71892459;5.029862014;14.96264276;19.88511351;4.47944392;4.039539631;-3.094883979
3.930483528;-16.04423763;25.13703415;-4.124314529;2.843034615;0.427412157;5.727202389;8.354880085;-5.842093328;-0.236042577;25.58513153;25.15172946;16.10965552;5.520356273;17.11418982;17.4818787;4.343226057;2.940890056;-2.135945664
5.873122142;-10.54212049;30.29365557;-0.645656111;2.697613961;0.500871517;9.099346256;5.383538209;-4.43255589;-3.997392192;24.59427869;31.41265884;14.85516005;5.913158782;21.0933331;14.85890738;5.602951915;4.609451192;-1.445184958
7.88814772;-2.28229928;20.94950488;5.607991566;2.532894265;0.403831285;8.260700909;3.059153959;-3.597315432;-9.216648776;19.24449056;36.4768547;13.11623132;5.126528518;24.94679454;12.71294146;7.201402779;7.480058594;-1.713255221
9.315632767;4.497047341;-1.925695137;10.52957483;2.558409983;0.157639592;5.195121071;2.409128133;-4.013977601;-13.98615897;11.46814827;38.7069064;11.33823897;2.956697486;27.00993132;11.78135239;8.36982254;10.18747107;-2.698780428
10.5639713;7.575549758;-27.37295835;10.96814846;3.33362149;-0.052699386;3.695623514;3.810745846;-5.024420958;-16.16676971;2.863760875;37.73521268;10.02517762;0.446150668;26.72361164;12.60749333;9.220019531;12.50433186;-3.347738572
12.66658746;7.783737635;-41.68689733;7.089653135;5.067898481;-0.045496223;5.504028836;6.457176313;-5.459700991;-14.7538877;-4.865910047;34.43850172;9.268102473;-0.885033227;24.75252112;15.33966076;10.42447546;15.17776274;-2.62372481
16.21437024;7.817238678;-37.7282634;1.987515566;7.06;0.179270033;8.793459718;8.607660596;-4.868587481;-10.77574479;-9.32529206;30.25428749;8.568559085;-0.27162385;22.42738585;19.59198983;12.39392224;18.98944627;-0.371736854
20.5738604;9.950983873;-19.3083446;-0.948674257;7.879774159;0.422903626;10.18960412;8.621662413;-4.098987314;-6.925972393;-8.083650828;26.30015123;7.26633763;1.676928692;20.90439377;24.41999838;14.76127098;23.90304871;2.497450389
24.10501368;14.44376168;2.243833087;-0.683318927;6.280895072;0.457442157;8.177904626;6.031266772;-4.760999604;-6.048511658;-0.63924719;22.87417962;5.247668543;3.488404742;20.53551911;28.50813554;16.62524762;28.94281616;4.657032866
25.27892406;19.69007813;16.14861932;0.873733991;2.174714985;0.232020362;4.574734559;1.753286329;-7.994836703;-9.471283844;9.96937261;19.6195518;3.220104772;3.993918591;20.76678181;30.61201031;17.27847547;32.77244796;5.321979273
23.8273111;23.72025905;18.60093829;0.653325489;-3.132297774;-0.072391795;2.693888292;-2.783790757;-13.47660186;-16.30320636;17.89012605;16.14933862;2.156094875;3.131661077;20.56932145;30.11610791;16.72448516;34.43339012;4.752955417
20.98051205;25.67298949;13.32045907;-2.964438571;-7.693857667;-0.193957276;4.008407768;-6.865123124;-19.38303677;-24.08589727;17.82854725;12.61812991;2.306969532;1.750097656;19.13359972;27.39297719;15.53725532;33.72908508;3.936915367
18.55703887;26.09470939;7.001573609;-8.791262608;-10.15096124;-0.015358379;6.545571428;-10.96358075;-23.33440112;-30.23402036;8.952326499;9.810674825;2.718126468;0.691403451;16.4353607;23.67280666;14.26042693;31.15621106;3.750611119
17.59348481;26.04305824;4.078328949;-13.66955497;-10.53278686;0.334852157;6.650311828;-15.97683427;-23.69394916;-33.25773804;-3.784180141;8.695049099;1.851131343;0.047640905;13.3493059;20.40853502;12.95887258;27.63331835;4.30505132
17.59112101;25.9697703;4.785541712;-14.72013054;-10.06292032;0.592095368;2.587642792;-21.86409559;-20.44411542;-33.1014583;-12.44792711;9.75450674;-1.06796574;-0.750678673;11.21353026;18.48044853;11.34312806;24.26723179;4.970795227
16.97731267;25.40199102;6.982302116;-11.26086314;-10.16388932;0.57673479;-3.367307881;-26.95811018;-15.19792012;-30.66807509;-11.49368416;12.52223871;-5.131662;-2.179947179;11.04652686;17.74296188;9.294945955;22.14394809;4.994455456
14.41458089;23.59007813;9.037774009;-5.122890254;-11.43307372;0.332423283;-6.474482261;-28.76131777;-10.42494137;-27.09362972;-1.889719836;15.58432248;-8.210133574;-3.999681343;12.84780731;17.21675969;7.212503141;21.98871397;4.14638311
9.916912584;20.37923999;10.90307543;0.589983617;-13.32280985;0.069054353;-3.585468695;-25.79142426;-8.332689125;-23.27797557;9.192925069;17.05846606;-8.597771218;-5.406206462;15.42529854;15.79132485;5.766208402;23.70900541;2.86610774
4.894618516;16.42207624;12.94909271;3.222241849;-14.67502195;-0.025660875;3.800974899;-19.05875688;-9.915399957;-19.77387337;13.16534763;15.36303009;-6.546679682;-5.834138231;16.93007813;12.94910607;5.249428491;26.13965922;1.834361613
1.10997047;12.55920198;14.54382538;1.668822628;-14.62916739;0.068056678;10.34435202;-11.90143226;-14.54439209;-16.83841504;5.970583502;9.995373115;-4.318880317;-5.616947356;15.85540721;9.026189972;5.152862302;27.37593664;1.380365059
-0.613091365;9.041662134;14.35281831;-3.483275993;-13.22051399;0.22064084;11.14832893;-8.112348179;-20.25538057;-14.48333358;-9.045751433;1.995665235;-4.533031197;-5.809900224;11.92870167;4.883766877;4.444588134;25.7250135;1.232212878
-0.910014648;5.427083854;12.1720266;-10.40065051;-11.30384647;0.299345998;6.058043679;-9.608345536;-24.63956747;-12.55715394;-23.35897103;-6.207815518;-8.029010028;-7.252908471;6.336344371;1.29868862;2.406326983;20.76570297;0.789332861
-1.251910708;1.293451998;10.11298279;-16.57994128;-9.958974507;0.291907683;0.248451162;-15.26456371;-25.97854468;-10.94122623;-28.90987591;-11.69726241;-12.97948393;-9.693863279;1.105370279;-1.446746972;-0.670861982;13.76123601;-0.34853182
-2.720387799;-2.95594321;11.2979778;-19.49632148;-9.845402976;0.292134406;0.290970878;-21.68767204;-24.06741706;-9.764837097;-23.14714636;-12.45127594;-16.04652425;-11.80325301;-2.003697178;-3.507540284;-3.575809246;7.013939904;-2.044053398
-5.179632526;-6.107948833;16.69140032;-17.50766295;-10.90132154;0.374478821;8.608733432;-25.32632003;-20.22508371;-9.386905334;-10.11759845;-8.542674845;-14.74255978;-12.14977893;-2.423829578;-5.090241552;-5.056457393;2.490653419;-3.724877611
-7.486123456;-7.14535388;22.91552695;-10.88844855;-12.476411;0.494586454;20.70954114;-24.47476068;-16.39977504;-10.0298595;2.730505123;-2.358450881;-9.173205067;-10.34604344;-0.982567615;-6.14030404;-4.810655817;0.623299971;-4.79971222
-8.517553759;-6.397552911;23.5762514;-2.308757243;-13.7253104;0.524061041;27.57928039;-19.97159103;-13.8778274;-11.33471918;9.400402949;2.514379026;-1.84833759;-7.391357413;0.691099336;-6.410445902;-3.779354485;0.123908678;-5.038400076
-8.148213079;-5.679402592;13.76507065;4.008764081;-14.01995294;0.389654745;21.70322705;-14.40104317;-12.47580027;-12.34055477;8.461013883;3.261863942;4.180339375;-4.913141348;1.128749443;-5.855599339;-3.480215502;-1.042012685;-4.650657814
-7.367282848;-7.045171878;-5.565662583;4.446214485;-13.21321655;0.17568009;2.429847402;-10.53237881;-10.86513856;-12.12826952;2.754935222;-0.481427004;7.292322893;-3.949859925;-0.244755486;-4.980039063;-4.888763422;-4.198747768;-4.070672706
-7.452295118;-11.04469163;-27.02985162;-1.704021171;-11.67636325;0.075256352;-23.11672431;-9.972845842;-7.882009917;-10.7285637;-3.351928813;-6.372464335;7.866786767;-4.296047103;-2.973518949;-4.760914482;-7.725814373;-9.028994523;-3.663253146
-8.880478159;-15.97386812;-40.95382684;-11.46324229;-10.09257062;0.220075073;-44.12782574;-12.60383684;-3.852446958;-9.456521855;-6.78221762;-10.77398782;7.236358931;-4.915311654;-5.969563366;-6.102788905;-10.66853363;-13.78697737;-3.561190767
-10.86827383;-18.92625378;-41.45438003;-19.79083926;-9.068372525;0.543499427;-52.30502244;-16.81753716;-0.801133922;-10.12719469;-6.803076877;-10.96705861;6.201316388;-4.985730072;-8.098361605;-9.178629201;-12.27463589;-16.46572381;-3.68300842
-11.92258905;-17.96490022;-30.0683557;-22.76370145;-8.748579189;0.814525296;-46.0939849;-20.28660701;-1.169559419;-13.53549055;-4.280646268;-6.711133111;4.53280307;-4.612131465;-8.613442216;-13.15534723;-11.89853574;-16.09264277;-3.840984707
-10.98458432;-13.70172864;-14.38491649;-20.14477535;-8.696140068;0.828611131;-30.60188705;-20.98034924;-5.86359968;-18.39293322;-0.426730208;-0.157290259;1.836889718;-4.581756167;-7.327728734;-16.55967614;-9.966595662;-13.29701963;-3.840603313
-8.285303637;-8.944426829;-2.874499056;-15.41785365;-8.189690526;0.592230002;-13.87877075;-18.12881323;-13.14385076;-21.79506723;3.745816825;5.700813066;-1.216096648;-5.430426067;-4.607674102;-18.08585592;-7.530641769;-9.839602776;-3.550767884
-5.260740205;-6.619580321;0.240286071;-13.1587741;-6.794297588;0.33197498;-2.346583449;-12.72324876;-19.4045799;-21.1607873;7.163131142;8.841803575;-2.698691199;-6.71828353;-1.289754099;-17.32367848;-5.54437501;-7.495783342;-2.970039063
-3.592935459;-7.628980405;-3.36636148;-15.64283674;-4.785257049;0.308835119;1.89488193;-7.141653711;-21.48620013;-16.28494888;8.47615116;9.029696406;-0.721307286;-7.223372958;1.498737981;-14.93757418;-4.404314252;-7.059326584;-2.275590503
-4.086623059;-10.38831873;-8.517086042;-21.23388106;-3.027579693;0.592760754;0.871070893;-3.869333859;-18.87696024;-9.819016195;6.623632781;7.252311476;4.792495636;-5.927326484;2.693725904;-12.21308297;-3.970895512;-8.075832267;-1.786011707
-6.178020745;-12.402526;-10.6366433;-25.76961717;-2.305144628;0.993787067;-1.492665914;-3.949687996;-14.06577392;-5.575483222;1.920786336;4.519240958;11.48406939;-2.942325381;1.788540894;-10.31529662;-3.88333911;-9.388195545;-1.798143535
-8.372176864;-12.50592164;-8.487421434;-25.84064327;-2.582933619;1.213107342;-1.924446626;-6.219173133;-10.62227094;-5.784256824;-3.39972935;1.162851765;15.88422577;0.441242992;-0.772295584;-9.761336124;-3.843588613;-10.05565969;-2.375585928
-9.229221194;-11.82066238;-4.043407561;-21.38710655;-2.843043058;1.08645074;0.660798736;-8.033133562;-10.36748148;-9.399730911;-6.063108267;-2.808947067;15.83624848;2.653537787;-3.621481724;-10.39778143;-3.711253729;-10.01514216;-3.259358622
-8.179025316;-12.59;-0.312780215;-15.60140354;-1.749704637;0.712331496;5.101825776;-7.143534462;-11.8392078;-12.86873304;-3.772368221;-6.804576748;12.13714472;2.950993777;-5.054374846;-11.77727011;-3.484980922;-10.07174614;-4.015866134
-5.655430037;-15.90426047;0.913916108;-12.28867445;1.279531533;0.359774291;9.102239572;-3.407945131;-11.38007813;-12.86696335;3.006173153;-9.242093729;8.025650281;1.833275996;-3.936889971;-13.55817894;-3.301245121;-11.26539614;-4.346360241
-2.590533309;-20.35129005;-0.059887039;-12.85720727;5.433049474;0.242319593;10.81503264;1.026955758;-6.15870389;-8.902809955;10.94557383;-8.269860725;6.825951273;0.486354117;-0.419818642;-15.60292633;-3.447790571;-14.06585084;-4.31646983
0.248083028;-22.87969587;-1.448179847;-15.3573449;8.88022177;0.356597294;10.07519265;3.324683914;3.170736737;-3.723908721;15.77619538;-3.186222089;9.533328345;-0.210701636;4.010702815;-17.75725432;-4.267559689;-17.95099875;-4.294115182
2.574112076;-21.25963194;-1.28098242;-16.27859584;9.968908868;0.518213286;8.564443244;2.159680034;12.33114725;-1.18166028;15.04062589;4.616276641;14.18183592;-0.260023193;7.239458712;-19.58958648;-5.896890151;-21.66197869;-4.616101227
4.411333625;-16.08947715;1.439420065;-13.56644247;8.360716923;0.548392889;8.672126971;-1.239373505;16.09950661;-3.245921922;9.782886728;12.10622161;17.42513034;-0.277804012;7.615878131;-20.40984374;-7.990518434;-23.96752909;-5.250293328
5.706690389;-10.59112114;6.149720445;-8.37373506;5.212400981;0.434842091;11.6432472;-4.101618404;11.8972194;-8.546403532;3.913834572;16.30909678;17.04919728;-0.725067305;4.831192766;-19.64026592;-9.704785732;-24.41169075;-5.75529938
6.135296444;-8.258183619;10.87619437;-4.162351795;2.244109773;0.323886807;16.30852416;-4.404079633;1.615555339;-13.56946174;1.579704895;16.06161693;13.49339541;-1.381581036;0.112482278;-17.28336326;-10.06905272;-23.51901189;-5.608017598
5.286227557;-10.24011073;13.21302393;-3.968554593;0.43202678;0.361907029;19.57980389;-2.553093687;-9.696113427;-15.4767414;4.270520718;12.54722613;9.338365714;-1.525975751;-4.33779772;-14.09959516;-8.5578648;-22.3135784;-4.654831465
3.059750819;-14.60073621;11.89825256;-8.106588747;-0.62167511;0.542167695;18.72744568;-1.010890599;-17.25175709;-14.218487;9.649940853;8.264565549;7.334578219;-0.611553432;-6.340423197;-11.29132061;-5.464395217;-21.51610889;-3.316978301
-0.083478733;-18.03818132;8.117382064;-14.12891586;-2.138913421;0.703135082;13.9211856;-2.113006926;-19.43458094;-12.25090982;12.98785253;5.274709087;8.571858816;1.209878666;-4.692277524;-9.857194132;-1.784537365;-21.03794618;-2.364543349
-3.257150291;-18.5961579;5.316845851;-18.92748202;-4.908893378;0.679346552;8.885801;-5.87401769;-18.0495515;-12.18494689;10.35701295;4.058074195;12.08286111;3.18548573;0.323461988;-10.0470098;1.316869113;-20.17269889;-2.419331127
-5.587148917;-17.08368297;7.006572645;-21.10488843;-8.387607258;0.462283986;8.610058594;-9.660342258;-15.96688648;-14.39875734;1.542416756;3.722351934;15.91825747;4.55459642;7.039026857;-11.29692064;3.075619461;-18.33352654;-3.562421701
-6.63174708;-16.04841267;13.66269173;-21.62653571;-10.92247295;0.219004221;15.31738119;-10.10150312;-14.30250254;-16.62578397;-9.296253736;3.174574124;18.62809307;5.068962588;13.05076194;-12.68657475;3.359458686;-15.72192895;-5.32618871
-6.490869853;-17.25679963;21.13665984;-22.32795093;-10.93544281;0.147855865;25.65172231;-5.749661452;-11.57956858;-15.8339043;-15.80074397;2.162311352;19.97945909;4.982212069;16.17357749;-13.5846709;2.495238616;-13.33317973;-7.032496395
-5.568816215;-19.91639328;22.47814255;-23.72098768;-8.106260359;0.300993784;31.65883019;1.65654711;-5.562945715;-10.78915185;-13.21052653;1.355112562;20.5682806;4.58665255;15.34837333;-14.02073327;0.947265787;-12.2272525;-8.177809193
-4.22175399;-21.22819844;12.64697479;-24.11991047;-3.610403775;0.534468997;25.58223522;8.35282893;3.887749448;-3.160190101;-1.448111959;1.571598252;20.92786511;3.813903316;11.12318655;-14.53483263;-0.850039063;-12.62060107;-8.5801587
-2.582782295;-18.83;-7.054515885;-20.92855651;0.740871872;0.631199405;5.503113569;11.20618355;13.56516992;3.717027585;14.50485136;2.99634125;21.00778442;2.336837507;5.443807122;-15.64930554;-2.444939899;-13.55985475;-8.256891027
-0.677583941;-13.02397429;-28.48663304;-13.0308794;3.719863384;0.486847484;-22.22124243;9.769260191;18.61148757;7.333967747;27.2961277;5.132099039;20.38490642;0.090843627;0.772163865;-17.37975097;-3.316270379;-13.51550429;-7.247189597
1.316071613;-6.814394852;-41.21207442;-2.239354916;5.281761139;0.194618785;-45.85822164;6.199670136;16.02484304;7.683693753;31.3571532;7.439676997;18.84481585;-2.327699048;-1.091501744;-19.15476074;-3.038478215;-11.49394081;-5.602254805
2.934756061;-3.620791347;-39.25273391;7.491644343;6.150019531;-0.041301143;-54.9932098;3.292001049;7.189053944;6.803434944;25.93489663;9.906950867;16.70086944;-3.873812038;0.118200218;-20.19119948;-1.618630902;-7.812815559;-3.544226177
3.58321851;-4.522681244;-25.14373892;12.54292747;6.87277263;-0.080716899;-46.68605729;2.345459467;-2.738711711;6.709817782;15.10722479;12.85157055;14.56574861;-3.816623503;3.064559354;-20.02829025;0.313531719;-3.914779091;-1.572408496
2.893699778;-7.341107665;-8.07812348;11.88463165;7.243674728;0.04559631;-27.00274971;2.558789073;-8.296057439;7.575481073;4.873468206;16.06103689;12.84720318;-2.437387788;5.618918286;-18.82116602;1.755088219;-1.348023392;-0.305506556
1.029582539;-8.374060996;2.60984756;7.415812962;6.588706588;0.184311599;-6.990691329;2.227201101;-7.443036549;7.710126547;-0.636243996;18.15957356;11.46660368;-1.008251465;6.095346311;-17.20091821;1.954316187;-0.710036621;-0.100518363
-1.30387099;-5.41635927;3.695007879;2.273436395;4.604132869;0.207741711;4.059545956;0.495643445;-2.689774003;5.304553201;-1.252846841;17.07441247;10.03376603;-0.949932663;4.180345121;-15.85011686;0.962326403;-1.376507496;-0.748629794
-3.177187724;0.369318657;-0.685993298;-1.424585945;1.925327554;0.121645153;3.563785384;-1.908892244;1.195944086;0.368626929;0.11756703;11.56273317;8.268325043;-2.761036934;1.005848995;-15.14673148;-0.369356024;-2.190412141;-1.552478207
-3.895474886;5.231702401;-3.463303779;-3.64;-0.148645299;0.039907648;-4.146347575;-3.493687472;1.011763788;-4.863998262;0.421707258;2.696905919;6.272839308;-5.553682857;-1.649702878;-15.13869956;-1.022543889;-2.502436377;-1.797440041
-3.325484933;5.624912724;-0.824923499;-5.656526829;-0.585240273;0.062172484;-11.85215083;-3.475154762;-2.592325267;-7.475177709;-0.983038715;-6.043488347;4.466931497;-7.595490554;-2.501214165;-15.80861989;-0.625113581;-2.687238252;-1.280715005
-1.913544197;0.805379146;5.04421962;-8.413499764;0.584725105;0.177639739;-14.46329726;-2.505240494;-6.115278567;-6.101955489;-2.150134617;-10.51709207;3.32467565;-7.488540204;-1.513719235;-17.32726865;0.204954441;-3.728311664;-0.470543805
-0.408466013;-6.738601729;8.765850485;-11.46421971;2.296686317;0.28490646;-11.59832835;-2.02286011;-6.521590925;-2.032276926;-0.767412521;-8.51862374;3.172225402;-5.130281572;0.166580223;-19.99753786;0.29218685;-6.261180342;-0.140187218
0.5401936;-13.20694766;7.334871511;-13.36972396;3.300593767;0.301033885;-6.527590905;-2.901795094;-4.009690341;1.753970649;3.198584855;-1.43107463;4.127783358;-1.778573378;0.997696007;-23.86605192;-1.198083487;-9.910182192;-0.746208696
0.697095335;-16.12087431;3.269577683;-13.00734588;3.127156723;0.247290834;-2.976468337;-4.6804363;-1.870365817;2.840363117;6.807145234;6.347042454;6.054055465;0.778936688;-0.009810511;-28.31018662;-4.094002244;-13.47875043;-2.041437722
0.324558631;-15.64022083;2.351763457;-10.53494879;2.381459062;0.225422037;-2.460024414;-6.063965574;-3.547873833;1.140448448;6.172841858;9.947947904;8.421382577;1.318533223;-2.785074925;-32.01447391;-7.306676493;-15.81146352;-3.234872523
0.006416897;-13.77712395;7.857540375;-7.19784594;2.149238666;0.308611374;-3.872785517;-6.182460475;-9.405559515;-1.186627148;-0.320896275;6.895735712;10.22623987;-0.210664193;-6.386382226;-33.51368105;-9.596637421;-16.58640409;-3.574044926
0.297979273;-12.45301452;16.4934964;-4.297203401;3.036963776;0.456993721;-5.059875969;-5.401540015;-16.00430912;-1.549371878;-10.28972594;-1.594996904;10.25818796;-2.87778583;-9.665010016;-32.04825024;-10.40794027;-16.39157854;-2.890195582
1.369704581;-12.1204258;20.00632391;-2.374389973;4.641186201;0.544962852;-4.721311185;-4.933279058;-18.64634703;0.984526476;-18.69303079;-11.63377869;7.790836587;-5.484702785;-11.90216977;-28.17086342;-10.13200226;-16.08132364;-1.687433828
2.837893531;-11.94569914;11.59706079;-1.346643855;5.851094091;0.478297172;-3.151225505;-5.637621292;-15.20078944;4.914520491;-21.37669129;-19.1256582;3.304580013;-7.233783751;-13.01062814;-23.61815309;-9.645133629;-16.01919015;-0.731831313
3.91354806;-11.08269803;-8.018239024;-1.306929028;5.693793844;0.289245206;-1.557223954;-7.164588504;-8.076464562;7.369595013;-18.06500408;-21.95117473;-1.412976832;-7.945344569;-13.25884291;-20.41212957;-9.543204485;-15.86403617;-0.488513031
3.841467489;-9.681510455;-30.05650896;-2.985799927;4.02491956;0.115333565;-0.853020529;-8.264060857;-2.623411715;6.13142039;-12.37848504;-20.52904485;-4.129159701;-7.834898028;-12.8331111;-19.69263381;-9.700138495;-15.03;-0.846310591
2.40617336;-8.683956923;-43.38877249;-7.18250146;1.554655097;0.077695382;-1.001051616;-7.99181805;-3.106697729;1.109450071;-8.801046828;-16.74610855;-3.576026906;-7.162544881;-11.64226708;-21.02404652;-9.465437605;-13.34233091;-1.30573988
0.178378797;-8.693294733;-42.18484886;-13.54851882;-0.728680282;0.172177795;-1.27789169;-6.688194359;-9.388249797;-5.712297111;-9.018082339;-12.37741136;-0.409565708;-6.059577025;-9.534780825;-22.66480159;-8.281350225;-11.26484049;-1.426698078
-1.720187202;-9.102243655;-29.58113327;-19.93257497;-2.223078823;0.27664999;-1.01174819;-5.786633168;-16.9489877;-11.65662789;-10.62912268;-8.251740404;3.109136284;-4.60445912;-6.726074898;-22.67421783;-6.192693245;-9.504682815;-1.153672676
-2.25897422;-8.417995029;-14.73338728;-23.22285793;-2.966856892;0.268092036;-0.086102228;-6.561675581;-20.27299536;-14.96658793;-9.357405924;-4.565715121;4.624050541;-2.998599342;-4.018015012;-20.16070627;-3.865196733;-8.387274801;-0.783103709
-1.163840169;-5.589356752;-5.892823129;-21.37510436;-3.38742636;0.137461332;1.121869533;-8.896378757;-16.98158879;-15.5529323;-3.010806722;-1.70444773;3.328066874;-1.64727779;-2.517863368;-15.84895986;-2.154689761;-7.602148463;-0.655188532
0.859590928;-1.167088484;-5.044896568;-15.14160251;-3.853554734;-0.008492129;2.165370743;-11.16591331;-9.538952316;-14.54452441;6.070595088;-0.56383394;0.483512645;-1.064579063;-2.959409065;-11.5754909;-1.601358096;-6.562795076;-0.861514015
2.5515422;2.79863493;-7.942806861;-7.995728567;-4.4168864;-0.059936899;2.894459189;-11.38793514;-3.275035785;-13.18373081;12.23;-1.938385206;-1.618357862;-1.659724031;-5.100269813;-9.041237607;-2.210024414;-5.044918415;-1.202655667
2.92716038;4.155264555;-8.753647031;-4.027397931;-4.88162478;-0.019031085;3.519417495;-8.722907026;-2.329243555;-11.9556912;10.61726824;-5.498579186;-1.465718565;-3.52265859;-7.706527592;-8.669461874;-3.588589412;-3.503996989;-1.389558788
1.942890751;2.247506457;-5.010558476;-5.195217878;-5.045876938;0.001083025;4.4155866;-4.139899221;-6.654228678;-10.50911116;1.087584185;-9.38235971;0.530222435;-6.308802834;-9.257826649;-9.364332666;-5.238267943;-2.763290235;-1.285025316
0.513191117;-1.576770189;1.086192961;-9.944863808;-4.874054099;-0.100310005;5.84785739;0.216969476;-12.28289017;-8.268644207;-11.18777445;-11.01599262;2.474934948;-9.281511683;-8.956716945;-9.352946683;-6.747452028;-3.334174905;-0.985456011
-0.151326385;-4.962147887;5.442222428;-14.27520844;-4.501957938;-0.285063495;7.754205686;2.390263581;-14.48037985;-5.167275974;-18.98160774;-8.772904729;2.647914509;-11.53118374;-7.323654908;-7.530578745;-7.81480646;-4.957984871;-0.711777291
0.595651028;-6.232635159;5.921984387;-14.5322;-4.148836601;-0.381251952;9.672920365;1.662469598;-11.25091427;-1.927968047;-17.7882077;-3.293113917;1.002335479;-12.32951518;-5.882614224;-4.351552838;-8.210881347;-6.752673112;-0.639353905
2.419034843;-5.436822864;3.852709909;-9.926059097;-4.037253099;-0.235265345;10.89951052;-1.319527865;-4.580218632;0.288252901;-8.662738348;2.614745916;-0.756475831;-11.48697176;-6.084751414;-1.601945791;-7.806477309;-7.812187831;-0.812174944
4.33798148;-3.998747814;2.296343898;-2.988755297;-4.322515244;0.120814188;10.90779781;-5.153603981;1.298519143;0.59536265;2.800326911;5.601360744;-0.613377409;-9.518251622;-8.219640232;-1.172880999;-6.667801627;-7.737157423;-1.172755015
5.539149076;-3.378929286;3.143725488;2.27658828;-4.975409209;0.451903126;9.859672552;-8.377700262;3.03976531;-1.039120227;10.38365438;3.915265844;1.96198749;-7.471674861;-11.14106413;-3.681535947;-5.104865568;-6.69483606;-1.628128175
6.014847012;-3.903901021;5.77909152;3.148025122;-5.648336643;0.494428821;8.78825295;-9.830881593;0.271939719;-3.73359244;11.11020976;-1.412992518;5.360353047;-6.460604578;-13.07010371;-7.932452106;-3.585547701;-5.071839636;-2.07075769
6.512984734;-4.683124291;8.19536001;-0.111959584;-5.690431282;0.186812987;9.088024539;-8.792951833;-4.730657799;-6.192453638;6.453267954;-7.202685472;6.909052129;-7.138825103;-12.92054237;-11.6439503;-2.556107158;-3.137942669;-2.36159913
7.841913301;-4.566746762;9.063611921;-4.665032945;-4.461590211;-0.24873869;11.44040776;-5.229730684;-9.151336972;-7.458262537;0.497484493;-10.18546518;4.871743996;-9.422438826;-11.1510106;-12.96530502;-2.29370226;-1.053965659;-2.34872248
10.10131603;-3.253193921;8.660356372;-7.125989735;-1.856667631;-0.464044738;14.93917761;-0.14867007;-11.61540773;-7.44942952;-3.140804827;-9.107521856;-0.196607093;-12.60635729;-9.465299358;-11.71953398;-2.867604503;0.858539417;-1.958811277
12.47767576;-1.614183421;8.071350099;-5.684066934;1.329103676;-0.266631285;17.33192268;4.381888161;-12.56464993;-6.943354074;-3.28239495;-5.439747294;-5.813812759;-15.75981194;-9.552957613;-9.466624851;-4.166681196;1.980221401;-1.298190239
13.78777513;-1.029754191;7.950201904;-0.942480073;3.587436627;0.209203876;16.58771342;5.980645807;-13.07647788;-7.008056647;-0.984609;-2.229401808;-9.378473982;-18.12083019;-11.81884648;-8.306345232;-5.904927649;1.665488913;-0.650129868
13.34498449;-2.350508222;8.345465725;4.831072588;3.483361588;0.595359394;12.81460575;3.283865145;-13.47112467;-8.242482212;2.043887133;-1.920009766;-10.02108124;-19.27317817;-15.07800215;-9.254653057;-7.602925752;-0.243601282;-0.325948039
11.46115482;-5.340423615;9.579055634;9.264145773;0.593363675;0.580788531;8.878063895;-3.007589606;-13.03198877;-10.32465718;4.779366313;-4.673458572;-9.079169996;-19.10912965;-17.44099194;-11.37173279;-8.657562971;-3.147823633;-0.463702408
9.198266244;-8.967668473;12.65581277;11.12237159;-4.073097025;0.163110695;8.721283119;-10.26117213;-10.98584264;-12.17675443;6.995037888;-8.350250469;-8.860409096;-17.74753148;-17.67336753;-12.3224823;-8.593594901;-6.000561782;-0.937210427
7.597158174;-12.18355043;18.03003906;10.58505205;-8.5408249;-0.348113516;14.14629071;-15.32356471;-7.679648962;-12.6451501;8.519779652;-10.11525103;-10.67799663;-15.53818546;-15.9489368;-10.04182964;-7.405771716;-8.011885645;-1.460310564
7.023741436;-14.49357425;23.59475539;8.687149468;-10.96391687;-0.578698499;22.3835162;-16.29330001;-4.72794985;-11.24037375;8.755311871;-8.489688912;-13.68299929;-13.0968823;-13.44148912;-4.366271392;-5.715455428;-9.158906429;-1.806108989
7.143245882;-15.9157874;24.34252056;6.536727278;-10.61103961;-0.380796301;26.72;-13.40426566;-3.887779065;-8.443697282;7.105333233;-4.386117465;-15.39405744;-11.19344151;-11.18517405;2.534976804;-4.503968289;-10.03994226;-1.95831568
7.476998165;-16.51913411;15.25376861;4.845362272;-8.082665102;0.07139477;20.46032285;-8.463619677;-5.624706596;-5.398438974;3.876716176;-0.432370754;-13.5442251;-10.41570704;-9.247539821;7.301472687;-4.490800309;-11.19065644;-2.071195038
7.992737026;-16.08793638;-4.06951216;3.908356881;-4.688721252;0.449176559;1.861181101;-3.443768997;-8.666120963;-3.234546252;0.598902627;0.863092082;-7.896504316;-10.78598031;-6.963092096;7.394306288;-5.570933404;-12.49227424;-2.286440688
9.162760104;-14.28082622;-26.94169168;3.826632611;-1.535616083;0.544818057;-23.51854449;0.563319401;-10.99349459;-2.501383935;-0.819548123;-1.250889847;-0.711112982;-11.65988206;-4.003295316;2.671024867;-6.783866097;-13.2463373;-2.581880218
11.41167056;-11.14257791;-42.35811831;4.687908159;0.977472208;0.417335463;-45.18786132;3.29516437;-11.45153057;-3.047226919;0.439697684;-5.463195979;4.491427582;-12.09280775;-1.248767687;-4.506159656;-6.934340577;-12.87732496;-2.7898093
14.44826736;-7.458569059;-41.97960167;6.564981721;2.973782146;0.29638653;-53.69174816;4.540530374;-10.58089708;-4.318205288;3.253630351;-9.52;5.053439735;-11.48626405;-0.518176997;-10.68515963;-5.460756476;-11.60123258;-2.756644395
17.13263467;-4.535437617;-26.33276691;9.363922432;4.553931263;0.348651107;-46.32102818;3.689984879;-9.93479331;-5.762387543;5.175081723;-11.80864978;0.794990487;-10.0385922;-3.179111601;-13.32284938;-2.888657918;-10.36517562;-2.478814264
18.11448266;-3.457935899;-5.036615222;12.65093366;5.48250208;0.525463515;-28.64693617;0.272004767;-10.46892251;-7.033781022;4.176769838;-12.1909821;-5.906045631;-8.609609848;-8.718220312;-12.08265311;-0.474492866;-10.00452746;-2.075209626
16.82323409;-4.316876456;9.767680184;15.60289095;5.407643685;0.625213572;-10.78817532;-4.99050133;-11.44704303;-7.943321082;0.215007231;-11.57621835;-11.58125151;-8.050019531;-14.55115607;-8.659630067;0.732391491;-10.32833251;-1.62256447
14.04091088;-5.973073296;12.01967781;17.19067185;4.360542318;0.502078831;-1.013982644;-9.815417973;-10.91599636;-8.341300967;-4.600078125;-10.78322453;-13.72472683;-8.498984959;-17.45340603;-5.35904096;0.699463928;-10.01500442;-1.027048708
11.55258516;-6.577512152;5.601803945;16.60499493;2.984351198;0.21943939;-1.10160266;-11.46063072;-7.466444915;-8.12271101;-7.365740464;-9.778040836;-12.14399443;-9.222027689;-15.67637777;-3.449654729;0.453708358;-7.557917214;-0.085116436
11.05461589;-4.575206436;0.311478049;13.76601265;2.180688705;0.00136085;-6.444300073;-8.717727656;-1.827381569;-7.349143149;-6.26177393;-7.953761158;-8.809755994;-9.153252795;-10.16840864;-2.391103971;1.31041362;-2.562383621;1.292494186
13.07126913;0.383411991;3.28618768;9.60629938;2.418858069;0.025623649;-10.36107915;-3.190220733;3.145043127;-6.307072283;-1.616632629;-5.125374886;-6.374342651;-7.735622715;-3.930198525;-0.386771297;3.881455808;3.70514898;2.893406379
16.63839446;7.146693674;13.10846353;5.840972418;3.312263099;0.251320271;-9.109411958;1.438956308;4.284946826;-5.368239733;4.439965912;-2.219034451;-6.366144391;-5.395548632;0.044645375;4.18750314;7.621727357;9.06979954;4.250402656
19.95696465;13.56501097;21.59601811;4.21574159;3.882294291;0.445434353;-3.935251758;1.88291684;0.455709031;-4.742486417;9.270354114;-0.873208103;-8.253177775;-3.27040759;0.69650205;11.47588801;11.2304516;11.9804266;4.927665624
21.53303363;17.55588355;21.6489835;5.608547759;3.345464734;0.391368353;0.923532457;-2.33372881;-6.392112793;-4.372841988;10.9627827;-2.161923;-9.982312133;-2.40522395;-0.728046821;19.81548365;13.54769189;12.60385071;4.833988763
21.01755402;18.19478646;14.13674837;9.543880322;1.786255984;0.093109887;2.189754113;-8.45555336;-12.34307066;-4.11847817;8.830134104;-5.533865136;-9.605252743;-3.052401038;-2.028274296;26.56717383;14.23415164;12.57530088;4.305089703
19.2335132;16.24574574;7.464758094;14.44959485;0.14206209;-0.213334076;0.09684652;-12.50405443;-14.07767081;-4.071361898;3.253351467;-9.012691163;-6.845342124;-4.601915866;-1.937632521;29.53774305;13.7637577;13.59063304;3.874357273
17.47959039;13.78601081;9.829464712;18.46861136;-0.512562249;-0.259948672;-2.334998116;-12.18945407;-11.03155997;-4.654569775;-4.610019531;-10.67901766;-3.469180797;-6.139976697;-1.002853591;28.10040671;12.85488639;15.98737695;3.903370458
16.6651166;13.04375014;20.84020993;20.24595632;0.187316317;0.013690166;-2.318299277;-8.445192252;-5.61107974;-6.29705162;-12.94459783;-10.28593707;-2.141967933;-7.137018219;-0.820372005;23.38173852;11.89485298;18.47440733;4.354137407
16.85259753;15.05580528;30.24099873;19.20047413;1.597646913;0.393507811;0.175696422;-4.420654551;-1.376543708;-8.892209202;-19.44;-9.587320046;-4.534657298;-7.713095896;-2.393049925;17.50981154;10.82853874;19.21581832;4.862301851
17.41694633;18.96680354;25.6719412;15.3027788;2.540547548;0.561215262;2.536691135;-2.850569179;-0.582996108;-11.5510063;-21.9110276;-10.92261375;-10.03971477;-8.336208458;-5.078421029;12.47963691;9.506698931;17.35844459;5.026862646
17.59673484;22.50660114;3.510248958;8.843490853;2.158559313;0.359543789;2.02980638;-4.018360527;-2.855902687;-13.01556402;-19.37086555;-15.08232768;-16.07135961;-9.297732463;-7.046606159;9.341921959;8.075827661;13.75194909;4.678713466
17.01758289;23.46533861;-26.36840079;0.612247239;0.47765794;-0.073821142;-1.607127388;-5.952220758;-5.837573429;-12.5515912;-12.90355928;-20.23080165;-19.797499;-10.45219576;-6.848852733;8.111602669;7.003418522;10.31222468;3.946639716
15.88218699;21.25495358;-46.54219176;-7.677553054;-1.714854143;-0.417710903;-5.791390474;-6.548001844;-7.152161163;-10.63854174;-5.492310165;-22.95957763;-20.08091594;-11.40940017;-4.74523372;8.274099097;6.723154129;8.602674066;3.131397559
14.78749075;17.45159415;-44.61171173;-13.4275549;-3.509100524;-0.428774878;-7.269005254;-5.679883112;-6.150294597;-8.81085326;-0.574618188;-20.84908761;-18.21274381;-11.92920989;-2.648648203;9.399664629;7.261704464;8.798552141;2.539702965
14.33796034;14.81312355;-22.59322586;-14.22328048;-4.490841289;-0.132097383;-4.935815194;-5.43013416;-4.21706572;-8.634359536;-0.106889276;-14.581603;-16.89074982;-12.10464098;-2.710994502;11.38664708;8.214487756;9.794464893;2.402347494
14.7804739;15.34014691;4.428870793;-9.595861824;-4.900118762;0.213999403;-0.853015977;-8.248680811;-3.601522751;-10.54747899;-3.476756495;-7.830990316;-18.20091991;-12.16500527;-5.701905799;14.20057572;9.082885817;10.22046567;2.861779492
15.83150339;18.73831497;19.48015091;-2.185772936;-5.313447476;0.339535088;1.443047423;-14.65949748;-5.784341005;-13.50363867;-8.129373451;-4.820087891;-22.10968376;-12.13272384;-10.47196507;17.39305827;9.628539926;9.431615948;3.929418201
16.77694607;22.48518261;15.97537581;3.016577005;-6.186875358;0.178005521;-0.076250612;-22.50042667;-10.56927137;-15.76960118;-11.5331022;-7.308704606;-26.57691947;-11.72609823;-14.86714019;19.87382563;9.896310374;7.699438406;5.380039063
16.8238416;23.60334485;1.600701401;1.457583311;-7.608537051;-0.101262187;-4.176240901;-28.33170267;-16.36452857;-16.28888298;-13.04462363;-13.32908821;-29.15458622;-10.65488963;-17.28169105;20.23892738;9.911759752;5.63753822;6.694972284
15.56152122;20.94350417;-8.85858592;-7.766022657;-9.342001773;-0.255869895;-7.326269926;-29.794372;-21.19987218;-15.49994829;-14.22754964;-18.70233453;-28.81187416;-9.039772391;-17.59203334;17.54639575;9.418163686;3.564795201;7.210728548
13.28134559;16.28056183;-5.633451168;-20.64991807;-10.99246803;-0.176677418;-6.603841985;-26.96624798;-23.64626709;-14.89346343;-17.31552347;-20.20838584;-26.60121724;-7.511395513;-16.82824153;12.06307925;8.009531887;1.450226744;6.483318964
10.90828839;13.28818609;8.65880953;-30.33190936;-12.1189772;0.038129421;-2.126994821;-21.74504626;-23.15450938;-15.63203005;-22.95966629;-17.95860846;-24.72985011;-6.805816808;-16.03114949;5.443570096;5.617831208;-0.59362085;4.646564167
9.489133824;14.99562649;21.79988365;-31.46270229;-12.29376668;0.190366526;3.007510676;-16.05298621;-19.95418222;-17.38843516;-29.04138988;-15.11836395;-24.84980463;-7.152018416;-15.36396466;0.106495854;2.895921963;-1.908887516;2.454800293
9.492096959;21.51259578;22.01087347;-23.97866979;-11.23303211;0.161289654;5.237288488;-10.60633404;-14.93446942;-18.451188;-31.63028845;-15.20745023;-26.92677897;-7.998195248;-14.21062819;-1.934818761;1.028816259;-1.558047521;0.886874943
10.38231775;29.70546221;6.902288277;-13.45514272;-9.03304744;0.002336252;3.427905239;-5.304044278;-9.655866429;-17.12674013;-27.60249995;-19.12577077;-29.49184209;-8.383798165;-12.05998632;-0.159477925;0.972156972;0.848002093;0.535457646
10.8361343;35.13801508;-15.43;-7.516286461;-6.339138242;-0.13197303;-0.240453189;-0.64047661;-6.187477292;-13.34850612;-17.15013819;-24.27733815;-30.92537179;-7.712507205;-9.292717157;4.092797235;2.669993595;4.503595574;1.222730027
9.5464881;34.94638616;-33.14226738;-10.68020486;-4.204804121;-0.134218156;-2.128902848;1.511364098;-6.393121316;-9.129171548;-4.359352218;-26.51114526;-30.64078567;-6.297416198;-7.129375946;8.234495266;4.92989251;7.645580996;2.154674707
6.12263958;29.63208198;-39.11957684;-21.30204316;-3.599094567;-0.036411027;-0.211968328;-1.14171786;-10.78563031;-7.346259447;4.724614379;-23.37566688;-29.24181933;-5.191609187;-6.781725951;9.739784984;6.163781668;8.641684348;2.520241035
1.455613857;22.55156096;-34.56257164;-32.84528069;-4.843956143;0.032869251;4.179600985;-9.18461509;-17.71050643;-9.681397423;5.451186393;-16.1519713;-27.68181165;-5.391429424;-8.547339215;7.46399863;5.497413461;7.118636358;2.081020448
-2.746161464;17.5563974;-25.88218412;-38.54815106;-7.399211825;-0.023145415;7.42724317;-20.06391449;-23.73094741;-15.26834413;-2.719812974;-9.085597098;-26.29993871;-7.027414911;-11.59680011;2.260857708;3.408003657;4.215237579;1.292339276
-4.964436754;16.53315207;-18.69958802;-36.04699967;-10.19066353;-0.177973779;6.690497685;-28.89883061;-25.37429953;-21.12571799;-15.81524634;-6.399866442;-24.62864278;-9.186952203;-14.56814937;-3.446857039;1.384952255;1.742769369;0.870955917
-4.740735156;18.55532704;-14.36763627;-28.61152434;-12.25572404;-0.307583778;2.481568111;-31.30625375;-21.31042977;-24.11229748;-27.49372571;-9.339408519;-22.09016656;-10.51262934;-16.41174472;-6.927655767;0.867049152;0.934506866;1.17576768
-2.83207683;21.07315058;-11.22434872;-22.27290469;-13.22724963;-0.302528686;-1.426274311;-26.27441379;-13.45715723;-22.99443152;-32.43640069;-15.40099531;-18.85544801;-10.11010848;-16.81031666;-6.568520043;2.269126493;1.777824868;1.916932855
-0.606070491;22.05462535;-8.173255972;-21.23272738;-13.32684153;-0.160770558;-0.839188775;-16.91348694;-6.048115014;-19.1513649;-29.00765421;-20.20715122;-15.98939459;-8.083854707;-15.9781175;-2.707023115;4.812902396;3.37940679;2.425909769
0.833150821;21.4011163;-6.453559017;-25.10840197;-12.96686798;0.01913248;5.420782982;-8.465329228;-3.092639007;-15.49046194;-19.75354262;-20.53837194;-14.6767727;-5.355725198;-14.21857208;2.586273709;7.216754002;4.913924123;2.242637325
1.166147625;20.67668783;-7.886556349;-29.9406463;-12.37704165;0.129525372;14.23519369;-5.017281656;-5.892896076;-14.45741043;-9.647703949;-16.32579443;-15.19729311;-2.998833784;-11.74611087;6.673432105;8.638275019;6.257558377;1.512760765
0.757045558;21.57286771;-11.79267422;-31.8357135;-11.58534997;0.141157432;20.24860109;-7.270058594;-12.36210534;-16.59533566;-3.274245079;-10.34357759;-16.59831397;-1.645341257;-8.88093843;7.842499417;9.138518279;7.792266885;0.860957841
0.17395484;24.46541621;-14.2649658;-30.11310097;-10.68365169;0.110625746;19.87070632;-12.77509841;-18.64994538;-20.55788124;-2.612916433;-6.079736904;-17.43094445;-1.36137807;-6.250477803;6.304895043;9.405912366;9.696906938;0.861945138
-0.187396118;28.2122597;-11.13511047;-27.43759751;-9.992828504;0.111804517;14.20403943;-18.1189729;-21.90305457;-24.33184379;-6.564397265;-5.450965999;-16.97330098;-1.925695532;-4.588634574;4.11131778;10.096691;11.52516926;1.571354839
-0.106132892;31.237493;-2.099859912;-27.03622483;-9.840039063;0.16374396;8.516024086;-21.19;-22.14359422;-26.60712778;-12.22575169;-7.881491966;-15.89526423;-3.132649386;-4.176806818;3.97985702;11.38457852;12.55235781;2.511744528
0.678290255;32.88545386;8.094579609;-29.52237271;-10.09968645;0.222241733;8.378390723;-21.91363481;-21.91231009;-27.32125984;-16.91156062;-11.0961431;-15.75105581;-4.825256224;-4.458563625;7.653516134;13.01387949;12.56489938;3.101923936
2.514783709;33.86408505;13.10375032;-32.09065316;-9.997141082;0.234693957;15.15201159;-21.30865296;-24.0119837;-27.2027868;-19.60021119;-12.7880904;-17.66602156;-6.717010503;-4.343193574;14.72088617;14.65130857;12.260102;3.134999537
5.535153538;35.41862899;10.4582194;-30.77696125;-8.540638887;0.196987611;24.18338895;-20.06911604;-29.11199249;-26.91508666;-20.99650219;-11.9454827;-21.28015419;-8.307218314;-3.118897099;22.63107083;16.11395253;12.7434961;2.888300165
9.235045638;37.97531174;4.219951088;-23.87715266;-5.378547554;0.154803634;27.30668401;-18.01356575;-35.04;-26.5550462;-22.36881427;-9.130519301;-24.82872346;-9.088506685;-1.239608226;27.9826575;17.28595489;14.49604541;2.796658038
12.41911311;40.4599455;2.066037441;-13.6536313;-1.377756026;0.151801114;18.21294544;-14.72459861;-38.25822001;-25.78469853;-24.11415149;-5.821211212;-26.32922936;-8.904843679;-0.186258564;28.41447406;17.94210775;16.79648335;3.017916718
13.76159109;40.95346097;8.80387727;-4.890995425;1.703789133;0.181360859;-2.889006069;-10.54633918;-36.35208584;-24.28312449;-25.13272465;-3.417083907;-24.96151946;-8.102636486;-1.304768938;24.0192206;17.82802216;18.28211128;3.304832441
12.69461038;38.24025773;21.63096703;-1.451578032;2.384761965;0.193174062;-28.57682962;-6.853194341;-29.65054769;-22.02517418;-23.49467393;-2.483187047;-21.59318254;-7.268156839;-4.453241657;17.41676379;17.04584577;18.29985772;3.296490413
9.953931806;33.02839304;31.32131186;-3.5738863;0.638425671;0.148200982;-48.13523352;-5.277526015;-20.86218762;-19.20023913;-17.96090097;-2.512143724;-18.09911898;-6.738954723;-7.627109278;12.37627936;16.36077823;17.84684183;2.93511946
7.264978914;27.80028043;28.76636042;-7.983395577;-1.898734796;0.064740222;-53.64738174;-6.585198531;-13.18711836;-16.00013664;-9.289950444;-2.235606359;-16.05751014;-6.332887657;-8.086399744;11.73706385;16.95348062;19.06678635;2.581335989
6.278603728;25.26460447;11.88303806;-10.57675029;-2.986032083;0.006189057;-44.37232916;-10.18233493;-8.46634664;-12.60078406;-0.346985717;-0.377334647;-15.8218858;-5.580281547;-4.321982946;15.82122849;19.57526424;23.43813834;2.6753734
7.47959206;26.45590139;-12.47307523;-9.436011561;-1.389816524;0.020080948;-26.71598965;-14.61351937;-6.710212555;-9.371737797;5.213454826;3.424278133;-16.58308747;-4.284576435;2.581439244;22.26563922;23.67914457;30.02151363;3.231496063
9.874381402;29.85068667;-33.00010377;-5.830758252;2.177553185;0.088970669;-10.05106875;-18.5195818;-7.067659815;-7.007797173;4.976923605;8.017714871;-17.22200655;-2.894145994;9.313690189;27.36771375;27.31688217;35.33056631;3.652012036
11.71161658;32.18878754;-41.29706004;-2.641458156;5.550843498;0.144529114;-1.275155331;-21.20872313;-9.083255492;-6.275005837;-0.719027815;11.00840358;-17.19401638;-2.28678183;12.3327858;28.14403305;28.11664619;35.25840211;3.103408614
11.71507736;30.49843316;-36.57945699;-1.734249687;6.688781231;0.134062654;-1.549299194;-22.50010795;-12.96741427;-7.442008063;-8.766592588;10.05219453;-16.78495183;-3.080740267;10.15099273;23.89508305;24.80068033;27.86062861;1.203264904
9.923371191;23.98104836;-24.73395087;-2.517527391;5.124034151;0.074458166;-6.90352843;-22.26829704;-18.64502119;-9.867590409;-14.86388332;4.571957363;-16.67019895;-5.045424561;4.312614954;16.40159011;18.16892331;14.98216164;-1.546396651
7.542739681;14.50942151;-13.2379393;-2.749780444;2.175612477;0.037567843;-11.72037831;-20.36688806;-24.60850311;-12.21336367;-15.82903823;-3.284712625;-17.25630811;-7.157214972;-1.626740181;8.729548897;10.76169139;1.437550738;-3.983397763
5.9804514;5.444522536;-6.303309753;-0.73335839;-0.193596569;0.077495501;-12.42608422;-17.10003906;-27.9427452;-13.27646461;-11.34227746;-9.416758402;-18.36310912;-8.316482365;-4.403641478;3.449693756;5.360910273;-7.786298245;-5.048875079
5.833983168;-0.398892495;-3.649295509;3.040987701;-0.91507323;0.170456467;-9.058676439;-13.67603065;-25.95273145;-12.87303041;-4.125343858;-10.14211703;-19.4293539;-8.155633913;-3.05537008;1.368496221;3.365970883;-10.38707149;-4.518023193
6.596945364;-2.285441954;-2.825216856;6.136596481;-0.510848654;0.230856117;-4.222543946;-11.90262939;-18.36271262;-12.0607351;1.539816789;-4.754417131;-19.97532208;-7.251760419;0.666447079;1.464914579;4.179075754;-7.725626627;-3.128870805
7.243104097;-1.648127762;-2.20365456;6.003302585;-0.442529134;0.195280396;-0.754184415;-13.03370095;-8.319584619;-12.44571422;2.116805024;3.588248755;-19.9062357;-6.545021765;3.626721975;1.920873658;5.962872625;-3.395822831;-2.008316505
7.160569524;-0.808271634;-1.898495093;1.854390573;-1.725850304;0.096122189;0.067258512;-16.58457429;-1.124198631;-15.0348945;-3.331045021;9.541225903;-19.45365746;-6.454256957;3.376975901;1.459179286;7.101846013;-0.586402528;-1.847859189
6.671283996;-1.305134812;-2.378759493;-4.844890267;-3.995405926;0.048172223;-1.173232172;-20.22153264;-1.270362105;-19.48065779;-12.72502084;8.914882602;-18.88279829;-6.471179886;-0.414671971;0.084595352;7.225429549;-0.17936395;-2.46678246
6.743793544;-2.995710682;-2.85718159;-11.47564644;-5.779206128;0.149112023;-2.833859003;-21.10697865;-9.709666116;-24.28483755;-22.15137695;1.450302038;-18.24997486;-5.626816501;-5.98896598;-1.19547004;7.087475254;-0.796037351;-3.072552246
8.16118519;-4.462990276;-1.502986938;-15.92230334;-5.712739549;0.379288978;-3.176093788;-17.87804651;-23.206004;-27.7947758;-27.91199398;-8.954024121;-17.39060232;-3.467106189;-10.78384193;-1.366121287;7.553412574;-0.45709197;-2.96540692
10.81619393;-4.319479883;2.607307794;-17.52668552;-3.665353646;0.596625301;-0.93014097;-11.77703909;-36.20316625;-29.22586388;-28.28450061;-16.78879599;-16.1006982;-0.694554068;-13.04643087;-0.334503126;8.63160885;1.606736115;-2.099442244
13.67503005;-2.390148705;7.905346222;-16.87175361;-0.877616475;0.643067801;4.339727042;-5.970920029;-43.89356473;-28.96090126;-24.07497028;-18.47646016;-14.34363687;1.139850568;-12.7589591;0.902718808;9.367413327;4.370532818;-1.066097977
15.42273026;0.091749409;11.0798486;-14.92353058;0.940196468;0.477519685;11.70080188;-3.450987199;-44.4532212;-27.97813415;-17.80056049;-14.41812521;-12.3391709;0.739823903;-11.39846079;0.981208568;8.646328696;5.937098189;-0.558847944
15.30665648;1.383632876;9.905147217;-12.39252806;0.772212363;0.219377908;18.36441123;-5.022179768;-39.1889388;-26.94473261;-12.13617873;-8.198729668;-10.49556128;-1.872902143;-10.77774514;-0.741510565;6.197257054;5.081668714;-0.792002601
13.59207086;0.533408143;5.687981991;-9.698053109;-1.176072146;0.059066007;20.08621306;-8.85933194;-30.94282022;-25.72968814;-8.614122131;-3.7341037;-9.22493535;-5.188497831;-11.72197716;-3.527782739;2.959341874;2.189567498;-1.350789807
11.36212821;-1.882539239;2.839441897;-7.230058594;-3.872106007;0.106835899;13.04913073;-11.93087247;-22.24183467;-23.69136009;-7.280710275;-2.606588503;-8.715522137;-7.113491314;-13.39781601;-5.545965292;0.532690647;-1.028176194;-1.56681626
9.85335417;-4.108986933;5.431153857;-5.399116167;-6.290150636;0.30704514;-3.406004322;-12.19363258;-14.53672879;-20.43729427;-7.308818095;-3.519198213;-8.762125483;-6.307939147;-13.73719381;-4.962949929;0.170083008;-2.682352482;-1.079494077
9.78130933;-4.374704542;13.34241837;-4.36514455;-7.947557761;0.490550349;-25.06764296;-9.930893908;-8.697513706;-16.38372719;-7.935024861;-4.014628764;-8.780736347;-2.995657221;-10.76942364;-1.138647427;2.077236431;-1.805713837;-0.115809339
11.04128625;-2.024813316;21.30148713;-3.828205468;-8.815769012;0.519139866;-43.95689774;-7.315916358;-5.790843516;-12.64040722;-8.966287812;-2.823761939;-8.086018954;1.290024414;-4.095454114;4.870690506;5.469986904;1.301477887;0.719431989
12.8815636;2.15424963;22.02571324;-3.270771455;-8.906902715;0.397299862;-52.30561936;-6.635818546;-7.02524347;-10.31719664;-10.54300606;-0.847957611;-6.343477964;4.762537085;4.457699405;10.84141384;9.214893872;5.524435254;0.94160217
14.37098698;6.569158182;11.41054892;-2.531630154;-8.084825884;0.257300098;-47.17553503;-8.552994109;-12.6812615;-9.809471397;-12.49295316;-0.062098007;-3.908506158;6.437828636;11.57341394;14.60362699;12.48767658;9.687792514;0.55438206
14.87375918;9.870832997;-8.044164036;-2.117476286;-6.320957096;0.235701013;-32.51671884;-11.6486657;-20.98649705;-10.60934334;-13.95176364;-1.427724108;-1.73187762;6.49315588;14.29212797;15.17327119;14.99735724;13.0580994;0.004866205
14.30617698;11.63548477;-28.20251244;-2.788822323;-4.074780835;0.352978783;-16.89415173;-13.48;-28.20939543;-11.75174959;-13.69143523;-3.717746665;-0.770202276;5.830692547;11.86994304;13.10931963;16.76608149;15.38784502;-0.207271651
13.09302579;12.25229843;-40.08783134;-4.660528784;-2.283523136;0.500849078;-8.138471203;-12.30739047;-30.39220411;-12.51700451;-10.98031924;-4.332840586;-1.257683111;5.319884713;6.373288457;9.958620921;17.80496822;16.67417603;0.069288733
11.88174157;12.25087032;-39.20280211;-6.66999063;-1.803755706;0.542897623;-8.553213258;-8.274837364;-25.77887062;-12.85795963;-6.304410697;-1.465017974;-2.422197201;5.307939132;1.45738691;7.252774256;18.01154231;16.93164788;0.544526853
11.1728948;11.72216179;-27.82724416;-7.110058594;-2.720696221;0.433880273;-14.07384807;-3.31826835;-16.23792975;-13.2844801;-1.327790986;4.201364379;-2.986902972;5.640628929;0.013499079;5.754977005;17.32106722;16.14471917;0.75576958
11.06653917;10.34882926;-13.02104999;-5.007407673;-4.162645374;0.251051199;-17.91618215;0.028249788;-6.505127514;-14.36981592;1.960663933;9.702107068;-2.18566867;5.989789936;2.255513214;5.382289507;15.88884181;14.36835571;0.468531404
11.27613017;7.997034855;-2.022018596;-1.231114808;-4.876717405;0.114991364;-15.88820386;0.102437565;-1.546788343;-16.29201659;2.330886901;11.8064843;-0.513153023;6.119128913;5.62352326;5.687840244;14.09097619;11.85425167;-0.105143751
11.41355598;5.305275499;1.769829093;1.773060062;-4.15413962;0.078523889;-9.310342017;-3.018456535;-3.688559636;-18.72576695;-0.139990876;9.257336106;0.484426527;5.909303775;6.638308028;6.399499046;12.34946106;9.105892369;-0.43036174
11.36069603;3.665263689;-0.156516249;1.671434186;-2.346862772;0.087962713;-3.422314891;-7.671909392;-11.36182551;-21.08432307;-4.393515696;3.498350759;-0.645547067;5.258133567;3.409842532;7.555325017;10.96328786;6.816774419;-0.01933102
11.44554552;4.465768054;-3.464912469;-1.869406933;-0.533035887;0.049816278;-2.753108362;-11.59806103;-20.23260332;-22.85663331;-9.243008658;-2.615377822;-4.022633687;4.072690509;-3.020594468;9.180509596;10.08559626;5.67186914;1.212002331
12.24263204;8.084594327;-4.275898116;-6.668616849;0.386593448;-0.063977071;-7.31293619;-13.15870824;-25.88572027;-23.77869446;-14.02751492;-7.024760644;-8.147673194;2.409583816;-9.482807305;10.86592875;9.796448701;6.033192638;2.834963227
14.0884007;13.37483335;-1.458781282;-9.469907332;0.382947863;-0.174979016;-12.6983847;-12.12270659;-26.27203075;-23.78035041;-18.57618727;-9.818855546;-10.93969;0.5995022;-12.99303832;11.69565618;10.10765748;7.629921529;4.111601572
16.6554433;18.08457333;3.293651504;-8.315632552;0.188274888;-0.163155876;-13.91369336;-9.621275424;-22.42532854;-22.85626046;-22.63218064;-12.71417113;-11.37464948;-0.839699682;-12.81102013;10.67259424;10.83667034;9.474075113;4.387559756
18.9485068;20.00212469;7.208279014;-3.986091499;0.499950152;0.020531544;-9.618671045;-7.337372585;-17.22954708;-21.04523391;-25.3753805;-17.17144659;-10.40532499;-1.497559693;-10.70122163;7.367215849;11.49724454;10.18750099;3.453621975
19.81113192;18.11568062;8.545153735;0.681935781;1.233532513;0.298202588;-3.191123539;-6.432843303;-13.31532675;-18.55649721;-25.60263994;-22.72391645;-10.30817939;-1.340083008;-9.292268949;2.316031384;11.43143124;8.689722657;1.682332104
18.64406862;13.07933388;7.65712431;3.060409377;1.525180208;0.519554242;0.284152194;-6.891440926;-11.59578534;-15.90240673;-22.54267242;-26.88414016;-12.84729061;-0.703072184;-9.917432099;-3.124382531;10.22108016;4.888025502;-0.13393657
15.8356502;6.758855058;6.449997729;2.708832578;0.515996077;0.580201284;-1.498720143;-7.71112196;-11.30328207;-13.8508329;-16.69894315;-26.74609364;-17.67676033;0.006783639;-11.67424807;-7.368345938;8.109629648;-0.10801893;-1.166546743
12.57183038;1.218898898;6.788348759;1.413658668;-1.765151774;0.499608937;-5.997322745;-7.806524712;-11.22202648;-13.14183806;-10.02362234;-21.11591486;-22.3264019;0.645750615;-12.39411963;-9.254726642;6.039477705;-4.487796417;-0.963437162
10.12843183;-2.204359377;9.042030908;1.272341171;-4.230039063;0.391790195;-8.024099087;-6.947247235;-10.99592295;-14.11551729;-5.199348637;-11.6447021;-23.91043512;1.394886328;-10.63845194;-8.413939871;5.143088908;-6.716819175;0.326621861
9.127007946;-3.27180853;11.82209202;2.500934213;-5.489510413;0.359102637;-4.397068426;-5.983842518;-11.47041807;-16.50423854;-4.442147245;-2.185300758;-21.30055495;2.480840138;-7.030649695;-5.269387375;5.970637843;-6.378789283;2.046834798
9.263815411;-2.608998616;13.10440338;2.93684627;-4.954146241;0.406826591;2.988008498;-6.134436417;-13.86465545;-19.55928539;-8.528210007;3.18647326;-16.06632021;3.805571627;-3.834194622;-0.834378026;8.019402152;-4.323135592;3.397742926
9.671642487;-1.180852598;11.91021699;-0.200863354;-3.365409626;0.453046692;8.474050403;-7.874086198;-18.50029211;-22.45968908;-16.51010813;2.246443749;-11.41208807;4.841657104;-3.16348388;3.524239068;9.971037978;-2.031583021;3.866320111
9.614168571;0.163212889;9.220903758;-7.68680498;-2.289380116;0.418228049;7.455430092;-10.36559765;-24.14867207;-24.74712499;-26.0993341;-4.364157167;-9.912418785;4.934187404;-5.324013263;6.352780684;10.52406721;-0.666285328;3.463004015
8.99238108;0.902856465;7.298066225;-17.03504265;-2.947960529;0.306413115;0.690353711;-12.00067071;-28.57649771;-26.49567384;-34.38935446;-13.5905144;-11.7913961;3.792466341;-8.619120101;6.514255808;9.234451378;-0.464710576;2.628018328
8.317948737;0.87043596;7.822066056;-23.82092121;-5.296271821;0.201633627;-5.711645295;-11.70700054;-29.94863994;-28.0952512;-38.65664;-21.46513224;-15.02942721;1.769545283;-10.71111169;3.713672105;6.744682561;-0.849575979;1.883771195
8.225008582;0.209577277;10.34255875;-24.69584602;-8.044925998;0.185916324;-5.00673927;-9.955275057;-28.07235106;-29.79529867;-37.18494931;-24.83270361;-17.09640303;-0.315681041;-10.36283098;-1.132306341;4.240337554;-1.070143701;1.477315276
8.921151341;-0.684128968;12.48856103;-19.78568154;-9.567226361;0.260006104;4.339057021;-8.531646054;-24.54145896;-31.33826068;-30.05756038;-22.55722023;-16.8338448;-1.689058312;-8.154689839;-6.06903096;2.566111451;-0.823347172;1.253627639
9.984150034;-1.286419681;12.03588328;-12.59380689;-8.96453838;0.344184994;16.44469118;-9.113916358;-21.62113042;-31.97487454;-19.58425957;-15.81775995;-14.98824535;-2.071069578;-5.708039715;-8.95273836;1.68603962;-0.391303377;0.827287054
10.62314981;-1.165627506;9.232509047;-7.479896564;-6.517215073;0.358596624;21.54748167;-11.74506209;-20.64504617;-30.90430802;-9.820682161;-7.467403065;-13.11446118;-1.731834734;-4.202886742;-8.598770872;0.883240773;-0.267306143;-0.093642958
10.18717643;-0.227954853;7.209778431;-6.667052475;-3.306415272;0.304893731;12.90164147;-14.51883421;-21.09313305;-27.87978224;-4.930727113;-0.730108396;-11.96019934;-1.147774802;-3.487940916;-5.498968081;-0.499348274;-0.648045825;-1.472812764
8.566900493;1.171632768;9.612030335;-9.027474515;-0.442480432;0.268126409;-8.058075252;-14.8967039;-21.06166895;-23.5724797;-6.955269395;2.249067804;-10.8197427;-0.574703803;-2.466628279;-1.542738524;-2.395535943;-1.226806067;-2.954322069
6.258458657;2.367191275;16.95730559;-11.41497574;1.459608883;0.333437491;-32.18038715;-11.72715383;-18.82561544;-19.40804727;-14.30627275;1.35811094;-8.408753922;0.105670481;-0.300535646;1.166568523;-3.966757243;-1.426053326;-4.08071344
4.102242865;2.723598791;24.76210725;-11.30465791;2.265062477;0.495311696;-48.38113697;-6.354519916;-14.35090204;-16.91447394;-22.24182268;-1.536237468;-4.405710172;1.163420112;2.691228251;1.624293801;-4.204865354;-0.840405625;-4.54732439
2.882988703;1.986207826;25.59232886;-8.59456087;1.997078434;0.648392063;-50.5332968;-1.824171174;-9.583897346;-16.93650591;-25.45037931;-3.706112027;-0.175878013;2.643532136;5.210140605;0.438973659;-2.716091551;0.472709492;-4.328383603
2.993449072;0.421332544;14.25521584;-5.277384145;0.656500747;0.675220886;-40.62577944;-0.686843913;-7.200470255;-19.16828211;-21.33435718;-3.186299705;2.097016061;4.176741663;6.019160152;-0.817442298;-0.092125139;2.045376211;-3.63414137
4.27674917;-1.339661664;-7.484672935;-3.496542982;-1.617833978;0.554650774;-26.34593443;-3.078366581;-8.650123743;-22.27011875;-11.80976276;0.031800727;1.213301105;5.151177362;4.901340029;-0.912551455;2.394437263;3.297212238;-2.77942044
6.075035399;-2.654090299;-30.55806337;-3.733290659;-4.278447106;0.39074615;-15.37689772;-6.606234379;-12.92953265;-24.49707287;-2.20740446;3.9902885;-1.859942918;5.115046299;2.73079927;0.105900702;3.531813541;3.831105065;-2.068013853
7.466303333;-3.206933134;-43.60968757;-4.581492146;-6.389729401;0.330395256;-10.77780985;-8.17282836;-17.07453035;-24.49865375;2.184871633;5.984585269;-4.530336055;4.096764228;0.673450515;1.054784625;2.825865746;3.555649116;-1.732039023
7.632120589;-3.145115101;-40.2893954;-4.12466565;-7.08216069;0.438119953;-10.4489713;-6.317821956;-18.13865405;-21.9026721;-0.370333965;4.262951575;-4.510449071;2.600558387;-0.728130375;0.692580272;0.666731075;2.645308513;-1.89709332
6.231475658;-2.944788028;-23.62987973;-1.622245831;-6.140908453;0.637593784;-10.2646307;-2.235083046;-15.30173014;-17.4554027;-7.005636384;-0.872643427;-1.596729989;1.285758292;-1.814327355;-1.17983733;-2.019644332;1.449544106;-2.543720589
3.597947323;-3.095517529;-4.107224388;1.900903364;-4.231410775;0.77273435;-7.828745019;1.32003418;-10.57328074;-12.71287159;-12.47636255;-7.25285097;2.169524207;0.56182686;-3.292895669;-3.512486917;-4.325979755;0.415132097;-3.488876586
0.615757739;-3.774085047;7.471535956;4.51756089;-2.515945921;0.73682215;-3.897836733;2.320898276;-7.504456912;-9.430566354;-13.10201354;-12.15519702;4.113429735;0.37024006;-5.508397078;-4.857899867;-5.7525439;-0.009845954;-4.440357491
-1.701674402;-4.68140989;7.19845511;4.855728093;-1.908824008;0.559133808;-0.88272292;1.09310466;-8.743050578;-8.85572029;-9.522879764;-13.87003906;3.009342508;0.277546336;-8.156015915;-4.55193108;-6.255427705;0.468978845;-5.130818614
-2.701538681;-5.137915366;0.160280344;2.944529483;-2.521684321;0.377116867;-0.284577755;-0.030261998;-14.12678581;-11.14688901;-6.175034606;-12.53968905;-0.04147824;-0.201456517;-10.59153255;-3.21408276;-6.040180836;1.833082188;-5.452481458
-2.344183734;-4.407240787;-4.067448712;-0.062685288;-3.697674958;0.322398666;-1.451054089;1.283297099;-20.66561442;-15.16360248;-7.798153662;-9.834070721;-2.60295842;-1.257567116;-12.31379814;-2.135457418;-5.317794033;3.723899786;-5.482311785
-1.059920025;-2.09488563;0.926022658;-2.801102051;-4.558563357;0.42076825;-2.491527;5.335317302;-24.44710553;-18.82280936;-15.53580216;-7.798283017;-2.889592868;-2.617267068;-13.11208723;-2.076555903;-4.189254907;5.628169109;-5.3631443
0.663262171;1.59;13.33228069;-4.366400028;-4.601645141;0.587443335;-2.164039024;9.979998713;-23.15768144;-20.01438971;-25.56794965;-7.668743915;-1.08964779;-3.640817833;-12.8199415;-2.515350733;-2.682966306;7.181519907;-5.135195028
2.631328649;5.866050404;24.35515693;-4.336963572;-3.901963075;0.71045142;-0.854102625;12.15116269;-17.50748889;-17.72578937;-31.40916939;-9.349630597;1.016659892;-3.641922359;-11.10254875;-2.016337824;-0.860858698;8.363226842;-4.673254033
4.960313244;9.701832141;24.65178775;-2.487425861;-2.853527223;0.739520352;0.145874139;10.13446512;-10.6458338;-12.75414512;-28.33178491;-11.72075808;1.731065213;-2.270333346;-7.696645385;0.562398041;1.1087678;9.413680245;-3.803981641
7.765240773;12.25330073;11.121421;1.2176536;-1.768819441;0.70258003;0.155616016;4.851750231;-6.052829423;-7.458780117;-16.80171847;-13.42317142;0.931123895;0.247642189;-2.99734291;5.032275622;2.966213588;10.53428028;-2.511958203
10.81405181;13.17338541;-10.83382217;6.233006786;-0.716236554;0.647429807;-0.160375628;-0.752722753;-5.385706901;-4.517418971;-2.490797325;-13.57436616;0.12196025;3.166049703;1.626347415;9.88415513;4.457991071;11.63172722;-1.041956698
13.48137345;12.64613391;-30.90115022;11.17365272;0.311120189;0.577814262;0.452387738;-3.677049031;-7.68348159;-5.3345948;7.165441074;-12.05022466;1.045823625;5.580039063;4.333174341;13.33727611;5.468524449;12.34934215;0.224209549
15.09124473;11.18866313;-40.39323594;14.29010512;1.144559946;0.45306907;2.412938613;-2.701471078;-10.32371334;-9.115554174;7.520019531;-9.32368903;4.070764187;6.908375164;3.982605898;14.54076177;6.113261309;12.38172853;1.039602579
15.40117742;9.400058594;-37.06899203;14.60497453;1.431304404;0.251170486;4.693622278;1.123017764;-10.94784213;-13.30318099;-0.63826349;-6.101899634;7.736970286;7.206064879;1.117507486;13.93348381;6.721664941;11.8038693;1.482839749
14.83425122;7.809317898;-25.32793225;12.83316205;0.938463579;0.025942668;5.699144407;5.458707414;-9.029859349;-15.19406636;-11.93981864;-3.024109278;9.834798486;7.089024711;-2.139602331;12.53167187;7.682007426;11.10461005;1.879918263
14.24059531;6.822203647;-12.41663969;11.12453605;-0.097841828;-0.110391306;4.822712233;8.235653605;-6.134866856;-13.69326935;-19.9871341;-0.532720195;9.101149459;7.296980654;-3.384011546;10.88003906;9.204532767;10.85194621;2.492175569
14.3297625;6.650707664;-3.823329204;11.54747353;-0.943815354;-0.076176391;3.144125362;8.672391495;-4.834908873;-9.995338255;-21.13034574;1.133210412;6.135081898;8.18064065;-1.529669158;8.703629079;11.13850597;11.2386374;3.223612595
15.17340357;7.158146671;-0.910702443;14.38650394;-0.781040208;0.09743955;2.504288883;7.273663603;-7.059431293;-6.692610015;-16.10996147;1.928844143;2.82443604;9.472304005;2.511911149;5.633516661;12.98043751;11.88157367;3.615000813
16.13093395;7.733382569;-1.642494614;17.69599769;0.698742896;0.273160379;3.755679993;5.123121799;-12.88842615;-5.935329848;-8.857795386;2.024819056;0.822519471;10.50438013;6.619828875;2.311873769;14.10496036;12.05935119;3.168915074
16.24450676;7.420222387;-3.011400738;18.66796646;2.966114985;0.309171479;5.863215612;3.147909662;-20.42636137;-7.966453097;-3.644524175;1.806359149;0.360164793;10.70735551;9.089731741;0.678275938;14.09490203;11.2217586;1.76601125
14.82798557;5.400058594;-3.104399154;15.86953754;4.874101804;0.173503266;6.826292729;1.799648831;-26.74910107;-11.07351171;-2.620506516;1.758141069;0.32878051;10.00595463;9.782910415;2.830544231;12.96101559;9.384440993;-0.167065568
11.87394603;1.601512658;-1.702166252;10.55311248;5.313614905;-0.028926954;5.685992558;1.132373038;-29.37565233;-12.93067871;-5.193514321;2.208097015;-0.533609004;8.818714915;9.889638122;9.125724746;11.10618324;7.112629159;-1.89450569
8.066522145;-3.033230576;0.30699419;5.857619001;3.883108232;-0.143662358;3.738878353;1.004814148;-27.50208981;-12.26468339;-9.240480641;3.038050762;-2.427451431;7.690829136;10.57332828;17.07053759;9.068465557;5.118517549;-2.844372906
4.457067941;-6.973169894;1.800788895;4.40233727;1.150019531;-0.09505702;3.640961741;1.215033774;-22.37629174;-9.581210297;-12.95219948;3.572929451;-4.288445016;6.887313287;11.71492011;22.20337031;7.235633812;3.783351803;-2.953044557
2.027859198;-9.069166216;2.014418863;6.164460431;-1.639011335;0.055007051;6.972184887;1.568856144;-16.60588589;-6.484060381;-15.91974881;2.827178044;-4.735687808;6.291599643;11.88823432;20.72637156;5.732407536;2.948543347;-2.617917476
1.35335372;-9.413075292;0.845480811;8.423120594;-3.20553317;0.167666732;12.39210625;1.934772229;-12.72850308;-4.259465837;-18.85607551;0.085936074;-3.329930013;5.675335139;9.632266091;12.18686084;4.532036614;2.099631133;-2.314396996
2.446926872;-9.362053508;-1.008205168;7.943532367;-2.878576767;0.151051627;16.25943028;2.240918175;-11.80926466;-2.953379504;-22.42255934;-4.472387598;-1.056802204;5.068876415;4.94942602;0.227833301;3.660009766;0.785897741;-2.203549326
4.784788379;-10.55003906;-2.22478452;3.729871373;-0.915954487;0.036630835;15.55425893;2.332519852;-12.90391226;-1.691631124;-26.2193375;-9.550019531;0.383728074;4.865065359;-0.278270828;-9.338309201;3.292397172;-1.015836721;-2.052002583
7.479535294;-13.51857493;-1.565784248;-1.884578323;1.612769108;-0.058428003;10.79147209;1.764466589;-13.79281313;0.109657225;-28.75744516;-13.19107935;-0.095430412;5.52345134;-3.391767196;-11.98167302;3.655087292;-2.812506944;-1.51278219
9.577840924;-17.02606532;1.124182187;-4.802116022;3.308217704;-0.04545652;6.266579582;-0.19231764;-12.60877931;1.788993953;-28.42328191;-13.80135928;-2.103241709;7.108296056;-2.764746366;-7.137258643;4.809700697;-3.818595915;-0.508817016
10.40950241;-18.71040512;4.435783102;-2.281097488;3.082441907;0.051004225;6.938389983;-4.097339402;-9.320156393;1.687634096;-24.69128667;-11.15731479;-4.064856807;9.068763148;1.072782563;1.680959514;6.511699016;-3.37185587;0.620228433
9.835959054;-16.77824629;6.161260502;4.767301819;0.68844792;0.115581822;14.06979949;-9.599401808;-5.998921982;-1.489418035;-18.66676537;-6.712793233;-4.444586119;10.49122663;5.836038008;9.338312808;8.267414553;-1.345188192;1.33832019
8.237388449;-11.52273089;5.069581365;12.12069603;-3.120039063;0.050380335;23.10636507;-15.01;-5.542577898;-7.298932074;-12.53959287;-2.881137469;-2.942366971;10.6667164;9.045475499;12.34238824;9.557511264;1.648907112;1.315642882
6.210880285;-5.458748451;2.331478156;15.05853346;-6.926460289;-0.130467273;25.89869561;-17.80429496;-9.598143577;-13.3839314;-8.322426659;-1.644205127;-0.742603001;9.551044485;9.526723516;10.68548355;10.07394732;4.416796913;0.675892876
4.164132526;-1.816163995;1.112577578;11.62167253;-9.366652173;-0.306606103;16.15637976;-16.05168117;-17.09193028;-16.79489254;-6.760058594;-3.35649283;0.372579173;7.778070743;7.799092364;7.182992056;9.82772129;5.726694022;-0.113996751
2.103727237;-2.373527834;4.155712423;3.977367019;-9.846883494;-0.35234645;-5.605856613;-9.934661395;-24.46218397;-15.89352049;-7.16;-6.555598491;-0.61489417;6.243420836;5.274939744;5.056036421;9.096358717;5.031692449;-0.612952836
-0.199985128;-6.184983168;11.0021635;-3.033188358;-8.820790307;-0.241274196;-31.31242975;-2.164062829;-27.56882979;-11.41268147;-8.205393279;-8.936226248;-3.1161709;5.598738859;3.109893803;5.654454107;8.2829931;2.957024824;-0.725983802
-2.784978867;-10.16341871;17.24253318;-5.064710442;-7.414806509;-0.061375765;-49.62108688;3.309549379;-24.09528713;-5.869648907;-9.077375095;-8.834579301;-5.213983827;6.017183756;1.659260796;7.893458643;7.771963075;1.136371919;-0.721976383
-5.16535779;-11.14244598;16.93277737;-0.942291904;-6.623944496;0.069624098;-52.56900559;3.666087477;-14.90803429;-1.79671015;-9.992261642;-6.206255438;-4.871458776;7.315215561;0.80150228;9.543314519;7.808619244;1.312591565;-0.956262776
-6.425483889;-7.964062233;6.824231231;6.848927532;-6.629369546;0.108392914;-40.18873426;-0.891081214;-3.55720475;-0.143590552;-11.73626315;-2.459627723;-1.258130939;9.208700177;0.570614083;9.128790794;8.390187996;4.140919328;-1.546032887
-5.756219217;-2.153808457;-10.67675817;13.92674338;-6.735610127;0.114060485;-20.11398966;-7.116448289;5.65513184;-0.011702081;-14.60626364;0.64336266;4.667328024;11.41981592;1.332340283;6.896397124;9.184478641;8.474635215;-2.269380251
-3.080990021;3.175578294;-28.2978755;16.64456478;-5.980551989;0.177662764;-2.625527758;-10.71857902;9.757461907;0.21797492;-17.685563;2.139005898;10.66739689;13.57149754;3.284086275;4.219518971;9.554178519;11.7352417;-2.757331158
0.700566304;5.266589405;-38.22139608;13.90304965;-3.952795212;0.322908444;5.433284236;-9.058880235;8.163182903;1.393736705;-19.15417906;2.222069085;14.48195009;15.07714591;5.807008716;2.124874086;8.763062486;11.28801851;-2.802550406
4.078976873;3.085590583;-36.97482291;7.289950641;-1.172925392;0.474325733;3.951111423;-2.709240183;2.381493833;2.975837179;-17.49695437;1.670177185;15.04814935;15.27831547;7.435474331;0.281308009;6.333562245;6.006224484;-2.523194737
5.706660898;-2.678126601;-27.36654496;-0.119889287;1.273552935;0.524800273;-1.703547577;5.147949744;-5.050893238;3.722502928;-12.69133382;0.967531892;12.96899612;13.84382277;6.699060417;-2.676998357;2.381432582;-3.010725543;-2.254260364
5.083490503;-10.61977215;-16.11161436;-5.318371591;2.566749131;0.440309464;-5.110484545;10.93011942;-11.60112881;2.993281551;-6.39547262;-0.031655943;10.00478562;11.14108664;3.28275358;-7.775220777;-2.296409235;-13.06450104;-2.267269629
2.740530792;-19.55917068;-9.036033496;-6.441911327;2.778764604;0.303047811;-3.137115001;12.82706718;-15.32562526;1.494536397;-0.918506708;-1.601759018;7.954203362;8.222643004;-1.434768665;-14.43916589;-6.48810332;-21.39412889;-2.551132074
-0.129193485;-28.62713418;-7.494980761;-3.133170744;2.78493836;0.249299496;2.600864322;11.46797084;-15.14217615;0.810924763;2.256199281;-3.328206276;7.632891259;6.332875017;-5.005589011;-20.44487397;-9.076174223;-26.5544014;-2.82513464
-2.286277724;-36.66657543;-8.513036156;3.602511031;3.530968841;0.354563211;7.695999005;8.867169092;-11.0598904;2.123971369;3.239690812;-3.86540987;8.556626663;6.225191649;-5.365262444;-23.21639583;-9.51821461;-28.74319785;-2.764354039
-2.914053782;-41.84213575;-8.108808441;11.78488295;5.258619706;0.567105124;8.542210456;6.717707754;-4.328322622;5.210415843;3.226509687;-1.716009802;9.468908951;7.756586531;-2.134296452;-21.54958351;-8.045034287;-29.02691774;-2.257044078
-1.754937713;-42.18052254;-4.805624891;19.00669699;7.327481852;0.747950152;4.931033257;5.418313596;2.839687623;8.568377939;3.223966111;3.447895463;9.313977953;10.03408318;3.119107988;-16.49013397;-5.500515288;-28.24231738;-1.500767757
0.989722479;-36.84549169;-0.431996087;23.14128222;8.77096945;0.780554802;-0.00210821;4.411661169;8.166093439;10.56811111;3.200994921;10.01926776;7.987616249;11.98192954;7.807798091;-10.70805988;-2.9479098;-26.49918679;-0.87244663
4.787137152;-27.12255798;2.194597865;23.08274974;9.106136747;0.653936838;-2.190921732;3.24551237;10.45572797;10.68003906;2.448546678;15.07135464;6.373388158;12.91471784;9.80213297;-6.804547552;-1.254388957;-23.58137893;-0.669476481
8.833737769;-16.13368888;2.382049663;19.22224656;8.70257419;0.45181995;0.421173394;2.243669954;10.19261409;9.796185836;0.797435732;16.14862385;5.674154162;12.75918752;8.525399867;-5.738542727;-0.814599973;-19.71278589;-0.900463546
12.1368152;-7.252243971;2.506670472;13.38122769;8.393535057;0.268143536;6.451558377;2.17588815;9.018326357;9.435678476;-0.557129176;13.03003906;6.533949406;11.88469661;5.095251759;-6.434413507;-1.469371744;-15.85443811;-1.26356674
13.74541267;-2.268104101;5.771155265;8.165193431;8.668102471;0.133245446;12.07830034;3.326022081;8.372682658;10.54016956;0.349291107;8.121966382;8.574324459;10.78602998;1.58766251;-6.75888165;-2.610465853;-13.18203624;-1.329432783
13.10820769;-0.634193584;12.64906182;5.986224879;9.159108464;0.01681788;13.74819179;4.945182701;8.344226863;12.85207646;4.475311656;5.043208617;10.65350011;9.882060982;-0.039495781;-5.098592903;-3.445712278;-12.20394941;-0.82298643
10.35;-0.328612988;19.23187688;8.127209246;8.908323337;-0.106205481;10.75411818;5.723117312;7.723506051;15.31939289;10.30646107;6.279767327;11.63241158;9.484221605;1.209926621;-1.414102007;-3.368149778;-12.35989856;0.161772224
6.242212484;0.381992705;19.30302839;14.1564701;7.231403016;-0.203543706;5.911237068;4.948705755;5.295281735;17.08100243;14.23419661;11.5170306;11.08845142;9.793498117;5.062264217;2.896810733;-2.291812768;-12.52042855;1.151016152
1.844385482;1.673321003;8.917758373;21.87747552;4.469528992;-0.208216528;3.761849363;3.331400877;1.298520948;18.12531997;12.93977192;17.83358636;9.500865921;10.80505364;10.20160517;6.106422985;-0.749433094;-11.95889735;1.51588909
-1.951325929;2.339719056;-9.95267386;27.91118092;1.960387936;-0.097660579;7.351039031;2.660169581;-2.286100505;19.05927954;6.167559764;21.64669814;7.852663137;12.19358;14.86470241;7.359713707;0.38920128;-10.884806;0.828286054
-4.668544498;1.168969267;-29.69831399;28.8953192;1.169269209;0.053565151;15.64869681;4.436427761;-3.052789579;20.25178217;-2.369875927;21.07612548;7.006932191;13.38193295;17.57600997;7.120576358;0.490688917;-9.999031162;-0.851890741
-6.168136703;-1.69496763;-41.40489232;23.02287641;2.606277201;0.113655327;23.45054177;8.52405632;-0.127238405;21.19400649;-7.008092996;17.11926673;7.304630543;13.87728298;17.75944288;6.63727025;-0.323037324;-9.463335958;-2.94332266
-6.408112035;-4.561773088;-40.3269724;11.27901681;5.36239987;0.004736815;24.11843905;12.93570644;4.884885952;20.74085075;-3.879349619;12.88137455;8.567376134;13.67199522;15.95639985;6.929851528;-1.115936403;-8.315789947;-4.610769892
-5.332594469;-5.343640808;-28.68229744;-2.426927357;7.651944479;-0.212795481;13.66809167;15.03091538;8.902168138;18.11311592;6.296064262;11.44662909;10.33930537;13.34050723;13.49830468;8.092479168;-0.683625244;-5.062232166;-5.189654421
-3.026928995;-3.110827388;-13.88351286;-12.6725756;7.997210972;-0.370021973;-6.324870531;13.3074869;9.673410517;13.82599058;18.51760738;13.86031118;12.08052878;13.63961217;11.76028951;9.383411951;1.596238593;0.885528785;-4.509879886
0.019587036;1.187388496;-3.595801864;-15.04242628;6.214886155;-0.323543818;-28.9756863;8.493509049;7.567456932;9.692504554;26.77084694;18.5427729;13.20770665;14.8446195;11.41473517;9.937626692;5.201554303;8.155440977;-2.919897973
2.862084801;5.381658826;-1.155849292;-8.45840483;3.51752344;-0.085095856;-45.56204798;3.15762612;5.333268959;7.772160475;27.86417711;22.44059759;13.14116405;16.36056455;12.16239764;9.488538377;8.65313565;13.85246411;-1.017760395
4.437282568;7.575296032;-4.381260082;4.131224698;1.689757491;0.170164415;-50.20384077;0.134239997;5.925178183;9.008839887;23.04803963;23.0736152;11.5595609;17.01410366;13.12642908;8.54968528;10.40035547;15.43126272;0.700255536
4.129423223;7.329860707;-8.161315951;17.29765421;1.938108901;0.235932787;-42.89794815;0.873099832;10.09869055;12.59952869;16.41846086;20.11325139;8.804301569;15.90131978;13.61945612;7.987476297;9.82318745;12.66955143;2.023059944
2.163764435;5.735598481;-8.523927005;26.08991631;4.186101921;0.044190754;-29.07776529;4.785824795;15.72644178;16.59201264;11.62872001;15.50873319;6.064205841;13.16028352;13.69856267;8.396682577;7.641165116;8.132256171;2.950279108
-0.493499277;4.472036012;-5.101865839;28.59406111;7.214040928;-0.270797198;-16.10584996;9.873562012;19.40596716;19.25126463;9.620929126;12.14680102;4.963943977;10.0123673;14.06864991;9.786279526;5.424664377;5.581810206;3.496135175
-2.695278567;4.679101161;-0.481637186;26.49667083;9.447476956;-0.473209765;-9.045914068;14.02862623;19.05048008;20.1343599;9.001747611;11.94445653;6.592790882;7.954125804;15.39804112;11.75098883;4.551940441;7.399312096;3.600009766
-3.75602485;6.441668569;2.559905106;23.40191503;9.820620137;-0.412445649;-8.376356261;16.06381109;15.34922675;20.06323678;8.311331746;14.58828053;10.5545174;7.674670155;17.58390065;13.86238117;5.352038448;12.92395261;3.242657193
-3.746622485;9.064184499;3.436498966;22.18370777;8.202671076;-0.142690647;-10.83257252;15.903357;10.95;20.08776564;7.84767776;17.70300906;14.80691383;8.542351569;19.56648984;15.86049584;7.013588018;18.96240087;2.631951493
-3.2875368;11.68213569;3.856339065;23.25105084;5.252334466;0.123678564;-12.39936299;14.08012976;8.147510826;20.35849339;9.278624516;18.34556131;16.62857376;9.091277613;19.88259466;17.49003906;8.255565595;22.05646749;2.210431125
-3.055817527;13.64324096;5.81130083;24.83312258;1.938071413;0.189662567;-11.16415514;11.14284414;7.112065582;19.90204131;13.4595306;14.90636622;14.24295846;8.150720594;17.58909855;18.24614162;8.21168339;20.76182108;2.378654592
-3.38764377;14.49161539;9.391236682;24.85505645;-0.918714242;0.030322212;-8.138196906;7.478051734;6.186122391;17.5381811;18.6817974;8.231803068;8.052910917;5.73835501;12.912204;17.45390298;6.889755386;16.2603992;3.119992759
-4.212376431;13.84356161;12.43319311;22.84546334;-2.863708165;-0.194304213;-5.824367848;3.560840007;3.92921975;13.19488146;21.31615487;1.229933585;0.590450784;3.020939139;7.18395903;14.81112007;4.964534211;11.02305956;3.880810518
-5.255541814;11.5036273;12.37777727;20.41480521;-3.805629461;-0.27488604;-5.936259235;0.218585917;1.003556345;8.468208007;18.63509744;-2.851887236;-4.87468597;1.394098714;2.13241225;11.00166592;3.190646296;6.78665774;3.909700876
-6.264506481;7.811896776;8.74855952;20.02306598;-3.921755069;-0.120171719;-8.083843994;-1.521721131;0.057891253;5.802601132;11.42793295;-2.428997787;-6.191066594;1.433658988;-0.996489218;7.733436053;1.949840956;3.539549883;2.871582246
-7.076111356;3.837088865;4.037123814;23.05913644;-3.571005598;0.180410894;-10.27425812;-1.040026855;3.485434798;6.756018484;3.895021718;1.424641825;-3.441195913;2.54904367;-1.964548187;6.88150059;1.228799027;0.21546327;1.25195229
-7.555768112;1.05005127;2.030399373;28.69895217;-3.210694077;0.441093838;-10.60752265;1.239708595;10.86;10.62;0.520436904;5.674578461;1.356715325;3.570019531;-1.48746093;9.150312622;0.900971428;-3.724319293;0.15182739
-7.568164298;0.550435277;4.772113591;34.33742563;-3.266133745;0.530165367;-8.729586053;3.749571098;18.32510464;14.52765322;2.350502465;7.301365866;5.642804531;3.731252217;-0.740365616;13.2212996;0.948467371;-7.371216194;0.534208345
-7.068447805;2.375261812;10.63756316;37.20246518;-3.95138454;0.458558532;-5.969473312;4.470416905;20.74829057;15.15029295;5.912527888;5.245175414;7.778791022;3.223745051;-0.75103524;16.19360631;1.396228328;-9.001440235;2.464113859
-6.221941891;5.444549672;15.28754603;35.97625144;-5.125154903;0.341984778;-4.209688185;2.10830273;15.21551634;10.89990035;5.993337265;0.983204648;7.631734454;2.888278881;-1.968204605;15.25795737;2.074605925;-7.70771361;4.964249685
-5.376953984;8.228828391;15.01070036;31.37772766;-6.296531172;0.283719439;-4.477308892;-2.970776304;3.257377265;3.107135186;0.211030008;-2.669917909;6.076347832;3.366982393;-4.139793372;9.573735006;2.530255601;-4.534625914;6.667218185
-4.837585104;9.647737674;9.919336885;25.47773024;-6.829517903;0.286813645;-6.319639639;-8.722840242;-9.925901118;-4.699436077;-8.4481871;-3.675147474;4.011498149;4.47159142;-6.501025344;1.021898832;2.26941044;-2.006114658;6.805111245
-4.604205104;9.532331713;4.32967789;20.35047486;-6.271908851;0.267744536;-8.308554791;-12.46830027;-18.7246571;-8.97765903;-13.53107653;-2.236371517;1.729208147;5.308819142;-8.18406969;-6.803317088;1.173682472;-2.315017341;5.765073589
-4.340955606;8.366655639;3.691802075;16.95986705;-4.636478469;0.148399866;-9.153614374;-12.44331794;-20.50892697;-8.359464002;-10.24720701;-0.508767278;-0.95788541;5.036451641;-8.680976821;-10.7695068;-0.288526634;-5.626332723;4.746535545
-3.667984075;6.63289138;10.16019071;14.87209538;-2.460004883;-0.062918548;-8.550769481;-8.908630718;-16.79094346;-4.382332718;0.224890794;-0.75146179;-4.11100351;3.591154547;-8.127382162;-10.08950101;-1.299783395;-9.903928499;4.767931576
-2.577928726;4.385961005;20.18140306;12.81881856;-0.571427036;-0.273144398;-7.218636019;-4.063735664;-11.57480045;-0.326679642;10.91083031;-3.349212797;-7.223381516;1.775975511;-7.210900682;-6.631979119;-1.245401159;-12.4327933;5.815331129
-1.611802841;1.42137802;26.20152589;9.696607461;0.334982439;-0.381709469;-6.223733501;-0.740181301;-8.383888504;0.978266094;13.86856788;-6.29596896;-9.364750711;0.656027607;-6.706992174;-3.492169962;-0.153885977;-11.82207153;6.838052545
-1.57804218;-2.178057089;21.59965337;5.442204638;0.091500044;-0.360860222;-6.157872477;-0.656517431;-8.225187164;-1.133698315;6.056862275;-6.654871029;-9.781259004;0.785624809;-6.919371358;-2.880647331;1.332173685;-8.9010707;6.62109368
-2.967950611;-5.698098859;5.463141111;1.320108528;-0.830345299;-0.270271265;-6.73610922;-3.359666141;-9.738097668;-5.018681086;-8.332164513;-2.961550635;-8.429899792;1.892991537;-7.432213347;-4.81213973;2.435486958;-5.855067377;4.840262352
-5.505858508;-8.055537161;-16.23517257;-0.589227867;-1.59064036;-0.200340589;-7.030302872;-6.573091544;-10.95291799;-8.071511497;-20.91332567;3.28642736;-6.012084206;3.221481472;-7.402259092;-7.409589285;2.789088213;-4.385949315;2.43269657
-8.213334615;-8.509149091;-34.00286728;1.455164877;-1.503143063;-0.1997002;-6.13474803;-7.743395411;-10.96791471;-8.492646474;-25.1086154;8.322366189;-3.513984685;4.166562091;-6.212534078;-8.430167779;2.621192834;-4.425619362;0.951475
-9.985053706;-7.221736841;-40.46686995;7.615493733;-0.485166421;-0.248296045;-3.820463217;-5.743851448;-10.23952197;-6.236617912;-20.40897345;8.637851662;-1.652726288;4.642186218;-3.992327258;-6.804965202;2.464405273;-4.397398971;1.391845605
-10.2704819;-5.161807935;-34.46631567;15.93095677;0.884896288;-0.289460694;-0.756967533;-1.560073242;-9.562229139;-2.637129744;-11.74521113;3.560904763;-0.642554799;4.90903888;-1.576659075;-3.138473437;2.661404027;-2.70931978;3.411413095
-9.36405495;-3.381557778;-21.00754935;23.01396155;1.784612501;-0.282193305;1.874465762;2.512787785;-8.928209458;0.790131701;-4.87638737;-4.038975589;-0.36406346;5.103472898;0.078084343;0.977356744;3.07693578;0.813587573;5.560765045
-8.108951864;-2.244394912;-7.493127517;25.81436682;1.780101785;-0.225690843;3.187076205;4.56396354;-7.399492518;3.353504654;-1.873853125;-9.532811984;-0.669221539;4.959496549;0.543703625;4.099586044;3.218995807;4.716823432;6.34378567
-7.271629126;-1.2324684;0.873361381;23.46752435;1.213970969;-0.143852188;3.305908549;4.398808265;-4.077155204;5.296594688;-0.433065669;-9.608135126;-1.495989472;4.006089515;0.090115651;5.615027615;2.62500798;7.020735733;5.285403448
-7.078474846;0.511072877;3.406122534;17.96557387;1.010706032;-0.057518122;3.430976517;3.519321175;0.78116316;7.115062904;2.74424246;-4.488104026;-2.718969795;2.059969102;-0.748587913;5.62979268;1.185278884;6.679405481;3.207466459
-7.239571945;3.355273141;2.902202143;13.01720105;1.967836718;0.023068674;5.033845743;3.781536521;5.561603305;8.797267902;7.84370748;2.249894269;-3.960736208;-0.453516778;-1.781866573;4.461049431;-0.814674642;4.23348769;1.558339622
-7.369375357;6.746100653;2.681456194;11.68441639;4.016862252;0.083761539;8.619584958;5.775959417;8.246007837;9.66933892;11.03525277;6.083923626;-4.641454229;-2.676884759;-3.33590251;2.359560093;-2.8897718;1.242599893;1.367431287
-7.401763992;9.507321193;4.192655907;14.33966538;6.035997984;0.097581426;12.98648294;8.212911077;7.753231967;8.930475301;7.777747465;4.460920951;-4.306686832;-3.884513342;-5.782066762;-0.312924742;-4.585554517;-0.921422424;2.624270071
-7.639368398;10.62448674;6.707119686;18.3840607;6.454733375;0.043635931;15.77537113;8.841882949;4.611268445;6.35745016;-2.537112808;-1.779530885;-2.978153844;-3.985392699;-8.854821318;-2.81487896;-5.599912538;-1.923548508;4.471378308
-8.419534278;9.892920937;8.697639385;19.97656435;4.317825051;-0.059032284;15.21380135;6.247550774;0.499671454;2.550265833;-14.87763991;-9.310592918;-1.207318046;-3.564895119;-11.48241773;-4.189485008;-5.822177123;-2.389530599;5.934631803
-9.718275723;7.956321823;9.312182181;16.58710357;0.089312803;-0.141927534;11.87252027;1.153257527;-2.883760436;-1.463261617;-21.70335699;-14.72037404;0.250785144;-3.445915522;-12.46;-3.939409732;-5.385819527;-3.151786811;6.551370137
-11.06189611;5.766064579;8.734229298;8.600817888;-4.410782515;-0.126352799;8.876368973;-3.811612052;-4.731173943;-4.872528785;-18.64790692;-16.61920277;0.896900733;-4.124038553;-11.5066248;-2.657903377;-4.72760559;-4.543420365;6.452815111
-11.84327255;3.923544126;7.551447084;-1.068746819;-6.976860118;0.010885938;9.900962728;-5.789777508;-5.231115066;-7.40050334;-8.074624102;-16.04733454;0.713446123;-5.491145901;-9.766332537;-1.894447857;-4.507718638;-6.268208975;5.982227212
-11.78729054;2.399106085;6.161727342;-8.92466402;-6.304518392;0.201581473;16.01610684;-3.641714082;-5.014629842;-9.06475597;2.614103642;-15.12562762;-0.005535101;-6.989538948;-9.145929342;-3.084874949;-5.27643874;-7.777653997;5.3017716
-11.17699246;0.776738482;4.926725486;-12.89660471;-2.767296888;0.320127605;23.72245857;1.234887799;-4.543679159;-9.709279607;6.720730707;-15.1494862;-1.032154511;-7.997954566;-10.83391941;-6.233030596;-7.009856503;-8.673250401;4.360068359
-10.6447459;-1.230070801;4.702427256;-13.07079158;1.807538245;0.269986965;26.15174384;5.790318326;-3.919253089;-8.86761899;3.401878105;-15.59934436;-2.418289737;-8.131831927;-14.13818972;-9.432928245;-8.872098457;-8.759559084;3.184763563
-10.68531597;-3.397352363;6.746502626;-10.93508969;5.190352157;0.056518487;17.29534917;7.267757956;-3.101515788;-6.201040451;-2.046338211;-14.72425206;-4.325607389;-7.303437083;-16.67710476;-9.825172539;-9.52218886;-7.820973564;2.133861033
-11.27127818;-4.99031066;11.5644618;-8.057813581;5.936229493;-0.213617567;-3.323987048;4.846335406;-2.185178638;-2.160159994;-3.041939515;-11.1381854;-6.613177987;-5.636233079;-15.94991257;-5.49534143;-7.912556904;-5.50632404;1.788090756
-11.87297829;-5.107390505;17.52312115;-5.317068545;3.996085321;-0.407188591;-28.97924795;-0.085360615;-1.436999686;1.806219318;2.331156744;-5.16310044;-8.576564048;-3.415850519;-11.17858782;3.002931328;-4.087811047;-1.579695511;2.526425652
-11.87740193;-3.156105323;20.74250596;-3.036645924;0.488123499;-0.453067375;-48.80864309;-5.061092488;-1.120662468;3.885250775;9.316406975;1.083028244;-9.147918343;-1.127117089;-4.009141279;12.67265678;0.623969959;3.622682325;4.149632773
-11.10513272;0.75454747;17.02061882;-1.476623215;-3.077911518;-0.375854503;-54.08193904;-8.143733481;-1.33781265;3.060802555;10.24911482;4.89584358;-7.502582533;0.557946447;2.505596704;19.74486833;4.263913576;8.974893561;5.899908664
-10.05570274;5.645406338;4.817679735;-0.937963177;-5.562335919;-0.255835489;-43.60304117;-8.872856975;-2.020330849;-0.054501322;1.108319794;4.61814969;-3.670430013;0.994316957;5.888141773;21.8881537;5.36;12.89043365;6.890833156
