Channel 1 - P4;Channel 2 - O2;Channel 3 - P8;Channel 4 - T8;Channel 5 - C4;Channel 6 - Cz;Channel 7 - Fz;Channel 8 - F4;Channel 9 - Fp2;Channel 10 - F8;Channel 11 - Fp1;Channel 12 - F7;Channel 13 - F3;Channel 14 - C3;Channel 15 - T7;Channel 16 - P7;Channel 17 - P3;Channel 18 - O1;Channel 19 - Pz
-11.45565852;-15.77090993;-10.2896366;-2.156431637;-4.545485965;-5.184327345;-48.61688033;-10.79521263;-11.51456241;-0.818603551;-7.950227199;-7.023202283;-11.61474619;-6.243919997;-9.107749053;-21.85013418;-28.25846586;-20.85228647;-8.447025507
-11.20101565;-16.95295375;-0.256490649;10.73083673;0.368067065;0.265847098;-70.83021656;-2.742142722;-5.868334852;13.0342702;9.28640979;3.766769635;-4.397044812;0.596221289;-5.86897853;-19.95917154;-40.61060561;-24.30657312;-4.41740087
-14.36719692;-21.50347833;3.804992014;12.88040623;-0.35938638;2.526557642;-69.22222833;4.225781156;-1.675878582;20.88190031;18.19481633;11.94793025;-0.598847233;-1.764409195;-5.056803695;-19.57662171;-45.92747979;-27.95876311;-2.002490441
-19.65208576;-27.44293848;1.044183795;5.113164896;-5.14446453;1.258832307;-44.7075848;8.28901845;0.406240039;20.62846607;17.47286628;14.42802179;-1.530734538;-12.09323994;-5.828804892;-19.68499147;-41.2350523;-28.62542506;-1.616223565
-23.37348748;-30.84576174;-4.675370891;-5.107124557;-9.382380778;-1.375900773;-12.64705466;10.03686054;1.787997034;15.15552695;11.87989178;12.315166;-5.114276211;-24.06629451;-5.52358225;-18.50054964;-29.38849184;-24.43332221;-2.078016915
-22.4437542;-28.88781556;-8.094289354;-9.582852096;-9.019174806;-2.698175127;8.059985588;11.33712283;4.362024834;9.669989562;8.15897396;9.423142686;-7.71896224;-30.90153094;-2.164137534;-15.63770672;-17.31986345;-16.73153105;-1.938342004
-16.85816379;-22.144399;-6.539365323;-5.445938018;-3.483188988;-1.631577762;7.959295365;13.53064374;8.722494879;7.868585837;10.20155759;9.17125631;-6.797358857;-30.00158248;3.567528107;-12.87738013;-11.42580181;-9.454655657;-0.763754638
-9.694405031;-14.25902256;-1.496960886;3.214083743;4.215091925;0.697250877;-7.515649116;16.45485369;13.62638302;9.783451722;16.95760658;12.29170561;-2.373632526;-24.17271536;8.624000817;-12.73758058;-13.43296186;-6.301123963;0.650470496
-4.689493902;-9.240358713;3.177109159;9.137989398;10.06921611;2.189558652;-23.6748328;18.92818232;17.04264813;12.64709829;24.16052644;16.8702315;3.48574996;-18.78876046;10.00918543;-16.05593899;-19.67839686;-7.905314946;1.173202356
-3.430124875;-8.56495771;4.642355311;7.849329981;12.12453033;1.653117564;-28.25847908;20.05472397;17.82069872;13.70740827;27.97053454;20.31555891;8.504676998;-17.4080774;7.339957869;-20.76655169;-24.13548444;-11.25750659;0.439639431
-4.441457164;-10.39071111;3.18;1.012437529;11.57746449;-0.271211511;-19.93442003;20.10995022;16.54792778;12.5472879;27.49177813;21.46367673;11.77875496;-19.33625211;3.364975487;-23.10764985;-22.76770654;-11.88941184;-0.825173033
-4.824988161;-11.44065005;1.448982483;-5.268281338;11.25357782;-1.811212715;-7.549897364;20.26902081;14.89660275;11.11318021;24.47856302;21.18685643;14.00011688;-20.80416204;1.904131485;-20.42421044;-16.00877315;-7.193734511;-1.4920371
-2.978342065;-9.956159148;1.800612788;-5.556346586;12.93725388;-1.66190239;-1.738666728;21.51671888;14.03964677;11.67042106;21.03474439;21.28490333;16.43752794;-18.43443571;4.83572437;-13.31442943;-7.829827306;1.605622527;-1.052951754
-0.089470568;-7.305252899;4.102658092;0.643869824;15.83077865;-0.058712221;-6.266279956;23.76896481;13.47640194;14.57923878;17.58642888;22.82579461;19.71271654;-11.9820216;10.60720218;-5.342030943;-2.514678237;10.23635684;-0.055952785
0.813941175;-6.979213582;5.914016215;8.779973393;17.32918779;1.545025013;-15.95168794;25.9783249;11.24875792;17.79828103;12.79646829;25.36693825;23.36956029;-4.219683745;15.52535352;-0.510595699;-1.799041962;14.22225782;0.415345723
-2.575059081;-11.823945;4.738639146;13.13970685;15.32370156;1.820339748;-22.06258489;27.07819682;5.377331866;18.47062006;5.166125325;27.55487562;26.40483383;1.622919551;16.78320855;-0.502985883;-4.369774534;11.6549113;-0.273757223
-9.804154683;-21.70193571;0.332383129;11.40705911;10.05045576;0.70592122;-19.96988565;26.88094443;-4.631967256;15.1932443;-5.372300367;28.38636761;28.11538216;4.480285594;14.72808919;-3.817875018;-7.621566827;4.017915601;-1.740427451
-17.78609171;-33.34089657;-4.912542755;6.242053805;3.996882908;-0.617279783;-12.53875659;26.121207;-17.38567656;9.065744717;-17.34113653;27.96216667;28.48605052;5.922327829;12.50137044;-7.32049506;-9.856030759;-5.204060324;-2.916797861
-22.92972151;-42.36037832;-7.774390341;2.8404444;0.042335882;-0.828886161;-6.892924351;25.62421625;-30.57177059;2.705233976;-29.03790777;27.16408875;27.89483857;8.283569395;13.36926058;-8.770464446;-11.10165932;-12.81101879;-2.96833501
-23.54319178;-45.8594553;-6.633746369;4.68354631;-0.590411913;0.360992065;-7.922672961;25.36260385;-42.49528953;-1.879734629;-39.92709752;26.70054967;26.56386379;12.28086405;17.97543781;-8.235062527;-12.214121;-17.37662091;-1.9878094
-20.67602402;-43.72813025;-2.539585946;10.95442017;1.030319654;1.985595829;-14.31949385;24.25980288;-52.99708794;-4.778667255;-50.78888383;26.46937073;24.34641835;16.26082215;23.77724339;-7.412050014;-13.45429511;-19.18842349;-0.87977485
-16.92690096;-38.0276149;1.83528744;17.50584598;2.672664772;2.684991613;-20.26804728;20.94328017;-63.13713707;-7.872517189;-62.57876669;25.78911954;21.02972412;17.66352803;27.07291092;-7.719611173;-14.0124041;-19.18572112;-0.569187425
-14.35980791;-31.27566783;4.329640525;20.30282801;2.764409347;1.865186093;-20.85211815;14.83586547;-74.01743889;-13.09827439;-75.18456007;24.19065888;16.79267949;15.31708471;25.87754164;-8.957313306;-12.85622586;-18.01190085;-1.238200518
-13.22537007;-25.07079927;4.719101091;18.40410907;1.423116291;0.15284596;-16.22395595;6.702186853;-85.72824067;-20.77875912;-87.31237459;21.95402563;12.30637925;10.50847654;21.275163;-9.65407591;-9.944531161;-15.83551399;-2.234238877
-12.33247961;-19.87195971;4.399098539;14.19099029;0.01400578;-1.194162024;-11.04677362;-1.752922416;-97.18673614;-29.33924768;-97.59345965;19.86191974;8.321377292;5.917499191;16.25251515;-8.613377798;-6.514154907;-12.7156865;-2.685013105
-10.4888617;-15.63028825;4.837093945;10.97003906;-0.186453164;-1.352127727;-10.06420624;-8.851029338;-106.8550329;-36.49498571;-105.7905679;18.41451128;5.09174169;3.379692243;13.17421186;-6.121188583;-4.079480025;-8.860019531;-2.252871113
-7.649007079;-12.36458145;6.264901852;10.17150232;0.992943367;-0.542072235;-13.93621419;-13.67929078;-113.6537066;-40.79426922;-112.8558321;17.2758351;2.164833015;2.414422493;12.12446139;-3.69628707;-3.059382131;-4.452155493;-1.378930016
-4.841278105;-10.10453583;7.705066171;10.47633536;2.703880541;0.287198713;-18.94955254;-16.09781852;-117.3453559;-42.236152;-119.681625;15.518035;-1.239674115;0.734403923;11.44265069;-2.679209652;-2.355488083;0.652590149;-0.846114779
-3.09842576;-8.435440534;8.155369872;9.418164312;4.028804345;0.347746805;-20.5850875;-16.19641247;-118.2030421;-41.60647511;-125.678188;12.49323585;-5.542431087;-3.755329781;9.770574462;-3.031430783;-0.35649159;6.851886122;-1.083914531
-2.445891044;-6.336767281;7.754869731;5.929132562;4.862908303;-0.341601271;-17.55876087;-13.83828512;-116.3907039;-39.3186637;-128.5899446;8.570519598;-10.34620299;-11.16059161;7.60870234;-3.470927001;3.484784942;14.24815236;-1.828672956
-1.847411911;-2.704463692;7.856052208;1.636169031;5.966105175;-1.084527295;-12.76075054;-8.767662127;-111.6591921;-34.90586955;-125.9269928;5.062964896;-14.54870035;-19.41728562;6.900616999;-2.773044695;7.934470199;22.12215778;-2.403653201
-0.102352219;2.774973446;9.952204598;-0.127543394;8.216767637;-1.220194939;-10.46450293;-1.162126082;-103.6132988;-27.62649118;-116.940341;3.357207091;-16.91772286;-25.73067014;9.026762392;-0.957069174;10.83103122;29.0262732;-2.33097093
3.123295975;9.152254624;14.40567065;3.260968241;11.77522545;-0.728701136;-12.49114339;7.954507377;-92.28536914;-17.57967258;-103.5042676;3.937054022;-16.70580445;-28.36297995;13.09796063;0.794762365;10.82213865;33.54534621;-1.723797281
6.994528401;14.61573186;20.04582589;11.78557361;15.86647794;-0.188392142;-16.76847381;16.92699775;-78.51032953;-6.247537767;-89.11431365;6.076339704;-13.9331003;-27.39550537;16.22690475;1.4002829;8.47785978;35.0909546;-1.139718062
10.11777525;17.51494703;24.92595275;22.74622756;19.29625302;-0.169944272;-19.40786793;24.23231279;-63.79730828;4.103620203;-76.75088476;8.410224364;-9.275540843;-24.11162429;15.69796817;1.062752639;5.781820832;33.99094765;-1.066928319
11.49691216;17.25722439;27.58017799;32.47314671;21.19932065;-0.66435964;-18.25370823;29.19542901;-49.81026686;11.7066136;-67.27182739;9.883113259;-3.757320222;-19.79796129;11.21786738;1.143437137;4.413521747;30.78988483;-1.517819995
11.07441612;14.47437674;27.80431041;38.4313009;21.40929756;-1.085002802;-14.68007813;32.06932679;-37.83356474;16.19593838;-59.51201879;10.31789846;1.53617847;-15.05584321;5.275077694;2.730363613;4.31170532;25.4992987;-2.069511812
9.542385272;10.47653968;26.47928941;40.27242016;20.26074087;-0.834328314;-12.14751919;33.43084111;-28.52374618;18.40605934;-51.82919587;10.23378891;5.669683584;-10.02876153;1.230872768;5.233062977;3.791996637;17.69418029;-2.270410278
7.723892686;6.52580061;24.7478669;39.35557167;18.146641;0.09889806;-12.98927178;33.44153388;-21.96622973;19.31499122;-43.69129188;10.1866956;8.054636731;-5.034593608;0.721393297;6.460711104;1.151431809;7.578503984;-2.018922041
6.073777955;3.447756869;23.259034;37.37332497;15.29091743;1.070556117;-16.38633035;31.64702202;-17.84708163;19.11570245;-36.00150989;10.25168864;8.636124581;-0.80725663;2.547737548;4.366112214;-3.614793989;-2.921209729;-1.584020318
4.59757154;1.654031318;21.96096697;35.16265575;11.88370568;1.313872617;-19.26978459;27.51968438;-15.57558935;17.24557005;-30.04647464;10.0525565;7.941141938;1.917575054;3.938783107;-0.942056493;-8.494092654;-10.30092575;-1.29141704
3.063605315;1.257334776;20.38225893;32.39646451;8.316079357;0.602142122;-19.18658458;21.28713693;-14.3648588;13.31384551;-26.14779733;9.214172631;6.848465104;2.996944232;3.021647259;-6.748924214;-10.8773675;-11.25387833;-1.202493159
1.202782397;1.998660494;18.0170383;28.12430484;5.15241532;-0.545016362;-16.46294449;14.30349983;-13.38010176;8.036793327;-23.26909243;7.761977579;6.128232312;2.981039607;0.325880588;-9.470802165;-9.585487464;-5.011613276;-1.092789321
-1.240304941;3.082220962;14.53866327;21.64579113;2.776980647;-1.289969832;-13.76546625;8.563062385;-11.98490788;3.257243501;-19.89385227;6.106739781;6.030592962;2.562742365;-1.943745611;-7.33350323;-5.837503356;5.585829257;-0.731284115
-4.480328383;3.283788372;9.875108543;13.1759489;1.038620746;-1.161624136;-13.58652259;5.644562581;-9.952570059;0.919055655;-15.33104461;4.678597861;6.232665819;1.90777776;-2.123722573;-1.828526941;-2.3608185;15.40939828;-0.169643459
-8.527153633;1.527864524;4.30811704;4.014047354;-0.701286278;-0.40771054;-16.015793;5.839343393;-7.460019531;1.790510387;-10.25835371;3.594131786;6.200058594;0.551503483;-0.73716143;3.317875287;-1.364298221;20.08386232;0.254624779
-12.94786865;-2.354891718;-1.407239282;-3.818585606;-3.041458446;0.265644722;-18.78776295;8.083408476;-4.831515018;4.977646679;-6.042593716;2.670531575;5.676455063;-1.998683708;-0.048320949;4.911585721;-2.996833669;18.64395747;0.218214705
-16.83103405;-7.295886321;-6.119714991;-8.340585329;-5.91014302;0.310927238;-19.45218553;10.70621468;-2.22176698;8.62656697;-3.482900994;1.740467891;4.89163925;-5.532955835;-1.918639941;2.59829583;-5.467508807;13.8370762;-0.263691277
-19.14885452;-11.47187494;-8.720782759;-8.493371367;-8.367146068;-0.231161678;-17.60729294;12.42766936;0.496039378;11.23990535;-2.104813415;0.931165309;4.313264949;-9.03181128;-5.925338248;-1.116189522;-6.623304693;9.832440998;-0.802554528
-19.36079366;-13.36671433;-8.773941008;-4.725071539;-9.074681173;-0.835672562;-15.17039977;12.92622787;3.541935006;12.55948729;-0.593206091;0.62187198;4.17085103;-11.36670749;-9.51128181;-3.073940501;-5.637046934;9.080960733;-0.944820818
-17.80925886;-12.67277725;-6.870558166;1.124305056;-7.150420676;-0.993776901;-14.52314241;12.70108356;6.920921489;13.38024791;2.081410512;1.117887712;4.196568764;-12.20933208;-10.12892104;-2.021040011;-3.47257753;10.7166398;-0.561252623
-15.54500335;-10.37671257;-4.348069199;6.70686185;-2.802687268;-0.64241049;-16.30223646;12.49112924;10.30250623;14.57850078;5.871169561;2.353547195;3.844353154;-12.30181556;-7.518901046;0.59407594;-1.882392037;11.65638624;0.028388479
-13.66312628;-7.99968288;-2.488774656;10.36524345;2.700282102;-0.15793456;-18.86101781;12.75793826;13.23744517;16.26208311;9.855735124;3.901145444;2.815418913;-12.79136817;-4.064738375;2.149599398;-1.891730836;9.421567008;0.315099792
-12.6504833;-6.603053325;-1.775263832;11.86833059;7.689240256;0.03664472;-19.83638477;13.55082189;15.54309338;17.76393881;13.16772814;5.265407843;1.419293166;-14.19206136;-2.80941074;1.304123398;-3.04326491;4.383947012;0.030565876
-12.24841638;-6.285937068;-1.771627198;12.14790311;10.9166455;-0.137864866;-18.32802032;14.68400127;17.49907874;18.40422517;15.72768967;6.18094035;0.416402938;-15.90344311;-4.790371631;-0.762379365;-3.928662428;-0.331198989;-0.614844255
-11.89293633;-6.42192642;-1.688468993;12.23316114;12.02811395;-0.383716422;-15.68955653;15.93127584;19.6259759;18.25810577;18.1108629;6.654694449;0.435019433;-16.73045769;-8.019719542;-1.365165556;-3.428801548;-1.147604449;-1.084315295
-11.29530039;-6.264947486;-1.109822837;12.25184645;11.48348926;-0.352933021;-14.25455769;17.04384497;22.18144229;18.18518244;20.72321765;6.769777961;1.442246042;-15.9415163;-9.077015769;1.315803444;-1.571179143;3.301141677;-0.928352859
-10.62713579;-5.350992141;-0.240486128;11.36674624;10.1187642;-0.003258717;-15.213158;17.66668925;24.79127313;19.06417976;23.13252038;6.507846853;2.725697922;-13.90515978;-6.035391861;6.552642914;0.640520088;11.16889343;-0.123944976
-10.17463109;-3.470696992;0.501809995;8.747242952;8.702074307;0.358137503;-17.58479368;17.37407515;26.57393537;20.91117722;24.26280961;5.809156313;3.417152248;-11.72713251;-0.246108811;11.49569199;2.138115354;18.6609492;0.918020167
-9.856864214;-0.494302697;1.093562848;4.731693935;7.705300046;0.378277674;-19.17723557;15.92077572;26.73808973;22.69205525;23.34889294;4.81042749;3.129199918;-10.22761877;4.581801522;13.3380119;2.579186344;22.42417499;1.654209864
-9.156973168;3.536793793;2.054125974;1.055485851;7.27348316;0.015130088;-18.59703864;13.54505477;25.23573569;23.05692975;20.81120409;3.969954478;2.185230623;-9.20932311;5.304807289;11.42072011;2.385847378;21.24943539;1.762575239
-7.622263689;8.022465694;3.918641347;-0.258233163;7.259701667;-0.39432737;-16.45956306;11.03199278;22.97102575;21.43369144;18.22837978;3.860684505;1.281608052;-7.702171643;1.87314755;7.599624659;2.150374604;16.09247026;1.289779088
-5.498413105;11.59060228;6.509414745;1.442750691;7.265748862;-0.425849953;-14.73744752;9.394487295;21.37545023;18.59539855;17.34804197;4.741606314;0.90951731;-4.967076434;-2.617454583;4.686083525;2.071540486;8.880410802;0.535016834
-3.838677503;12.57449502;8.762415888;4.651980893;6.751362255;0.043130612;-14.9105291;9.33441709;21.6204208;16.22646219;18.90775479;6.287287965;1.048968371;-1.331902842;-4.376423705;4.330246176;1.956052719;1.375855826;-0.178140844
-3.831198503;10.12732876;9.424123826;6.638281115;5.274610344;0.70058451;-16.64275285;10.83861156;23.98674675;15.8003386;22.20533631;7.773028695;1.369841725;1.921487454;-1.846702298;6.042561168;1.695164528;-5.072674957;-0.648230199
-5.802514058;5.197522051;8.121306401;5.544071966;2.783015911;1.046021459;-18.17021884;13.17459019;27.76813105;17.59736696;25.72506848;8.612319908;1.693886409;3.526336503;3.243177025;7.966785104;1.633299759;-9.180221944;-0.795535488
-8.745053348;0.423660964;5.860251228;1.997295781;-0.256100814;0.801659065;-17.98410108;15.26229741;31.69375061;20.54494564;28.26051011;8.783740933;2.230434215;3.167924511;7.435160517;8.536013903;2.355538806;-9.706032846;-0.60022801
-10.88259851;-1.30343839;4.39391211;-1.19520413;-3.046670805;0.134200202;-16.22340226;16.15998286;34.53696378;22.92229049;29.62423412;8.730151286;3.321752635;1.527467185;8.281506211;7.534380575;4.019971919;-6.246568668;-0.091456775
-10.95340483;1.216415307;4.841826863;-1.22658998;-4.902816305;-0.493052786;-14.50725421;15.39809255;35.5570931;23.37923103;30.46688724;8.774999299;4.919740263;-0.589859636;5.974709597;5.785223402;5.870058594;-0.244227278;0.602135126
-9.243447164;6.450360633;6.657398403;2.292947786;-5.636916167;-0.695211718;-14.40340808;13.08142993;34.64769037;21.60784302;31.51568824;8.585498251;6.314487096;-3.188327966;2.659338226;3.97680798;6.483440352;4.979844486;1.235443491
-7.515361184;10.89803982;7.858143985;6.669641378;-5.598785031;-0.443483122;-15.97585503;9.84876407;32.29;18.36943226;32.97668317;7.255091486;6.456524141;-7.131876341;0.245434896;1.851226254;4.692079794;5.772445837;1.545839273
-7.805721467;11.2873338;6.454287445;7.922496988;-5.328177378;-0.029844015;-17.74652508;6.773147779;29.43839267;15.04215296;34.57809217;4.075239579;4.696702901;-13.17557668;-1.253714946;-1.458723162;0.495720916;0.511470986;1.426933573
-10.95237241;6.72381139;2.019096883;3.799074283;-5.100078125;0.212785342;-18.07712948;5.155624463;27.32731164;13.0486449;36.06801333;-0.584088456;1.364340799;-20.82634445;-3.439735651;-6.28433014;-4.76329044;-8.923858441;1.030308141
-15.94159094;-0.708666354;-3.823459891;-4.292662959;-4.742278061;0.168871408;-16.67340389;6.109490366;27.10446687;13.39836315;37.56370778;-5.082391224;-2.315651156;-28.12697514;-7.678907338;-11.57359932;-9.125964325;-17.87523844;0.67985917
-20.54208266;-7.293485494;-8.396250396;-11.99231216;-3.883385172;-0.034179018;-14.82832066;9.982588534;29.30832969;16.37821239;39.35955325;-7.330969302;-4.950650085;-32.70436879;-13.43286238;-15.19263408;-11.10210245;-21.55164615;0.63950319
-22.72151851;-9.974715489;-9.702162496;-14.87591083;-2.418524338;-0.210402876;-14.20484306;15.92012329;33.45326007;21.38718952;41.40574583;-6.132800514;-5.817894549;-33.31634902;-18.29574696;-15.22109489;-10.33176206;-17.8343204;0.91530654
-21.79578702;-7.985829564;-7.597530348;-11.37716912;-0.771285085;-0.301850975;-15.3017709;21.96325937;38.08926252;27.02065162;43.06244101;-2.048881567;-5.194036613;-30.65709023;-19.70867283;-11.24152165;-7.442643717;-8.292621918;1.26048602
-18.54843166;-2.808723915;-3.59906767;-3.586019769;0.324538573;-0.388717741;-17.01578458;25.82942539;41.48014891;31.53935059;43.5106984;2.912872717;-3.980039063;-26.77532687;-16.85584944;-4.651389097;-3.393913235;3.208623258;1.385449872
-14.39963183;3.24140022;0.388250441;4.549244685;0.404441928;-0.540767707;-17.68330424;26.04428602;42.5910991;33.64754717;42.55075908;6.605363579;-2.985364296;-23.60849796;-11.15157361;2.156991818;1.053458439;13.13560044;1.19833703
-10.39617483;8.56012847;3.343516345;10.08335056;-0.231678874;-0.689740543;-16.62340268;22.75572202;41.75066267;33.18212568;41.055513;8.084772074;-2.461098239;-21.83159348;-5.025436659;7.050307503;5.345117039;20.14082074;0.873303039
-6.803830381;12.78519281;5.451894461;12.74678382;-0.53560482;-0.672578537;-14.75926854;17.67488046;40.47489831;31.21290373;40.54641806;7.995143535;-2.190462054;-20.86432207;-0.191611034;8.958093508;8.797567263;24.90805512;0.692476651
-3.474220558;16.14814304;7.400261753;14.28407794;0.70143977;-0.409706414;-13.75965345;13.13814366;40.49636837;29.37757659;42.09923627;7.765221305;-1.928889718;-19.82209184;3.079837148;7.878613594;10.44522413;28.43443569;0.802667966
-0.491765688;18.46351539;9.413459883;16.27836113;4.06299649;-0.030493503;-14.50204837;10.88173329;42.63531439;28.8431889;45.43181494;8.328966824;-1.700707777;-18.40490809;5.232906955;4.42203825;9.402480305;30.4061586;1.097338039
1.560489333;18.76974944;10.91422169;18.4631615;9.060910972;0.204490775;-16.26730455;11.30804416;46.30719801;29.63264521;48.97906134;9.430019531;-1.649425928;-16.89793933;6.204566767;-0.559479479;5.525124695;29.10260655;1.319201329
1.956587172;15.95911978;11.04610302;18.96938291;14.331896;0.137683346;-17.39070369;13.64307413;50.01539815;30.8280755;51.0028736;10.04291564;-1.613794445;-15.40572918;5.121322074;-6.053430955;-0.221832077;22.87177079;1.285078376
0.453563203;9.822721855;9.509238888;16.19805513;18.33188616;-0.109018491;-16.76272077;16.72793179;52.44446909;31.4806277;50.92094273;9.484844838;-0.914416273;-13.24277388;1.358559409;-10.9327342;-6.116326055;11.86644861;1.034848899
-2.399568016;1.574101115;6.916886651;10.57906043;20.0597352;-0.199334799;-14.81454869;19.76735314;53.315098;31.46273069;49.79480481;8.206377489;1.314742062;-9.280191721;-4.059503513;-14.26934081;-10.58949567;-1.466676667;0.783667196
-5.557754093;-6.632048677;4.357341404;4.591969931;19.37373801;0.139325647;-13.11394868;22.49352922;53.3552984;31.51978751;49.5277451;7.526677723;5.410504214;-3.095613329;-8.301034617;-15.82630921;-13.03679691;-13.58827749;0.733446973
-8.131414766;-12.83340411;2.57429586;0.962071794;16.79806773;0.856431142;-12.9651065;24.75779329;53.44392143;32.44491402;51.32120562;8.486055964;10.64340191;4.114840372;-8.419258686;-16.25819902;-13.92018214;-21.81796337;0.914157317
-9.850920889;-16.19075831;1.500372952;0.55582441;13.07426625;1.571864367;-14.28802712;26.05977635;53.64148097;34.07665598;54.53639276;10.76329918;15.36128645;9.853581096;-3.784459936;-16.65769437;-14.12193527;-25.55083058;1.181357076
-10.99153616;-17.07812457;0.530280906;1.783866212;8.8253866;1.846700269;-15.76308984;25.54772543;52.91417823;35.03269342;56.83535717;12.59729736;17.81349246;11.84064505;2.7882385;-17.66765457;-14.1229276;-25.94301023;1.346595675
-11.88604986;-16.39357636;-0.756277933;2.028059705;4.514615823;1.515075842;-16.05953587;22.567172;49.80485005;33.5177519;55.54874197;11.86266261;17.11632266;9.601807819;6.455317855;-18.89185868;-13.70478625;-24.54455364;1.307089819
-12.49128278;-14.72590094;-2.101490306;-0.140057373;0.584598687;0.804176723;-15.00242808;17.30113423;43.54883216;28.63240672;49.34611319;7.523620885;13.68827957;4.81296366;3.546450042;-19.2226075;-12.40284133;-22.12386617;1.067970572
-12.39178226;-12.0186721;-2.755803333;-3.868346293;-2.48281399;0.148011208;-13.6354914;10.90289648;34.77464264;21.13337938;39.10318213;0.38043557;8.868703522;0.057390192;-5.769453758;-17.94826137;-10.26719983;-18.59041063;0.674815809
-11.21811708;-7.882265716;-2.17203752;-6.995288444;-4.331009215;-0.142444038;-13.17869471;4.908183747;25.24875106;12.99189314;27.45155565;-7.432343313;4.027113762;-3.032588317;-17.43707685;-15.73250716;-8.19905875;-13.8550982;0.163915291
-9.095134304;-2.17926141;-0.5840595;-8.202106196;-5.002185913;-0.079374432;-13.88312926;0.312798538;16.8587531;6.068774781;17.38010246;-13.78913586;-0.192521338;-4.758429045;-26.22574865;-14.50243439;-7.475536407;-8.638876753;-0.399057303
-6.720295033;4.625708158;1.047115505;-8.391713725;-5.041885262;0.07854878;-14.83967974;-2.987619726;10.59542904;0.967221982;10.80067873;-17.75730569;-4.007785576;-6.714868007;-29.20926659;-16.10391198;-8.775868806;-4.354332357;-0.843840834
-4.991789665;11.56657055;1.688708089;-9.966769463;-5.24638118;0.083569056;-14.88329341;-5.946894762;6.257065368;-3.005564333;7.885119868;-19.81947705;-8.022474582;-10.15077834;-27.42811743;-20.65581877;-11.48837921;-2.093949975;-0.90989775
-4.470877366;17.54460802;0.961913457;-14.50439583;-6.148032666;-0.101329251;-13.71791569;-9.476427646;3.014270822;-6.75840911;7.40385141;-21.11321094;-12.57142303;-14.77032224;-24.57553807;-25.94072499;-13.91228315;-1.6269449;-0.409096762
-5.073218106;21.63846791;-0.625518261;-20.79813556;-7.580629252;-0.321790271;-12.20465259;-13.58048402;0.321241925;-10.16427424;7.699935183;-22.38297315;-17.36657585;-18.97238428;-23.85783451;-28.48815891;-14.2911834;-1.360873072;0.564298846
-6.179335709;23.20674967;-2.074727123;-25.07032868;-8.665109668;-0.419910328;-11.55458596;-17.17239872;-1.553872184;-11.76310308;7.672961911;-23.45070829;-21.62449492;-21.23715306;-25.52762245;-25.71916411;-11.96455586;0.580443731;1.574812488
-7.034861717;21.89943847;-2.558929269;-23.43371122;-8.284602293;-0.392180256;-12.19007813;-18.71488569;-1.749968674;-9.774675843;7.278512539;-23.50521606;-24.49060771;-21.37685398;-26.93879194;-17.65086529;-7.815670881;4.971756171;2.054540048
-7.13953689;17.76243812;-1.845028216;-14.80782689;-5.769189749;-0.366920811;-13.33756486;-17.22318636;0.44961925;-3.673923484;7.383589514;-21.8561131;-25.42861715;-20.53809081;-24.91157012;-6.931227365;-3.709626901;10.88976485;1.677597173
-6.402258407;11.4366884;-0.238885853;-2.034256484;-1.345646847;-0.437730466;-13.72698565;-12.9279142;4.965405295;4.943806434;9.135559479;-18.51832463;-24.36813933;-19.99794728;-18.4148287;2.801469357;-1.345831416;16.36929984;0.626012659
-5.053516034;4.231708053;1.770170928;9.713027609;3.945883675;-0.532607645;-12.74955287;-7.17054616;10.83147638;12.98276347;13.18974367;-14.23974105;-21.62730243;-19.88562387;-9.461100059;9.022888192;-1.336235249;19.76461817;-0.486804319
-3.460110343;-2.151316433;3.806748369;16.05517957;8.809858962;-0.461643966;-11.00968105;-1.65600743;16.67764834;17.59707511;19.18442791;-10.06875752;-17.74488258;-19.01228006;-1.653465982;11.41809292;-3.093959535;20.72562127;-1.020904992
-1.981321726;-6.216637882;5.647204377;15.79332032;12.35879059;-0.107560886;-9.774868632;2.407731184;21.3897924;17.85257492;25.75361618;-6.853133619;-13.31710287;-15.97504108;2.312457707;11.35865567;-5.487549533;20.06652696;-0.762570941
-0.900400015;-7.263810708;7.091703602;10.97381979;14.46531027;0.423891111;-9.839551167;4.758671307;24.50504351;15.15576161;31.12568699;-4.979583721;-8.849434031;-10.54614461;2.207312619;10.40945823;-7.683012289;18.75413444;-0.082890343
-0.387654912;-5.581443629;7.902754085;4.929389194;15.62210922;0.849279311;-10.84331162;5.942113509;26.17852227;12.22746363;34.03107031;-4.374295304;-4.628301941;-4.105573741;-0.14903755;9.157958587;-9.544697968;16.96819713;0.331203488
-0.463216434;-2.110102369;7.919517973;0.058458033;16.46638659;0.924592218;-11.64884518;6.797668236;26.88595412;11.42089303;34.40390699;-4.600858213;-0.685625024;1.260921325;-2.645309254;7.228620405;-11.38516278;14.08568197;-0.017122287
-0.981419789;2.186180195;7.233074513;-2.98700754;17.32188212;0.64579918;-11.40670124;7.94634204;27.13799304;13.5325709;33.40993877;-4.955508525;3.053051446;4.19257356;-4.368084265;4.267885151;-13.37789141;9.612129815;-1.065799903
-1.672155817;6.806923775;6.223726977;-4.472644225;18.04536175;0.251266932;-10.31697703;9.538355028;27.34765239;17.74435057;32.71605697;-4.628133504;6.467338989;4.776480605;-5.67;0.880838085;-15.16673171;4.230713096;-2.232557553
-2.228377381;11.76249225;5.394497164;-4.325500885;18.21324017;0.019723335;-9.399458958;11.2939329;27.79966628;22.46053763;33.42858728;-3.025059307;9.004512959;4.021836537;-7.038775075;-1.393218292;-15.98669088;-0.019493187;-2.82247994
-2.384473144;17.22223;5.133556816;-1.861288854;17.44951242;0.041586877;-9.508785573;12.7162883;28.6157736;26.27530081;35.40268215;-0.163693129;9.778629858;2.706702496;-8.035567617;-1.108382091;-15.16795337;-0.74962203;-2.495071319
-1.950916081;23.07143688;5.590688333;3.232273219;15.64226192;0.164850341;-10.52037904;13.34127546;29.70930161;28.45170992;37.41581469;3.157337579;8.079435881;0.764076041;-7.409875137;1.890048828;-12.59661306;3.238778515;-1.455503695
-0.840078125;28.69184415;6.709795283;9.736706139;12.93133572;0.157158071;-11.43905067;12.93990961;30.82161099;28.85049124;38.10343776;5.668393722;4.012272506;-2.2023091;-4.335975598;6.092121982;-8.773787096;11.00277557;-0.260364221
0.851205723;33.06715762;8.284564943;14.93021758;9.541204111;-0.070356874;-11.32055643;11.61817803;31.68830155;27.66581026;36.99212019;6.336435004;-1.224872776;-5.837119332;0.380121483;9.118525757;-4.46526812;19.8191687;0.583070847
2.706571954;35.08873597;9.900688143;16.09174344;5.627499112;-0.384430433;-10.14906471;9.759401079;32.22557784;25.28922824;34.86905785;5.012182381;-5.76267345;-8.587318798;4.334735099;9.125430543;-0.265286479;26.62204713;0.91676396
3.928252213;33.87132459;10.81717812;12.33543301;1.25254213;-0.564661075;-8.863506938;7.795281194;32.53894402;22.28982967;33.19882788;2.509474184;-8.034156313;-8.567298693;4.985654477;5.823653913;3.557148385;29.51577252;0.936939574
3.514891314;28.98468634;10.02083977;5.18508939;-3.520583326;-0.520091553;-8.514103352;5.904987846;32.67791776;19.28551919;33.00334617;0.001016703;-7.695674679;-5.163164836;1.488988903;0.450790594;6.827106989;28.37370897;0.952288461
0.715852752;20.61967771;6.632316663;-2.677204568;-8.507246499;-0.379281034;-9.323785195;3.8511501;32.32083111;16.62312062;34.02947135;-1.834465706;-5.837490913;0.028204813;-4.524931688;-5.176888652;9.095867586;24.28092466;1.115863949
-4.437640963;9.707579335;0.536241945;-9.437851782;-13.33145064;-0.365357589;-10.5035416;1.136085216;30.72564307;14.10677592;34.82586264;-3.238371629;-4.278556217;3.925828933;-9.899522111;-9.791496154;9.527280711;18.44873756;1.333182004
-10.87617527;-2.086431154;-7.1936004;-15.16978929;-17.42279845;-0.572267325;-10.97218763;-2.545952662;27.13060451;11.12175565;33.68623343;-5.013475295;-4.393381807;3.990078125;-11.98045172;-13.22371914;7.240979418;11.53419636;1.382508507
-16.76699854;-12.63414511;-14.49250328;-20.93882151;-20.06832511;-0.857088545;-10.31175947;-6.849722781;21.40322373;7.203695293;29.79007813;-7.67162139;-6.279292156;0.016859692;-10.28681551;-16.13317612;1.936583856;3.828909143;1.11818122
-20.25679234;-19.92324355;-19.15583057;-26.86523477;-20.53599937;-0.960927321;-9.09714786;-10.70011378;14.43639001;2.640633547;23.74722388;-10.82044296;-8.842532105;-5.74105573;-6.694171847;-19.26877509;-5.648104013;-4.038048652;0.589207957
-20.29322995;-22.77092364;-19.8794642;-31.07085864;-18.30904171;-0.757916223;-8.331195856;-12.77604767;7.879679884;-1.467136246;17.20207474;-13.35298842;-10.71208293;-10.24202304;-4.106418671;-22.84931469;-13.83213232;-10.70929052;-0.000289211
-17.05508048;-21.32748613;-16.83522308;-30.75226175;-13.41016431;-0.403671518;-8.533241831;-12.33421222;3.26842581;-3.888777362;11.82319536;-14.32981112;-11.28030232;-11.76872279;-4.6158262;-26.44172069;-20.6621066;-14.56833499;-0.432130919
-11.76182827;-17.06260364;-11.42362578;-24.68222453;-6.663160063;-0.233304882;-9.319715486;-9.836715243;1.118952001;-4.235458761;8.394261532;-13.81871907;-11.08626897;-10.79477875;-8.358377194;-29.29200673;-24.77383257;-14.82068933;-0.59967187
-6.028089231;-12.18577476;-5.41960268;-14.95229501;0.345080693;-0.480056152;-9.831383498;-6.893472371;0.662805933;-3.421522119;6.581478277;-12.93325491;-11.26807857;-8.988138105;-13.63391043;-30.77459205;-25.91480229;-12.30259816;-0.539621855
-1.187582416;-8.770953824;-0.127589653;-6.154915852;5.745800012;-1.052761971;-9.571043934;-5.451150986;0.459317928;-3.130999936;5.430221243;-12.95036809;-12.52460423;-7.320185405;-17.97229936;-30.64014504;-24.82822131;-9.226048444;-0.3756903
2.04316368;-8.017425792;3.921851469;-2.297723649;8.18321719;-1.571527195;-8.85420503;-6.679021308;-0.536317972;-4.595098092;4.153061994;-14.1813016;-14.39966025;-4.990796459;-19.35507243;-28.97501365;-22.63892481;-7.867234865;-0.234222529
3.491818897;-9.977351933;6.68339876;-3.813320956;7.513296031;-1.645419947;-8.464227764;-10.24446498;-2.236229959;-7.599278932;2.649922;-15.5425904;-15.45253481;-0.145810195;-16.96194712;-26.01595574;-20.20402461;-9.086656093;-0.186932377
3.273783397;-13.79314588;8.133000085;-7.214161309;4.947163599;-1.169701168;-8.861849536;-14.4488956;-3.556366623;-10.52870694;1.476619265;-15.25826396;-14.20685243;8.20952439;-11.29623551;-22.02711587;-17.8599469;-11.79777029;-0.237160462
1.642744237;-18.21399666;8.114680481;-7.906258967;2.462900262;-0.402118045;-9.712469304;-17.15264244;-3.294385336;-11.47193298;1.391865767;-12.21;-10.18993926;18.75944956;-3.890194475;-17.33515707;-15.64912727;-13.83778711;-0.336790846
-0.948581774;-22.07247065;6.624813449;-4.015217381;1.77283598;0.237679005;-10.18362989;-16.92636045;-1.051405347;-9.564081636;2.854097925;-6.887104245;-4.318465714;28.19543481;3.191904794;-12.45027161;-13.72594772;-13.62145386;-0.417621635
-3.728270648;-24.52741868;4.208727017;1.940955158;3.452932421;0.475069061;-9.731668927;-13.75193405;2.502614262;-5.556473569;5.781123705;-1.160671409;1.623940951;33.15307319;7.974871961;-8.108461336;-12.52737169;-11.32484927;-0.427942155
-5.670182411;-25.0974196;2.004002455;5.077337332;6.76124161;0.347452846;-8.63252919;-8.908697011;6.169394857;-1.214726338;9.640509651;2.976401597;6.021020372;32.29520848;9.258256391;-5.114626012;-12.53256859;-8.686626281;-0.363179535
-5.843596795;-23.64839746;1.256477506;2.366568469;10.2221427;0.11673349;-7.750190705;-4.184186757;9.079538083;1.938559606;13.72480636;4.735357157;8.247642807;26.9740892;7.14734613;-4.012439658;-13.82093464;-7.594704506;-0.271948497
-3.888437424;-20.46355181;2.600502462;-4.395100641;12.54623292;0.028860996;-7.750637981;-0.910303313;11.17575161;3.558497091;17.41823708;4.897494275;8.772616504;20.07485519;3.091687202;-4.758410906;-15.84074078;-8.597623383;-0.225049273
-0.302649031;-16.35713999;5.629969951;-9.487339672;13.26245102;0.134226793;-8.490399791;0.647192946;13.00694421;4.45332204;20.35118108;4.963666501;8.582544881;14.05984543;-0.742913634;-6.628875919;-17.64351367;-10.54685945;-0.26180563
3.691455545;-12.64490129;9.091139608;-7.552915638;12.69699461;0.304031434;-9.150334229;1.27859567;15.1153497;5.773389918;22.44168705;5.806586929;8.428856362;9.730925071;-2.525959587;-8.48571108;-18.44827639;-11.65716455;-0.354337607
6.674855742;-10.79779094;11.56958107;2.04228453;11.43575219;0.392612155;-8.995344803;2.277648687;17.59067527;8.157571096;23.8529423;6.932931069;8.443378998;6.473464459;-1.647308365;-9.308969735;-18.10516054;-11.09560138;-0.425012573
7.673799411;-11.81056703;12.19945694;14.30871502;9.763239103;0.375348167;-8.060390801;4.662646503;20.12120897;11.46345557;24.87176601;6.948471137;8.311534028;3.471252978;1.101709399;-8.703909532;-17.08788004;-9.746320847;-0.410251702
6.564314614;-15.58577069;10.95590225;22.05723614;7.518681788;0.337276389;-7.130149417;8.545846368;22.35608632;15.088252;25.71495623;4.829560455;7.750511063;0.690459644;4.125663834;-7.058749111;-16.02190553;-9.459946362;-0.318894265
4.033889724;-20.75593334;8.438585795;21.07835029;4.419696759;0.343834139;-7.030655721;12.93728719;24.11180826;18.38309088;26.33444281;0.949938502;6.855956245;-1.163993896;5.955898235;-5.228259882;-15.13945829;-11.37016441;-0.23028481
1.152672242;-25.19662359;5.410240115;13.09234123;0.512491112;0.339607862;-7.88346019;16.09327027;25.18130184;20.73294636;26.36137243;-2.979332423;6.061005277;-1.48478063;5.910502497;-3.939914361;-14.11737226;-14.6959562;-0.226783934
-1.187342605;-27.07040148;2.444603685;4.249025825;-3.666911804;0.187853013;-9.003782111;16.2982642;25.00790151;21.39047696;25.30308367;-5.013723307;5.8065556;-0.466770265;4.185270713;-3.335573571;-12.43634385;-17.11799791;-0.317040043
-2.66201114;-25.84041248;-0.154541296;0.461511877;-7.3543381;-0.180567935;-9.528759994;12.75148727;22.745324;19.53834139;22.94918279;-4.253939996;6.244685907;1.013357425;1.547416416;-2.986734095;-9.961086675;-16.54328715;-0.421640436
-3.550974473;-22.60694832;-2.260424905;3.264166908;-9.999452027;-0.655027305;-9.192087171;6.111943792;17.91713855;14.85936767;19.74365813;-1.331764636;7.220214937;2.178631744;-0.989381053;-2.376257754;-7.249402185;-12.88035495;-0.441041649
-4.439943927;-19.47870645;-3.845981847;9.288724467;-11.50236033;-0.990697355;-8.533532807;-1.649226949;11.23966628;8.260941232;16.80615738;2.186015728;8.494653899;2.991297638;-2.334044019;-1.470281846;-5.317440869;-8.344369578;-0.349147447
-5.783843975;-18.30689383;-4.996600669;13.43819662;-12.06187363;-0.98903555;-8.359224583;-8.107240375;4.79523145;1.972098931;15.44831808;4.900122955;9.954106206;4.016804016;-1.500914243;-0.907564877;-5.033993685;-5.936046669;-0.225530055
-7.58735962;-19.57106012;-5.924982805;12.93867498;-11.8084285;-0.661099351;-8.960789314;-11.5457116;1.092926376;-1.453798988;16.37286426;6.283234547;11.57598336;5.663591338;1.95763806;-1.613230617;-6.612296563;-7.210610884;-0.189088596
-9.382936358;-22.15279098;-6.873978498;9.003316881;-10.58306796;-0.227594722;-9.820538369;-11.76811742;1.460133614;-0.775260566;19.04371754;6.530297433;13.18538587;7.580628115;7.374391182;-4.100280867;-9.568596575;-11.07080435;-0.286464818
-10.51111193;-24.15211138;-7.926271124;5.07148764;-8.080634069;0.051590622;-10.07788078;-10.051021;4.93575032;2.871045758;21.73055202;5.896384602;14.27683019;8.860475956;12.76935073;-7.992480921;-13.11926536;-14.54720412;-0.437560349
-10.52672396;-24.17606555;-8.880613156;3.491122913;-4.234824783;0.077169047;-9.329214584;-8.239282683;8.682572843;6.500227674;22.37794658;4.29558762;14.17688877;8.916235127;15.54059522;-12.15343066;-16.64322132;-14.96719142;-0.497280834
-9.472532339;-22.1890677;-9.338165153;3.637345899;0.506153472;-0.027649367;-8.026768387;-7.544412206;9.873467358;7.289486939;19.90186671;1.62219772;12.54797632;8.211157829;13.94226702;-15.34183469;-19.83809898;-11.82052323;-0.388752099
-7.838280274;-19.33558446;-8.963958161;2.972165043;5.275995638;-0.041482132;-7.109504408;-7.827935616;7.799603702;4.70062179;15.12814673;-1.512796516;9.894299359;8.084471915;8.464156105;-16.90298299;-22.52547023;-6.895768482;-0.190170493
-6.223567789;-16.9119602;-7.715129331;-0.129728364;9.195781319;0.154612781;-7.199287708;-7.844597228;4.593586725;1.056120254;10.66781286;-3.45537848;7.618470943;9.708201971;1.992976895;-16.98842536;-24.39896266;-2.669098984;-0.086320168
-4.9246354;-15.30460073;-5.838551658;-4.468392837;11.75664523;0.470474726;-8.085698675;-6.269199618;3.855083029;-0.046085571;9.606087022;-2.178808334;7.42488871;13.02185105;-1.673839039;-16.18695141;-25.04181962;-0.320026855;-0.210020752
-3.73;-13.72942995;-3.645287614;-6.781993219;12.87846269;0.678703497;-8.95161726;-2.784334465;8.01972822;3.558694244;13.65178513;3.31274493;10.32769892;16.57899129;-0.172079704;-14.92515054;-24.23963935;1.008993838;-0.502376456
-2.081519352;-10.97665896;-1.2842507;-4.513393827;12.64631971;0.597647981;-9.115977807;1.541568725;16.3436598;10.76815557;21.85391092;11.86718484;15.86536939;18.49674218;5.818291778;-13.15838053;-22.27213754;3.176829514;-0.719491928
0.488114042;-6.569100405;1.249059514;1.861393783;11.0263133;0.23189018;-8.611640813;4.861276495;25.03746385;17.69513603;30.78187463;20.35707388;22.07740134;17.76571433;12.92996823;-10.59219233;-19.82887549;7.187635814;-0.599609856
3.927857365;-1.40487362;3.855717766;8.963846103;7.881268977;-0.236501326;-8.087728269;5.726564214;29.56191899;20.197068;36.23403146;25.2802409;26.35766331;14.8725915;17.29753585;-7.197936546;-17.5258041;12.11983389;-0.06905311
7.547039327;2.654461271;6.082406209;12.95742922;3.317131061;-0.583469445;-8.156675779;4.028444074;27.51556871;16.633835;35.56753209;24.84224211;26.74478338;11.27778486;17.06530545;-3.527263873;-15.41036698;15.73729116;0.677011808
10.30527511;3.975889602;7.184443814;12.2014559;-1.954362637;-0.68708863;-8.809551807;1.066493197;20.10184076;8.862015821;29.26489534;20.11672227;22.91570009;8.256033632;13.41685845;-0.509574232;-12.93383144;16.24141586;1.291608597
11.35244728;2.253624516;6.567072977;7.95502214;-6.635661183;-0.575168745;-9.440536291;-1.280374368;11.20147174;0.814765593;20.73407477;14.44057674;16.31497075;6.104315489;9.426317807;1.12649461;-9.506973989;13.67909779;1.509107283
10.49275479;-1.282137375;4.311478662;2.780578358;-9.370864622;-0.366310554;-9.441720142;-1.711425983;4.803126266;-4.187893687;14.39489654;11.39615249;9.36980097;4.329842355;7.683514723;1.331288818;-5.22370287;9.850829457;1.320542439
8.288450717;-4.669387646;1.33311101;-1.712823411;-9.486758808;-0.178082114;-8.797570044;-0.240225931;2.657678343;-5.40252374;13.18089147;12.69248495;4.26978087;2.52198463;8.545592503;0.711611362;-1.113457951;6.849988828;0.961892339
5.734910081;-6.425332839;-1.06630939;-5.74660275;-7.43917658;-0.078683733;-8.116158337;1.909330133;3.718392063;-4.608608347;16.97247655;17.29255935;2.000286079;1.006921967;10.29037664;0.023450344;1.387299334;5.492172199;0.731062505
3.690876903;-6.328967266;-2.03621189;-10.29481902;-4.633750558;-0.094256751;-8.066983235;3.093325888;5.513126659;-4.367414312;22.8962546;22.2495859;2.106061356;0.619293419;10.86646022;-0.408455308;1.405207068;4.916091092;0.77751243
2.387453084;-5.33821976;-1.839832798;-15.37825473;-2.724289914;-0.226968533;-8.752130727;2.165931835;6.19540971;-6.131139074;27.23963302;24.58059209;3.199309124;1.778638029;9.65681895;-0.890931235;-0.720787041;3.580324017;1.020119216
1.295418068;-4.859298008;-1.831225065;-19.60688081;-2.840048828;-0.44526094;-9.600437919;-1.022855787;5.68471961;-9.623996193;27.71834922;22.92136672;3.822419531;3.752539225;7.754064122;-2.060004883;-3.676277319;0.690370948;1.241152873
-0.56329642;-5.966658959;-3.682176577;-21.54364876;-5.191797333;-0.661402844;-9.887332812;-5.740634007;5.193789041;-13.69524725;24.66377273;18.01328292;3.157749065;4.886109764;6.601160054;-4.358222578;-6.159854131;-3.205247074;1.268466935
-4.012067216;-9.035702946;-8.319436781;-21.55342921;-9.185387863;-0.746322513;-9.400573089;-10.87826389;5.763493137;-17.61653697;20.46366512;11.94763195;1.262046817;3.749505613;6.312415581;-7.711369108;-7.852138009;-6.896153388;1.100889874
-9.139433343;-13.80850366;-15.2512366;-22.13128757;-13.81496042;-0.602563541;-8.634904695;-15.44887104;7.127109992;-21.57761843;17.75691943;6.86142191;-1.176877353;0.319881616;5.287279639;-11.60698415;-9.569639652;-9.747417442;0.889862058
-15.06540218;-19.59820685;-22.71349074;-25.99951668;-17.9997014;-0.248598064;-8.333179701;-18.80465389;7.824262557;-26.01604501;17.65749785;3.946183153;-3.319372203;-3.791786156;1.58636261;-15.42799612;-12.45068416;-12.29567241;0.807569308
-20.21646736;-25.39841037;-28.53192209;-33.41202006;-20.71856124;0.165998581;-8.795237793;-20.5721259;6.401697888;-30.54687903;19.16938518;3.214142691;-4.592640995;-6.323110727;-5.070417433;-18.72795948;-16.82021422;-15.62742486;0.912849168
-23.00946804;-29.95872061;-31.15685487;-41.12082553;-21.07090762;0.449537659;-9.591388503;-20.50758778;2.685166498;-33.62807377;20.08171467;3.887972585;-4.86250788;-5.838214847;-12.48798908;-21.26562936;-21.66970844;-20.10376634;1.114736678
-22.61080268;-32.05593173;-30.2746055;-44.28022822;-18.47758908;0.504219439;-9.946612548;-18.47267675;-1.875753868;-33.41355697;18.63516099;4.979332652;-4.339906541;-2.592917724;-17.25362975;-22.87960995;-25.20739507;-24.62517148;1.250474326
-19.36909361;-31.02189347;-26.7319819;-40.07666871;-13.05266232;0.398428499;-9.44649887;-14.56859634;-5.006845126;-29.15137499;14.80141065;5.716671833;-3.331849738;1.824080756;-17.19236481;-23.40997254;-26.06334209;-27.1828266;1.210840745
-14.67767421;-27.24016779;-21.95934821;-30.21245246;-5.898051139;0.307502166;-8.421212363;-9.297982793;-4.913052181;-21.9566523;10.36827299;5.756320792;-1.994549001;5.721798027;-13.02764675;-22.75868535;-24.19204313;-26.31562509;1.020370659
-10.33606858;-22.16964082;-17.3258863;-20.07071242;1.021521358;0.365240715;-7.657764102;-3.575144613;-1.176158175;-14.2802011;7.866275954;5.268093209;-0.221981517;8.418876225;-7.794885932;-20.9762117;-20.75902887;-22.28215881;0.820667548
-7.76337016;-17.71740128;-13.77620969;-14.99142118;5.548976296;0.549805615;-7.701883069;1.499142826;5.234959442;-8.458442886;9.10347305;4.930217272;2.270326326;10.42395707;-4.375944219;-18.2090816;-17.13391039;-16.97578817;0.772769037
-7.487591257;-15.29206637;-11.8054445;-16.4696425;6.286584606;0.703597319;-8.380153804;5.022184488;12.63611484;-5.448061074;14.23120381;5.747051283;5.705285271;12.66845086;-3.130386954;-14.51627146;-13.84794037;-12.66013365;0.942657763
-9.142812942;-15.17990263;-11.58500115;-21.23827611;3.301575519;0.672688219;-8.967779829;6.641990737;19.39747765;-4.635128635;21.81821355;8.62122163;9.977026005;15.51065523;-1.618183413;-9.777939815;-10.39417458;-10.56292726;1.239922656
-11.88145405;-16.68612058;-13.02806309;-23.94332196;-1.860068359;0.445856608;-8.840865041;6.683927631;24.3693819;-4.698315492;29.73386982;13.80495566;14.51937656;18.32699845;3.246717062;-3.916476579;-6.030601338;-10.41722099;1.448988231
-14.87792666;-18.89583861;-15.75254758;-21.29011117;-6.906288692;0.171154393;-8.021172592;5.964812439;26.93734489;-4.704854617;36.19765883;20.54696989;18.41530748;19.9520693;12.28264683;2.635750009;-0.885755524;-11.17374708;1.344033248
-17.61445475;-21.41627872;-19.07481051;-14.43763096;-9.891759963;0.034041135;-7.132400332;5.368384856;26.95107528;-4.576307174;40.38072097;27.22586523;20.71946721;19.53426639;22.74524348;8.616655592;3.618972999;-12.1161374;0.832108191
-19.86167914;-24.49368876;-22.17797357;-7.899628246;-10.08119268;0.103035498;-6.827785668;5.389460713;24.70957113;-4.727485703;42.34228348;31.98212574;20.83390388;17.10572712;29.815647;12.18740891;5.480282568;-13.35753695;0.043299516
-21.50257771;-28.44471941;-24.43252535;-6.001371738;-8.142961918;0.278095786;-7.220058594;5.889283174;20.94937155;-5.404447671;42.53240117;33.52507072;18.73815712;13.48162521;29.84745791;11.79873337;3.48163308;-15.35885451;-0.698997114
-22.41306416;-32.9420735;-25.65882246;-9.750183843;-5.620634609;0.386341614;-7.822437629;6.209808565;16.6762765;-6.394229575;41.30447193;31.66467068;14.96373426;9.673068148;22.94035129;7.180144721;-1.818526443;-18.04177044;-1.034323277
-22.48333285;-36.8295787;-26.09900445;-16.42324526;-4.013835668;0.33893988;-8.027981793;5.602055904;12.82258105;-7.295805518;38.77134452;27.30421038;10.35965223;6.330078125;12.9115091;-0.260703307;-8.260353926;-20.4168731;-0.772148822
-21.68950108;-38.6902373;-26.06438371;-21.87052599;-3.974846681;0.208305738;-7.666896459;3.730570863;9.932902219;-7.952960275;35.03438439;21.97776949;5.805466751;3.600925153;4.736532547;-8.007605724;-13.32886228;-21.11943092;-0.022430764
-20.08198718;-37.74020061;-25.50406232;-23.45995264;-5.029525782;0.155442428;-7.129651458;0.943194192;8.116004318;-8.531829666;30.53488357;17.25431106;2.013159307;1.386978691;1.423527694;-13.6734141;-15.58936041;-19.36581941;0.848869581
-17.68137957;-34.33514526;-23.86651055;-21.38798847;-5.938531857;0.271159565;-6.96375408;-1.889282164;7.273794344;-9.162055571;26.19030816;14.29925201;-0.554499034;-0.329991417;2.588306618;-16.10693498;-15.32173414;-15.44731011;1.430342808
-14.42434477;-29.698918;-20.45717591;-17.70116413;-5.480981618;0.473574106;-7.341399177;-3.901878441;7.342444994;-9.582472324;23.12117604;13.66639878;-1.724304832;-1.383365995;5.549384538;-15.66761255;-13.99592836;-10.33163742;1.512919733
-10.30153889;-25.13057077;-15.11738982;-14.28595832;-3.224125225;0.557825045;-7.901992033;-4.824616652;8.248612875;-9.288516945;22.05505305;15.21816778;-1.682031889;-1.569005488;7.793001719;-13.59560748;-13.08223223;-4.807085981;1.20607447
-5.641341825;-21.34969007;-8.736894758;-11.67356306;0.154910068;0.362508724;-8.108526611;-5.255520431;9.572196497;-8.178343535;22.74723748;18.09690327;-1.035123836;-0.847041731;8.751755753;-11.06142729;-13.10495476;0.953899773;0.837360866
-1.282424175;-18.45744777;-3.130087891;-9.452265327;3.192853023;-0.084850493;-7.770293066;-6.412295065;10.2691403;-7.110039063;23.82666186;20.83215444;-0.736086271;0.599138344;9.631643221;-8.634204346;-13.5553438;6.95699846;0.706484762
1.630366071;-16.40180977;-0.197046639;-7.502307117;4.442122021;-0.566193957;-7.232232801;-9.47118474;8.88196538;-7.708597769;23.29195874;21.75041708;-1.764500422;2.469938398;11.74069312;-6.455463141;-13.56999013;12.52968233;0.876451108
2.231862771;-15.37898151;-0.809437731;-6.617567095;3.289044749;-0.820375425;-7.050303351;-14.85743857;4.317666865;-11.34233932;19.51728498;19.70044559;-4.635434014;4.497523655;14.95147631;-4.754137453;-12.73266861;16.03223134;1.157804449
0.564288546;-15.69422824;-4.132896387;-7.838046429;0.295760474;-0.725145232;-7.458303577;-21.88562624;-3.247335441;-17.95100518;12.27710839;14.79748217;-8.989170642;6.519577324;17.65;-4.05923881;-11.36264504;15.71471531;1.29062132
-2.223046275;-17.16176026;-7.889010814;-11.16066055;-3.144076755;-0.376053364;-8.128565355;-28.9450923;-12.02072054;-25.66313743;3.190426605;8.694799344;-13.55623305;8.480693053;18.13345814;-4.797634336;-10.13613844;11.24679631;1.170440117
-4.333838203;-18.63753732;-9.478473608;-14.93629213;-5.610443858;-0.01127635;-8.454745219;-34.12546127;-19.20319661;-31.61426431;-4.76869381;4.044502408;-16.61352598;10.43396957;16.16354244;-6.604571763;-9.421177954;4.67386744;0.929539835
-4.22019196;-18.2680226;-7.321273031;-16.64584311;-6.401846373;0.150148996;-8.098177211;-35.96591234;-22.3003064;-33.47019892;-8.545795337;3.283187804;-16.75003906;12.56185077;13.31110048;-8.043576445;-8.880554635;-0.197869062;0.807358258
-1.365062757;-14.47648308;-1.620684938;-14.50531577;-5.760519257;0.03556029;-7.29424995;-33.99330517;-20.36109266;-30.61979754;-6.444570846;7.36309936;-13.54641732;15.13749444;11.82210252;-7.176984941;-7.633349895;0.170539842;0.924965427
3.524526957;-7.058671647;5.864035243;-8.636252233;-4.502113812;-0.265254048;-6.638237331;-28.85524998;-14.38053548;-24.2724957;1.035073705;15.17748345;-7.796663336;18.34891003;12.99984692;-2.736001522;-4.82413311;6.912847311;1.165200053
8.974492091;2.423872328;12.81483421;-0.952343579;-3.395123877;-0.579634263;-6.550943331;-22.04068738;-6.65147146;-16.53610499;11.42146119;24.06186031;-1.155668425;22.04516798;16.44644228;4.914022531;-0.180461356;17.99703149;1.273454359
13.4842445;11.30969767;17.45664753;6.003312404;-2.771243878;-0.752878884;-6.916035254;-15.31841289;0.472868548;-9.253072914;21.43721091;31.10858592;4.587835744;25.60854339;20.69675584;13.75339543;5.795661457;29.37513568;1.10160329
16.07389788;17.17787127;19.14070969;10.29631276;-2.599617193;-0.708339114;-7.215434215;-10.09378219;5.628808052;-3.389333455;28.47268811;34.53844053;8.230556149;28.13429579;24.5647044;21.11781947;12.06951069;37.23318285;0.782159851
16.41763751;19.02458763;18.23380989;11.1364016;-2.841339823;-0.458131425;-7.02516197;-6.909965033;8.757083516;0.829924866;31.5969057;34.3606517;9.531142423;28.8783844;27.96441027;25.08561228;17.5485197;39.84145049;0.663637984
14.70359971;17.59347903;15.61599797;8.72577802;-3.673750128;-0.090808766;-6.404930178;-5.304084174;10.67905368;3.470490753;31.64267352;32.01930978;9.122040651;27.68459471;31.51286757;25.34232819;21.50837599;37.94582912;1.034840515
11.49863283;14.77460527;12.23974001;3.971423891;-5.332461898;0.248070359;-5.823639041;-4.130078125;12.36473157;4.665565054;30.44057105;29.34517609;8.067090338;25.0616831;35.34861979;23.03523251;23.78397224;33.76739817;1.854960456
7.720254361;12.5485209;8.969684724;-1.597761852;-7.718438944;0.395059578;-5.702571241;-2.256361276;14.37619533;4.731150702;29.71151999;27.5007015;7.306553287;21.82328145;38.31659164;19.8537806;24.69425171;29.55806416;2.724212474
4.550253137;12.10167484;6.571919304;-5.974338766;-10.18952816;0.24083425;-6.014572552;0.691575009;16.70385925;4.265559311;30.22660048;26.51516719;7.233738304;18.54923154;38.36523184;17.04577118;24.78351718;26.67945917;3.148660642
3.079109222;13.47789177;5.594233034;-7.355539456;-11.83240375;-0.189858575;-6.318672228;3.982472438;18.90838197;3.872179959;31.6030239;25.5678571;7.563846695;15.28265382;33.9571725;14.98551649;24.51066998;25.49574817;2.911932762
3.737040435;15.75609358;6.078548319;-5.304024543;-12.07563439;-0.712266646;-6.194121232;6.105373919;20.36656329;3.610949923;32.71900754;23.71064756;7.536882787;11.69312504;25.40322845;13.40156307;24.0244058;25.69928547;2.26236866
5.899949943;17.54148501;7.352651791;-1.53131054;-11.14131057;-1.056890533;-5.658159134;5.654643988;20.49873601;2.726186642;32.43067593;20.51951847;6.368056834;7.553992293;15.03189619;11.89380258;23.13268217;26.57733216;1.750467352
8.092353156;17.56385952;8.224614778;0.677471716;-9.894625548;-1.021629165;-5.165569842;2.258325132;18.96323978;0.101370956;30.19063949;16.30601991;3.742313933;3.122730801;5.986212231;10.27494948;21.49179549;27.11870342;1.818035228
8.819691676;15.22983733;7.62132411;-1.542003286;-9.132670067;-0.603848873;-5.183047983;-3.069335274;15.80747411;-4.747290807;26.28533098;11.85487032;0.093762408;-0.898371577;0.475126793;8.551471622;18.91463026;26.22206937;2.440762647
7.52762503;10.95086623;5.293488383;-8.465459592;-8.863878184;-0.01120018;-5.736794097;-8.445588837;11.49543179;-10.94039111;21.62444214;7.94074475;-3.520917298;-3.782020077;-1.311985479;6.71065873;15.60143388;23.18067381;3.100360497
4.978749731;6.036543145;2.044061401;-17.16870911;-8.210361224;0.468784692;-6.364997282;-12.22555938;6.725728357;-16.52627575;17.22469432;4.952141706;-5.941647965;-5.214498042;-0.945840147;4.602065954;12.12095011;18.19376599;3.124966286
2.704401995;2.075244534;-0.769542505;-23.22605681;-6.098470963;0.65278215;-6.532287817;-13.9841162;2.083614879;-19.76976851;13.66185013;2.813355252;-6.555193857;-5.387483117;-0.452462108;2.042984682;9.131440127;12.40514417;2.164878048
1.892270099;0.050936441;-2.150612049;-23.67093128;-2.243257336;0.567119735;-6.127902875;-14.70484274;-2.259207827;-20.51050065;10.78034387;1.176073603;-5.688063648;-4.692044236;-0.947298195;-0.963811804;7.025506527;7.255184587;0.467954813
2.544463875;-0.262897335;-2.121196387;-19.03074636;2.367187592;0.401320899;-5.581234693;-16.03177838;-6.552096077;-20.44896776;7.833337812;-0.299531481;-4.468519848;-3.316341464;-2.122351947;-4.107805964;5.751453915;3.55467265;-1.24090155
3.56345124;-0.150137736;-1.610674941;-12.83262452;5.938074837;0.353730575;-5.475741828;-19.08634394;-11.12363482;-21.97598273;4.004625563;-1.761999517;-4.202444088;-1.126644209;-2.811647369;-6.849344574;4.933232495;1.040306377;-2.195745756
3.698349014;-1.044301935;-1.656875766;-8.930373382;6.996413693;0.492678091;-6.007594683;-23.65496695;-15.91661805;-26.33279866;-0.967783204;-3.162831369;-5.628766733;2.053424251;-2.10400307;-8.638193061;4.174342147;-1.166465181;-2.049472706
2.588104711;-3.466344827;-2.554888185;-8.752849029;5.352456856;0.73436767;-6.787396756;-28.2869124;-20.26429696;-32.5065077;-6.449031267;-4.373452118;-8.513647149;6.021917509;-0.166816888;-9.139662699;3.286371979;-3.575978293;-1.063006698
1.052290007;-6.610936761;-3.636305929;-10.63469317;2.174253045;0.937434563;-7.175988068;-31.19992023;-23.12487305;-37.76831257;-11.10315072;-5.302728763;-11.8264982;10.0391868;1.770882163;-8.385535964;2.262905078;-5.737503536;0.078207659
0.393436044;-8.94775883;-3.848583494;-11.66462969;-0.861060235;1.022152947;-6.856610299;-31.34395028;-23.65329661;-39.5051498;-13.56751836;-5.92292922;-14.35824103;13.12189096;2.217775529;-6.834350462;1.063684513;-6.664017845;0.680114884
1.290299071;-9.411137612;-2.64708572;-10.40010298;-2.668897141;1.015347305;-6.124212725;-28.91176854;-21.72497084;-36.98215864;-13.22161969;-6.203647311;-15.36383613;14.59370332;0.433037789;-5.319322303;-0.53368919;-5.964745888;0.419879129
3.202450536;-8.236628992;-0.457794694;-8.11;-3.282681995;0.99837422;-5.625053856;-25.02738373;-18.0469721;-31.72941524;-10.56027966;-6.032601682;-14.83269891;14.4671284;-3.026884831;-4.818377277;-2.802373977;-4.617310976;-0.524965034
4.785663891;-6.734035397;1.669174651;-7.503926887;-3.478667245;1.021485811;-5.778539145;-20.93388286;-13.7811188;-26.32457263;-6.900379224;-5.210946701;-13.28263536;13.35912845;-6.5873377;-6.020971028;-5.706959988;-4.487552851;-1.636532521
4.983253871;-6.132186769;2.919750728;-10.07961639;-3.911143591;1.067126052;-6.403363877;-17.29949997;-9.932652138;-22.5648643;-3.576829905;-3.546717662;-11.30713754;12.01776824;-8.584675682;-8.838687587;-8.626078571;-6.77282143;-2.373532001
3.904032397;-6.421979169;3.371978069;-14.41570824;-4.524335173;1.08666825;-6.885473341;-14.07872005;-6.886952944;-20.41392979;-1.138025839;-0.987704174;-9.236443785;10.83896749;-8.243733721;-12.18459432;-10.47533556;-10.61569528;-2.44843784
2.777213101;-6.188512665;3.909225984;-16.94075937;-4.708165306;1.060728294;-6.733556476;-10.8964526;-4.340501836;-18.40615027;0.921422799;2.297678277;-7.125395302;9.73272937;-6.053381401;-14.3163607;-10.26406619;-13.21390595;-1.926317185
3.026314699;-3.662606918;5.470078125;-14.61725508;-3.995279119;1.01479319;-6.017177218;-7.556930105;-1.609801097;-15.02533129;3.692963153;5.940354332;-4.998238;8.38783038;-3.279884377;-13.71623613;-7.754491737;-11.63946147;-1.128356205
5.197643644;1.772280733;8.246455145;-7.374688732;-2.640068359;0.974527547;-5.292609851;-4.276882753;1.889687534;-9.906492027;7.944882296;9.461735928;-3.092956345;6.657017368;-0.965686188;-10.0509624;-3.750921015;-5.128258081;-0.427560416
8.555429494;8.79823743;11.45246466;1.653172238;-1.554423583;0.913713224;-5.090423173;-1.54516758;6.233124491;-4.016033562;13.3752767;12.36340779;-1.886270406;4.715384115;0.825792438;-4.565583139;0.231739585;3.955673061;-0.060704964
11.59;14.76698417;13.7984225;8.223434947;-1.655123548;0.761479111;-5.437714256;0.177241741;10.80563569;1.11724012;18.54250303;14.17356399;-1.883779066;2.87439272;2.886765096;0.458196172;2.740277242;11.3827676;-0.04714898
12.97966051;17.29706271;14.25419746;9.713082634;-3.183222594;0.477142203;-5.85263356;0.640643569;14.4226577;4.34541322;21.55281809;14.47899897;-3.345737387;1.248935566;5.88762661;2.935960252;3.105814636;13.75012067;-0.233973798
12.27876015;15.72144539;12.53239359;6.429729225;-5.551749954;0.125639787;-5.813043027;-0.210449684;15.74525063;5.30024687;21.09;13.00308074;-6.145632672;-0.398980044;9.307221076;2.148523223;1.673952603;10.66211129;-0.41958119
9.937188661;11.38136214;9.045015008;0.762863229;-7.795768394;-0.129719963;-5.264388036;-2.315314087;13.87787512;4.166691603;17.14673618;9.736640647;-9.832884371;-2.476926829;11.24229302;-0.921450539;-0.540423683;4.8163169;-0.475473529
6.835972881;6.649196494;4.549209371;-4.81071298;-9.185674654;-0.134005096;-4.693994191;-5.468267685;8.895729653;1.306711927;11.0083641;5.032652844;-13.81968572;-5.173329153;9.474047305;-4.301760756;-2.470985481;0.001969031;-0.399516238
3.829785379;3.472473562;-0.127474313;-9.14585403;-9.47741734;0.13010178;-4.695090635;-9.195420224;1.977847572;-2.816780041;4.521585851;-0.458469667;-17.55750485;-8.175260834;3.141926728;-6.291116435;-3.465385588;-1.433321647;-0.282320552
1.60443637;2.464463549;-4.122135793;-12.35685103;-8.667552276;0.501982743;-5.412800499;-12.7320081;-5.040840223;-7.460128964;-0.872336642;-6.04045667;-20.62696145;-10.72258952;-6.270317042;-6.407882045;-3.373168648;0.192411467;-0.222587645
0.738236223;3.01679705;-6.526110655;-14.77942318;-6.613097513;0.739639504;-6.378459682;-15.26435357;-10.53623943;-11.59710955;-4.730800068;-11.2653578;-22.75307095;-11.96893844;-15.56769914;-5.430434581;-2.352817669;2.680087891;-0.254671306
1.64603783;4.097604073;-6.611771601;-16.22838526;-3.00062187;0.688565459;-6.89281781;-16.35024395;-13.87332526;-14.37378673;-7.494180001;-16.03244424;-23.79048511;-11.40153083;-21.81040555;-4.606780752;-0.664680709;3.868334076;-0.335590158
4.284217434;4.992600595;-4.293691119;-16.27169264;2.21310039;0.393149606;-6.625010142;-16.19320241;-15.55326483;-15.74070967;-9.811060735;-20.36325;-23.69406648;-9.057104687;-24.18437355;-4.682140893;1.376904917;3.087795807;-0.391613833
7.873552207;5.495717768;-0.451980568;-15.07475745;8.277635858;0.062178938;-5.89790579;-15.47898778;-16.58244378;-16.61647351;-11.82613484;-23.99605228;-22.46305268;-5.442809982;-24.27633962;-5.449046904;3.347003916;1.171373018;-0.381179647
11.03142805;5.634449956;3.296862539;-13.75920364;13.60469322;-0.083974194;-5.407274379;-14.81679375;-17.50659486;-18.21750753;-12.96042026;-26.16496735;-20.07360703;-1.271850108;-24.45231798;-6.066470277;4.73220331;-0.651133515;-0.323388218
12.40675034;5.37299343;5.394735448;-13.73916018;16.41188962;0.036553338;-5.622226653;-14.20018791;-17.87280753;-20.94772703;-12.35079915;-25.87416412;-16.467884;2.796383455;-25.61751221;-5.808993151;5.124044957;-1.812532388;-0.273701226
11.431847;4.607509629;5.196799751;-15.58921785;15.67417719;0.333203053;-6.390644149;-12.96747697;-16.61138626;-23.78563429;-9.629856512;-22.61671636;-11.6672736;6.288200295;-26.26683341;-4.639497108;4.466061819;-2.544554889;-0.272839384
8.612604096;3.370515169;3.238233773;-18.5495475;11.6969882;0.63870193;-7.084582476;-10.38218602;-13.10817966;-24.84975615;-5.457421501;-17.06369886;-5.98191584;8.917120224;-23.76951662;-3.208493003;3.124768816;-3.219871792;-0.314374217
5.103206079;1.933890611;0.690507089;-21.21143973;5.886928828;0.842730217;-7.143230206;-6.425815787;-8.117714644;-22.87401037;-1.362574313;-11.12180509;-0.160847122;10.523919;-16.94858542;-2.352726633;1.668927996;-3.759312457;-0.35637831
1.903404567;0.654998777;-1.54817152;-22.77840621;-0.085656625;0.950822021;-6.532910417;-2.139956167;-3.688206417;-18.46314532;1.067825878;-7.108695858;4.705041786;11.01823301;-7.770390102;-2.512441479;0.493663131;-3.764053064;-0.362360068
-0.656921423;-0.257804664;-3.363635865;-23.69074029;-5.088490458;1.032032902;-5.737322077;0.865654907;-1.989380998;-14.02060595;1.139372603;-6.434562573;7.579059679;10.34914657;-0.50355812;-3.47601915;-0.412119765;-3.17378572;-0.332601002
-2.74162312;-0.764001497;-5.119958734;-24.96945225;-8.747665513;1.120536118;-5.317572676;1.478595265;-3.824420144;-12.22952968;-0.50842604;-8.638676416;7.993583498;8.516144075;1.260680997;-4.561955252;-1.347462658;-2.631087808;-0.299109554
-4.376004314;-0.743799269;-6.862124507;-26.88243741;-11.08251672;1.171952672;-5.450800421;-0.045969022;-7.945401459;-14.1549975;-2.290481675;-11.51223045;6.356699572;5.630276529;-2.558021495;-5.031824501;-2.50866861;-2.991983163;-0.29253736
-5.034092683;0.209054707;-7.833890308;-28.27232027;-12.04624786;1.115771534;-5.845574661;-2.115047978;-11.75550384;-18.42275635;-2.647342752;-12.35183034;3.805801472;2.009249384;-8.227881398;-4.424768167;-3.647732829;-4.325837588;-0.314226433
-3.933092286;2.595641424;-6.872545888;-27.3521588;-11.4735809;0.94836897;-6.071384348;-2.796011692;-12.94983098;-22.1440882;-0.948646598;-9.591622593;1.646561352;-1.766868193;-10.89339355;-2.638998413;-4.086444057;-5.396701439;-0.338881705
-0.84162753;6.443375039;-3.441640742;-23.39774611;-9.469798087;0.767853262;-5.969236448;-1.110865579;-10.925457;-22.9042552;2.262764644;-3.748586624;0.701689851;-4.943659689;-8.247828157;0.195644282;-3.117133997;-4.317282404;-0.342328284
3.353229925;10.86172569;1.59531773;-17.80958617;-6.778715416;0.703664382;-5.763371776;2.307729282;-6.964350678;-20.31230382;5.794712315;2.947199441;0.964349057;-6.865438221;-2.250317571;3.8833125;-0.50515029;-0.016571952;-0.325158404
6.966901312;14.28636694;6.248455419;-13.43059298;-4.620611317;0.794691114;-5.795101148;5.6866627;-3.133479189;-15.9934062;8.658512519;7.966835658;1.745908127;-7.325631806;2.567520453;8.221818965;3.286933822;6.681737513;-0.309192184
8.625689141;15.44552963;8.661601021;-12.50306481;-3.965389965;0.927326711;-6.156192589;7.365964204;-0.806352397;-12.16351094;10.61120416;9.961927933;2.179306113;-6.762203414;2.883227266;12.93003906;7.325415987;13.37456604;-0.312284628
8.306605587;14.36353527;8.411075134;-14.9164077;-4.782436558;0.903354418;-6.580670931;6.913869229;0.071363665;-10.01208858;12.03921226;9.332165288;1.731773355;-6.09805257;-0.648479267;17.5263975;10.71043601;17.64448576;-0.32890828
7.387492834;12.49117336;6.764171339;-18.26;-5.943827772;0.598189184;-6.695969173;5.302976879;0.521031854;-9.154041751;13.37852431;7.605923644;0.433552624;-6.240644319;-3.973843001;21.28435965;12.98763368;18.62629369;-0.337149575
7.545127864;11.65069169;5.62138953;-19.70474345;-5.977923149;0.085781009;-6.388696873;4.072338982;1.405827521;-8.422782049;14.62155484;6.217430919;-1.229061651;-7.515814628;-3.132150826;23.36421651;14.19425263;17.2866307;-0.324445368
9.324526409;12.50132407;5.966847532;-18.1701071;-4.151857966;-0.377986136;-5.932382291;4.161288932;2.650751667;-7.145274155;15.34353883;5.631112029;-2.587959411;-9.409702329;2.252156325;23.13095166;14.57676882;15.24542775;-0.303812551
11.5654362;13.79782399;7.108707244;-14.97961071;-1.024850143;-0.514698487;-5.75064614;5.309332281;3.428568692;-5.726648304;15.197804;5.389130615;-3.031975187;-10.82157503;8.468052242;20.54354419;14.2747181;13.27003906;-0.301393182
12.24428934;13.23285901;7.372154952;-12.51016088;2.0127814;-0.213939752;-6.032706774;6.429086587;3.051732973;-5.092081703;14.39466853;4.877052562;-2.14216743;-10.68915397;10.72834001;16.38849632;13.25973506;10.86438711;-0.326620254
10.13865722;9.390841611;5.690676297;-12.06737273;3.887227924;0.384699382;-6.556878973;6.582865827;1.712505238;-5.601411519;13.67337517;4.054104021;0.206056019;-8.58577514;7.227294192;12.12703262;11.56293825;7.336293194;-0.356986649
5.9917933;3.299755307;2.746363475;-12.84661099;4.758905206;0.978461968;-6.884971252;5.74931052;0.397625404;-6.509871471;13.72038932;3.503184752;3.710863169;-4.909590749;0.812892168;9.301051254;9.541670111;3.262704494;-0.357198326
2.183961887;-1.813103424;0.636859436;-12.82486786;5.935038673;1.293925705;-6.748606855;4.789453484;0.073978403;-6.513508957;14.50897897;3.797125296;7.55869581;-0.578982931;-3.226092624;8.746608784;7.874511897;0.751048418;-0.317155988
1.079437529;-2.634968213;1.259956327;-10.69267819;8.787655988;1.249439033;-6.275172495;4.70123169;0.897421407;-4.900478767;15.17385054;4.795821896;10.56903847;3.508372603;-1.494991815;10.0951103;7.19389738;1.902734472;-0.269906077
3.286451476;1.712856224;4.705765371;-7.040078125;13.49493782;0.981424353;-5.853532595;5.818736865;2.159306871;-2.257277327;14.6350201;5.562793982;11.66689232;6.863180098;4.659356366;11.97379162;7.592805995;6.619922699;-0.265808101
7.169711705;8.705305101;8.996657378;-3.749979263;18.59847309;0.730959639;-5.772230739;7.612516204;3.002847198;-0.064216341;12.5486443;5.061076501;10.51753702;9.416009395;10.22437665;12.90023323;8.402943979;11.7956388;-0.32198002
9.996299808;13.89884271;11.44632377;-2.233747676;21.76154287;0.681495065;-5.966799105;9.206303858;3.236440419;0.494651599;9.818054507;3.102344902;7.923716299;11.24392877;10.6955691;12.3420435;8.487726151;13.03515218;-0.395758392
9.840306354;13.92375733;10.59175607;-2.216687789;21.20247486;0.8586659;-6.103434665;10.11534462;3.479606632;-0.524459252;8.166082154;0.755574004;5.61449202;12.30632327;5.899984015;11.18584412;6.92370397;7.955197324;-0.414807223
6.816975797;8.818865466;7.177115618;-2.249502378;16.77763613;1.144842678;-5.910951843;10.54728426;4.483538363;-1.94975022;8.979130783;-0.195368614;5.399853626;12.42424956;0.262997057;11.18145224;3.634809464;-1.465301352;-0.344339334
2.782477852;1.960169925;3.43424408;-1.464474376;9.976574372;1.377055916;-5.446188591;11.01707568;6.231765096;-2.571377429;12.23676876;1.579712349;8.116984242;11.49082344;-0.749559803;13.6451078;-0.463591395;-9.601056628;-0.231036644
-0.16228756;-2.387472712;1.279721339;-0.845097359;2.914961279;1.449589691;-5.046776186;11.65169826;7.662227397;-2.219205642;16.34509004;5.992462334;13.0189898;9.69078512;4.904017467;18.31157202;-3.93857085;-10.82201101;-0.175942319
-1.153243237;-2.084445845;0.900614815;-2.630721269;-2.886579401;1.35702705;-5.019691086;11.85564963;7.338072893;-1.890399885;19.0621174;11.4811851;18.050235;7.510905439;14.14801776;23.22094635;-5.640538632;-3.537469295;-0.249693621
-0.934714174;1.522689913;0.841466682;-8.179099384;-7.091074802;1.166858483;-5.357925702;10.7086169;4.5691143;-2.813792315;18.90359964;15.91857908;20.91285518;5.519036527;21.24136715;25.83917894;-5.316739218;8.421416208;-0.420048828
-0.969435324;4.835914004;-0.54733423;-16.1438995;-10.22747868;0.958202685;-5.746920467;7.814052144;0.065145692;-5.275238292;16.05472209;17.85303279;20.30916831;4.092269472;22.318789;24.70679053;-3.653465867;18.27826086;-0.559144407
-2.110160963;4.818342624;-3.540718414;-22.758058;-12.89691445;0.774703801;-5.850929666;3.866648389;-4.444027241;-8.248023863;12.16373547;17.25052346;16.60649623;3.304379232;18.28113039;20.47037476;-1.753115789;20.94324983;-0.532266107
-3.904550932;1.233212581;-6.649143323;-24.30308877;-15.211873;0.61710524;-5.612424029;0.365531852;-7.353770288;-10.18545388;9.191215823;15.29994159;11.52437664;3.025147674;13.73906618;15.5438096;-0.425158726;16.42247179;-0.296642014
-5.005878633;-3.316256164;-7.712510416;-19.92398746;-16.8626531;0.468205556;-5.291466236;-1.421934527;-8.214142117;-10.33212442;8.13879896;13.51242392;7.06279588;3.094894061;13.02723339;12.60965616;0.231459291;9.520808137;0.074683007
-4.267207117;-5.453970349;-5.58;-12.50130829;-17.61695041;0.323470232;-5.216755813;-1.479230105;-7.873066751;-9.449938787;8.520360995;12.786349;4.364303051;3.394055891;16.68300075;12.99223434;0.709522665;6.140259746;0.465078636
-1.627155734;-3.558189686;-1.043011735;-6.766710064;-17.70434168;0.202876038;-5.484404512;-1.189398758;-7.682174824;-9.318299131;8.87413815;13.03846231;3.22062545;3.764943161;21.26399019;15.99555526;1.579594202;8.992716023;0.816940406
1.844804621;1.133338252;3.674828893;-6.045148768;-17.68786047;0.136842734;-5.88056282;-2.370866685;-8.432645284;-11.35886178;7.888238799;13.53225685;2.491080601;3.922252679;22.48012618;19.5684561;2.984970775;15.87053922;1.168544752
4.685404048;5.552376466;6.429341088;-10.09360872;-17.91425646;0.138395645;-6.088953177;-5.828767014;-9.83096246;-15.43536128;5.342680024;13.54966935;1.09611004;3.528229873;18.8467678;21.71125016;4.512325486;21.57457985;1.587848684
5.961022615;7.075020224;6.518993643;-15.58948529;-18.03096256;0.183878393;-5.98;-10.50540267;-10.82806721;-19.74003906;2.271444599;12.88920422;-1.115635857;2.454134749;12.7537249;21.5939035;5.51104314;21.84690447;2.064955529
5.762270384;5.337667973;4.974190465;-18.70003906;-17.03341391;0.219991941;-5.710866857;-13.9620914;-10.44106343;-21.85146187;0.310825264;11.88993434;-3.220202026;1.035228947;8.172327339;19.70852245;5.606201874;16.31797855;2.472801863
5.055956187;2.374505373;3.727237905;-17.61846037;-13.8936554;0.197265857;-5.552147539;-13.9810915;-8.40984252;-20.21198264;0.703630005;11.05868335;-3.884749474;0.058261301;7.126687639;17.1813162;5.021608306;8.46342228;2.651124895
5.112433912;1.14808276;4.392873235;-13.20989859;-8.360720021;0.109000457;-5.616908443;-10.22142137;-5.288196281;-15.04823393;3.564284676;10.62888591;-2.385382033;0.39019018;8.043293779;14.94812018;4.478999776;2.935568152;2.553008997
6.881558373;3.619756062;7.491091818;-7.631885933;-1.373143513;0.005195377;-5.754837548;-4.74161359;-2.073682945;-8.229632609;7.770155595;10.36233149;0.728513758;2.446803428;7.376677292;13.42303653;4.744728676;2.471265101;2.319917417
10.57184424;9.641737758;12.42808327;-2.431924304;5.217334092;-0.036187037;-5.71098634;-0.937930797;0.231967884;-2.286836226;11.45845667;9.690552706;3.798478076;5.869878932;3.029852422;12.7137357;6.132490543;6.559002261;2.195606864
15.51189295;17.21034085;17.95711131;2.186353791;9.455407669;0.032629515;-5.392490184;-1.533033477;0.863356735;0.751629404;12.82699632;8.065320315;4.975346826;9.67072149;-3.459157219;12.92378932;8.282039981;12.42891296;2.325911875
20.30455886;23.67491479;22.6608088;6.525276191;10.14732474;0.182703794;-4.982193952;-6.916834023;-0.617548414;0.114335247;10.86698295;5.29050855;3.314039114;12.76983576;-7.914018484;14.0924612;10.33321695;17.17076025;2.606011939
23.28133331;27.02852468;25.25666476;10.08833079;7.314125915;0.314563852;-4.783538943;-14.91295327;-4.186380924;-3.585160887;5.750078125;1.660384587;-0.653474111;14.56617497;-6.916557406;15.80698577;11.36052858;19.25917364;2.721868232
23.18217211;26.6025679;24.84638601;11.27668097;2.05507752;0.323801016;-4.938035568;-22.08519603;-9.155551982;-8.736081359;-1.247484861;-2.142162014;-5.222145016;15.14227065;-0.783149556;16.98348645;10.80017808;18.6627096;2.384579066
19.79627394;23.02283133;21.24321822;8.513225573;-4.015115032;0.185465509;-5.281594084;-25.6887063;-14.15225171;-13.40262643;-8.234572907;-5.316859744;-8.477231007;14.98427263;6.34382444;16.26915433;8.65344182;16.0405966;1.589455935
14.17374344;17.69687028;15.23840422;1.793853781;-9.41233727;-0.006363709;-5.479976712;-25.00899981;-17.53614348;-16.0590662;-13.41222593;-7.255833957;-9.289188328;14.4611513;9.373188477;12.96;5.415095156;12.09591619;0.687845806
8.166155982;12.18230831;8.468291579;-6.814824261;-13.21666251;-0.082954407;-5.323995776;-21.33712149;-18.1844572;-16.16282087;-15.71210332;-7.761598306;-7.740993646;13.48110542;5.824895613;7.748481603;1.821994943;7.610818243;0.18866199
3.471931068;7.654616958;2.725344018;-14.31522034;-15.183198;0.090778685;-4.914910156;-16.79909718;-16.16892732;-14.32385472;-15.10529019;-7.092444579;-4.820087891;11.59042354;-2.638986718;2.578668547;-1.436287337;3.742079183;0.415752225
0.761111451;4.579561431;-0.969214873;-18.69474081;-15.59982049;0.514817806;-4.570564403;-12.98475454;-12.78610295;-11.93;-12.480476;-5.83446277;-1.715396172;8.422151152;-11.67879474;-0.484212642;-3.940217307;1.80909259;1.270818887
-0.522939904;2.678264242;-2.883292939;-20.06955179;-15.04200715;1.03199405;-4.540029297;-10.31439869;-9.818794983;-10.36883991;-9.209271909;-4.677863602;0.728987295;4.121011567;-17.34999859;-0.645583018;-5.644744187;2.401403767;2.284682098
-1.533153705;1.243750613;-4.22436657;-20.177734;-14.15048049;1.406120421;-4.789416006;-8.41210691;-8.497550083;-10.28618238;-6.652036954;-4.209477818;2.076101208;-0.612821565;-18.3681585;1.008322911;-6.840691732;4.545089223;2.92739482
-3.018047909;-0.285404239;-6.101684722;-20.74864291;-13.48180365;1.452680936;-5.051834516;-6.97;-8.892019349;-11.36311454;-5.815543614;-4.799102472;2.003848609;-4.919328095;-16.12506818;2.217608846;-7.969786311;5.923986214;2.953392433
-4.700385552;-1.80380225;-8.55736821;-22.16587129;-13.41713802;1.13968464;-5.087641586;-6.283223784;-10.13948367;-12.75047477;-7.202584372;-6.579174374;0.089594578;-8.324586519;-12.96724732;1.127204742;-9.346543634;4.37584464;2.533426559
-5.499843435;-2.447120319;-10.42875776;-23.47096766;-14.09489047;0.599181987;-4.906811755;-7.003860065;-11.25927411;-13.80153409;-10.75509623;-9.459377038;-4.003732706;-11.02329275;-10.46669985;-2.401064798;-10.92288471;-0.308091692;2.089065072
-4.409974892;-1.082235533;-10.18283696;-23.52;-15.3582258;0.050526674;-4.745712362;-9.369995982;-11.85999871;-14.50117862;-15.81486168;-13.13077206;-10.03984323;-13.67814399;-9.00946607;-6.716467954;-12.26464815;-5.76797935;1.968610739
-1.335763362;2.876901366;-7.099324931;-22.13826815;-16.74977311;-0.311009818;-4.824426785;-12.63146535;-12.19713288;-15.25229398;-21.17183007;-17.081878;-16.8876119;-16.87929909;-8.593258927;-9.603713362;-12.81769066;-8.392650285;2.212333149
2.751241534;8.87173885;-1.898224691;-20.24590054;-17.60323479;-0.396344029;-5.118459955;-15.24734985;-12.64204942;-16.25497063;-25.3572952;-20.69492095;-22.79848168;-20.66135158;-9.659567851;-9.891478405;-12.34297713;-5.818303491;2.570819682
6.428714625;15.27297484;3.654764391;-18.95291759;-17.24817011;-0.241569322;-5.364934453;-15.79778658;-13.14139131;-17.10092719;-27.21647673;-23.44785743;-26.25940605;-24.42929596;-12.98127805;-8.25931362;-11.2291479;1.190029297;2.737257225
8.702123997;20.1391617;7.835646161;-18.55737088;-15.27077187;0.029476226;-5.301640607;-13.94732257;-13.21753955;-17.03074356;-26.51658005;-25.1358401;-26.87695125;-27.33717193;-18.73682653;-6.678313867;-10.40641047;8.954582538;2.595721959
9.479399448;22.20067345;9.908584095;-18.3896071;-11.71138116;0.2701032;-4.9160396;-10.70924284;-12.5188901;-15.68359037;-24.16363716;-25.94925906;-25.61293607;-28.82837383;-25.77997448;-6.94273195;-10.82796452;13.16727195;2.292846093
9.353179287;21.45636665;10.27506492;-17.58571296;-7.087574472;0.375130835;-4.468736479;-7.769884368;-11.37276582;-13.65364224;-21.74880033;-26.30410736;-24.10877383;-28.93603899;-31.93937517;-9.387594176;-12.80931418;11.6578789;2.094115963
8.968867223;19.04282358;9.842844644;-15.99855115;-2.223663569;0.32574036;-4.264899945;-6.345683825;-10.74390757;-12.25359981;-20.59610622;-26.50280698;-23.51874689;-28.13409501;-35.19168848;-12.68496044;-15.6768466;5.693364994;2.157897195
8.534064589;16.51759684;9.220753021;-14.38095409;2.013951775;0.199792772;-4.38283761;-6.406749963;-11.52381569;-12.55490253;-20.91449052;-26.47031535;-23.6872966;-26.87516462;-34.74074961;-14.77496637;-18.02047074;-1.053358722;2.414205657
7.816460608;15.03530681;8.382390175;-13.7247667;4.924199385;0.135772389;-4.610865794;-6.82591846;-13.71215908;-14.46095893;-21.68472107;-25.80056978;-23.2955782;-25.18885854;-31.16674223;-14.18634236;-18.44914585;-5.023927773;2.637495966
6.514379052;14.88032028;6.95637566;-14.45373127;6.035245057;0.25468643;-4.651478845;-6.31335629;-16.22016754;-16.6394769;-21.43485997;-24.12946099;-20.89501723;-22.66560446;-25.70365168;-10.82079765;-16.38879258;-4.936757813;2.641393119
4.592816285;15.52521606;4.757175383;-16.25796952;5.07275287;0.574297985;-4.403700848;-4.413354764;-17.54618367;-17.46817422;-19.39185567;-21.57409953;-16.07353303;-18.85479056;-19.45804476;-5.779137823;-12.41092654;-2.153273174;2.430412463
2.290455697;16.06287439;2.035576929;-18.65917925;1.964776012;0.971679301;-4.061232473;-1.816754138;-16.83868712;-16.27510823;-16.16162578;-18.87478035;-9.888900695;-13.78423413;-13.27577116;-0.536501406;-7.889181058;0.764763965;2.188224332
-0.131611522;15.71904783;-0.731867729;-21.62045109;-3.037841725;1.234747181;-3.934265679;0.214762031;-14.50574032;-13.84515547;-13.39063661;-17.06208678;-4.249353273;-8.201824825;-8.152553901;3.841705939;-4.230489256;2.026485287;2.119841831
-2.579387328;14.21167355;-3.237403175;-25.45256408;-9.20484187;1.187742977;-4.159022565;0.837646587;-11.87283346;-11.73313198;-12.61138415;-16.83091576;-0.706096629;-3.330605988;-5.430191577;6.944491573;-2.191051705;1.625496331;2.281547556
-5.030961801;11.85983188;-5.497499337;-30.01123707;-15.33192365;0.814939547;-4.563627859;0.262390839;-10.15651862;-10.92689161;-14.1079051;-18.0589566;0.457671159;-0.277114122;-6.220871425;8.746986276;-1.681431753;0.832622645;2.536677107
-7.262261715;9.44481831;-7.61972378;-34.01015463;-20.05053143;0.292467173;-4.814956027;-0.426608259;-9.568866777;-10.98708574;-16.65204088;-19.83996168;0.213128295;0.516016389;-10.38631377;9.246291088;-2.089721332;0.830465625;2.669905387
-8.719208527;7.878786842;-9.436035572;-35.34013227;-22.36;-0.107363524;-4.712160255;-0.090280426;-9.243769782;-10.425029;-18.3252427;-21.03911891;-0.067871538;-0.587264661;-16.06927409;8.386740198;-2.801808629;1.708259094;2.56518678
-8.74621463;7.795692791;-10.39742392;-32.42788872;-22.07723252;-0.184252928;-4.358436545;1.653652636;-7.99722699;-8.041231218;-17.83466696;-20.98795214;0.382956302;-2.749205683;-20.48348509;6.303263042;-3.525798999;2.572893427;2.303403585
-7.032369625;9.250345687;-9.873510113;-25.62556148;-19.88095038;0.062686593;-4.056611405;4.223624226;-5.276496838;-4.105629794;-15.37331603;-19.82401384;1.310705582;-5.201715454;-21.58045588;3.582215091;-4.250815108;2.534456221;2.100698973
-3.893107163;11.7146054;-7.608366499;-17.38172724;-16.87880242;0.438020159;-4.029454568;6.569100256;-1.553187762;-0.347057971;-12.42790535;-18.24155555;1.831836023;-7.601373853;-19.31381719;1.219527291;-4.977995629;1.640505367;2.134536773
-0.11518222;14.41816847;-3.929408626;-10.8280242;-13.96867121;0.680982344;-4.225041437;7.931325541;2.080514096;1.311104627;-10.71667284;-16.85787544;1.247568405;-9.961672988;-15.41556479;0.231759535;-5.504741523;0.968370822;2.394020974
3.528053968;16.84213463;0.464921557;-7.733418298;-11.43738739;0.630377193;-4.384180857;8.278897697;4.701928348;0.279444056;-11.0426838;-15.68166865;-0.37804867;-12.26720186;-11.81820716;1.181478507;-5.439195083;1.84027907;2.675684482
6.683835363;19.01717476;4.92372503;-7.396717441;-9.068949575;0.309647711;-4.300257534;8.138378447;6.070752382;-2.147043837;-12.84464959;-14.08396255;-2.268741862;-14.13080211;-9.057542278;3.949669683;-4.400295729;4.833422844;2.736544602
9.409492257;21.37385749;9.078718299;-7.381720492;-6.635275324;-0.116061568;-4.02263739;8.033905974;6.51565513;-3.692410099;-14.67382634;-11.29341942;-3.493292769;-14.82986464;-6.063795336;7.883732829;-2.224815729;9.36;2.49337419
11.79085263;24.22100137;12.71331735;-5.550937037;-4.325807453;-0.462928886;-3.809972319;8.023833331;6.406266527;-2.777512999;-15.18143599;-7.057400395;-3.564305826;-13.76211096;-1.551941904;12.16392124;0.94970655;14.0758111;2.112864553
13.5901941;27.25013882;15.47098136;-1.809486806;-2.709029406;-0.633819648;-3.877002165;7.685493888;5.732252756;0.308136171;-13.93440162;-2.003711769;-2.67158162;-11.01090975;4.231308923;16.10516537;4.713946991;17.71675801;1.908872818
14.30897998;29.49971161;16.79445217;1.803292181;-2.205083657;-0.639196937;-4.175301939;6.504939871;4.138602158;3.598765243;-11.60865655;2.540303186;-1.481224042;-7.57213731;9.053212468;19.2268701;8.438368238;19.69713703;2.104259556
13.66082102;29.88777926;16.27434122;2.726990205;-2.487682024;-0.544171266;-4.419810143;4.319074332;1.318841189;4.801738447;-9.575912553;5.150424113;-0.732421793;-4.988447926;10.12075736;21.15249516;11.31805222;20.09066637;2.625800148
12.03221189;27.96619779;14.15562244;-0.073333138;-2.362554149;-0.406428832;-4.344128984;1.467318242;-2.631798427;2.763727342;-9.22795597;4.963750525;-0.911016712;-4.541377062;6.32026254;21.53676303;12.49037859;19.1617466;3.095672883
10.45418997;24.33025728;11.50981983;-5.188573259;-0.35531873;-0.25827099;-3.951199932;-1.4143442;-7.209674446;-1.958747348;-11.40047446;2.038514236;-2.117893348;-6.485394912;-0.601337374;20.15738237;11.31107767;16.95047843;3.05421061
9.995302041;20.33773372;9.784317312;-9.620941839;4.298030392;-0.128954685;-3.52467174;-3.745553128;-11.79939562;-7.661220401;-16.0786558;-2.727103287;-4.090078125;-9.827770585;-7.003466647;17.12373225;7.726981097;13.29472144;2.278951118
10.99496889;17.30116794;9.946382358;-10.72796688;10.91921559;-0.060788061;-3.383853207;-5.233623005;-15.97314211;-12.59403626;-22.40705952;-8.019748387;-6.313422059;-12.83408105;-9.814774687;13.01608071;2.506126208;8.239878214;0.976877963
12.7413266;15.72113839;11.81979993;-7.865040359;17.46060824;-0.085332766;-3.601804815;-5.8884669;-19.54924672;-15.77890696;-28.97799467;-12.64891257;-8.230594035;-13.98012956;-8.605821838;8.790438851;-2.928581025;2.424023703;-0.304732143
13.8813726;15.10286951;14.12562895;-2.701588121;21.41236887;-0.178560338;-3.942859724;-5.921603213;-22.44045368;-17.13959371;-34.34935996;-15.96614361;-9.540389502;-12.78188002;-5.700780783;5.441549986;-7.091285529;-2.972215049;-1.012295235
13.2861089;14.46068492;15.23563432;1.808242621;21.02330468;-0.249299919;-4.07721459;-5.668878776;-24.51820324;-17.15264782;-37.63732969;-18.01087931;-10.45133569;-10.00814557;-4.338403103;3.584670263;-9.156830355;-6.769420501;-0.945012192
10.74675875;13.11013672;14.12974511;3.005801814;16.12041212;-0.192876139;-3.877792413;-5.55204555;-25.65127939;-16.46804368;-38.88846708;-19.33669783;-11.64152204;-7.166847239;-6.395046719;3.179847938;-9.362495702;-8.471311502;-0.383106231
7.029766455;11.16649894;10.9269595;-0.246816734;8.091643721;0.021776434;-3.53;-5.9764188;-25.84518813;-15.72256499;-38.94640624;-20.59742978;-13.78630196;-5.601119458;-11.37772881;3.553271734;-8.7995678;-8.578671751;0.118614871
3.32503351;9.430388025;6.705488234;-7.154985776;-0.871938857;0.306889572;-3.356726068;-7.107787007;-25.28007813;-15.42530042;-38.80664887;-22.09714481;-16.86132202;-5.751895833;-17.21405009;3.725285496;-8.705058968;-8.259135696;0.134181457
0.553641356;8.812624601;2.836317663;-15.35705223;-8.769976455;0.503836962;-3.520786042;-8.653596885;-24.1674665;-15.74135761;-38.85707144;-23.56646757;-19.74837897;-7.010297381;-21.90192536;2.912776782;-9.705136649;-8.54379711;-0.324515554
-0.979814755;9.75381995;0.321291721;-21.82537895;-14.47756836;0.497845471;-3.877605371;-9.891501245;-22.58520592;-16.26945207;-38.58825469;-24.33897417;-20.62257309;-8.198815039;-24.58328631;0.987771589;-11.48564548;-9.569601057;-0.825939414
-1.463351292;12.02249445;-0.505295049;-24.0558521;-17.86376155;0.309107011;-4.11051518;-10.06804096;-20.5279314;-16.14077168;-37.08158416;-23.86209819;-18.08952758;-8.339475672;-25.38192518;-1.331737262;-13.05467322;-10.38971193;-0.857466202
-1.240636793;14.94020338;0.10467702;-21.22153047;-19.45297998;0.081105078;-4.021603177;-8.977747689;-18.19696966;-14.60681301;-33.97463815;-22.21956753;-12.39453654;-7.22457296;-24.56231983;-2.696399245;-13.35860264;-9.52054196;-0.231707036
-0.600868293;17.78421198;1.559934979;-14.7761409;-19.93963242;-0.03029661;-3.709823397;-7.29204735;-16.24216226;-11.79663296;-30.13561066;-20.26989406;-5.777431265;-5.469537255;-22.07335373;-1.710980507;-11.81861042;-5.910451557;0.752059269
0.205340381;20.07613777;3.160506239;-7.986961179;-19.83147419;0.021574159;-3.474315232;-6.295916852;-15.59682271;-8.982559801;-27.39460023;-19.22588577;-1.503062727;-4.070861186;-17.94146913;2.347230412;-8.489972102;0.280519404;1.522090001
0.903910043;21.64622865;4.297765469;-4.344786703;-19.33129669;0.14239686;-3.534727172;-7.106783775;-16.86651275;-7.929812677;-27.37920909;-19.89977605;-2.017822193;-3.787842129;-12.95344718;9.038859884;-3.867247131;7.60331487;1.663713729
1.292960334;22.5559503;4.673669471;-5.591626896;-18.41782568;0.180593311;-3.82767888;-9.888941373;-19.70150216;-9.639531758;-30.26830632;-22.12808678;-7.399986207;-4.738486581;-8.683294931;16.79874681;1.40773945;14.01532034;1.230334615
1.456800476;22.99691555;4.474127484;-10.61069033;-17.02370482;0.054500297;-4.066444018;-13.66;-22.7505929;-13.42159825;-34.46229327;-24.81978015;-15.19294603;-6.425410694;-6.574862639;23.53107795;6.698123243;17.91237442;0.688807147
1.826320086;23.18652378;4.304523435;-16.06462091;-15.20420207;-0.18473775;-4.007573388;-16.89199077;-24.4181667;-17.13540461;-37.54242066;-26.64895023;-21.81448994;-8.119224633;-6.839911289;27.47042739;11.3567478;18.834225;0.538465294
2.878234392;23.21304546;4.779714306;-18.51614016;-13.20019189;-0.40416609;-3.678173408;-18.51023892;-23.97087834;-18.57693052;-37.89361757;-26.93447229;-24.64240664;-9.314939426;-8.289451636;27.84558963;14.69940179;17.40525078;0.904912508
4.618351748;22.85353399;5.965770283;-16.62864271;-11.32819675;-0.503264218;-3.354707329;-18.56216523;-22.14042977;-17.02875331;-35.78997553;-26.08369139;-23.39800225;-9.966106974;-9.436429936;25.0073559;16.11727988;14.61211241;1.434965437
6.307060411;21.52222451;7.12654448;-11.87221698;-9.715102815;-0.487700372;-3.31261225;-18.0523955;-20.65723005;-13.75886139;-33.09670015;-25.27402481;-19.95647964;-10.37865035;-9.960172411;20.03230069;15.31243671;10.99868713;1.581440101
6.80803448;18.51949112;7.122589315;-7.213626388;-8.025925246;-0.439892492;-3.575184533;-18.0732389;-20.97198199;-11.02584016;-31.79671857;-25.59679905;-16.8344361;-10.88052732;-11.11323226;14.14333654;12.48599056;6.416352081;1.052634525
5.453783719;13.55059296;5.320399365;-4.799730891;-5.416990437;-0.420757987;-3.889479362;-18.90794651;-23.1260518;-10.3409176;-32.48172922;-27.27641848;-15.50246205;-11.51799584;-14.48148347;8.347275666;8.31724084;0.534619125;0.064929869
2.80619322;7.202252581;2.360984799;-4.438237968;-0.873270532;-0.401024952;-3.949634441;-19.80847203;-25.69562428;-11.3656917;-33.99423119;-29.50869601;-15.69022514;-11.98510069;-20.03882933;3.438509896;3.73;-6.30393875;-0.808016628
0.624709382;0.969786505;0.084824568;-4.054497533;6.152404815;-0.292004481;-3.66534743;-19.62023911;-26.92043617;-12.33187405;-34.5014333;-30.99485494;-16.02256642;-11.81459071;-25.28681192;0.169615312;-0.401988144;-12.63353485;-1.071684396
0.880993072;-3.329481079;0.467703246;-1.718026632;15.14377975;-0.049968754;-3.237022543;-17.76010216;-26.16198837;-11.63106925;-33.13236235;-30.74981444;-15.32003906;-10.67680531;-26.55048364;-0.75303538;-3.44573588;-16.32278481;-0.683920819
4.410486763;-4.4757932;4.215369448;2.442431616;24.38741713;0.246677447;-2.977711478;-14.77894442;-24.51776385;-9.25779291;-30.84133591;-28.61267494;-13.48596103;-8.572532218;-21.69387728;1.007126856;-5.055317288;-15.76086142;-0.067754677
10.16193016;-2.519055574;10.04971056;6.035627817;31.49536098;0.431031884;-3.048344808;-12.07053357;-24.04652915;-6.907979236;-29.7641626;-25.17188377;-11.3502149;-5.799599872;-12.14081711;5.003082974;-5.159283767;-10.97798146;0.240400608
15.65068464;1.259914644;15.31351259;6.134251443;34.37470114;0.377732416;-3.341347017;-10.95157343;-26.15747123;-6.645816915;-31.53589388;-21.27948925;-9.734650708;-2.744348019;-2.407432919;9.935548394;-3.974275484;-3.852429767;0.0164879
18.37003906;5.08226631;17.56917823;1.587158726;32.12611754;0.122433642;-3.602820422;-11.80464676;-30.40060496;-9.22816327;-35.88114696;-17.59154814;-8.609246106;0.329576726;2.759594125;14.17597929;-2.016190511;2.845637593;-0.497096502
17.21210487;7.599154723;16.0925419;-5.902772477;25.37293034;-0.138355937;-3.665393196;-13.89090143;-34.60613495;-13.44087854;-40.59653664;-14.45235771;-7.072370321;3.336890158;1.590419839;16.65072869;0.007641065;6.989462615;-0.825731891
12.94538716;8.410039063;12.19807723;-12.77851337;15.87017428;-0.180868058;-3.574134539;-15.90092474;-36.28424809;-16.95235794;-42.97311281;-12.08442558;-4.168532034;6.24522028;-3.587223541;17.47691995;1.480496268;8.182280826;-0.679806524
7.495299702;7.914171481;8.185139944;-15.93508224;5.677788611;0.078282965;-3.502299902;-16.77105188;-34.24488121;-17.95825345;-41.60487602;-10.78109265;0.137230797;8.889899828;-8.180283355;17.81719645;2.207293779;7.669277641;-0.201656558
2.631280716;6.747085091;5.716104684;-14.60840216;-3.599344381;0.51330479;-3.556391452;-16.16879421;-29.27654821;-16.30742794;-37.25624218;-10.84335866;4.632627581;10.89976695;-8.702464121;18.96164333;2.543462315;7.189475367;0.163621256
-0.975036681;5.309335488;4.828546688;-10.54573606;-11.13147978;0.875626114;-3.667916586;-14.39745371;-23.49144748;-13.31246851;-32.2048159;-12.28884992;7.472802758;11.82018342;-5.118615497;21.26053093;3.156353616;7.635873668;0.061361134
-3.73515718;3.711592075;4.246152002;-6.532272924;-16.71928961;0.968729733;-3.674467458;-11.95563752;-18.94701387;-10.56895883;-28.62694986;-14.61333142;7.315737183;11.36561482;-0.47802074;23.7190989;4.527101666;8.492823866;-0.449735359
-6.361156667;2.035886811;2.630406048;-4.530953611;-20.45095032;0.777350586;-3.502389975;-9.201762378;-16.5933362;-8.86134031;-27.25502812;-16.87387998;4.189618176;9.626743225;1.683770274;24.62398955;6.545999909;8.400790975;-0.920580588
-9.045603053;0.539709056;-0.272750667;-4.786670023;-22.46585216;0.458818561;-3.263064467;-6.374867627;-16.18654027;-8.013466237;-27.2346167;-18.10260167;-0.47675029;7.076510881;0.025765575;22.79681524;8.539819602;6.344987024;-0.867229424
-11.25018283;-0.456434189;-3.465255584;-6.306250792;-22.93856437;0.21604416;-3.160651282;-3.834523485;-16.97350047;-7.613753263;-27.14068076;-17.78401095;-4.636074068;4.352395806;-3.860248548;18.55646386;9.760629642;2.52918528;-0.168153418
-12.17503713;-0.886654631;-5.537384336;-8.021443547;-22.17239785;0.158490541;-3.29655941;-2.170679862;-18.41584183;-7.770331913;-26.25815918;-16.07455871;-6.681607132;1.943792731;-6.983317549;13.64393979;9.985296751;-1.70943049;0.822855044
-11.42801216;-1.093716753;-5.746762711;-9.566684494;-20.62060286;0.25208907;-3.562060507;-1.977798711;-20.37395857;-9.106750239;-25.12682872;-13.64389881;-6.15093035;-0.022127834;-7.298370088;10.12351643;9.7384812;-4.826529999;1.540300646
-9.320555115;-1.57058022;-4.453271034;-11.14371567;-18.75981894;0.376108884;-3.730282023;-3.432840892;-22.77894267;-11.99561499;-25.00419854;-11.29087519;-3.753074909;-1.767210927;-4.962670587;9.049777027;9.904931847;-6.099481;1.632403957
-6.600324032;-2.443616077;-2.638380937;-12.81579682;-16.89413886;0.421750002;-3.666815554;-6.034664404;-25.28485425;-15.79405236;-26.74899932;-9.606502031;-0.837557113;-3.63912269;-1.731789444;9.874872791;10.97340853;-6.004400597;1.207407729
-3.912748423;-3.160582064;-1.012587785;-14.00367162;-15.02303576;0.35162256;-3.458822871;-8.753837443;-27.31818245;-18.88309931;-30.01797609;-8.850500527;1.306472513;-5.82491912;0.675866515;11.00804767;12.48799188;-5.739997739;0.71387687
-1.451771576;-2.743746607;0.502956849;-13.65648334;-12.83621406;0.19233184;-3.334063007;-10.51104515;-28.46570803;-19.59602915;-33.36055125;-9.005885657;1.947563955;-8.179747341;1.725020658;11.06275902;13.18995892;-6.343914674;0.568610705
0.981860609;-0.500610905;2.539713362;-10.9152682;-9.802500011;-0.004852911;-3.440406482;-10.64964804;-28.76962593;-17.30960662;-35.09579624;-9.868264188;1.038152746;-10.2698315;1.889126611;9.822246165;11.84895436;-8.081835026;0.842247474
3.678765196;3.354191095;5.598455127;-5.691472697;-5.304791627;-0.186455485;-3.694837414;-9.109778468;-28.59742095;-12.80482398;-34.31909051;-11.0856387;-0.974431161;-11.59464864;1.634074752;8.21579269;8.248879754;-10.47731538;1.248339365
6.802900946;7.71617916;9.582197604;1.259786013;1.164918225;-0.292503438;-3.852807945;-6.287156769;-28.2088987;-7.625675416;-31.37156592;-12.192487;-3.470868995;-11.84734715;0.73797252;7.407133074;3.613548761;-12.80382677;1.420555939
10.41074467;11.31697415;13.94130722;8.720301929;9.707027639;-0.257955925;-3.742369942;-2.800964137;-27.48211754;-3.009870986;-27.5449467;-12.72416339;-5.9266628;-11.05468029;-1.357406335;7.797512406;0.088275132;-14.54557788;1.228680208
14.56074575;13.63849545;18.21933076;15.4770292;19.66206398;-0.04892693;-3.444786443;0.616004639;-26.12343096;0.719810114;-24.31092835;-12.40509671;-8.005161279;-9.51365829;-4.58261413;8.775973791;-0.473404838;-15.47417981;0.869111705
19.25902154;15.29402478;22.41258789;20.59245777;29.41952032;0.284258544;-3.241904198;3.117436702;-24.18686682;3.889227457;-22.59812709;-11.2815268;-9.472392552;-7.56576727;-7.730499734;9.396224176;2.332535571;-15.40465181;0.670917133
24.18815314;17.53749767;26.75418932;23.48941994;36.6643072;0.594113665;-3.362870575;3.835923022;-22.35506045;6.723131274;-22.49787794;-9.664415591;-10.04253066;-5.350598808;-9.038666668;9.369426198;7.124448242;-13.99305447;0.801283759
28.47311038;21.24036477;31.1118157;24.02206449;39.15454712;0.702310428;-3.755768583;2.207400086;-21.5876001;8.898847456;-23.44173469;-7.89349304;-9.31876764;-2.700572043;-7.429645576;9.490645929;11.48793085;-10.86553566;1.128606544
30.82540075;26.10440913;34.60527704;22.57840705;35.75468542;0.51638176;-4.100924018;-1.60831957;-22.32947952;9.831802872;-24.62096894;-6.101443417;-6.939109577;0.739234704;-3.294463458;11.08769864;13.38932559;-6.017756002;1.352688332
30.13936523;30.70834747;35.90624359;20.04454743;27.15238042;0.110419316;-4.071301446;-6.56459609;-23.95985439;9.369978238;-25.35973009;-4.177957377;-2.877393487;5.21917348;1.917972472;14.90407138;12.37967975;-0.127739347;1.276386379
26.1978089;33.35085841;34.08795627;17.46077189;15.74176079;-0.304035428;-3.619075611;-11.08510754;-25.0590619;8.150894876;-25.2789838;-1.965550847;2.312560587;10.59241504;6.94665572;20.32071404;9.825731895;5.548196283;0.97616597
19.95492773;33.06146828;29.37139058;15.4779538;4.606519249;-0.508906947;-3.033675375;-13.82536791;-24.40529458;7.185767612;-24.26533097;0.494538666;7.547127474;16.21540024;11.64847759;25.57561604;8.006480055;9.703903195;0.726120373
13.11389668;30.06532827;23.14044135;14.00701144;-3.882845446;-0.419680779;-2.712156679;-14.36305497;-21.94137094;6.993237582;-22.36721222;2.904875765;11.62290388;21.13470052;16.73433492;28.85487996;8.639896021;11.60468861;0.749764427
7.241052612;25.44970687;17.17221643;12.40763264;-9.045092197;-0.129579646;-2.836174461;-13.33107776;-18.89139829;7.09142506;-19.73719769;4.912921513;13.78230729;24.48092074;22.55078541;29.44434528;11.79011577;11.39408726;1.022325248
3.035958814;20.39260328;12.66722957;10.14739657;-11.85775393;0.172574412;-3.233993109;-11.8978146;-16.86475465;6.390530065;-16.65248385;6.391676872;14.07033495;25.85159444;28.09079917;28.09657235;15.88334901;9.911312743;1.29659447
0.277503386;15.58557844;9.819929563;7.424379297;-13.97826288;0.340887151;-3.54379188;-10.99067944;-16.63054306;4.221448114;-13.54516318;7.525820663;13.21943432;25.456663;31.29363773;26.39511792;18.8427779;8.180459049;1.325669139
-1.556137392;11.23095124;8.205169917;5.209178917;-16.48692216;0.356855182;-3.53;-10.84256064;-17.55080818;1.117175196;-10.93325245;8.594459265;12.11629896;23.93876129;30.56048072;25.66206636;19.58724771;6.911766732;1.083207842
-2.531555939;7.471842829;7.566031118;4.613682845;-19.17965092;0.302113647;-3.273579289;-11.15186519;-18.1371523;-1.382466592;-9.206375645;9.631085146;11.2067733;21.98226881;26.25681725;26.24118348;18.84436877;6.278666252;0.786400626
-2.018070117;4.772614241;8.261916707;6.066424918;-20.83308999;0.259559897;-3.075147106;-11.62381966;-17.26765434;-1.808912189;-8.361544506;10.28683145;10.24541326;19.95646271;20.84593171;27.6007877;18.64994612;6.01362393;0.702301415
0.805278158;3.867901306;10.95093344;8.959375286;-20.18891431;0.238878727;-3.168326866;-12.35073094;-15.0566341;0.144096328;-7.901411193;10.0685184;8.547191988;17.80853665;17.36995876;29.00281892;20.80991037;5.68951823;0.909341959
6.076844555;5.312303388;15.76730475;12.04721648;-16.93475754;0.18959054;-3.505937714;-13.66395043;-12.6788599;3.418878741;-7.074479284;8.78275279;5.539736337;15.25112881;17.37730978;30.0757144;25.38505828;5.015703212;1.225324111
12.72564035;9.013540279;21.72724498;14.25657321;-12.00845373;0.077270377;-3.808399453;-15.60201371;-11.34871339;6.427915878;-5.416594791;6.793131395;1.219693326;12.09463112;19.90003906;30.82625892;30.33925897;4.031875139;1.366886182
18.77491996;14.13320507;26.95161601;15.24991152;-7.053132088;-0.060677192;-3.822466509;-17.53620536;-11.36708741;8.18492667;-3.271584514;4.81330806;-3.77829209;8.48975974;22.26083187;31.2102701;32.73671618;3.136012265;1.201447754
22.34721285;19.42674547;29.64687111;15.35580983;-3.427600449;-0.139907501;-3.550381311;-18.40953579;-12.05854481;8.764164321;-1.861034369;3.346248121;-8.49425867;4.922776541;22.02366434;30.80927728;30.75900894;2.913449959;0.869415393
22.71442742;23.76218582;29.16917948;15.0615166;-1.434135294;-0.112767039;-3.242874145;-17.52265552;-12.61282904;8.751182395;-2.699173441;2.216534628;-12.0879149;1.981625948;18.53328849;29.04659495;25.13564763;3.79696953;0.665725402
20.69205575;26.47898049;26.40973672;14.61592257;-0.227065443;-0.027162312;-3.168632563;-15.27578855;-13.03176595;8.278692715;-6.61824332;0.621697055;-14.14674928;0.05973447;12.93307792;25.83260026;18.89268172;5.709166725;0.780255278
18.134303;27.44440748;23.24055096;14.09248981;1.602830935;0.003767336;-3.374810465;-13.21247935;-14.28336481;6.630663341;-13.04768233;-2.2649562;-14.75444647;-0.810507067;6.893590105;22.05603584;15.476324;7.934716005;1.123539879
16.89042991;26.91619764;21.43574031;13.72766078;5.171520685;-0.098073893;-3.655045855;-13.20075063;-17.47054859;2.880940454;-20.13330318;-6.564984469;-14.38669025;-0.902198144;1.341126515;19.37854906;16.50241256;9.403162064;1.395165444
17.89060139;25.39605132;21.80438725;14.02630758;10.6668638;-0.294923191;-3.746679432;-16.25757285;-22.7128099;-2.945714928;-25.74184487;-11.40333386;-13.73430391;-0.567614549;-3.664278355;19.33496016;20.72080975;9.299001391;1.343278487
20.85469934;23.53225216;24.0243401;15.35859539;17.2205126;-0.450207391;-3.569910748;-21.8347523;-28.72744338;-9.26839052;-28.72559744;-15.30978295;-13.47854334;0.014679884;-7.934461167;22.33584942;24.95880453;7.622426456;0.99346512
24.6445671;21.9808269;27.102759;17.35662721;23.25767226;-0.436419667;-3.289619169;-28.07707163;-33.52059635;-13.59939081;-29.54890621;-17.04933462;-14.00559961;0.976125124;-10.21559125;27.30339816;26.3827679;5.268065984;0.64301793
27.88847449;21.15165887;29.98237092;18.76856001;27.08719138;-0.243535515;-3.150194293;-32.86932884;-35.65466052;-14.11;-29.7822197;-16.30271332;-15.13371514;2.70707412;-8.51813288;32.2240615;24.44554835;3.492460789;0.612995373
29.46015632;20.94415613;31.85495413;18.13372597;27.46875917;0.006669683;-3.244084755;-34.944395;-35.07054893;-10.95435844;-30.80505938;-13.7517276;-16.05114977;5.638787832;-1.768214213;35.23829585;21.1180589;3.116799463;0.961975688
28.65386324;20.71680788;32.12599172;14.89760553;23.98689702;0.154646494;-3.431130382;-34.33539182;-32.83674624;-6.299375992;-32.69454686;-10.58171073;-15.6435339;9.949872286;8.526241529;35.54196279;19.28582708;4.068307907;1.410277658
25.18988221;19.64273143;30.31731186;10.05805968;17.1646987;0.125975704;-3.479567643;-31.97993526;-30.12388884;-2.979425788;-34.17676588;-7.815739967;-13.14683486;15.32532678;18.22707215;33.5932328;20.55859196;5.634782413;1.556157459
19.25863334;17.3031839;26.19664588;5.670676959;8.31267109;-0.019487344;-3.290725195;-28.89029667;-27.34741989;-2.735668276;-33.70634451;-5.934793401;-8.751491692;20.89359493;22.65;30.67103973;24.14674413;7.224264473;1.219479547
11.64007813;14.11409863;20.11498859;3.433932557;-0.847416632;-0.147841592;-2.993401915;-25.53285781;-24.21620361;-5.279420055;-30.82761611;-4.928687732;-3.692774376;25.41366449;19.55958976;28.2347197;27.59630875;8.962324694;0.62869038
3.720238839;11.22669957;13.22645564;3.397517809;-8.681390841;-0.161287547;-2.819703099;-21.79174466;-20.55997872;-8.739190903;-26.70013853;-4.565591386;0.348363302;27.6784983;10.91413714;27.49125629;28.72821435;11.55592413;0.280274019
-2.799599554;9.907480014;7.262389688;3.853146291;-14.09655353;-0.061773667;-2.881579824;-17.40003906;-17.0634607;-11.00809801;-23.30460943;-4.5705404;2.201590578;26.9782956;1.918220246;29.21748089;27.23481811;15.48737889;0.56220592
-6.489837322;10.80916159;3.854076112;2.590567763;-16.77562478;0.076670377;-3.061184866;-12.41460468;-15.09330874;-10.9471769;-21.91352957;-4.609955411;1.859812809;23.40089288;-2.152374582;33.61361053;24.7321163;20.25733722;1.433315386
-6.788442252;13.64665584;3.775328136;-1.385459272;-17.10787871;0.184038373;-3.120777251;-7.383835094;-15.63917614;-8.705110186;-22.05736757;-4.250533572;0.331106672;17.80205323;0.783022759;40.05650891;23.33840037;24.46303659;2.42137979
-4.23101361;17.48106297;6.583354962;-6.984197236;-15.88875412;0.236980671;-2.930461228;-3.170576393;-18.26981984;-5.224850686;-21.88456374;-3.112720654;-1.2198713;11.44822111;8.503409094;46.95363989;24.00374997;26.82607411;2.958790989
-0.148781841;21.33386342;10.8762701;-11.68177125;-13.97313958;0.231486703;-2.59929685;-0.637925014;-21.12416267;-1.585702554;-19.7224817;-1.214070762;-2.383877422;5.520369068;16.23231284;52.07276707;25.92757803;27.38263125;2.805519947
3.972926953;24.60690924;14.96595881;-13.21701646;-12.05552131;0.131221303;-2.383484743;-0.402853289;-22.15022477;1.270831419;-15.64965803;0.778935051;-3.74405735;0.740813458;19.86933035;53.46312991;27.42442984;27.71718645;2.230380283
7.055656548;26.98938737;17.5178756;-11.09168576;-10.62137038;-0.12976673;-2.452937296;-2.694514687;-20.72027693;2.454656734;-11.80123225;1.70647169;-6.23366675;-2.712729592;18.34268598;50.54382098;27.37911374;29.76066379;1.801543479
8.580385664;28.02111365;17.81378855;-6.855916551;-9.973605836;-0.566292651;-2.73129765;-7.245980836;-18.31795453;1.12960135;-11.05836155;0.507084752;-10.13438042;-5.039637788;13.52248797;44.59966606;25.99639531;33.8743598;1.939495629
8.348624218;26.82667798;15.63677396;-3.116416143;-10.20292908;-1.053206159;-2.959146067;-13.21973263;-17.63072544;-3.089031234;-15.0139281;-3.107482149;-14.56618925;-6.575917342;8.0779982;38.17934358;24.24127132;37.73170614;2.574442117
6.187782263;22.41815404;11.06296272;-2.085941086;-11.07050555;-1.335217299;-2.925230181;-19.30964689;-20.61911213;-9.583664865;-22.69231543;-8.38265748;-17.95714016;-7.646905564;3.210635296;33.63414543;22.56431636;37.14057231;3.175890701
1.961677207;14.4588567;4.443360755;-4.629838776;-11.91736063;-1.172183592;-2.655320994;-24.15831886;-26.98166298;-16.6395475;-30.96919397;-13.8859044;-19.18750165;-8.533052388;-1.854470636;31.70959877;20.1646097;28.5646038;3.139627066
-4.05567675;3.908449181;-3.404893297;-10.17969447;-11.77087936;-0.530671205;-2.386410586;-26.99664013;-34.19171761;-22.1670424;-36.40108886;-18.27265565;-18.51514623;-9.437527659;-8.308840355;31.13876774;15.57878543;11.71981839;2.243768032
-10.77465577;-7.049063566;-11.06131314;-17.19382271;-9.715966028;0.335859276;-2.350499946;-28.12784754;-39.11839538;-24.89420682;-37.18635349;-20.92900852;-17.5036331;-10.36152075;-15.63319331;29.50568949;8.185135362;-9.636944399;0.831366896
-16.32790284;-15.90163386;-16.72882415;-23.65461392;-5.39879123;1.011721525;-2.566037513;-28.8360053;-40.06577934;-25.14995589;-33.97048537;-22.08603463;-17.93;-10.9484309;-20.96363593;24.75852084;-0.689124683;-29.44300587;-0.417368179
-18.76531539;-21.00784934;-18.88687121;-27.44728228;0.61444088;1.183565243;-2.826356315;-30.62972605;-37.78050916;-24.54540296;-29.12481058;-22.42346667;-20.45756205;-10.49335984;-20.82656974;16.34621395;-8.164085317;-42.52551724;-0.953630812
-17.11584529;-22.31403514;-17.07540202;-26.86071904;6.86979123;0.855633348;-2.892169749;-34.2349867;-34.77949613;-24.69887178;-25.20827652;-22.54876747;-24.07296299;-8.262123049;-14.09227052;5.328425297;-11.61753883;-47.14850233;-0.72530603
-12.15559034;-21.1331339;-12.32485879;-21.38167682;11.49043574;0.347627471;-2.708140169;-39.02143833;-33.5813538;-25.96481829;-23.74166786;-22.75279785;-26.72484304;-4.016866251;-3.764651536;-6.37838688;-10.59858288;-45.29705683;-0.180252076
-6.296284806;-19.19758299;-6.886901875;-12.4426437;12.86960935;0.067623948;-2.443978294;-43.31352016;-35.13881618;-27.20064317;-24.94869668;-23.12366021;-26.69825181;1.604195729;4.140248604;-16.89128497;-7.313436605;-40.74191309;0.078216764
-2.524828522;-17.68921492;-3.314525072;-3.392290214;10.26243053;0.227111275;-2.325218143;-45.42294983;-38.47912204;-26.81064716;-28.24766773;-23.75522839;-23.71760971;7.211326413;4.239296624;-24.77784026;-5.17041955;-36.46804767;-0.280830814
-2.946263459;-16.89067637;-3.335652184;1.765453265;4.018390182;0.711096477;-2.414349944;-44.69785851;-41.58535382;-24.2559897;-32.77343041;-24.73418444;-19.00226993;11.33739869;-4.48041284;-29.00259403;-6.359674575;-33.31288299;-1.112868003
-7.772921384;-16.56669472;-7.106820819;0.422907259;-4.598760524;1.193750651;-2.54833894;-41.85;-42.70083622;-20.78083789;-37.44269708;-25.86821263;-14.30324669;13.27528781;-17.59096125;-28.89282549;-10.23556504;-30.51902306;-1.944434472
-15.3433205;-16.61419664;-13.23303413;-7.038095496;-13.86080182;1.398222906;-2.492352649;-38.34632239;-41.12598129;-18.67554815;-40.73965026;-26.45457041;-10.69275885;13.4893726;-27.81052905;-24.49918908;-13.72827199;-27.34786762;-2.333814225
-23.11213639;-17.36599815;-19.51887533;-17.3057771;-22.07757501;1.293577228;-2.167665706;-35.33978391;-37.16401398;-19.55410717;-40.81899385;-25.44577867;-8.001881853;13.25013456;-29.60300424;-17.12951499;-13.53250425;-24.18735557;-2.169937852
-28.96347506;-19.2872638;-24.02393967;-26.00267364;-27.991537;1.084437938;-1.741146909;-32.93821128;-31.57759531;-22.94691638;-36.27630208;-22.05911065;-5.25229697;13.69197732;-22.60813287;-9.37079128;-8.520575202;-22.22734316;-1.705841526
-32.05764431;-22.34966532;-25.85547301;-30.20024209;-31.0070062;1.021856963;-1.489700835;-30.31708047;-25.15861065;-26.33036517;-27.22860649;-16.45168241;-1.666539694;14.95220292;-11.49670404;-4.128381999;-0.670036621;-22.13975159;-1.335356016
-32.79913354;-25.65353738;-25.31338125;-29.89241723;-31.25691814;1.201448292;-1.559417371;-26.52178212;-18.68434441;-26.65447176;-15.83921427;-9.924473421;2.548077806;16.03625905;-2.428671432;-3.031709986;6.128254299;-23.09137543;-1.304266013
-32.12079056;-27.67694403;-23.3927232;-27.4526207;-29.50679496;1.508164702;-1.836244994;-21.29778726;-13.03684562;-22.30952158;-5.633644198;-4.400690376;6.210162108;15.53894236;1.225361024;-5.293035978;8.526595822;-23.09610441;-1.569279393
-30.68620046;-27.0387305;-21.01595608;-25.56343502;-26.88493249;1.732955247;-2.04425117;-15.32383105;-9.095195848;-14.153834;0.199020452;-1.449504488;7.913037829;12.70462373;0.742782361;-8.031574913;5.760747423;-20.50323229;-1.882512758
-28.5619261;-23.27153101;-18.49689901;-25.20288496;-24.47358304;1.745832582;-1.982208476;-9.741088495;-7.307741233;-4.932824438;0.498558885;-1.481134742;6.938824289;8.034807777;0.226163162;-8.094373862;-0.033055521;-15.3925937;-2.005630809
-25.48982178;-17.10228205;-15.55602333;-25.1554631;-22.89464802;1.579262963;-1.687197965;-5.428178752;-7.2885082;2.414170333;-3.316721363;-3.635098491;3.71181814;2.982855334;2.690580264;-4.224104354;-5.306546925;-9.690188933;-1.879333005
-21.43673012;-10.0966255;-11.82657934;-23.30150571;-22.09214198;1.369451976;-1.384539363;-2.618482043;-7.899855931;6.330058594;-8.238374777;-6.397187496;-0.453662689;-1.026126284;7.261284729;1.984755982;-7.304060419;-5.876186172;-1.634704003
-16.93996269;-3.939285534;-7.455020009;-18.58842461;-21.45940588;1.228636191;-1.278591358;-1.103041324;-7.92572159;7.084195052;-11.52717375;-8.489073655;-4.071634477;-3.490019531;9.776615989;7.112447287;-5.550558844;-5.311634567;-1.466583639
-12.97899771;0.206327637;-3.329795253;-12.13393482;-20.27268657;1.168062442;-1.378557296;-0.73563181;-6.905180812;5.995289476;-12.19254399;-9.443391708;-6.184211935;-4.951951338;6.354780292;8.244625081;-1.803538945;-7.485929952;-1.484709936
-10.48582068;1.961657224;-0.725213737;-6.646584148;-18.18314576;1.127571645;-1.512158795;-1.710162054;-5.47277735;4.227169867;-11.16767149;-9.572148484;-6.659939086;-6.283928996;-2.942708425;4.930009766;1.29858353;-10.685177;-1.651984213
-9.858612325;1.612457913;-0.560139422;-4.639724313;-15.44622154;1.062685246;-1.501492983;-4.313272987;-4.877704455;2.134231364;-10.22361102;-9.491798191;-6.01185282;-7.744712973;-13.39562166;-0.653369247;1.895852509;-13.41967768;-1.83504555
-10.8007142;-0.203046294;-2.762590687;-6.757782565;-12.71558897;0.993522026;-1.328157838;-8.354671118;-5.991879497;-0.450339724;-10.5319178;-9.626741254;-4.930155384;-8.613945869;-18.64048473;-5.396278637;-0.163069802;-15.41218269;-1.908630738
-12.54299198;-2.796219285;-6.188890066;-11.35324766;-10.52456408;0.969406467;-1.133889734;-12.81134267;-8.547169769;-3.414640151;-11.92286068;-10.01725539;-3.827972793;-7.740826172;-15.24502702;-7.498522874;-3.562067625;-17.4389275;-1.833183596
-14.24778062;-5.625438849;-9.184849636;-15.49469857;-8.819962011;0.993889027;-1.065434816;-16.1010818;-11.19954174;-5.885206716;-13.25611911;-10.45057484;-2.636607613;-4.591005609;-5.356037296;-7.568334858;-6.599667161;-20.33921384;-1.664848286
-15.32158539;-8.378113746;-10.44142547;-16.63222377;-6.913923925;0.996317965;-1.121509045;-16.91578667;-12.40192092;-6.5788713;-13.46186674;-10.69857384;-0.937091863;0.064298963;4.664219261;-7.833478669;-8.319151852;-24.15379443;-1.511194424
-15.4942806;-10.93706668;-9.596551964;-13.85574093;-3.949048219;0.888660489;-1.154241467;-15.08114815;-11.46032417;-4.775013357;-12.38261683;-10.65048782;1.653601146;4.43261451;8.646077248;-10.1881566;-8.969717811;-28.10197491;-1.470671838
-14.71579205;-13.22988631;-7.216531284;-8.123691687;0.398567729;0.65779578;-1.02448535;-11.83105559;-9.01857489;-1.137722155;-10.81688564;-10.30398207;5.064273972;6.826493652;4.777786642;-14.64438713;-9.582558234;-31.26905476;-1.583954839
-13.02186161;-15.01988033;-4.227229408;-1.557484921;5.463664042;0.401531634;-0.757466437;-9.252329328;-6.647548246;2.332108453;-9.842505264;-9.717277513;8.597369032;6.827751842;-3.529423048;-19.3449206;-11.0307888;-33.25452008;-1.80767535
-10.48043395;-15.79173538;-1.241625203;3.640601861;9.75090691;0.263963743;-0.540251735;-9.195044166;-5.853522512;3.323934822;-10.01501029;-9.001559946;11.18513568;5.618771474;-10.54936353;-22.01279271;-13.25374888;-34.1760927;-2.017571104
-7.222506323;-14.8952914;1.727242207;6.080881017;11.6869898;0.319483465;-0.552747812;-12.27603887;-7.18324318;0.620907072;-11.02724843;-8.311450102;12.00439654;5.209768435;-12.51024646;-21.61276985;-15.18537135;-34.13920037;-2.051974196
-3.491630947;-11.95543505;4.996344161;5.59680351;10.53717723;0.506407555;-0.787789078;-17.5252188;-9.959614949;-5.024039936;-11.97367926;-7.742504026;11.09742449;7.100120405;-9.899158751;-18.93171135;-15.43003906;-32.83850504;-1.794608014
0.344085413;-7.31062203;8.649616132;3.14423358;6.913067064;0.670742009;-1.035654331;-22.82887093;-12.70342241;-11.12925598;-11.90599629;-7.152130197;9.545462236;11.31496768;-6.201575999;-15.72907379;-13.20257259;-29.80337999;-1.261858464
3.826626459;-2.114159402;12.17046522;0.301021642;2.52650385;0.683844184;-1.060029297;-25.89105426;-13.87532268;-14.73124586;-10.25651967;-6.078585882;8.962355061;16.46041116;-4.394585312;-13.24602087;-8.85264705;-25.08380683;-0.631663902
6.476232894;2.114361746;14.60490053;-1.442184148;-0.694237374;0.533460634;-0.81139871;-25.21198007;-12.48747091;-13.90757514;-6.953684467;-3.944734551;10.53015598;20.68692101;-4.250639062;-11.28155447;-3.588074861;-19.61576234;-0.167544091
7.893690552;4.317567723;15.1766271;-1.319470873;-1.613636917;0.314576919;-0.480574811;-20.64276516;-8.355717072;-8.698818977;-2.360766197;-0.519098385;14.17846528;22.82101771;-2.69741332;-8.482022048;1.395808319;-14.70552296;-0.059023609
7.902210646;4.598875046;13.91425688;0.458796713;-0.43517056;0.138588865;-0.335320366;-13.32403409;-2.038320899;-0.942481725;2.768130499;3.68079425;18.49962394;22.87810464;3.153042564;-3.488296548;5.707460327;-10.91378953;-0.274737255
6.691515369;4.274857807;11.81270606;3.001420581;1.515670826;0.0500914;-0.481719015;-5.100815876;5.384902245;6.810460387;7.323408587;7.440895465;21.53637452;21.69782635;12.94773623;4.016280267;9.83797887;-7.332157739;-0.541096914
4.862765524;5.153035083;10.3640999;5.402299469;2.610377436;0.024737215;-0.766045338;2.284427108;12.60482995;12.61170696;10.07720522;9.486994043;21.96991433;20.10779049;22.67712097;13.086379;14.44580493;-2.094457727;-0.487924617
3.267590201;8.43750448;10.7292085;7.304648428;1.834287367;0.036517296;-0.910289279;7.841893918;18.43552877;15.90480123;10.25296791;9.363239136;19.92334165;18.31262126;27.37190931;22.0917779;19.42314233;6.0327083;0.115727801
2.63947088;13.94883339;13.06775222;8.922119148;-0.725131977;0.112165768;-0.763332045;11.52934999;22.17376459;17.40557724;8.196856424;7.914427796;16.83700698;15.9387523;24.79430331;29.46553505;23.54981704;16.1646252;1.189263693
3.182828471;20.15651745;16.43921566;10.48939635;-4.054930631;0.304444429;-0.44191931;13.92143262;23.79940146;18.26754702;5.603701702;6.904138144;14.51404818;12.5990124;17.15522697;34.04453957;25.11427318;25.22294715;2.355477332
4.382369825;24.9873248;19.31434119;11.61934819;-6.888636103;0.603279264;-0.231510398;15.57669355;23.83972897;19.14112988;4.852142343;7.883572044;14.00746075;8.441585074;9.461613024;34.97272705;23.09982782;29.5710037;3.143530411
5.212699928;26.8774705;20.36536157;11.2021307;-8.431005485;0.87925145;-0.332425957;16.52480723;22.91060477;19.74790983;7.583574841;11.01477459;15.09833567;4.212065907;5.792339368;31.61449722;18.02303162;27.29278606;3.252509727
4.686228598;25.43062327;19.0719159;8.096508746;-8.701476951;0.939110071;-0.677268534;16.24294634;21.22228431;19.21313764;13.33566353;14.68377872;16.65;0.793846741;6.425718129;23.86969099;11.71983349;19.4492363;2.709027583
2.435134896;21.37367421;15.84566246;2.194618202;-8.324081759;0.672420952;-0.983451271;14.16534368;18.44185594;16.88403978;19.24679216;16.26381474;17.4823299;-1.376345795;8.009502195;12.75963606;6.181496407;9.360784523;1.829162974
-1.034338091;15.99007813;11.69433629;-4.969288377;-7.937395106;0.171485327;-0.994998776;10.36297927;14.07921582;13.03943911;21.29538768;13.61248212;17.08316018;-2.538601366;6.516730274;0.686760822;2.311442674;0.458459094;1.026901228
-4.587645567;10.48915533;7.693187699;-10.6692486;-7.625137413;-0.292110743;-0.699311469;5.842644708;8.134285415;8.969460832;16.51372962;6.362512089;15.68663872;-3.315445605;0.565853421;-9.154418576;-0.436072331;-5.682076844;0.600381618
-7.065145223;5.67302909;4.569742291;-12.36140626;-6.752345088;-0.440741802;-0.328641501;2.133947141;1.4573661;6.31950857;4.834638184;-3.819406258;13.79125238;-4.151101966;-7.492274916;-14.1175615;-3.270309868;-9.725511664;0.617035755
-7.878788159;1.936643959;2.559844885;-9.1477234;-4.3473696;-0.190400882;-0.149715713;0.350767566;-4.581059387;6.079983159;-10.68092845;-14.15078964;11.61579984;-4.94184469;-13.44911119;-13.43605049;-6.798240606;-13.29342165;0.933141406
-7.261968094;-0.616851216;1.498051753;-2.381359423;0.166284306;0.281621448;-0.232748643;0.361356085;-8.987498082;7.851307545;-25.49177725;-22.20919374;8.971015683;-5.14058284;-14.4617344;-8.655656883;-10.34397061;-17.23745239;1.298212574
-6.070718606;-2.14643048;1.000781727;4.975069701;6.323450982;0.66209504;-0.404641288;0.712583949;-11.96841678;9.869233714;-36.10052008;-27.02949943;5.615738268;-4.230924338;-11.06619262;-2.83171677;-12.43720243;-20.93754024;1.469536088
-5.307093455;-3.1135581;0.626988402;9.81955268;12.4898488;0.728118135;-0.421214826;-0.533487567;-14.97389866;9.833036799;-41.82999793;-29.21075991;1.73445714;-2.182596356;-6.533089427;1.017925847;-12.07705725;-23.11139865;1.294711805
-5.657081413;-4.205197384;-0.005534421;10.32246036;16.42585675;0.500644374;-0.196149288;-4.550622042;-19.76749966;6.111442326;-44.71637072;-30.11877144;-1.923585031;0.463185155;-4.277052176;1.244252025;-9.714788081;-23.28437692;0.760315088
-7.254822852;-6.01366051;-1.109555863;6.549774266;16.3194622;0.210733182;0.121944316;-10.92306821;-27.07110872;-1.318663974;-47.67102419;-30.83419175;-4.405847468;2.922289491;-5.468159539;-2.047026385;-7.111094618;-22.5187141;0.01067577
-9.705263357;-8.598348659;-2.608648752;0.143902385;11.75878034;0.11418633;0.289688936;-17.81768123;-35.74029988;-10.70468905;-52.24475111;-31.55745428;-5.156982274;4.633689361;-8.632188872;-7.571729094;-6.142463954;-22.68292655;-0.680754788
-12.27007813;-11.25802194;-4.068846293;-6.56331411;4.08771426;0.306091243;0.192820031;-23.03943991;-43.14241148;-19.22040115;-57.55725026;-31.76156331;-4.401123643;5.504088992;-11.29861299;-13.79902653;-7.492919488;-24.84484855;-1.01003418
-14.11523875;-12.78296309;-4.7851575;-11.47785263;-4.1110203;0.674916709;-0.052633483;-25.24904092;-46.59797265;-24.19471616;-61.07543061;-30.83498608;-3.025421001;5.776230051;-12.14389487;-19.55047088;-10.25602559;-28.17080068;-0.793776202
-14.57653823;-12.13755775;-4.072337598;-13.37115374;-10.18263113;1.0132528;-0.211475671;-24.54625748;-44.98514655;-24.27185695;-60.58676791;-28.67417061;-2.067229585;5.676711105;-11.85331824;-24.02140698;-12.72184215;-30.33073812;-0.094486138
-13.41864806;-9.178187808;-1.670804089;-12.12304605;-12.61267833;1.177737385;-0.146179496;-22.12233231;-39.46048593;-19.95507458;-55.89526887;-25.8197841;-2.180267368;5.164029675;-12.14464539;-26.51983788;-13.67177474;-29.17375836;0.776803605
-11.00705448;-4.916115458;1.953582799;-8.609412714;-11.63611491;1.167318527;0.061988783;-19.35963558;-32.83347763;-13.29506135;-49.04168389;-23.11790107;-3.419629412;3.992518715;-13.95631595;-26.39849482;-13.1430535;-24.38498486;1.415519548
-8.256536901;-1.087751919;5.651344922;-4.271271124;-8.929475685;1.076255835;0.197323525;-17.08748112;-28.02419015;-6.899693712;-42.97080968;-21.21367095;-5.408016511;2.02839638;-16.41579067;-23.37011847;-12.1287733;-17.82607462;1.558807985
-6.273117408;0.766316048;8.0538835;-0.465027101;-6.595843492;0.989857343;0.118088994;-15.46379466;-26.59466548;-2.765162318;-39.67762811;-20.23736448;-7.672643047;-0.46900211;-17.45105658;-17.94245563;-11.58745863;-12.2849093;1.247807797
-5.791330694;0.185060273;8.281656524;2.140507923;-6.044564941;0.926979832;-0.106209003;-14.38134199;-28.20394288;-1.501573331;-39.15139118;-19.84244899;-9.880547407;-2.873937735;-15.50310743;-11.50943873;-11.66560195;-9.57480753;0.795895159
-6.707105023;-1.894155475;6.508770087;3.755220797;-7.389144586;0.870080566;-0.256525206;-13.88433821;-31.15117453;-2.305141234;-39.74810884;-19.49637266;-11.8555266;-4.560299215;-10.91807614;-5.867897926;-11.76411161;-9.378550235;0.572393983
-8.040274029;-3.5893677;4.000286724;5.059732619;-9.633972643;0.830021973;-0.167974789;-14.15569976;-33.47531626;-3.621024018;-39.54077619;-18.79657566;-13.46422531;-5.35687474;-5.907507895;-2.394304896;-11.28986806;-9.625891279;0.746769079
-8.445188111;-3.075216064;2.501448642;6.443982755;-11.42964996;0.861394407;0.112885379;-15.09867339;-33.85591034;-4.067021331;-37.55990552;-17.63566405;-14.53589798;-5.741387514;-3.128880807;-1.418713511;-10.3431957;-8.05729099;1.172911539
-7.029997554;0.389002935;3.25501148;7.497023359;-11.86435684;1.00309642;0.363292454;-15.96224611;-31.88420061;-3.070315689;-34.07936622;-16.17954168;-14.89490076;-6.588414848;-3.978987447;-2.219857808;-9.70588369;-3.838563113;1.495098477
