Channel 1 - P4;Channel 2 - O2;Channel 3 - P8;Channel 4 - T8;Channel 5 - C4;Channel 6 - Cz;Channel 7 - Fz;Channel 8 - F4;Channel 9 - Fp2;Channel 10 - F8;Channel 11 - Fp1;Channel 12 - F7;Channel 13 - F3;Channel 14 - C3;Channel 15 - T7;Channel 16 - P7;Channel 17 - P3;Channel 18 - O1;Channel 19 - Pz
86.82647967;68.68351165;103.4575914;99.97894126;91.56563864;65.39199246;-130.0623924;100.7121361;100.8223933;105.5586068;101.2948469;111.2129907;99.1895168;119.0010808;78.28;62.32771518;12.40971394;46.83046898;56.4125304
71.41341188;59.65138853;83.7443112;84.4036985;70.95010603;50.31370557;-125.8042549;81.24786735;75.19659443;87.47986899;76.54290253;88.88021917;73.52093819;101.9473773;67.6470109;53.64946269;7.727401589;38.68763119;43.66157192
33.13477373;27.64410055;38.10378874;44.97195028;25.2775909;21.24818404;-83.00401507;39.64793422;31.34088698;42.02624738;30.99453428;44.82843185;30.32141449;56.24256087;36.55293171;27.656865;-0.194403055;15.61422357;18.53269375
-5.213304459;-6.779167288;-6.637192612;4.866457992;-18.86781656;-5.424126417;-27.95541388;1.278980642;-5.192622424;-3.277893305;-9.854762109;4.964773728;-5.116223038;9.607567686;4.657956;2.291439208;-3.796147941;-6.123759612;-4.445708388
-23.58468265;-24.09467615;-27.43944645;-15.53944233;-39.1055745;-16.86505856;9.106986629;-14.08886775;-16.69182191;-24.57730389;-25.84410369;-10.27224811;-15.01581619;-13.31103394;-11.4540861;-7.805661378;-0.451937817;-13.56174847;-14.06626652
-17.15353755;-18.59369095;-19.38468131;-11.34504608;-30.85753537;-11.55433752;13.58434968;-4.425936588;-3.851025845;-16.73533566;-14.52079399;1.494714133;0.196826931;-6.448712487;-8.415337472;-0.614819592;6.198891795;-5.328134799;-9.180382011
2.720842151;-0.276579083;3.678679732;6.133952081;-7.607853131;1.392355345;-6.28390764;15.77771675;17.33947162;5.798051466;9.476784562;25.37087653;24.54731506;16.32314233;4.274675564;13.68966713;9.830837227;9.042009475;2.115264827
18.6932191;14.42666276;21.43365498;19.99817715;11.12702183;10.11895584;-28.64253998;28.06463775;28.92724516;21.78691163;26.59599886;41.75069205;39.5481672;33.75707632;13.60224642;21.77657729;6.73104491;17.43902099;9.528655024
20.33016884;15.17430922;22.18055966;20.80038563;14.20075175;8.710815511;-35.4086217;23.66588312;23.84678591;19.14734478;26.34606753;40.52084287;37.2464994;33.26;13.29706478;17.3245658;-1.45021307;14.2656061;8.09867342
10.07268193;3.958369738;9.465330698;12.02549878;4.928054054;0.270688598;-24.31935914;8.149485192;8.971153281;2.083484142;12.85323505;26.44506498;23.82787258;18.32852486;7.098864684;4.620672184;-9.416423724;3.471327265;0.676035683
-1.161705261;-8.67061467;-3.491232232;4.826040102;-4.445997113;-7.136511319;-7.504249956;-5.246889303;-2.585426442;-14.76734505;-0.957664677;12.88285676;12.33697293;2.965192662;3.492795449;-6.389227706;-12.64440475;-5.997238828;-5.771425671
-3.941761969;-13.12120415;-5.665145125;7.498488319;-4.021032438;-7.630872778;0.498072852;-7.03933255;-2.584656547;-19.10285391;-4.666353679;10.10165471;11.46897662;-1.020741396;7.331837416;-8.782066698;-10.75522232;-7.889557864;-6.348054232
2.610029297;-7.899775215;3.593998541;18.75217628;6.301375546;-1.837019556;-5.346021952;1.792131055;6.856449533;-9.96498052;2.188366428;17.84584042;19.57440554;6.853637321;15.67878139;-3.812894951;-7.262748998;-3.110466454;-1.780009766
11.75176592;0.812806846;15.92353557;29.82309889;18.51465695;4.607001974;-17.98498049;12.43905903;16.89802014;3.485767689;11.67775259;27.34958978;27.82183311;16.84830048;20.93221574;1.188789707;-6.274803533;2.152031355;3.085987237
16.12624894;5.641076629;22.3675799;32.74644094;24.66561628;6.369249693;-25.8084511;16.84553207;20.46325318;11.03435103;15.48756358;29.88398895;28.68897081;18.17730098;17.87450511;-0.294569755;-9.129756524;2.319380385;3.921738802
14.20366146;4.36855092;20.97804221;27.23367114;23.79516491;2.762994288;-22.88186008;14.38193779;17.89634905;9.90857252;11.94396219;24.02894374;22.10104306;7.921925183;8.221155395;-8.440058594;-13.7107457;-2.963247366;0.484480086
10.77923956;0.900820475;17.34278116;20.39951555;21.84512059;-2.326362119;-13.17583343;11.20730882;15.3787673;5.761764662;6.364958173;15.81848739;14.37397521;-7.486583737;-1.116087539;-17.38602527;-16.70361036;-9.151538777;-3.712354225
11.75257161;0.745413359;18.42638548;20.07202276;25.2822189;-4.324322416;-6.003576999;13.64240783;18.30917184;6.232942377;5.261323935;12.47747587;11.69165446;-18.5349159;-4.149243351;-20.61587896;-16.58716118;-11.23448841;-4.885621753
18.30983572;5.597916334;25.77325538;27.83789568;34.56740643;-1.953935141;-7.476310003;21.90207168;25.97434519;13.46012783;10.06379115;15.79158252;14.34123147;-20.58540677;-0.731893065;-16.48956544;-14.73460521;-8.082408611;-2.311780371
25.73215475;11.91608588;34.12923306;37.82704692;43.32136603;2.065075148;-15.60980879;29.74537908;32.18573305;22.24035944;15.92791471;20.89302863;16.73746017;-16.74547905;3.93683911;-9.241866641;-13.84616829;-3.000083923;1.343885097
27.64214935;14.41887067;36.34325368;41.9897953;43.73131455;3.851160524;-22.86118384;30.07779454;30.99249307;25.08211403;16.31805927;21.09013039;12.84714727;-13.86108648;4.474058252;-4.932218055;-15.29586883;-0.364671325;2.697903025
21.67999181;11.02185926;29.85422879;37.02210676;33.27030187;1.922390742;-23.1958362;21.31732706;22.16684974;19.25500357;8.994475118;14.08626239;1.921484832;-15.83311292;0.33681371;-6.134343236;-17.80786499;-1.617018745;0.727585361
11.55420415;4.691842722;18.95824532;26.93403967;16.86838363;-1.690908757;-17.18229079;8.891447565;11.62007813;9.435880161;-1.922129225;4.045621832;-10.5496274;-20.30953857;-3.760699747;-9.96069981;-18.56992755;-4.175353081;-2.475252214
3.820972815;0.723710513;11.05662779;19.28683508;2.838201757;-3.550504459;-10.88884887;0.690732124;6.5439722;3.707649383;-9.429210073;-2.080439478;-17.33340491;-21.3285374;-2.266415893;-10.88083947;-15.70548439;-4.021269588;-3.7710373
2.405639088;2.093953879;10.42354088;18.63465728;-3.727642675;-2.018995172;-10.07371262;0.577641729;9.63105271;6.585036024;-9.416521216;-0.484232869;-15.32067013;-15.10467144;6.000947353;-5.634598198;-9.900078125;0.566380221;-1.848315361
5.682952455;7.103134133;14.99398936;22.91414478;-4.413752376;1.356303939;-15.1244711;5.552665987;17.2826521;15.20824611;-3.713681246;6.531170683;-7.709247949;-3.632841079;16.47773453;4.044056986;-3.82261926;7.501842451;1.681525233
8.463771662;11.25916865;18.74697019;25.70855866;-5.115756905;3.401453561;-21.12287474;8.801348628;23.02890966;21.88914363;1.967402651;12.89255292;-0.873420051;6.930164978;22.4533794;13.01917977;0.047232181;12.81172435;3.83549088
6.859677663;11.48203051;17.26013026;22.13529221;-10.2861116;2.256387935;-22.59875968;5.723642097;22.89488204;20.61697333;3.072388534;14.03929602;1.094311252;11.40057655;20.42525114;16.98687722;1.245588079;14.08932063;2.943215336
1.616452008;8.745817343;11.40735012;13.11701848;-18.95718084;-0.997579535;-18.45084554;-2.333976261;18.06840252;11.85826897;-0.262686771;10.43388044;-0.58819778;9.593168141;12.6033572;15.59484486;1.292473628;12.34385858;0.040536858
-2.90344673;6.872534927;6.102322267;4.448303711;-25.84399793;-3.407558468;-12.67223005;-9.657509954;12.93724196;1.721712171;-4.017178736;6.477949074;-1.134797498;5.907525855;4.6204471;11.98231507;1.999519887;10.71195327;-2.182712064
-2.933371018;8.767005802;5.528867219;1.713094648;-26.23548646;-2.83878277;-10.50291678;-11.34506178;10.73069434;-3.437652225;-4.295666186;6.214730523;3.204259985;5.217190218;0.726118847;9.570553372;3.745870782;11.38650054;-1.823759228
1.212943185;13.65088248;9.326029284;5.611620592;-20.17306662;0.171741884;-13.69634273;-7.38929729;10.88683743;-2.096549115;-0.737387115;9.882958462;11.8760448;8.905938587;0.768081159;9.219575517;5.266439543;13.65115672;0.622405101
5.488903855;17.8240927;13.12019373;11.67047993;-12.28673492;2.992475356;-19.1491593;-2.200295128;10.36540055;1.952480951;3.617301646;14.29226362;20.78779122;14.40168701;1.412407374;9.216064204;5.051807909;14.7728814;2.850646434
5.86620536;18.18491614;12.75493076;14.34830269;-7.634673651;3.278114628;-21.91744151;-0.275313577;7.360931882;3.740896405;5.555879738;16.3261868;26.05749874;18.18091935;0.131390907;7.757320254;2.995853701;12.82414116;2.891021785
2.036820199;15.21232642;8.266719929;11.78802038;-7.360508812;0.973838615;-19.69745688;-2.058793442;3.715172199;1.899110237;4.81921455;16.07187668;27.17609595;19.15235607;-1.937571064;5.298906731;0.742928144;8.74933841;0.833911612
-2.250871464;12.62733499;3.993509077;7.126001016;-7.960058594;-1.787918956;-14.71447023;-3.678118068;3.650078125;-0.235634903;4.224493454;16.60873161;26.8153081;19.27503702;-0.970014648;4.401169527;0.395691528;5.721124364;-1.365928944
-2.469355252;13.99525199;4.755280944;5.456640369;-4.63728089;-2.681740183;-11.48749184;-0.669687164;9.919072962;1.993929388;6.797297922;20.72873004;27.733264;21.06146878;5.650671911;7.191811585;2.727258672;6.337957117;-1.729871937
2.749499359;19.33260715;11.55557866;9.330104063;4.330255676;-1.211010031;-12.684581;7.720475405;20.89488237;9.898034672;12.69230034;27.75599089;29.8384312;24.55639724;16.17830924;12.90091286;6.475509534;10.2004486;-0.021770835
10.47315954;24.81920423;20.61153825;16.73916116;16.00655228;1.016329545;-16.86155012;17.4911891;31.31529065;19.74921282;18.80547726;33.54307937;30.16684164;26.78134046;25.12695425;17.94779315;9.329904537;14.08443948;2.126533338
16.03384824;25.96415509;26.50382645;23.14819877;25.18885628;1.881290805;-19.99753093;22.98651001;36.16455428;25.57753051;21.44137618;33.7861822;25.73024071;24.24087261;27.32180417;18.74199885;9.742210307;14.61130708;2.763012259
16.94173411;21.49570346;26.60829091;25.51136379;28.50386532;0.678537924;-19.25376554;21.42318326;34.41048637;23.97819927;19.58150453;27.73718763;16.54242469;16.19330625;21.93274624;14.81927673;8.011366019;11.0901311;1.37854507
14.69223317;14.56947555;22.94146684;24.62007813;26.64591371;-1.362434303;-15.4752871;14.99046648;29.46891772;16.76488394;15.76660385;18.98319477;6.018483115;5.661634094;13.01356362;9.491453214;5.77661762;6.052837959;-0.698169202
12.98416881;10.20524044;19.9436503;23.80905263;23.05752318;-2.33271597;-12.25244022;8.873117024;26.12531012;9.283461337;13.7897905;12.55982069;-1.622753013;-2.784653713;6.115057505;7.285691629;4.458560288;3.038179917;-1.567753328
14.07347374;11.12478656;20.32300824;25.38861082;20.54473146;-1.431041067;-12.54767748;7.046564299;26.64027834;5.988684766;15.27730055;10.90760011;-4.621325197;-6.532870027;3.941467223;10.25045427;4.066355699;3.583165244;-0.487637944
16.57717906;15.52864816;22.69307237;28.14982036;18.97310877;0.371959512;-16.03235184;9.433087527;29.30552032;7.127001979;18.2106586;12.17012362;-4.742145479;-6.649185928;4.768763396;16.24310947;3.397733659;6.035463235;1.503438402
16.66837321;18.66397189;23.01330936;28.22465453;15.96709394;1.33978814;-19.50084868;12.61467011;30.44361715;9.204316754;18.68247214;12.22195311;-5.324081957;-6.393883531;4.815337437;20.66466998;1.38574064;7.163588632;2.58018026
11.55865716;16.80263133;18.41864065;22.532702;9.708621555;0.642375878;-19.86190324;13.16007813;27.85996785;8.526783446;14.30337183;8.525489378;-8.184385096;-7.977882226;2.231791266;20.19419478;-1.667046524;5.087613089;1.795287648
2.166420329;10.26396164;9.964027563;11.75811068;1.107662323;-0.87950147;-16.91159623;10.53061633;22.67181906;4.531179918;6.264480261;2.376363212;-12.16231757;-10.52161098;-1.008185188;15.40662098;-4.106555142;0.939458448;-0.097749856
-7.366593508;3.027733349;1.873221819;0.247316076;-6.645726288;-1.541732222;-13.40412435;7.181892291;18.08131364;0.043448068;-1.681371456;-2.375893456;-14.47300838;-11.01755157;-1.073010196;10.14013508;-4.223734005;-2.172185876;-1.368769216
-12.87026826;-0.585759355;-1.976983826;-7.089514728;-10.65407611;-0.433319272;-12.46582411;6.099346809;16.4310023;-1.521639927;-6.313982044;-2.873319266;-13.45571587;-7.365329926;3.686383233;8.229130283;-1.739314826;-1.940412534;-0.883571302
-13.29736345;0.702888904;-1.211654062;-8.264658653;-10.6112145;1.690695063;-14.78230117;8.174540757;17.2884896;0.675548924;-7.347513709;0.173077395;-10.10799963;-0.70667838;10.36154475;10.37337222;1.776702839;1.063625756;0.902016156
-11.20908316;4.432156387;0.953332249;-5.272895736;-8.782994436;3.060736613;-18.09257006;11.71330796;18.19649906;4.225229901;-7.108790501;3.171161174;-7.024651201;5.059490321;13.14790459;13.68768064;3.908774542;3.802793519;2.386410003
-10.34312812;6.721979557;0.635171613;-2.076184522;-7.804000202;2.483994627;-19.34735413;14.26211259;17.22533614;5.771719149;-7.959596742;2.943609247;-5.811621791;6.198237087;7.897463733;14.15676336;3.019672661;3.278651851;2.257114137
-12.48214289;5.443781688;-3.427011699;-1.416402607;-8.370976644;0.424360721;-17.47985628;14.86693339;14.87716249;4.10719484;-9.917579893;-0.342790248;-5.452333021;2.004846075;-4.18208584;9.839901414;-0.761121488;-1.044167234;0.611691273
-16.28300219;1.558424573;-9.043709863;-3.116702516;-8.884428911;-1.395647845;-14.27165214;14.67499773;13.59148565;1.255242731;-10.66019033;-3.238075191;-3.206447351;-4.768542154;-16.84769193;2.210532977;-5.858748331;-6.926002846;-1.204258021
-18.87007813;-2.271012151;-12.74919237;-5.000091553;-7.20865063;-1.493484133;-12.61495754;15.48977248;15.36050412;0.636275266;-7.876920768;-2.025083567;2.72177674;-10.17283833;-23.05639437;-5.264090418;-10.49363006;-11.31776845;-1.833219287
-18.56945601;-4.295884519;-12.88688573;-5.238065623;-2.784507352;0.123240773;-13.8472358;17.81697186;19.68931387;4.022064616;-1.794137939;3.934976784;11.14799296;-12.01928646;-19.83007813;-9.880822007;-13.80429758;-12.84276094;-1.069758681
-16.29808406;-5.126729432;-10.84959618;-3.89792074;2.89259099;2.042538717;-16.60343287;20.31829424;23.79347838;9.989048785;4.463482749;11.41647846;18.37164278;-11.12497951;-10.02542291;-11.43445585;-16.06023223;-12.69430792;0.068674019
-14.48200204;-6.845064575;-9.505580017;-2.462720859;7.792708182;2.737089193;-18.16381975;21.15709016;24.88213219;15.16024299;7.088461667;15.75618547;20.80498547;-10.06774543;0.13098674;-11.67477659;-18.00398442;-13.3093039;0.358464085
-14.6418888;-10.77061661;-10.38738767;-2.069389544;11.32764554;1.868716195;-16.98138962;19.88746094;22.50216924;17.0392188;4.526711932;14.40959634;17.55397176;-10.80465078;5.526982787;-12.27884614;-20.02994049;-16.09807298;-0.501675821
-15.91558639;-15.99340048;-12.24263905;-2.303848227;14.83269122;0.46574907;-14.0548219;18.02753311;18.88069346;15.91508494;-1.344953168;8.679778302;10.8298161;-13.27809037;5.111629972;-13.29225824;-21.8925553;-20.22657809;-1.674319936
-15.84332594;-19.96618392;-12.21191212;-1.695994125;20.04251104;-0.110044861;-11.94346514;17.71349693;16.98544417;14.25845864;-6.755305036;2.322681085;3.989819302;-16.00497362;1.368158072;-13.35645718;-23.05819946;-23.41540005;-2.027564048
-12.65733799;-20.55132002;-8.496541464;0.652813374;26.97564143;0.590768146;-12.39882635;19.6545266;18.00899821;14.29967858;-8.950350943;-1.601675506;-0.995448981;-17.78555329;-2.617803612;-11.31411019;-23.24785962;-23.92904274;-1.217801197
-6.989796826;-17.67131942;-2.085527452;3.951556456;33.25968361;1.776826157;-14.8049954;22.30020257;20.43238756;16.02679233;-8.065976055;-2.909064507;-4.518432276;-18.79052945;-5.653505244;-7.572058631;-22.64461283;-21.96369598;-0.003973433
-1.486711355;-13.17661998;3.972019043;6.221282627;35.66220614;2.243001492;-16.81108478;23.05624965;21.40276907;17.34447244;-6.547263101;-3.808776626;-8.152729516;-20.07981122;-8.48462721;-3.934340093;-21.6433996;-19.28314268;0.474935117
1.292868456;-9.193414568;7.037801748;5.955045869;32.5931992;1.527965908;-16.50697604;20.52832301;19.16974984;16.13507466;-6.815959184;-6.451295136;-12.64547243;-22.19890306;-11.84088714;-2.093335524;-20.46591017;-17.54866416;-0.232800967
0.824875943;-6.512149777;6.880039063;3.372003392;25.42791689;0.315906557;-14.12179329;15.82257285;14.49741385;12.29063615;-9.264381126;-10.81240319;-17.01903973;-24.34974137;-14.72727239;-2.194213132;-19.03792927;-16.89809264;-1.472811148
-1.242972212;-4.397917997;5.490532648;0.095112251;17.49142675;-0.258235501;-11.73058114;11.73771428;9.946026923;7.892981716;-12.18445546;-14.73463378;-19.53398036;-24.98987383;-14.78959196;-2.778123185;-17.21130315;-16.01491195;-2.093270298
-2.773572943;-1.80938626;5.016040731;-2.423497468;11.55800075;0.290647104;-11.31260743;10.51756232;7.759730516;5.428691705;-13.46638401;-15.92704545;-19.4692739;-23.26463487;-10.47608632;-2.126312161;-15.05523436;-13.54432923;-1.511209034
-3.069756595;1.26348915;5.744971163;-4.224517236;7.965936374;1.340152346;-12.98223093;12.06884508;8.188848195;5.66297197;-12.43581769;-14.02282825;-17.93827144;-19.84179165;-2.931217075;0.226227928;-12.89372847;-9.526010991;-0.25364253
-3.350376746;3.642802387;5.94279323;-6.643582123;4.857913755;1.768177635;-14.98473219;14.12280217;9.556464929;7.040648843;-10.26104541;-10.86492388;-16.91431599;-16.29207978;4.27329656;3.14269254;-11.05050612;-5.550993318;0.520926631
-5.440725825;4.092486235;3.597188405;-10.75977586;0.196125869;1.041854442;-15.38480242;14.14646561;9.822938361;7.090620273;-8.756681214;-8.852158449;-17.35304815;-13.57981184;7.533428721;4.947415121;-9.57619558;-3.521022546;0.082616809
-9.936254457;2.597523969;-1.579789797;-15.95510462;-6.272102051;-0.243867282;-13.8397137;11.36890341;8.212369534;4.568760657;-8.807578821;-8.880997509;-18.16737377;-11.1287982;5.781975332;4.884230186;-8.258238798;-4.118381441;-1.192806928
-15.50615272;0.517974228;-7.716775049;-20.00591419;-12.75618453;-0.891142466;-11.83553427;7.290290724;5.601506496;0.503349388;-9.821180645;-9.678208148;-17.04784746;-7.434275954;1.103868547;3.652706799;-6.929430287;-6.311406584;-2.146141541
-19.9268585;-0.590076904;-12.27958024;-20.76352208;-16.95643441;-0.208480944;-11.23154232;4.39803859;3.568197797;-2.67048731;-10.5430103;-9.008929345;-12.44500681;-1.738879545;-3.041006017;2.59041294;-5.780653512;-8.284840851;-1.872692196
-21.89162088;-0.432863793;-14.1341144;-18.02309561;-17.93860393;1.320226162;-12.51439824;4.287059563;3.111167899;-3.056973697;-10.30925448;-5.608087691;-4.975528384;4.773309336;-4.407018515;2.304671606;-5.355190279;-8.957035774;-0.552775092
-22.00587919;-0.372793527;-14.35703832;-13.94201722;-16.72263006;2.431195317;-14.38246652;6.725531805;4.145596645;-0.668711933;-9.511568267;-0.159537494;2.97730782;9.475125342;-3.215841753;2.026944915;-6.189530796;-8.793527412;0.663360499
-22.15753954;-2.354588211;-15.14544368;-11.57423859;-15.2004387;2.193017337;-15.00386909;10.2420636;6.009260684;2.815364482;-8.907127329;5.397559549;9.108831693;10.22345217;-1.243615165;0.276465215;-8.398046566;-9.289757586;0.621407026
-23.88765064;-7.269126562;-17.8640397;-12.6779005;-14.46617772;0.835984079;-13.7368694;13.48796145;8.279149671;5.513786497;-8.552912735;9.467801376;12.88564406;7.144143212;0.138105665;-3.771391558;-11.56090698;-11.6429419;-0.852730419
-27.19078091;-14.15654921;-21.95743813;-16.54658067;-14.03825797;-0.443901613;-11.7058174;16.11344243;11.04443274;6.691354116;-7.497866681;11.84835958;15.6748741;2.738800827;1.03690726;-9.437042955;-15.00516281;-15.76269983;-2.785162537
-30.68796185;-20.90341401;-25.58644045;-20.72308783;-12.52251079;-0.525739483;-10.72340541;18.53198105;14.44793084;6.934152955;-4.630223471;13.40768835;19.29007813;0.14742393;2.305724494;-14.95290499;-18.21732807;-20.39056764;-3.825125825
-32.85439797;-25.7859746;-27.27217721;-22.88877435;-8.953205546;0.678447904;-11.59214724;21.03251267;18.07548799;7.222491988;0.038484786;14.85919511;24.26434207;0.92621021;3.906717643;-18.76553439;-21.01727461;-24.11042709;-3.287918118
-33.11322724;-28.51633206;-26.99158974;-22.33849371;-3.560487236;2.182194545;-13.37250199;23.21409602;20.89924891;7.890845141;4.834934521;15.84595978;29.29098087;4.077134408;4.200539066;-20.58898248;-23.35678539;-26.31903139;-1.612631075
-31.86728222;-29.95322466;-25.77944412;-19.95701439;2.592012628;2.801709513;-14.2813644;24.26574145;21.89606739;8.40295919;7.214780914;15.16091723;32.18087081;7.004132796;1.125880955;-21.33141176;-24.96531865;-27.36484371;0.084720506
-29.61705773;-30.85876044;-24.3365661;-16.98092963;8.533187742;2.149224728;-13.36415708;23.72360972;20.77897007;8.004135003;5.353580238;11.84288338;31.40972337;7.512017538;-5.631714025;-22.02341592;-25.22028238;-27.85828968;0.917852574
-26.17299515;-30.91537723;-22.0730828;-13.82560735;13.85385208;0.877300188;-11.38020246;21.89258122;18.16530644;6.504771798;-0.645730421;6.129713811;26.97927787;5.227308163;-13.51654017;-22.72894513;-23.42716107;-27.87103177;0.822111673
-20.83124115;-28.93929472;-17.59083177;-10.04855559;18.30011699;0.014617069;-10.08930916;19.507411;15.04381435;4.418316205;-8.784008506;-0.550029297;20.08301259;1.455204178;-18.34638155;-22.39076104;-19.32705372;-26.77356419;0.403679584
-13.40728697;-24.11563311;-10.24174078;-5.380723867;21.07186419;0.045019442;-10.61447256;16.99485574;12.04840211;2.368916528;-16.32242618;-6.478183632;12.13976403;-2.147723395;-17.2220791;-19.72163494;-13.43055832;-23.84179206;0.285517687
-5.136145339;-17.13861835;-1.34606661;-0.753861235;20.77977261;0.566688286;-12.40037107;14.09097673;9.178869458;0.394903935;-21.18265776;-10.64332075;4.146399382;-4.814926531;-10.82357999;-14.36254009;-6.89557848;-19.07669502;0.577758808
1.524002873;-10.19240337;6.127942604;1.73605937;16.3663608;0.790336607;-13.7220986;10.19805353;6.131854926;-2.154384331;-22.71314849;-13.07326654;-3.245398302;-6.834715497;-3.117030978;-7.346948953;-1.015074983;-13.51407759;0.905026468
4.221676003;-5.689043812;9.323561458;0.029786936;8.253791102;0.353686267;-13.26330286;5.122488642;2.814544602;-6.016629887;-21.57492844;-14.40859473;-9.349595306;-8.727827289;1.474715443;-0.538014792;3.33667388;-8.749891751;0.875934744
2.211107834;-4.726457737;7.358425536;-6.445892987;-1.414581841;-0.333622831;-11.30780065;-0.539306268;-0.509061966;-11.25559229;-19.12595317;-15.23768969;-13.43605433;-10.3841153;1.295076223;4.450218311;5.954517448;-6.045203017;0.499141646
-3.141200282;-6.454681996;1.845920031;-16.19297205;-9.871526626;-0.524559005;-9.461006419;-5.743874382;-3.547539039;-17.01326693;-16.8119554;-15.75483625;-15.22982763;-11.01231591;-1.462632004;7.000123111;7.161104979;-5.668300749;0.158160249
-9.233472738;-8.790302884;-4.283783125;-26.30973196;-15.39662117;0.090324274;-9.175697259;-9.726283077;-6.359062632;-21.96871081;-15.76416252;-15.8515081;-15.35324172;-9.897723044;-2.668106693;7.453076139;7.460718209;-6.889821272;0.209246833
-13.80995095;-9.86315475;-8.690553953;-33.84971094;-18.20840894;1.024172652;-10.44285823;-12.3944119;-9.278251677;-25.09330075;-16.50836987;-15.33609433;-15.05538877;-7.187741788;0.364996999;6.533287398;7.255659823;-8.534215177;0.619468312
-16.08717384;-9.089178594;-10.81545026;-36.94127883;-19.83668213;1.407685331;-11.83478587;-14.03300103;-12.37879537;-26.10710955;-18.72857892;-13.99932003;-15.25195623;-3.935903959;6.709490718;4.842968256;6.759060863;-9.642043259;0.997370117
-16.72225044;-7.17688676;-11.61894192;-35.14813898;-21.53471778;0.798292666;-11.83493742;-14.68302846;-15.01190325;-25.38239218;-21.27320757;-11.58610626;-15.68170469;-1.361854751;12.54187082;2.799427349;6.050039063;-9.837085737;0.975025785
-16.8634869;-5.265464937;-12.33105217;-29.23627337;-23.12344272;-0.371510269;-10.21983419;-13.92329191;-15.99989381;-23.52801862;-22.64237277;-7.939027432;-15.04255311;-0.009242741;14.10906594;0.849907812;5.143616401;-9.294612067;0.564974309
-17.15204504;-3.998789438;-13.35172327;-20.81106956;-23.26215371;-1.13688214;-8.236833842;-11.38727336;-14.48719739;-21.06320438;-21.855712;-3.364626502;-12.14178247;0.461550544;10.56862495;-0.477868801;4.015224031;-8.475537168;0.150148043
-17.40341452;-3.228354769;-14.10927022;-12.0238777;-20.85519046;-0.838839417;-7.44388194;-7.553489476;-10.77190127;-18.35250673;-19.14671848;1.132828443;-7.108870405;0.731593163;4.522351749;-0.89147596;2.619202372;-7.843229938;0.121279091
-17.02154923;-2.41536426;-13.76492894;-5.144178746;-16.27886273;0.293038477;-8.296594312;-3.937592139;-6.325007282;-15.64294521;-15.86537846;4.199016433;-1.534529971;1.102996949;-0.044564712;-0.725898926;0.953352171;-7.66930963;0.508792759
-15.62240525;-1.251359215;-11.99214427;-1.787995339;-11.27044035;1.334545039;-9.771421519;-2.255325948;-2.832102471;-12.98814112;-13.50189374;5.054654711;2.718348157;1.282290957;-0.694457197;-0.901201702;-0.851411771;-7.933212571;0.954904683
-13.31576163;0.041371952;-9.166942558;-2.050471763;-7.524988154;1.459697116;-10.33932146;-3.082194849;-0.951711951;-10.09809965;-12.49637832;4.346987188;5.074375095;0.820897557;1.935724154;-2.25570144;-2.500742782;-8.316846448;1.047719492
-10.52311787;0.894564799;-5.953038325;-4.215117106;-5.221970894;0.626326115;-9.368143382;-5.137142945;0.192059715;-6.392064054;-11.79859478;4.091664576;6.786122872;-0.274591409;5.040652062;-4.672025057;-3.619435731;-8.327279014;0.702383099
-7.629810582;0.823063963;-2.790776702;-5.546627558;-2.802649859;-0.437221412;-7.667059511;-5.948116952;2.30883106;-1.429873915;-9.633242597;6.463993695;9.872755697;-1.397336795;6.078145422;-6.744714034;-3.901439233;-7.54151371;0.236610762
-4.814908693;-0.249098413;0.243758277;-3.900219249;1.747551654;-0.898247068;-6.703697127;-3.554105573;6.542871446;4.504002319;-4.957231478;12.16893689;15.26592722;-1.833980138;4.742857827;-6.433521574;-3.220087891;-5.857362759;0.075946475
-2.120407044;-1.926111088;3.209966663;0.880536252;9.149353353;-0.520776013;-7.247793095;2.012577561;12.47687349;10.18753946;1.529136249;19.6249184;21.72410728;-1.455390553;3.035508756;-2.393610424;-1.635733355;-3.57296152;0.36467199
0.439544688;-3.477400952;6.073646878;6.826390596;18.04271948;0.211723505;-8.696244689;8.626374399;18.32725156;13.96879586;7.663754517;25.70718016;26.48772979;-0.970525972;3.557115228;4.926483432;0.658467448;-1.209594455;0.838455751
2.902304955;-4.053675323;8.762395145;11.1549752;25.77049883;0.612210181;-9.674217974;13.44948678;22.16037355;14.76229443;11.22803666;27.6222648;27.19210185;-1.501494841;7.459538869;13.26111943;3.363785144;0.807683487;1.068998468
5.447505243;-2.938917576;11.39467919;12.12349677;30.04894084;0.427671158;-9.320845723;14.73423845;23.15790719;12.81011879;11.39571847;24.5738479;23.488683;-3.832092539;13.56147679;19.69406333;6.05515786;2.367347817;0.851875518
8.342659634;0.170172435;14.32187454;10.08057158;30.19765378;0.006368746;-8.057680381;12.70283444;21.97341623;9.568414977;9.107137246;18.01643843;17.08046109;-7.934225181;19.10194369;22.2833671;8.20108341;3.621873906;0.385833973
11.66898736;4.954270212;17.80307223;6.997178029;27.10232029;-0.124243816;-7.149185468;8.97014168;20.00601356;6.743830151;6.128942184;10.398519;10.23184503;-13.08774108;21.394049;21.08145017;9.329357318;4.743333776;0.088438757
15.04;10.51528535;21.56204136;4.935349222;22.20570639;0.173500351;-7.498216881;5.166132331;18.28511385;5.209754372;3.621061013;3.464398262;4.084078683;-18.38381223;19.18230114;17.91225713;9.311689809;5.73484065;0.221729719
17.63681266;15.76362881;24.69344457;4.684870485;16.54487371;0.497102716;-8.814899681;1.971911902;16.89467807;4.654648413;1.394367895;-2.552239929;-1.80425117;-23.13171555;12.9825838;15.11925508;8.566829028;6.490406158;0.664351322
18.64876215;19.96466582;26.12542054;5.551685098;10.5918733;0.318946743;-9.9219889;-0.726787625;15.32050835;4.210674297;-1.580670635;-8.34502773;-8.411035397;-26.88494132;4.529169561;14.15404739;7.952457085;7.040708354;1.02585387
17.81628146;23.04850498;25.32395251;6.273621533;4.757740137;-0.440423942;-9.884483575;-2.93613537;13.29452227;3.47796914;-5.915994126;-14.25660892;-15.75368542;-29.22402751;-4.056070327;14.8978566;8.312386042;7.709903452;0.99207866
15.6075562;25.39768198;22.64653633;6.150182466;-0.216420338;-1.250029297;-8.88774756;-3.928201662;11.33123195;3.021304651;-10.90530627;-19.5268642;-22.35089654;-29.65292861;-10.88274879;16.04330266;9.937850031;8.958603953;0.594474677
12.83234119;27.24579022;19.02097201;5.431799759;-3.544586563;-1.402999091;-8.041217932;-2.598736969;10.482073;3.882074958;-14.75478823;-22.7333152;-26.14631483;-27.79247288;-14.63465713;16.15559244;12.33625389;10.98096518;0.175467422
9.995234984;28.20567102;15.2242237;4.779231467;-5.11762954;-0.665294898;-8.303176082;1.463001745;11.53381773;6.527003916;-15.76728118;-22.98524571;-26.07247826;-23.70055091;-14.80584172;14.66126026;14.52258597;13.39697673;0.092093691
6.962797859;27.41355547;11.41247969;4.444028311;-5.857607114;0.462793656;-9.546749218;7.193081464;14.33132339;10.17915406;-13.54268071;-20.76959283;-22.87712918;-17.9910812;-11.87221528;12.1638051;15.66242939;15.36157948;0.417873613
3.27801864;24.27669919;7.333245785;3.993488066;-7.163333724;1.133932638;-10.65065935;12.37356281;17.76166129;13.17608972;-9.290911559;-17.68593943;-18.51329699;-11.61657904;-7.209006367;9.977011288;15.60491795;16.07959138;0.888299428
-1.121658585;19.2395987;3.009839268;2.810300395;-9.775138104;0.862207744;-10.53525466;14.92626668;20.37765307;14.12052871;-5.088110668;-15.30727245;-14.6633995;-5.506534874;-2.587190998;9.241385789;14.90349011;15.34563977;1.120046387
-5.431688414;13.86150676;-0.785834263;0.834695795;-13.03206655;-0.071702001;-9.178233795;14.19039097;21.16573746;12.88862698;-2.690777304;-14.15204125;-11.67986635;-0.364827942;0.588138028;10.17852368;14.30963561;13.66106361;0.914051044
-8.246364538;10.0015093;-2.805006941;-1.199746609;-15.26174359;-0.875295877;-7.660704673;11.17658499;19.93989708;10.65325776;-2.737818046;-13.60190834;-8.775807845;3.290616436;1.82391384;11.8996638;14.14013001;11.80737826;0.405615722
-8.439260642;8.657937257;-2.199964431;-2.280766835;-15.08372781;-0.927785852;-7.194492773;7.631540441;17.21210762;8.8966901;-4.73615744;-12.72694925;-5.147443159;5.066347696;1.475474744;12.85722545;14.02358946;10.21792114;-0.034908639
-5.980116873;9.361346677;0.722945115;-1.903293667;-12.56637145;-0.287362699;-8.026552388;4.71814894;13.78300426;8.235030439;-7.598096526;-11.19953646;-0.923212087;4.863651691;0.158197553;11.69866789;13.23384146;8.683050319;-0.056546062
-2.01494075;10.62600625;4.566150644;-0.396480064;-9.230861637;0.409824036;-9.229192335;2.387724954;10.39767819;8.032192712;-10.21336365;-9.482747942;2.899632873;3.219744157;-1.814439414;8.085591068;11.34972964;6.658302819;0.447357459
1.880821641;11.11193635;7.74028933;1.486936444;-6.837859558;0.539012008;-9.564260192;-0.117716226;7.615284862;7.111313636;-11.74273032;-8.220799047;5.355443744;1.413122899;-4.429472292;3.039843823;8.716337954;3.92382006;1.276070604
4.694057247;10.55296147;9.498388417;3.284320425;-5.921930726;0.019976849;-8.618795457;-3.172620138;5.798430987;4.944261389;-11.70545324;-7.519687009;6.28930905;0.962792014;-7.42114669;-1.422802486;6.329341184;1.009917204;2.032360076
6.444043722;9.69892255;10.2723032;5.116765834;-5.267689569;-0.670534866;-7.16554575;-6.101845226;5.072435944;2.295492901;-10.08768551;-6.876559246;6.234589532;2.646203725;-9.787754911;-3.268567626;5.201978432;-1.037260882;2.328955097
7.824052561;9.369193828;11.07007813;7.259896363;-2.755631285;-0.978687984;-6.425347992;-7.553710257;5.239493459;0.747983257;-7.510661059;-5.848174305;5.549840609;5.711888003;-10.06886352;-1.577857763;5.660873445;-1.430550609;1.988483302
9.409102158;9.502670956;12.49424495;9.426043931;3.091808186;-0.775247362;-6.925228579;-6.613312177;5.770660158;1.462487111;-5.228890991;-4.786952312;3.756943039;8.01955616;-7.432545322;2.787589411;7.066486973;-0.350805569;1.151615175
11.15725401;9.118653026;14.24704581;10.53821055;12.03826443;-0.418409934;-8.014705036;-3.723827546;5.976336983;4.152620904;-4.722236583;-4.848285943;-0.128955625;7.230953368;-2.770490909;7.441691096;8.151071124;1.025380606;0.237007377
12.61571454;7.310781095;15.53069469;9.371268226;22.24434629;-0.351269352;-8.48616798;-0.641241417;5.298523223;7.092539181;-6.963516942;-7.122146778;-6.455150609;2.330794118;1.276110895;9.6412888;7.753182448;1.289074999;-0.254987481
13.5717834;4.439513933;15.93371342;5.617656194;31.30035153;-0.647141743;-7.718702211;0.570859425;3.544993633;8.167562862;-11.79649931;-11.57978246;-14.02762377;-5.609148329;1.752925174;7.799014746;5.494086887;-0.169114442;-0.020756939
14.46736385;2.403005312;15.94935059;0.44955998;37.29861425;-0.949614421;-6.279531621;-1.238912756;0.924264304;6.191351055;-17.88863999;-16.77818968;-20.42982467;-14.02560969;-2.520714391;2.488805108;2.013637332;-2.633829152;0.842184579
16.10407522;3.547582533;16.59648587;-4.023781232;39.26038375;-0.860063477;-5.420264181;-5.734565139;-2.101766993;1.554906134;-23.35315585;-20.67495099;-23.52229043;-20.41931455;-9.768062691;-3.703051798;-1.333675153;-4.477669704;1.862407895
18.82314248;8.905562868;18.42702158;-6.104085632;36.95152834;-0.384970245;-5.928576876;-11.47707479;-5.011020507;-4.178286709;-26.65891104;-21.97282769;-22.99561166;-23.74579649;-16.07697718;-7.490419054;-3.130112932;-4.253601372;2.481925522
21.86820177;17.09376109;20.78791428;-5.648258221;30.63364537;0.010273151;-7.393408143;-16.87028246;-7.346659277;-9.333034662;-27.26224372;-20.94836233;-20.68930164;-24.66648869;-17.88576935;-6.663070622;-2.553426108;-1.696825303;2.434908941
23.55755497;24.80761338;22.03871028;-4.108244286;21.14614122;-0.179352429;-8.562745305;-20.95248721;-8.775260319;-13.03167545;-25.64400843;-19.12671063;-19.34443841;-24.59095079;-14.42614514;-1.297253125;0.26835195;2.080171607;1.939990131
22.2551796;28.68123243;20.63811827;-3.425641438;10.13021406;-0.987254899;-8.468955278;-23.57479797;-9.144525149;-15.37093021;-22.88270315;-18.09435311;-20.72979815;-24.36222257;-8.268686277;6.328960571;4.362307773;5.337055046;1.530963723
17.46661071;27.25696077;16.27555919;-4.640308284;-0.152831316;-1.863572768;-7.292780372;-25.04440344;-8.555761767;-16.90052284;-20.1550149;-18.40345858;-24.57891711;-23.63507797;-3.43735841;13.07033995;8.419898801;6.864605144;1.622634969
10.25160844;21.71956878;10.16289853;-7.267798862;-7.663845114;-2.101526363;-6.179211951;-25.66509259;-7.37182693;-17.93340212;-18.44578916;-19.38123058;-29.0772809;-21.35336383;-2.418890647;16.67970354;11.45273655;6.740292802;2.14234675
2.651896342;14.95740472;4.266194658;-9.847095646;-11.64300456;-1.443976251;-6.180225875;-25.54457476;-6.076474445;-18.2444969;-18.43947457;-19.87803466;-32.35893851;-16.82533238;-4.338600603;16.91679425;13.2355779;6.171361606;2.541707373
-3.436462208;9.700719485;0.086928655;-11.12292603;-13.02443613;-0.331292427;-7.295435019;-24.70271239;-5.021799192;-17.32435474;-20.38978715;-19.25448629;-33.71172058;-10.47906614;-5.778853826;15.34590689;14.26207411;6.566192059;2.215957861
-7.144102815;7.057112591;-2.084695182;-10.88248826;-13.71046582;0.441566369;-8.484184355;-23.24378029;-4.232330398;-14.90067214;-23.89219476;-17.81255825;-33.57;-3.7404481;-3.697343844;14.02845028;15.21968774;8.502030171;1.016900242
-8.716175862;6.340158083;-2.954710122;-9.843410508;-15.11432114;0.369782597;-8.627495735;-21.36502704;-3.426709827;-11.27249891;-27.75720165;-16.42665133;-32.50682664;1.77163027;1.804002262;14.03642668;16.32741029;11.30255716;-0.560917385
-8.89802225;6.073167881;-3.345763282;-8.818368616;-17.05876803;-0.369143119;-7.551204095;-19.1978583;-2.250130327;-7.202226674;-30.28;-15.79724723;-30.3005657;5.061939154;7.121590811;14.80174442;17.03129061;13.49460728;-1.699553337
-8.20354676;5.255388368;-3.434611279;-7.945907129;-17.92774127;-1.102628586;-6.175399725;-16.6746081;-0.531727555;-3.478054908;-29.96317119;-15.96941232;-26.00492131;6.06287835;7.678609322;14.71003906;16.35038075;13.80657441;-1.852712889
-6.637051975;3.959204969;-2.706429513;-6.636779494;-15.99904593;-1.24556445;-5.664000015;-13.60083239;1.631979343;-0.499554034;-26.34677391;-16.41972777;-18.97368965;5.427913413;1.546701267;12.46672869;13.69266441;12.02025673;-1.148577968
-3.990303951;2.987418275;-0.581673223;-4.222865183;-10.92147094;-0.76054963;-6.363279677;-9.916636591;3.993981011;1.81068134;-20.39734451;-16.49840825;-9.888854033;4.181282799;-8.611048129;8.227355126;9.549209844;9.116111195;-0.275108783
-0.358280756;3.061297407;2.874308832;-0.709855108;-4.154456932;-0.113299073;-7.501397182;-5.935925715;6.313796266;3.738851751;-14.12277168;-15.79288204;-0.813755784;3.4906991;-16.90897417;3.673664564;5.475274552;6.648982413;0.061068467
3.612834939;4.260366696;6.767618297;3.000357956;1.995293882;0.193355116;-7.913125257;-2.330452621;8.388537271;5.401966195;-9.583095453;-14.18786486;5.861525514;4.471624731;-18.09643183;0.988758518;3.246896776;5.805296637;-0.335179565
6.959474102;6.088103679;9.857680604;5.571103833;5.991006083;0.057774796;-7.113232732;0.202559305;9.976275253;6.585233335;-7.875531301;-11.75210723;8.771123544;7.782574087;-11.16474941;1.473720659;3.717716662;6.776077041;-1.050126198
8.924673277;7.969458766;11.31162093;5.990470107;8.082722179;-0.199674901;-5.732018566;1.411944547;10.8003246;6.947094296;-8.678283952;-8.706188719;8.191286864;13.05041038;-0.076817125;4.77778075;6.196070485;8.82366104;-1.453942039
9.374246598;9.68296054;11.16627431;4.087128375;9.967639962;-0.212934001;-4.923361368;1.789825821;10.76459931;6.445009654;-10.55732553;-5.526201863;5.551931985;18.58955498;8.916065059;9.230535971;8.842435422;10.91975519;-1.236872576
8.825388435;11.38464755;10.20660699;0.542058103;13.40442564;0.045296721;-5.301564494;2.443954123;10.24045984;5.627472401;-11.77721065;-2.974704261;2.374811632;21.92899936;11.40972;12.95072875;9.854332692;12.44836269;-0.639455557
8.107016471;13.28454538;9.414734464;-3.465607738;18.85783937;0.246681145;-6.387516801;4.53172417;10.07897166;5.487954527;-11.13287086;-1.844554276;-0.470707163;21.12266467;7.46456334;14.88509275;8.612944954;13.46819848;-0.205227887
7.900966249;15.31478469;9.401734992;-6.677853776;25.14082583;0.064122029;-7.065110317;8.527579153;11.13550857;6.879334055;-8.422317988;-2.491713596;-2.746309543;16.07427643;0.953113562;15.08171612;5.98534331;14.40097697;-0.295120016
8.431534015;17.07614109;10.15731621;-8.077742257;30.20096349;-0.458594719;-6.616260608;13.76100198;13.5361117;9.847303998;-4.446036447;-4.525121147;-4.371376371;8.850565746;-3.639169573;14.16723361;3.608198023;15.46561635;-0.79143957
9.424531685;18.07055035;11.17589672;-7.145590133;32.37134563;-0.900115794;-5.377737657;18.57966613;16.28773922;13.38689699;-0.626695025;-6.98354201;-5.159657733;2.552875134;-4.417665709;12.61792008;2.733356687;16.36398949;-1.233083384
10.29232557;17.99417195;11.78947498;-4.099815724;31.19669735;-0.843266665;-4.421661074;21.15686884;17.72496872;15.90375457;1.58570076;-8.940334485;-5.072779903;-0.600292254;-2.936624186;10.49250691;3.502086582;16.4974323;-1.23873847
10.4208598;16.86257062;11.49369364;-0.001369667;27.40937032;-0.289335717;-4.564094961;20.53801202;16.66344361;16.17780066;1.343694689;-10.07796234;-4.638733603;-0.625036052;-2.320684185;7.79725202;5.12197621;15.5352556;-0.833489157
9.436631466;14.92193869;10.14400534;3.505676934;22.291633;0.298809253;-5.618369017;17.28345182;13.46116247;14.21417064;-1.153558787;-10.75486486;-4.907813947;0.474478341;-4.385048151;5.03461082;6.686786706;13.83891311;-0.399997819
7.362028693;12.47553755;7.994281473;4.878514437;16.98385566;0.39090174;-6.574029597;13.23104098;10.08325492;11.35840937;-4.647083173;-11.50586039;-6.731356414;0.406097507;-8.122397557;3.294672691;7.906677179;12.33765024;-0.319589448
4.601088692;9.776587003;5.58730535;3.486301059;12.13192037;-0.124790542;-6.525790185;10.43823954;8.929442508;9.516104737;-7.359249493;-12.41828019;-9.874508239;-1.531398248;-10.65661401;3.65638567;9.168266449;11.89405445;-0.637398805
1.753474369;7.026793833;3.524140117;0.023729408;7.890885206;-0.809913182;-5.492876132;9.943154059;11.1608848;9.953522831;-7.91165697;-12.95317486;-12.80215208;-3.832279311;-9.710617087;6.318408295;10.95519761;12.63570403;-1.045519141
-0.659423166;4.408359677;2.190654446;-3.818269322;4.089223555;-1.034401839;-4.382221057;11.17593999;15.75747258;12.49299877;-6.134029431;-12.40022795;-13.53022588;-3.914051882;-5.48386471;10.19678406;13.19463865;13.79282519;-1.17941079
-2.404069548;2.071342884;1.580315625;-6.268096629;0.420298683;-0.51856577;-4.143968351;12.45274655;20.07574624;15.66801747;-3.237933196;-10.59240075;-11.0441455;-0.137833011;-0.459750539;13.40699288;15.11369886;14.19845831;-0.944288065
-3.551069987;0.07947903;1.336977123;-6.386645324;-3.329019286;0.417205891;-4.905659183;12.22615441;21.56093416;17.71897537;-1.176623893;-8.261617599;-6.219440941;6.805301354;2.546317237;14.34052301;15.71400346;13.07771221;-0.578123167
-4.298597412;-1.616204188;1.010638176;-4.399620602;-7.010806905;1.113583655;-5.876511309;10.19748721;19.37030287;17.69794635;-1.550940632;-6.710642724;-1.464359403;14.15832829;2.368654004;12.54841286;14.44249191;10.51474465;-0.412360086
-4.751403378;-3.1268251;0.355620065;-1.327900619;-9.964166825;1.111658567;-6.092485207;7.475553191;14.72923108;15.88802202;-4.750486334;-7.047601689;0.749221049;18.78036914;-0.111790064;8.790381847;11.50891767;7.250336859;-0.567523026
-4.840802112;-4.526980027;-0.546958344;1.686573017;-11.20720718;0.50080806;-5.30028831;5.674247748;9.834351991;13.29078714;-9.860791108;-9.57294383;-0.551189832;19.01671424;-3.290495673;4.287218496;7.653384776;4.021303097;-0.86605271
-4.446979689;-5.783941331;-1.423190599;3.821126664;-10.0069493;-0.209718423;-4.165373014;5.651973603;6.237475328;10.66744279;-15.320583;-13.73455803;-4.271362182;15.50927553;-6.494727604;-0.14605128;3.653055199;1.038502901;-1.027395086
-3.594845115;-6.757051157;-2.056370548;4.573253664;-6.503433919;-0.550756643;-3.628624238;6.869686738;3.979702612;7.950628766;-19.80014179;-18.55998359;-8.019102439;10.57390335;-10.3474636;-4.354363452;0.033727726;-1.923863545;-0.942020943
-2.509936018;-7.236318985;-2.406350571;3.584982091;-1.881627517;-0.459640028;-4.026591418;7.84964425;2.046353843;4.507462959;-22.69142266;-23.112402;-9.59374562;6.774191573;-15.46791702;-8.330424272;-2.81734478;-4.900392983;-0.754300302
-1.435934137;-6.961758467;-2.475206921;0.699620654;2.174637421;-0.243111442;-4.798006159;7.341012229;-0.403145621;0.005506674;-23.99195445;-26.61870929;-8.156732145;5.696231587;-20.773799;-11.4923709;-4.37735878;-7.151925062;-0.677631387
-0.346901691;-5.618617779;-2.055304232;-3.662774887;4.471042199;-0.215134047;-5.040360268;5.248975529;-3.162020386;-4.887957733;-23.8738779;-28.34841812;-4.411233728;7.524190117;-23.20454437;-12.52787496;-3.971186444;-7.241782384;-0.732014962
1.169220469;-2.879959064;-0.653379153;-8.197849698;5.052194684;-0.38119449;-4.382733961;2.606866356;-5.182377337;-8.625592717;-22.42179505;-27.62837266;0.100884042;11.3192253;-19.5841259;-10.1064226;-1.176767606;-3.876015977;-0.678753027
3.673684612;1.429558526;2.22904521;-10.99057666;5.138660519;-0.470938916;-3.349302834;0.672708975;-5.585690951;-9.709046786;-19.76224413;-24.23144867;3.92688613;15.53221667;-9.437160565;-3.985351987;3.633597381;3.035890938;-0.244251524
7.387409164;7.07906342;6.595222402;-10.46296983;6.261803722;-0.26722807;-2.870183761;-0.062452646;-4.510753684;-7.752125369;-16.36686919;-18.90292064;6.238987392;18.43454737;3.532973474;4.380544453;9.123577836;11.90088797;0.558625263
11.7966397;13.24900314;11.62213835;-6.442733511;9.211325827;0.113786354;-3.398663918;-0.142373292;-3.035546639;-3.871741315;-13.11491944;-13.46373605;6.826546566;18.50925124;12.86830624;12.30512324;13.46703861;19.98256574;1.321956338
15.69431259;18.61552275;15.83714004;-0.518606534;13.54181912;0.288939326;-4.466142103;-0.531856983;-2.281917341;-0.099956337;-10.93196449;-10.13444833;5.81755805;14.95163343;13.12267326;17.19432155;15.23040349;24.68857138;1.490808839
17.71341566;21.76472021;17.79003906;4.736865198;17.93675224;-0.024272168;-5.100338009;-1.71582336;-2.542445891;1.770078125;-10.25606931;-10.35324222;3.465111495;8.169312141;3.502846882;17.86529238;14.0798196;24.81183224;0.798385376
17.05164489;21.77787532;16.82396436;7.249820701;21.07767949;-0.690604867;-4.725676575;-3.306151149;-3.205383696;1.116811893;-10.79859837;-13.88247324;0.100316142;-0.124659946;-11.23961132;15.01430495;10.84214498;20.98643906;-0.465648985
13.92955522;18.67860133;13.44016865;6.608781758;22.34454892;-1.215174145;-3.70849829;-4.450292379;-3.485467549;-1.359182546;-11.84148091;-18.91029726;-3.86794845;-7.547659015;-23.47225301;10.61741259;6.926381416;15.17368134;-1.594281122
9.490379367;13.47799982;9.019921005;4.069259741;21.90845284;-1.155991469;-3.031274377;-4.604967108;-3.224591228;-4.231793145;-12.83709738;-23.15677321;-8.018765828;-12.21827554;-27.21721346;6.771320484;3.55675748;9.606417255;-1.927944132
5.215723335;7.77725863;5.102674397;1.427880938;20.31748453;-0.527632319;-3.385267311;-3.940738577;-2.99335345;-6.184117408;-13.78787259;-25.22626216;-11.99910644;-13.73907151;-21.55227829;4.750426121;1.330009766;5.855634717;-1.300406523
2.229643168;3.139805762;2.695554254;-0.331302162;18.03458556;0.180710936;-4.515434555;-3.03409843;-3.416126136;-6.54725925;-15.06171789;-25.24631096;-15.48563531;-13.25082756;-10.69281189;4.74188685;0.279203808;4.448095253;-0.134417645
0.892026766;0.558116447;2.006225018;-1.552998117;15.28873288;0.409898974;-5.428153441;-2.202743782;-4.397127868;-5.357896796;-16.8049743;-24.38362561;-18.02155081;-12.4362506;-0.90631181;6.168885454;0.219334353;5.02763742;0.87171923
0.85003418;0.248515469;2.647891059;-3.22291166;12.20975335;0.009206696;-5.28250525;-1.183393487;-5.028663549;-3.116916264;-18.49752232;-23.69366641;-18.92086296;-12.16146058;3.466316988;8.191275065;1.00664126;6.771912864;1.220291796
1.415678171;1.790113972;4.047932085;-5.709854435;8.945685376;-0.636735221;-4.154744478;0.492430925;-4.315356765;-0.52646623;-19.10038402;-23.24256581;-17.45839164;-11.77831803;2.207377535;10.06202903;2.534593988;8.792211735;0.907536224
1.979754545;4.437155763;5.733561434;-8.053201295;5.564905414;-0.947711352;-2.975459735;2.784673349;-2.058430865;1.684942094;-17.73932074;-22.16169527;-13.32916241;-9.650914754;-1.545958007;11.30452448;4.585697782;10.41655026;0.352787807
2.232139018;7.393290694;7.366420314;-8.47063941;1.880236131;-0.652528796;-2.692287991;4.855282101;0.938627176;2.924852648;-14.38572224;-19.50992072;-7.058658119;-4.541538228;-4.051716133;11.82179109;6.770975438;11.36094652;0.057238472
2.145097171;9.941690909;8.646043499;-5.749962386;-2.486618979;-0.011303353;-3.418840041;5.633949375;3.570058594;2.957703415;-9.964616379;-15.1827372;0.02042203;3.181793284;-3.492854081;11.94428317;8.644071204;11.76169854;0.255998744
1.832717799;11.47515619;9.284764203;-0.429030488;-7.686224279;0.433355545;-4.344185485;4.861093008;5.413486364;2.093510845;-5.775903531;-10.12296419;6.324488108;11.44119123;-0.597369317;12.27288304;9.861881197;12.00121005;0.788304707
1.430218516;11.54602386;9.131826435;5.219250458;-13.17031323;0.340054932;-4.4836225;3.676284235;7.09151468;1.151178491;-2.671602428;-5.697095403;10.78538555;17.56499372;2.672486919;13.24662594;10.21937016;12.35645978;1.232048723
1.060432476;10.00574556;8.335874142;8.479524807;-17.66841061;-0.152661589;-3.584543081;4.078017442;9.655578775;1.115161018;-0.616384447;-2.769568818;13.30869504;19.86559972;4.949285586;14.66459657;9.556679488;12.69330901;1.182795124
0.858932684;7.176521242;7.364606934;7.872485468;-19.82351662;-0.592541418;-2.361309607;7.502413826;13.54139286;2.65270368;1.075645249;-1.194693552;14.62465259;18.62763777;6.26442583;15.60877226;7.725023107;12.50477879;0.504616853
0.987453451;3.900283075;6.806065454;4.040009766;-19.1125343;-0.650762135;-1.846472079;13.58708529;18.0612421;5.80349976;3.088580485;-0.052000945;15.69028185;15.91174727;7.400118352;15.02789812;4.772552112;11.38016303;-0.569104778
1.59014252;1.332794386;7.055487456;-0.741502959;-16.31384764;-0.412274626;-2.450976716;20.16430989;21.92417937;10.03580715;5.596003259;1.644513153;17.11176584;14.38478428;8.679007211;12.69043551;1.256699868;9.598505195;-1.522077355
2.703764941;0.497595794;8.088815603;-4.003436377;-13.03219479;-0.251353509;-3.588990954;24.61347845;24.32810569;14.57555099;8.265022255;4.33118388;18.96566728;15.94035452;9.474822145;9.749465321;-1.651815287;8.307978175;-1.79437286
4.178939642;1.796006163;9.466876476;-4.447110023;-10.52330675;-0.423533422;-4.206687746;25.61349527;25.61569134;18.721314;10.66157528;7.752410821;21.01218212;20.85131673;8.92610358;8.278079796;-2.557531849;8.965758958;-1.08169911
5.679985601;4.754552934;10.56226083;-2.373894287;-8.693236625;-0.777694953;-3.732334492;23.97267621;26.85560471;21.93634042;12.61187237;11.23181683;22.97461483;27.74606389;7.107355645;9.877313507;-0.632492751;12.29068358;0.447065874
6.799256707;8.197662503;10.87424369;0.902524571;-6.116447769;-0.880335446;-2.585846837;21.90140747;28.69058638;23.77166784;14.17095322;14.01811671;24.58733148;34.23197398;5.386724942;14.29091694;3.684571674;17.47597943;2.158647832
7.255950502;10.79494927;10.27057812;4.040152158;-1.178196012;-0.449753693;-1.790452743;21.29421942;30.5009695;23.85139342;15.26275035;15.45067872;25.43331497;37.79684361;5.38857129;19.15486933;8.647314688;22.35917884;3.24258712
7.077773562;11.69310684;9.054390085;6.300250636;6.447470196;0.310184131;-2.04413034;22.34206597;30.70637891;22.05681235;15.39662182;14.98288263;24.8705125;36.68379338;7.318875427;21.28370351;11.98977446;24.59668531;3.155149503
6.635609742;10.86829246;7.838157751;7.534199242;15.10503003;0.814732258;-3.092274546;23.50928255;28.04116761;18.77451063;13.82179523;12.27734854;22.29593872;30.54395881;9.210470302;18.73137175;12.12294138;23.10451167;1.954069635
6.459029805;8.994966402;7.273057661;7.814745359;21.84615468;0.583029262;-3.961857102;22.83467846;22.75576616;14.91419793;10.09301269;7.47027383;17.65140028;20.68724172;8.093763945;12.17679579;8.989357141;18.74219324;0.280674236
6.894937301;6.929865397;7.729348688;7.210393686;24.09388125;-0.315901589;-3.834894715;19.52108362;16.70677374;11.55128901;4.630907595;1.425335722;11.76298549;9.751477694;2.509256637;4.581105805;4.028578763;13.71358;-1.034370792
7.802997429;5.153608975;9.057052898;5.919436818;21.15768669;-1.2638617;-2.768600982;14.62539406;12.20965612;9.395414374;-1.192840095;-4.339454683;6.145044089;0.764401021;-5.579760757;-0.695261567;-0.69911476;10.0907628;-1.488423883
8.503288434;3.526265972;10.55410431;4.524985415;14.57874243;-1.56559314;-1.62199953;10.40815641;10.5519654;8.494867129;-5.587862325;-8.192554606;2.292142431;-4.094793974;-11.31026393;-1.985195887;-3.641120377;8.515817457;-1.181757766
8.058347512;1.486230783;11.19874165;3.949349885;7.116116228;-1.000609927;-1.273576848;8.903940851;11.31998998;8.422861685;-7.197486972;-9.169716824;0.904230444;-4.433533696;-10.00645517;-0.144296919;-4.439369885;7.985275947;-0.653153745
5.755989554;-1.481821684;10.07240756;4.948041197;1.110384538;0.012564081;-1.847516667;10.75401888;12.97928436;8.769603199;-5.761217848;-7.516814959;1.573945726;-1.720479437;-0.847706475;2.380295018;-3.848349983;6.793095799;-0.41718663
1.514012405;-5.445950596;6.780858095;7.450480482;-2.684183641;0.772258555;-2.639218899;15.01289604;14.1153565;9.472935455;-2.224140021;-4.610438841;3.130330481;1.612714444;11.68718155;3.418032852;-3.07869637;3.858116603;-0.580379343
-4.03068924;-9.943050596;1.664394019;10.2961554;-5.124990831;0.854938177;-2.783911758;19.86625452;14.28289887;10.66139537;1.715349122;-2.258906746;4.358217818;3.540628664;20.08820637;2.429304692;-3.057269323;-0.550572752;-0.842203761
-9.78103766;-14.21360102;-4.300596927;11.69121729;-7.711582224;0.403750743;-2.043678213;23.62350869;13.88077078;12.16194846;4.336764508;-1.784755154;4.58577172;3.451450606;18.6118119;0.42176917;-4.017398296;-5.128311349;-0.855801543
-14.60400174;-17.54665545;-9.839913259;10.17977656;-11.38607603;-0.0759447;-1.001420894;25.34763522;13.38268909;13.20106222;4.558064319;-3.418624664;3.81455357;2.182965218;7.351965075;-1.29404692;-5.532857473;-8.505631174;-0.609895987
-17.67266882;-19.50580265;-13.7856086;5.510543938;-15.89680723;-0.195758253;-0.507366344;24.91759248;12.76563749;12.71480176;2.293615294;-6.322821765;2.463844301;1.128735888;-7.461398558;-2.353907857;-6.851181025;-10.06479607;-0.473378509
-18.59636289;-19.95746381;-15.38912997;-1.180336871;-20.03298826;0.003945965;-0.902944567;22.74458121;11.66242585;10.13151091;-1.56321255;-9.176161708;1.058399997;1.082606712;-17.43719175;-3.563364612;-7.307803812;-10.05177731;-0.845448506
-17.38793416;-18.99003906;-14.48128133;-7.980570255;-22.44375446;0.169817502;-1.730442443;19.46591003;9.981156132;5.984908652;-5.496413634;-10.94397983;0.111632466;1.647400363;-17.65177316;-6.016921304;-6.657557329;-9.083026518;-1.719316411
-14.39611494;-16.85112547;-11.48884369;-13.18028276;-22.4492687;0.032477736;-2.1736073;15.75944951;8.260428683;1.753574673;-7.951442804;-11.39269448;0.168560749;1.615796044;-9.955390093;-9.967409701;-5.21849885;-7.601220232;-2.569920537
-10.257772;-13.93345186;-7.31738543;-15.98637934;-20.36385256;-0.313375129;-1.804366817;12.22807466;7.315604031;-1.061676555;-7.952476514;-11.08602886;1.778052842;0.039855572;-1.522735498;-14.4427421;-3.749527578;-5.74282433;-2.710205352
-5.803693079;-10.73435502;-3.086015749;-16.59548519;-17.22275395;-0.5141652;-0.948724232;9.289454296;7.481521604;-1.927402463;-5.495042367;-10.89845222;5.250193842;-2.777869684;0.369364147;-17.90049779;-3.052248307;-3.603477745;-1.846238908
-1.835046302;-7.721508045;0.261008521;-15.7322299;-14.16166774;-0.336737085;-0.355750045;7.115825826;8.220874183;-1.512272773;-1.505366998;-11.34697254;10.32492993;-5.095882619;-6.430078125;-19.31417074;-3.450749418;-1.50592897;-0.36190246
1.182345036;-5.156243933;2.327459849;-14.09109811;-11.84624487;0.057765968;-0.499015333;5.708379691;8.567053105;-0.943760792;2.638686499;-12.15092552;16.05416188;-4.550885496;-17.51115209;-18.77224013;-4.467690955;0.069250047;0.932668527
3.30771722;-3.021454395;3.401847407;-12.07352323;-10.25374755;0.228572213;-1.161969053;5.076107514;8.067637441;-0.705817031;5.772051196;-12.31771096;21.0921234;0.463400101;-25.25618958;-17.1641466;-4.993916405;0.835792118;1.408735099
5.007722735;-1.150097656;4.213792333;-9.880720259;-8.865953492;-0.129652218;-1.673887251;5.345272111;7.355653874;-0.142598384;7.417780049;-10.75023816;24.27710744;9.665362477;-24.4247274;-15.3403014;-3.957346793;0.96293574;1.093248138
6.752210653;0.526792635;5.410131142;-7.714571373;-7.088470962;-0.856992876;-1.552170238;6.646660367;7.74603833;1.958341142;7.830502349;-7.025294382;25.14320047;20.68844104;-15.79889108;-13.53753573;-1.100073242;0.945652895;0.618802622
8.601696944;1.832566425;7.09119471;-5.806230649;-4.598405177;-1.409950415;-0.941695343;8.842961695;10.12729805;6.168650355;7.665720046;-1.822381036;24.03780319;29.98152998;-5.265922025;-11.53323833;2.70156829;1.172134679;0.688436808
10.12514499;2.46258558;8.76082842;-4.228190926;-1.403313981;-1.310907027;-0.451210746;11.36905537;14.10090658;11.64680219;7.567779043;3.34858278;21.80613165;34.35944732;0.786557953;-9.272338255;5.881058827;1.590820119;1.49428728
10.75227565;2.29997675;9.761725851;-2.709261472;2.375745795;-0.577534846;-0.559684972;13.42423655;18.16223173;16.51368354;7.954848098;7.016403685;19.29707015;32.39865847;0.143262482;-7.271437256;7.144532059;1.802793541;2.561514046
10.30187045;1.654093121;9.880384399;-0.709898853;6.757932999;0.255854297;-1.160983853;14.45591478;20.82241536;19.13440733;9.04815261;8.658943366;17.01800741;24.96280153;-4.013279008;-6.333035142;6.283926413;1.503219341;3.131377094
9.247523095;1.171327283;9.63361304;2.213629772;11.90869654;0.561220276;-1.670762573;14.56454283;21.72977485;19.27374964;10.96770554;9.004774122;15.09540799;14.62600078;-6.045843417;-6.773876925;4.247688265;0.853262478;2.757463012
8.468257481;1.438419663;9.968701092;6.017301142;17.81546765;0.128624667;-1.583022585;14.4487048;21.82562748;18.16792457;13.7037151;9.468968649;13.45656203;4.367818574;-2.465755584;-7.866842599;2.430126687;0.417287519;1.634971139
8.654111364;2.589196345;11.57577504;10.08860922;23.86656875;-0.6694424;-0.944817554;14.85588585;22.40095743;17.4465889;16.96682397;11.0977456;12.03227582;-3.706199523;5.445461334;-8.066188154;1.741268063;0.708121101;0.427931548
9.840814321;4.260874039;14.34523888;13.58772273;28.73610545;-1.196197046;-0.305148528;15.92998656;23.87409732;17.7871001;20.11175516;13.78923794;10.84105221;-8.936349524;12.87753433;-5.942496747;2.170127795;1.760313795;-0.224371378
11.4550165;5.958705136;17.40854883;15.96406992;30.81535473;-1.071344316;-0.196336619;16.97147283;25.34;18.38104664;22.30970216;16.37405039;9.948487497;-11.7710327;15.34939307;-1.154281461;3.122067687;3.132413984;-0.109890303
12.82048102;7.510292488;19.73215902;17.22500571;29.01574769;-0.452394858;-0.644660182;16.81987585;25.25497481;17.59054957;22.91844319;17.4870611;9.373566509;-12.89924217;11.99116227;5.26523138;4.156837637;4.332473592;0.527788334
13.67309231;9.170913986;20.77758912;17.71283864;23.42116031;0.141004372;-1.170616894;14.58406921;22.64054023;14.19704204;21.78671144;16.54604787;9.007814558;-12.53363157;5.775064147;11.49991358;5.436007522;5.250221365;1.276271523
14.222266;11.2261378;20.69109911;17.56051377;15.30320901;0.276815139;-1.268486069;10.1981902;17.79623602;8.236883095;19.25551426;14.07912824;8.587781222;-10.34537229;0.853025177;15.96384272;7.478685368;6.16475611;1.857656844
14.70837817;13.41250262;19.9006301;16.30577206;6.455400842;-0.066437524;-0.899048285;4.468683223;12.01103005;0.880968392;15.88141916;11.18716793;7.764875458;-6.028864463;-0.559944542;18.02578444;10.46513991;7.308527514;2.204903152
14.88725502;14.7208815;18.52449691;13.06768512;-1.682043291;-0.558948521;-0.519820656;-1.296835079;6.671102216;-6.32891831;12.15953645;8.645098029;6.311602419;0.00960211;0.767577707;18.03610937;13.75203103;8.423366703;2.328190875
13.98381654;13.90012918;16.17049806;7.251328321;-8.478986203;-0.859130382;-0.621541119;-5.724861984;2.618270423;-12.12237674;8.508220006;6.4313144;4.420497409;6.437092698;2.616990543;16.80007813;16.09193613;8.797199355;2.185631384
11.26526896;10.39638094;12.35587509;-0.720073242;-13.88764002;-0.895105377;-1.216010612;-7.635306844;0.234283203;-15.57917405;5.485410982;4.076914931;2.909597362;11.49236488;3.695497929;14.9873092;16.43155019;7.839684805;1.724548847
6.805963446;5.021088738;7.198548614;-9.25185785;-17.85497539;-0.840586979;-1.775847612;-6.201937008;-0.076339445;-15.91285813;3.915147701;1.482946521;3.085140679;13.9046369;4.590637591;12.88261194;14.64393904;5.721307449;1.036409626
1.761469839;-0.258066149;1.730205066;-16.23120646;-20.00582655;-0.850564965;-1.704413024;-1.231454799;2.254749426;-12.57126325;4.623037749;-0.587973007;6.165533489;13.63074415;6.585801284;10.52677565;11.59142587;3.467479873;0.413307355
-2.200958748;-3.392232626;-2.551066035;-20.11634151;-19.95498045;-0.851885864;-0.908533512;6.444837324;7.415467987;-5.864572865;7.843611717;-0.879479357;12.50185719;11.93170816;9.727298167;8.00180301;8.481169926;2.325393851;0.176389298
-3.990890339;-3.513628342;-4.638555234;-20.73377267;-17.97053913;-0.614536356;0.06538988;14.83346615;14.45876538;2.425570963;12.75512654;1.351198888;21.09177625;10.74424354;12.23414766;5.593081547;6.064391317;2.853150445;0.39185391
-3.907123286;-1.521187807;-4.768367967;-19.23452079;-15.28083472;-0.035816235;0.477884583;21.31934344;21.2176959;9.308800517;17.6246926;5.505008809;29.80629958;11.71899194;11.99442264;3.738460478;4.325414853;4.456731238;0.748448722
-3.52467177;0.417289337;-4.353277726;-17.25613548;-13.52650928;0.659189687;0.033466736;23.86247211;25.28810152;11.99164707;20.61416525;9.724142104;36.30578517;15.42934406;8.769531779;2.842121731;2.837937089;5.758867247;0.762656623
-4.677946037;0.105758559;-5.094522057;-15.89898688;-13.59351229;1.034500375;-0.866812341;22.18781439;25.48897139;9.642269868;20.74034517;11.90353054;39.1149684;21.0862166;4.860664607;3.065483569;1.368845697;5.509903818;0.180744823
-8.232238948;-3.504580788;-7.883481043;-15.221317;-14.71011388;0.808799193;-1.486869054;18.06933461;22.63734179;4.161721733;18.29787748;10.90575434;38.17205256;26.81383459;3.294292103;4.163622652;0.127337572;3.328971801;-0.764927487
-13.47970265;-9.876436863;-12.23865177;-14.52279478;-14.64880067;0.144107494;-1.402368799;14.32007813;18.92144997;-0.836210071;14.44698362;7.110154395;34.5319196;30.34010878;4.953981341;5.429272263;-0.556304761;-0.24593217;-1.497507676
-18.51992857;-17.28632453;-16.59408584;-13.07651807;-11.08952471;-0.428576839;-0.846853223;13.0572917;16.30669314;-2.285099675;10.33755322;1.985244287;29.52519405;29.87112068;7.331210184;5.844250169;-0.755366984;-4.306758034;-1.550144731
-21.28987023;-23.64777125;-19.1446163;-10.67286054;-3.266962786;-0.418569367;-0.451706258;14.44718121;15.2593218;0.4352258;6.508371847;-2.864761686;24.04929345;24.87320693;6.385523229;4.502548614;-1.085243179;-8.155530057;-0.958847968
-20.53635199;-27.24525403;-18.65351752;-7.5774889;7.286831384;0.216991398;-0.632638092;16.85723396;14.82633562;5.373870325;3.023305606;-6.414740519;18.47873822;16.44072942;0.255763489;1.18029662;-2.225321468;-11.42791335;-0.248277556
-16.21;-27.14870295;-14.8188755;-4.056329992;17.48204021;1.022219914;-1.196030014;18.28855114;13.93146332;9.714490341;0.109778024;-8.288961052;13.09516067;6.976587928;-8.355558661;-3.301947014;-4.208570751;-13.79714685;-0.005950903
-9.264410783;-23.38548009;-8.220141619;-0.003253432;24.38831068;1.404006513;-1.527684884;17.95417282;12.66253198;11.92546035;-1.428388852;-8.426060887;8.474758443;-0.821560821;-13.53689745;-7.297541595;-6.152832294;-14.73797117;-0.400559078
-1.209825698;-16.98202618;-0.11113809;4.90681158;26.72176613;1.106378747;-1.182523548;16.75167048;12.32258048;12.64445359;-0.568608947;-6.887448823;5.352971872;-5.242930766;-10.63264684;-9.172777609;-6.772642403;-13.74973282;-1.057139214
6.259263854;-9.797909541;7.784356767;10.62411633;25.12181183;0.400703842;-0.321707298;16.28602474;14.13947733;13.66927771;2.993059434;-4.061564963;4.041267963;-6.375230766;-0.362917168;-8.302422813;-5.323192863;-10.90715266;-1.396008485
11.53340573;-3.976268946;13.57387232;16.22953799;21.19380921;-0.158784461;0.412940274;17.30085569;17.79663936;16.01463897;8.154196258;-0.946702909;3.979254977;-5.852421684;10.9573549;-5.502721599;-2.203832326;-7.156917687;-1.138423973
13.40960143;-1.053726381;15.7427309;20.07096619;16.19598048;-0.193398966;0.473740819;18.86940591;21.20761387;18.7514535;12.72462162;1.035303077;3.964132134;-5.591035203;15.70299493;-2.482993113;1.308520546;-3.894815223;-0.537524285
11.50172736;-1.168951045;13.82511151;20.57277787;10.3928819;0.218720953;-0.099357657;19.05633284;21.92296631;19.63971454;14.71109966;0.842055089;3.000895237;-6.32451248;10.62046142;-0.616691924;4.000201941;-1.999407055;-0.138223507
6.505140699;-2.967546506;8.76178707;17.18890503;3.431935502;0.657690571;-0.721697248;16.51763519;19.10033266;17.01337145;13.65644653;-1.309997344;1.091014408;-7.014256551;-0.569749547;0.074123098;5.558711619;-1.091353525;-0.287108892
0.000645967;-4.439579749;2.535319258;10.80078;-4.765995689;0.742281108;-0.801897996;11.70591086;14.37462899;11.30667833;10.9508658;-3.819263957;-0.769596713;-5.678123142;-9.868899056;0.892460468;6.611270511;0.261178739;-0.831093386
-6.237189883;-4.230761421;-2.85064305;3.252637815;-13.45197453;0.429960684;-0.27736692;6.666201961;10.80122777;4.925290337;8.780970675;-4.667050247;-1.468589029;-1.130920919;-11.02855817;3.330699221;7.953579142;3.406645304;-1.268531475
-11.03325424;-2.506430795;-6.414619376;-3.640058594;-21.27344021;-0.008188093;0.34440052;3.570996021;10.63290452;0.566589712;8.4756598;-2.89136519;-0.813980452;5.651086375;-4.218763875;7.655624762;9.657993483;8.385822793;-1.208274244
-14.14955541;-0.686121979;-8.502748999;-8.898509511;-26.99505448;-0.274953553;0.470421593;3.168677919;13.68019853;-0.630891344;9.538742809;0.582361165;0.213315976;11.6847293;4.344368536;12.34215683;10.85384472;13.63704841;-0.71880046
-15.93093841;-0.211097093;-10.11352884;-12.48543444;-30.04908344;-0.307656193;-0.021524774;4.358686007;17.5417716;0.351268938;10.14913557;3.521338642;0.3129174;13.73602664;7.488640839;14.88525988;10.38892783;16.95690613;-0.255391887
-16.59839408;-1.305057551;-11.79039044;-14.77349882;-30.50351201;-0.2761182;-0.67111862;5.159858111;19.46694743;1.470203879;8.743251675;4.044285645;-0.837233664;10.53578052;2.802842237;13.45675812;7.818188903;17.02132014;-0.238926672
-15.85320995;-2.748486742;-13.02185683;-15.93138658;-28.62954339;-0.349059472;-0.867482674;4.230700611;18.32042584;1.304555068;5.416429415;2.09970025;-1.984536197;3.869112796;-5.575755704;8.18926084;3.882799898;14.28246198;-0.673906773
-13.19708931;-2.8938986;-12.69199092;-15.77730743;-24.59823223;-0.481238844;-0.418254843;1.749660758;15.13150531;-0.033509598;2.015272188;-0.435266747;-1.054304641;-2.319122973;-10.45052694;1.129136724;0.07457787;10.53711093;-1.152168813
-8.714914809;-1.117880846;-10.22298774;-14.18246988;-18.62691886;-0.443079622;0.275745828;-0.901509582;11.96124971;-1.357614514;0.835011548;-1.170868067;3.223356633;-4.268643922;-7.424943595;-5.088396984;-2.358918257;7.530225264;-1.233255789
-3.581187508;1.498767866;-6.407611181;-11.59452205;-11.36734155;-0.068978909;0.601281808;-2.203279568;10.1969225;-1.628020746;2.935767371;0.948774901;10.09261068;-0.63950687;1.607075808;-8.834309682;-3.179231821;5.722200141;-0.848954426
0.294703212;2.872037034;-3.131115803;-9.132611981;-4.019489623;0.521292704;0.310845642;-1.36654565;9.719266293;-0.775571148;7.364127756;4.816149983;17.00196193;6.814128087;10.04930875;-10.20337681;-3.141930527;4.171605884;-0.361099566
1.355688924;1.469465394;-2.106632352;-8.071416951;2.113509021;0.958923586;-0.243627073;1.574729684;9.478275562;0.504140527;11.8210543;7.983242846;21.19574383;14.45709213;11.82251456;-10.46339333;-3.317391469;1.533116862;-0.222897758
-0.586313061;-2.533653029;-3.621177911;-9.057580382;6.355359957;0.912061217;-0.441074432;6.224988503;8.740529575;1.595536438;14.19273184;8.450839317;21.46858101;18.91710473;5.918208895;-10.8455014;-4.359701477;-2.734122955;-0.558716606
-4.231821446;-7.432105393;-6.338810193;-11.64135324;9.052481729;0.374373331;0.022206476;12.16951592;7.777542192;2.515557907;13.76941157;6.000411643;18.73881229;18.70792906;-3.277917514;-11.70561171;-6.261650722;-7.947737254;-1.050793877
-7.705156706;-11.32543546;-8.348940777;-14.47121265;11.24118409;-0.305469613;0.838512764;18.80958915;7.424988078;3.649827267;11.34327627;2.085106919;15.05473112;14.44944118;-9.87200358;-12.62807435;-8.621951139;-12.81756067;-1.236838512
-9.780058594;-13.46188753;-8.595681338;-16.00584818;13.80773346;-0.689029076;1.364667905;24.98012685;8.069919153;5.044278246;8.320433385;-1.488835303;11.91317829;7.891874585;-11.14052129;-13.16251534;-11.01148209;-16.43187564;-0.942170858
-10.44043674;-14.45430294;-7.494322085;-15.25863954;16.81405913;-0.58343243;1.21412022;28.99248602;9.142092453;6.098052351;5.691185866;-3.911737326;9.281616499;0.691127809;-9.15501151;-13.37416796;-13.05347495;-18.69662817;-0.444493029
-10.37241446;-15.2297683;-6.247423203;-12.15182685;19.52619306;-0.164086379;0.614440656;29.3844482;9.635900791;6.0797766;3.637746634;-5.670281407;6.053456794;-6.211260066;-8.266192007;-13.67099302;-14.24687382;-19.90558141;-0.215620966
-9.923350296;-15.71109424;-5.523197117;-7.409456583;21.0711882;0.204864556;0.194775906;25.9113689;9.132457817;4.988027353;1.879669237;-7.713002379;1.41679266;-12.44022323;-10.87953356;-14.14368495;-13.90695895;-19.98782564;-0.477335926
-8.543852203;-14.50687903;-4.743264395;-2.223102315;21.11180186;0.277663717;0.397307368;19.91621007;8.261140859;3.811970988;0.222046296;-10.38003906;-4.139925591;-17.73097196;-15.26517434;-14.17667391;-11.49982188;-18.30087413;-0.985586823
-5.305202717;-10.03120607;-2.699207904;2.058756653;19.95230139;0.090772306;1.05908462;13.61708567;8.061226121;3.740103284;-1.2771908;-13.10725805;-9.085189978;-21.69555153;-17.23551441;-12.85845782;-7.189920816;-14.30047571;-1.251542403
-0.090793735;-2.187435981;0.998820892;4.176283095;18.04398066;-0.137345741;1.556860981;8.751336283;8.79436792;4.906945597;-2.602006794;-15.10393557;-12.10749019;-23.93958107;-14.11836298;-9.934364691;-2.069710694;-8.508691166;-1.003572982
5.638804699;6.861046261;4.981711769;3.259334439;15.42530322;-0.244225957;1.387452552;5.615585916;9.374536331;5.868606503;-4.094119729;-16.24900484;-13.21870875;-24.25875329;-7.480249925;-6.428197868;2.303918883;-2.773697598;-0.461700895
9.362107601;13.67782382;6.713053609;-0.777627226;11.67959821;-0.260826037;0.650080566;3.266061886;8.099211263;4.507401291;-6.316189046;-17.2413943;-13.67365892;-22.63947148;-2.152364904;-4.214328287;4.855967408;0.682862665;-0.154917048
9.105161386;15.73692759;4.357396793;-6.95030213;6.47864985;-0.329141813;-0.017876756;0.687287975;4.180315029;-0.175355229;-9.463015556;-18.76951342;-14.74256687;-19.11153624;-2.291779169;-4.677424818;5.712780231;0.883144492;-0.426713781
4.965179332;13.20300882;-1.513098157;-13.34851844;0.190060425;-0.506431043;-0.000366783;-2.080267917;-1.237560024;-6.82534141;-12.8342382;-20.4545601;-16.41233276;-13.74591752;-7.756086991;-7.442516245;6.065674982;-0.872149782;-1.0720805
-0.701626887;8.909082167;-7.856692353;-17.82334391;-6.074039754;-0.672721833;0.749346051;-3.819687894;-5.544130691;-12.20897573;-14.92754137;-20.64108936;-17.1866962;-6.94877574;-13.85156855;-10.2456084;7.207380454;-1.499653943;-1.453939642
-4.714422784;6.450570563;-11.01241842;-18.91937274;-11.08783925;-0.64763817;1.669745339;-3.113725267;-6.348325726;-13.20421516;-14.21947482;-17.42023208;-15.21337938;0.203651212;-14.75100174;-10.21046608;9.468201471;2.007053736;-1.031386454
-5.14999681;7.726909187;-9.197237679;-16.48939299;-14.29858276;-0.401957922;2.093842442;0.438210071;-3.053193646;-8.844128412;-10.1005919;-10.15709852;-9.807949418;6.070441333;-7.888043284;-5.715692662;11.90386082;10.57678608;0.141156869
-2.556405966;11.67367105;-3.78541749;-11.58572225;-16.06818798;-0.138549599;1.833299586;5.805857744;2.940236495;-0.848790807;-3.259179929;-0.249019777;-2.082159326;9.199192108;4.129835994;2.457338944;12.99812057;22.29461608;1.382525717
0.588859939;15.04210727;1.634650928;-5.724112042;-17.14685502;-0.132475021;1.315351365;11.23861777;9.505657916;7.720798519;4.775119095;9.610319436;5.861287692;9.326112539;15.52269113;11.50894623;11.819904;33.37740515;1.874557738
1.747325132;14.60807987;3.763176248;-0.066775699;-17.86336004;-0.458104275;1.160351433;15.44510152;15.40642114;14.55242334;12.56240309;17.17152663;12.48524938;7.827133824;21.58367309;18.25176536;8.712509136;40.19405921;1.285849216
0.114558431;9.246385331;1.820132398;4.910308397;-17.79322129;-0.863352918;1.601845732;18.22218649;20.87696351;19.246633;19.45035366;22.03109908;17.80863234;7.082100613;21.83146131;20.84874627;4.998268645;41.00369473;0.024213747
-2.942413913;0.533708152;-2.087317283;9.138195383;-16.23052837;-0.939656352;2.288228809;20.0688088;26.75292339;22.75637704;25.56691503;25.59532298;23.00560744;9.013886658;19.75532132;19.53829925;2.002576126;36.4335215;-1.082929997
-5.016371123;-8.334440312;-4.621985947;12.4578403;-13.02136757;-0.470144384;2.64184428;21.26714898;33.03351236;25.80837471;31.22327948;29.66367776;28.97880231;13.77863467;19.60726255;16.03727508;0.232109389;28.67396552;-1.414322134
-4.407822182;-14.40860429;-3.573927333;14.45186443;-8.929009129;0.3409742;2.428389861;21.38258301;38.25560298;27.84276682;36.28224057;34.79526763;35.14279196;19.58397315;22.94;12.24389265;-0.656322781;20.15816264;-0.984212166
-1.172462881;-16.38607048;0.815512642;14.80272979;-5.086548569;0.974616678;1.994054797;19.70129162;40.32388238;27.46144095;40.00525012;39.76565529;39.47675259;23.8280279;27.5928962;9.220519511;-1.184622835;12.59340994;-0.353701824
3.202941706;-14.83265059;6.391244581;13.8363438;-1.941525378;0.974585532;1.941465742;16.19868479;38.13790332;23.96148917;41.45996664;42.50575554;39.8491296;24.77110803;29.74187461;7.040895409;-1.366628711;6.715577563;-0.133260604
7.088657436;-11.37862974;10.8788216;12.67280032;1.353265053;0.295508678;2.545413002;12.07530831;32.63457702;18.50920328;40.13984751;41.72010174;35.58066353;22.55349531;27.22075387;5.349845126;-0.647728996;2.563933815;-0.500080566
9.899636373;-7.594199911;13.49163823;12.70186794;6.43366787;-0.662713044;3.4602893;9.237075916;26.34241854;13.78230959;36.34682616;37.88830208;28.04184924;18.87998214;21.46209535;4.01133667;1.503412124;-0.13435242;-1.104681755
12.32672212;-4.220923366;15.22308105;14.6880944;14.36054949;-1.357270837;4.006119238;9.041052469;21.78264244;12.2312865;31.12441625;32.91813427;19.87068992;15.6982241;16.62529731;3.314050342;4.93530762;-1.704475198;-1.397666584
15.56471969;-1.037461056;17.79221846;18.17634156;24.44181204;-1.488472126;3.781858138;11.32504907;19.97086989;14.32619875;25.8437864;28.81477067;13.4531707;13.90514125;16.67046939;3.674412959;8.722356974;-2.375955347;-1.074620802
20.21891099;2.746753468;22.17309018;21.67945473;34.22834839;-1.161930449;3.042776881;14.54840232;20.11199885;18.21112641;21.69148157;26.4389131;9.77653735;12.99255951;22.57500663;5.182983456;11.74199195;-2.185480703;-0.281895182
25.69893008;7.844522675;27.78173385;23.53047862;40.78368822;-0.725834345;2.486549073;16.94462729;20.54471825;21.0470178;19.25638508;25.22312582;8.340997038;11.74640526;31.60135486;7.384305363;13.40361041;-0.988196565;0.53981148
30.44884939;14.27686713;32.76093146;22.77584978;42.3291702;-0.458804955;2.633365735;17.73645526;20.01992202;20.97174066;18.3158212;23.87007813;7.94413688;9.321811352;38.92750283;9.419727171;13.88471055;1.324566681;0.999657062
32.75797451;21.06170777;35.00085227;19.49694249;39.08554058;-0.387024704;3.361864543;17.4363416;18.29881816;18.17613198;17.894456;21.33111731;7.581620469;5.843952853;40.35967654;10.38249504;13.70045404;4.477031722;1.001249034
31.59905713;26.42609458;33.16940208;14.44886893;32.78854075;-0.361192014;4.025454801;17.06637564;15.81415082;14.39506924;16.66376973;17.32193299;6.833749171;2.187708387;34.36775603;9.655752375;13.05701321;7.635056011;0.732157191
27.06381572;28.56978493;27.23134983;8.449130024;25.38473536;-0.274994835;4.045057847;17.05796362;12.9854936;11.40455948;13.63049764;12.18898127;5.691624925;-0.725058986;22.44210242;7.110625708;11.63142904;9.694679846;0.468887633
20.2886042;26.65995584;18.37916055;2.066095694;17.96197274;-0.190088501;3.438200137;16.82300831;9.947188905;9.801946103;8.820621179;6.508004797;4.237899696;-2.480029297;7.990961771;3.1599026;8.999437129;9.96145088;0.386075429
13.00346858;21.4536185;8.579078932;-4.223581173;10.62945831;-0.247184441;2.801833737;15.34460738;6.863014293;8.926018525;3.501348405;0.876597834;2.564895191;-3.216500375;-5.251796416;-1.324544779;5.290058594;8.722544423;0.497175533
6.903064282;15.03214293;-0.05758671;-9.737478356;3.196796063;-0.468034802;2.765864747;12.21216542;4.309267859;7.723733854;-0.360145818;-4.025262982;0.924623026;-3.305939279;-14.43076356;-5.262404746;1.389050977;7.15540731;0.709869709
3.029934452;9.666544054;-5.946931633;-13.6147949;-4.11566938;-0.667973921;3.418439003;8.147191107;3.117488923;5.651476076;-1.216502909;-7.417101756;-0.191402081;-3.058325471;-18.10658045;-7.775365493;-1.597249465;6.489511168;0.900328471
1.383405146;6.486653975;-8.583123366;-15.2766211;-10.57855571;-0.592268469;4.228639799;4.54761644;3.666764483;2.878648201;1.037957938;-8.711826684;-0.254155861;-2.678735776;-16.33933996;-8.59944458;-3.20768172;7.00641758;0.948774346
0.97526314;4.874046599;-8.696842858;-14.92157155;-15.44312947;-0.164567359;4.535213581;2.463231161;5.292417625;-0.148616964;4.885932943;-7.971655413;0.956001675;-2.344092771;-10.56840002;-8.223140339;-4.04460451;7.730230437;0.759562698
0.411925712;3.055473674;-7.805610656;-13.51104511;-18.44604678;0.39024928;4.151197334;1.904071789;6.521845951;-3.131922094;8.077324366;-6.040689426;3.207893905;-2.132201372;-3.273268203;-7.566739375;-5.29542279;7.198713739;0.308052176
-1.229639215;-0.493375258;-7.275322178;-12.09770558;-19.82017314;0.687275166;3.529890172;2.058501331;6.147643525;-5.825370058;9.054986228;-4.028059364;6.067545703;-1.755080951;2.761627828;-7.327802898;-7.676055526;4.811462783;-0.303385409
-3.748851428;-5.85406888;-7.430295507;-10.97003906;-19.86212549;0.486564888;3.342261465;2.177772848;4.323995288;-7.585226172;7.945047348;-2.397817219;9.327271127;-0.381793171;5.560578003;-7.422723471;-10.65973217;1.661422319;-0.853982552
-5.879124092;-11.5670011;-7.357907307;-9.352435249;-18.57677;-0.096895834;3.856709446;2.313971167;2.712554359;-7.212732091;6.413756152;-0.400933865;13.18842371;3.098325862;5.012485426;-6.970109897;-12.68230586;0.03377878;-1.119362231
-6.114469748;-15.68213925;-5.641888198;-6.014954384;-15.8230815;-0.665517524;4.692012071;3.268343407;3.420921036;-3.520387493;6.500572706;3.541811683;17.96896645;9.352863465;3.18660508;-4.908674623;-12.24260148;1.770927458;-1.028666725
-3.793109541;-17.13048151;-1.560885046;-0.387483732;-11.82107794;-0.839383232;5.169143856;5.828375455;7.482339323;3.677891505;9.267515174;10.61747339;23.55912527;17.86414601;3.464610657;-0.856768314;-9.079153869;6.671957328;-0.730347781
0.337122419;-16.36192555;4.142729663;6.71773852;-7.422098801;-0.534342924;4.93616486;9.979537072;14.04250871;12.98500104;14.19512972;20.41537108;29.12635119;26.76180932;8.719543601;4.410841399;-4.517121002;12.20447781;-0.488359408
4.536766077;-14.80435305;9.574587796;13.42982411;-3.690233442;0.007619861;4.290205383;14.74927282;20.87030136;21.86675823;19.65460522;30.70882056;33.39136126;33.48128907;19.46576344;9.255440064;-0.712944385;14.89701024;-0.478549243
7.236604769;-13.63759886;12.93261521;18.02169907;-1.008801471;0.441872784;3.900915107;18.75454211;25.75902123;27.93077485;23.99068819;38.51640279;35.30232757;35.90477785;33.11034601;12.07048083;0.642861398;12.52142253;-0.658211709
8.12939637;-12.87824053;13.78975105;20.08580014;1.504088328;0.59014829;4.191389895;20.94671187;27.72946679;30.14235915;26.38629764;41.76878527;34.57244905;33.27705901;44.91969691;12.16988069;-0.761197516;5.548791627;-0.828906346
8.39551526;-11.45168074;13.44076966;20.75526746;5.599453318;0.526877958;4.947382016;20.98502556;27.21646494;29.12505686;26.9841736;40.42375433;31.65663668;26.35579977;50.31457913;10.0676556;-3.896416669;-3.129121705;-0.83751149
9.889977377;-8.094006051;14.02394935;21.78562065;12.63169548;0.436935402;5.514408043;19.1088571;25.32605859;26.44316473;26.39269896;36.26919676;27.2347016;16.81328794;47.23182697;7.007579997;-7.208639614;-9.96565828;-0.723918867
13.8784095;-2.293815373;17.05510246;24.22180627;22.33578764;0.407559686;5.400561037;15.84049166;22.96647405;23.55020065;25.13261218;31.62180519;21.69563599;6.398800504;37.14698429;4.147579941;-9.517681402;-12.73194462;-0.664952331
20.22184311;5.443540077;22.4473638;27.69825231;32.65007813;0.360113251;4.72957664;11.88199027;20.58060199;21.22719012;23.47097763;27.90690844;15.08911457;-3.576787213;24.11644866;2.012053994;-10.39107476;-11.37531189;-0.759010916
27.54233371;14.07600512;28.69241275;30.88220343;40.8193544;0.173808759;4.127210525;8.189756973;18.49147525;19.75335949;21.62071664;25.10279339;7.552845961;-12.24578284;12.43745453;0.551035716;-9.907187786;-7.367142377;-0.865383834
34.15609938;22.69573644;33.97565391;32.62153304;44.99283001;-0.141701475;4.14609347;5.872051779;17.24351267;19.33605125;19.93251884;22.30023194;-0.238791071;-18.92911752;4.425383967;-0.370004883;-8.2061597;-2.267293242;-0.684279184
39.0247745;30.78166862;37.31473672;32.79528294;45.12070239;-0.415053772;4.759057219;5.672384699;17.38670721;20.16109471;18.78485746;18.78131943;-7.097146758;-23.01125671;-0.282287413;-0.559064957;-5.289386497;3.310134103;-0.043841805
42.04533749;37.92538076;38.87413789;32.16068718;42.51559364;-0.468124615;5.387655915;7.30672947;18.82267626;21.94465807;18.26460792;14.72015099;-11.87676512;-24.10522451;-3.560474882;0.433584824;-1.196610163;9.632732289;0.856588263
43.57779957;43.46854515;39.32717856;31.38680976;38.52591094;-0.30726773;5.439745646;9.296010437;20.4242817;23.53382122;18.01065441;11.02698634;-14.12709573;-22.33402809;-6.761329322;2.80984278;3.685526964;16.94696121;1.499268199
43.70983006;46.55858004;38.90168641;30.18996597;33.46122682;-0.149448642;4.861019813;9.709821537;20.52800994;23.21942448;17.47130826;8.591591602;-14.27973974;-18.42924781;-9.40932172;6.032744483;8.521876699;24.6291765;1.407651872
41.91217979;46.66754486;36.94667908;27.41012279;26.64077002;-0.231431701;4.191605208;7.493818068;18.1238912;19.81291813;16.41431553;7.619957454;-13.19534505;-13.514253;-9.630797346;8.837443916;12.25576688;31.13785476;0.539844755
37.36749066;44.08711337;32.37540098;22.04473994;17.44854229;-0.56424313;4.07307761;3.419203234;13.8298634;13.73622139;15.23311137;7.592614745;-11.43912153;-8.705640787;-5.94162317;9.860570578;14.00600734;34.79531523;-0.623140435
29.69509918;39.84313501;24.60931361;14.3871225;6.421437135;-0.868478013;4.656602859;-0.199685453;9.754499322;7.154426475;14.72330657;7.808011223;-8.879231012;-4.778013553;1.092690331;8.510894617;13.3829756;34.7644258;-1.400852392
19.49768771;34.96879438;14.26696113;6.255436509;-4.609008264;-0.778327711;5.455598434;-0.993417397;8.187341127;2.833637911;15.46473751;8.00809569;-4.917900181;-2.025850409;8.755590286;5.469111616;10.59699958;31.48865191;-1.409493443
8.322767368;29.69825882;3.080267905;0.010539663;-13.47415698;-0.158936485;5.781069298;1.778019616;10.02777059;2.431198027;17.31717016;8.572404638;0.865643746;-0.279140844;13.85065631;2.415751876;6.396655273;26.33563782;-0.832548618
-1.917210461;23.30811306;-6.867678353;-2.932475629;-18.94484306;0.736069174;5.365382722;6.605271149;14.13221568;5.449578369;19.46703186;10.16180631;8.19249476;1.019780707;14.92066318;1.10343323;1.911728251;20.7868846;-0.244497488
-9.662582881;14.84675649;-14.01921757;-2.937300492;-21.30053671;1.41776653;4.607348966;10.68514891;18.07185963;9.628762098;20.99528603;13.13102438;16.06020074;2.672711106;13.28956748;2.350019531;-1.599047079;15.77429605;-0.136252404
-14.14148396;4.241051349;-17.78221832;-1.657808351;-21.7889602;1.514852605;4.215394244;11.7730672;19.71117253;12.46516152;21.48748932;17.16585786;23.15772698;5.431037753;12.07578139;5.60644392;-3.125018585;11.54262984;-0.537995936
-15.37737915;-7.101651984;-18.39580115;-0.622747962;-21.50620865;1.042575908;4.571812895;9.575814388;18.43244399;12.71652124;21.18077678;21.37853229;28.34759552;9.561021301;13.8984662;9.383599322;-2.322401018;7.967958538;-1.04467434
-13.92823987;-16.73340167;-16.50924791;-0.048146165;-20.66583334;0.372942985;5.392121086;5.707307224;15.1947051;10.84574326;20.56093796;24.73933869;30.90908802;14.49553271;19.01204078;12.2501095;0.265156138;4.963278483;-1.200501375
-10.61430208;-22.39286793;-12.86428054;1.144760542;-18.82156076;-0.05837878;5.983272742;2.348033143;11.57128647;8.25149847;19.80447267;26.51971396;30.54989969;18.89648439;25.2391134;13.72319908;3.418407763;2.641312281;-0.896200068
-6.361960622;-23.17043728;-8.234735697;4.114629208;-15.74538673;-0.060459848;5.862060252;0.696243492;8.638189316;6.054640927;18.5722082;26.48501107;27.40235637;21.24798716;29.63472298;14.44171754;5.866058108;1.175568599;-0.437992884
-2.105101189;-19.83470921;-3.472724104;8.699361664;-12.09783916;0.23116273;5.174291871;0.34103019;6.525881647;4.414644379;16.31493462;24.79774238;22.11440646;20.69033497;30.48767277;15.50352631;6.964414771;0.550293633;-0.248201289
1.373385308;-14.1946335;0.577646244;13.03989485;-9.231303267;0.532577978;4.543774326;-0.138352492;4.756790988;2.755610167;12.78007813;21.77980992;15.87017256;17.53103054;28.1197027;17.44422869;6.966211299;0.442565825;-0.481448003
3.671633591;-8.050344424;3.357209145;14.65342778;-8.238846537;0.663380177;4.500019531;-2.001268804;2.842070757;0.481064895;8.249161851;17.72048575;10.07655996;13.02262881;24.04624268;19.61603053;6.676711648;0.346310061;-0.901343243
4.936520634;-2.466571891;4.868196183;12.22159697;-9.027426745;0.648268258;5.009368778;-5.571587748;0.553878481;-2.547132879;3.320913751;12.82984319;5.709830966;8.523439563;19.43623024;20.4737112;6.760574784;-0.136870369;-1.114868902
5.805399741;2.286430767;5.689214972;6.741987894;-10.20001953;0.607274349;5.528452285;-10.32981233;-2.22650665;-6.109901103;-1.502802268;7.32249394;2.72300692;4.651539271;14.28605492;18.63470514;7.244332882;-1.02513502;-0.936826747
7.08874789;6.341802318;6.647815144;1.113257247;-9.893542406;0.575769522;5.516776745;-15.54987451;-5.702781492;-10.03385953;-6.005996765;1.547397132;0.049049872;1.077561295;7.951737313;13.99121828;7.598859449;-1.879132982;-0.548852813
9.350019531;9.867246248;8.34138301;-1.628348612;-6.979906622;0.448584271;4.931374888;-20.78321457;-10.02195943;-14.36629904;-10.06361942;-3.93140594;-3.629262992;-2.890068359;0.406282736;8.052347669;7.300264813;-1.995400611;-0.316934519
12.63108873;12.99116734;10.82484337;-0.204212138;-1.785527094;0.10545279;4.255197349;-25.79409349;-14.86912383;-19.11217484;-13.33;-8.369707724;-8.797652683;-7.410502309;-7.040282706;3.195052987;6.366650013;-0.798905905;-0.447569687
16.48514044;15.91133629;13.66057246;4.193912668;4.122246471;-0.41404075;4.046330135;-30.16359919;-19.26867103;-23.84467909;-15.22881646;-11.0055784;-14.52296937;-11.64636955;-12.27027472;1.27557125;5.401308075;1.769605566;-0.804008523
20.27372729;18.89585758;16.25589862;8.824546959;8.850252149;-0.875166046;4.431838124;-33.1009118;-21.96087612;-27.67612099;-15.36372529;-11.29127112;-18.87909544;-14.12856862;-13.66843483;2.538582706;5.112490103;5.118420033;-1.046104823
23.50624764;22.05850207;18.21333418;11.23942404;11.12938503;-1.011627783;5.009710382;-33.75496864;-22.1817012;-29.72372182;-13.99707956;-9.08298192;-20.14817337;-13.688129;-11.04119932;5.580215822;5.737142064;8.258422021;-0.953476584
25.98163182;25.09843497;19.43792318;10.73744109;10.72334969;-0.75310729;5.237457633;-31.78852023;-20.21550623;-29.68397647;-12.07071203;-4.685563518;-17.93406482;-10.25886723;-5.389115449;8.378014029;6.866321685;10.34079089;-0.626105794
27.64673805;27.30339057;19.95707306;8.48787832;8.184871007;-0.308166124;4.937754669;-27.69234184;-17.19598081;-27.97615175;-10.59421689;1.266402691;-13.36444464;-4.985325158;2.10746817;9.636608159;7.797945258;11.14674983;-0.379297979
28.30948315;27.9051326;19.64178449;6.394302248;4.28900419;-0.013715555;4.452312192;-22.54622348;-14.25839304;-25.30748059;-9.820562127;8.004395796;-8.255326448;0.377056593;10.79490794;9.489946122;8.07306079;11.17509569;-0.440381162
27.47674941;26.5502368;18.09972813;5.649493547;-0.407677575;-0.068844426;4.309123185;-17.43632057;-11.73973179;-22.07923522;-8.920770478;14.77582752;-3.905226948;4.290322745;20.22191238;9.112777875;7.714525293;11.23030189;-0.737816148
24.52171999;23.52667189;14.88416687;6.049312364;-5.638766345;-0.37669367;4.720158277;-13.02307415;-9.118251141;-18.22760236;-6.538288523;20.89870924;-0.428857644;5.963861285;29.19867938;9.630170478;6.999696745;11.79611;-0.97942908
19.14753152;19.58773021;9.919660274;6.46620421;-11.19573913;-0.627427752;5.378320148;-9.557686378;-5.745794062;-13.67231449;-1.881668567;25.78872961;2.947922882;5.416947718;35.44050089;11.21980082;6.057754476;12.68289833;-0.938219788
11.85831025;15.548549;3.854672578;5.985909363;-16.64186362;-0.55011774;5.73911219;-7.181788796;-1.709648853;-8.912149216;4.486154254;29.06190591;6.99446315;3.283405113;36.58592658;13.08536219;4.7451222;13.25365579;-0.66773675
4.06683131;11.98521922;-1.951781573;4.764134622;-21.20936532;-0.123753701;5.52198954;-6.083858357;1.981365902;-5.085300012;10.82161929;30.71085799;11.76259234;0.620583921;32.04236864;14.23216746;2.956384531;13.0633423;-0.440859361
-2.345308401;9.212906551;-5.899147145;3.955817122;-23.97369235;0.416229311;4.966568948;-6.286463266;4.107133171;-3.270203666;15.24741646;31.19521372;16.56915081;-1.26502011;24.06933758;14.32129905;1.052810063;12.36473469;-0.475844135
-5.837086808;7.429014255;-6.864824094;4.825481374;-24.23051304;0.760538821;4.610331685;-7.293213269;4.25599859;-3.556089278;16.88160164;31.25279721;20.53038491;-1.171374964;16.8414827;13.85757877;-0.09492398;11.99376991;-0.721180718
-5.916937317;6.775315498;-4.769398427;7.760482411;-21.87825647;0.734338138;4.797625859;-8.061212095;3.257043692;-4.75211199;16.19875095;31.42204391;23.06480586;1.398414756;13.83223456;13.58424606;0.365136481;12.65450982;-0.913734877
-3.292640032;7.22226582;-0.626967365;11.93195965;-17.57315147;0.37403475;5.373312933;-7.513472004;2.604604089;-5.149654215;14.40801688;31.55426177;23.93;5.700340877;15.40849021;13.6747043;2.541371648;14.18063851;-0.854375876
0.646523305;8.438794622;3.988186064;15.81182495;-12.50938425;-0.149317356;5.837206231;-5.276974013;3.312687516;-3.843344165;12.42388758;30.72685559;22.90508517;9.808784209;18.60708757;13.50198052;5.530195623;15.46186005;-0.622748904
4.663413449;9.891122457;7.756698829;18.10758614;-7.881436644;-0.65493411;5.807665204;-2.033261276;5.130721484;-1.548002578;10.28801102;27.76316785;19.61714601;11.52028445;19.44;12.25397314;7.952979204;15.23124711;-0.500904589
8.244329848;11.20311595;10.21151599;18.417325;-4.313818414;-1.015045411;5.362750017;0.878949386;6.755592421;-0.16897202;7.457920349;22.114737;13.85531036;9.690678053;16.01073844;9.883895346;8.975015158;13.17407198;-0.660375366
11.53557463;12.50358324;11.75431661;17.19792137;-1.624652733;-1.144814027;4.950508076;2.353729585;6.851982711;-1.376334683;3.618418141;14.50968867;6.161481484;5.098415172;9.968376117;7.524116671;9.016403726;10.45707634;-0.919855614
14.77726828;14.40516465;13.12910611;15.20871032;0.893524261;-0.99514665;4.964772033;2.211385911;5.053388989;-5.27314453;-0.744600211;6.840751649;-1.9105488;0.103543277;5.104899027;6.889391115;9.536682857;9.145724016;-0.846086519
17.77679027;17.53329774;14.77755306;12.97241279;3.860723424;-0.602591947;5.389317774;1.159526198;2.186281696;-10.20648026;-4.505779719;1.269512415;-8.297988929;-2.800194682;4.226014118;9.043899954;11.98409048;10.83530105;-0.157038303
19.93131835;21.93544915;16.57475149;10.69890171;7.330255157;-0.149237967;5.838962034;0.106319596;-0.364622455;-13.86275729;-6.624115378;-0.896489753;-11.47842708;-2.574790987;6.87057437;13.49354567;16.67478061;15.49028042;0.92499901
20.82906633;26.86894519;18.12968591;8.656122218;10.83940329;0.074186891;5.94711232;-0.55021659;-1.561623286;-14.77338694;-6.784846115;0.199160295;-11.30998548;-0.221109064;9.775924086;18.37482142;22.4459373;21.39578611;1.72903795
20.91222863;31.19980345;19.36388568;7.54831126;13.9629226;-0.158843421;5.724243099;-1.055652589;-1.191765647;-13.08193801;-5.441482185;3.273983274;-8.988862408;2.076690563;9.713760338;21.67038535;27.33888635;26.30472675;1.621309332
21.54452003;34.1434633;20.83276377;8.433811751;16.88526967;-0.809166172;5.544628769;-1.80945416;0.307941737;-10.09466253;-3.307846059;6.846242626;-6.132764488;2.591534712;6.338618503;22.56401897;29.79373095;28.94651141;0.545497027
24.25654747;35.7708433;23.44671802;12.10868868;20.42315349;-1.526862189;5.775068298;-2.780133325;2.331387068;-7.147913064;-0.821396025;10.07972145;-3.710347164;1.231518566;2.661220892;21.91992851;29.495395;29.77914761;-0.854079942
29.62618274;36.86855167;27.7455853;18.37204972;25.35017926;-1.853869124;6.401525902;-3.418861194;4.387843717;-4.807087805;1.941944944;12.94308534;-1.655055634;-0.604075153;2.711581582;21.53847158;27.34268975;30.44600961;-1.677801432
36.62336511;38.25079617;33.27678672;25.76350808;31.49295148;-1.556466236;7.01456943;-3.170243801;6.022885083;-2.988732398;4.89816371;15.6785785;0.591387632;-1.291089361;8.262065813;22.76489297;24.69987585;32.38011249;-1.456220414
42.96541701;40.04365024;38.58402053;32.06190677;37.35592562;-0.827973382;7.176862813;-2.092904936;6.644264578;-1.701893627;7.567783995;18.12582758;3.159256122;-0.297741556;17.2293555;25.48047713;22.56074208;35.60993435;-0.521469138
46.2817916;41.45274612;41.8499918;35.28124258;40.69442074;-0.173637004;6.832810832;-0.978706022;5.609730704;-1.561134689;9.100432586;19.51573198;5.318933585;1.502856701;24.98272075;28.16163257;21.17593855;38.60898372;0.251259604
45.27414415;41.12238055;41.73476158;34.52779761;39.71972248;-0.039210545;6.374051418;-0.817599488;2.608191239;-3.501176917;8.718003506;18.90435015;5.952608603;2.71626604;27.45670862;28.8713485;20.22448495;39.21367467;0.133251523
40.09070197;37.77074126;37.83496665;30.18754418;34.0875683;-0.467822051;6.291390286;-2.067274626;-2.013014544;-7.929376403;6.171485984;15.85739674;4.531129075;2.716864889;23.63310609;26.41499076;19.20550556;35.88497751;-0.894101455
31.7928041;30.69426211;30.55259254;23.41372526;24.96142867;-1.065997629;6.729969681;-4.376250447;-7.341748392;-14.12278712;1.806872639;10.80178183;1.731246872;2.259529628;15.64533487;20.90047827;17.70431539;28.46550316;-2.153497861
21.51911897;19.98370673;20.67453774;15.38501352;14.16763008;-1.315783688;7.358949626;-6.992560904;-12.40142611;-20.48371297;-3.76538629;4.776394093;-0.882375668;2.924831848;6.771555369;13.49023313;15.46568621;18.08760431;-2.835160772
10.12233642;6.571861927;9.156055092;6.910889061;3.168957737;-0.983997544;7.678872816;-9.454628775;-16.6383065;-25.49667072;-10.01380173;-1.162585556;-1.894801008;5.86699742;-0.824154159;5.711596507;12.43800772;6.526891744;-2.632531631
-1.482690238;-7.763783213;-2.708618131;-1.400546968;-7.332292389;-0.296215758;7.4847286;-11.90475282;-19.96744519;-28.59531688;-16.47802036;-6.364922155;-0.976115201;10.8570527;-6.836270722;-1.142486482;8.89474535;-4.451374112;-1.933080338
-11.77871522;-20.56053554;-13.06343172;-8.717976486;-16.96732263;0.2614669;7.056791389;-14.73518646;-22.37421826;-30.23084245;-22.46186158;-10.53609366;1.012879424;16.31669846;-11.81290185;-6.265233502;5.499603835;-13.44552068;-1.437847272
-18.70880363;-29.25552081;-19.75684487;-13.85125566;-25.02638368;0.339542288;6.901715399;-17.92710202;-23.52119577;-31.15037271;-26.86771189;-13.38164692;2.775037815;20.23200794;-15.69318216;-9.3491503;3.082102286;-19.55744471;-1.561692728
-20.63068592;-32.22387199;-21.26639169;-15.69916458;-30.33941312;-0.01241812;7.282468784;-20.7546196;-22.82852554;-31.58366063;-28.54720783;-14.39503627;3.534714152;21.21302586;-17.39032901;-10.5754732;2.112698119;-22.54159389;-2.125943677
-17.5684806;-29.79140157;-17.77199979;-14.03030319;-31.97149094;-0.425872373;7.971963914;-22.19057912;-20.02586187;-31.07341912;-27.03266891;-13.07255105;3.442944638;18.99232344;-15.76696037;-10.61108897;2.230288173;-22.97339684;-2.576511307
-11.69856686;-24.44513619;-11.49985972;-9.963727156;-30.15737238;-0.545974623;8.458881042;-21.67285777;-15.65341389;-29.05218927;-23.03384747;-9.391372405;3.206455381;14.20970368;-10.98098674;-10.44763901;2.289288375;-22.18453483;-2.502206925
-6.440108615;-19.79145956;-5.820927414;-5.637358466;-26.54481492;-0.317516681;8.415532005;-19.51572274;-10.94738719;-25.5648165;-18.14446309;-4.086093796;3.379670279;7.873051152;-4.855646747;-10.97732804;1.053689928;-21.7511866;-1.98915977
-4.580058594;-18.66483139;-3.489984301;-3.1228872;-23.31936425;0.016710616;7.994606957;-16.55894468;-7.07888072;-21.41397783;-13.83848871;1.600378353;3.970579501;0.975245654;0.130047607;-12.48585288;-1.896450104;-22.69323253;-1.51855053
-6.691979161;-21.53729174;-5.146982501;-3.239988682;-21.75477233;0.179793542;7.680282979;-13.37412362;-4.357294771;-17.57090109;-10.5166761;6.550973646;4.62893104;-5.589633263;2.367387493;-14.44850282;-5.760078125;-24.90090045;-1.524934268
-10.98340964;-26.34505065;-9.124912807;-5.071681745;-21.32656374;0.129279177;7.833162945;-9.808144065;-2.135532249;-14.40703711;-7.439783205;10.29092924;5.107120015;-11.02508995;1.888208697;-15.87233478;-9.005692574;-27.25624143;-2.015129591
-14.67046843;-29.92781352;-12.70216241;-6.54514875;-20.17483202;0.080594799;8.353831384;-5.367498111;0.419901908;-11.48910292;-3.69576067;12.96888337;5.461600932;-14.77953136;-0.123246451;-15.99892337;-10.4355918;-28.42126127;-2.569295987
-15.84100788;-30.10988539;-13.88344562;-5.722585195;-16.64297781;0.269899131;8.780420143;-0.142999141;3.331276177;-8.156402774;0.57044469;14.85652748;5.786226802;-16.78626226;-2.422736703;-14.84013896;-9.990212586;-27.72;-2.698825281
-14.44842508;-26.95756032;-12.43388661;-1.966801608;-10.72305191;0.685519078;8.731106292;4.624008592;5.510403574;-4.349741761;3.773406308;15.85705084;5.801949751;-17.49999246;-4.318228443;-13.10585247;-8.62657007;-25.44169941;-2.237115658
-11.83098392;-22.36157088;-9.524302783;3.749161495;-4.274204914;1.028924642;8.277702068;7.026207024;5.535375597;-0.891588795;3.844163162;15.5087039;4.832500552;-17.54442464;-5.38;-11.57114271;-7.363881185;-22.36482843;-1.440408265
-9.343755467;-18.36908933;-6.457672538;9.518806953;0.15648874;0.957001567;7.89502722;5.816588915;2.924142644;1.101259765;-0.101735618;13.51135369;2.34770036;-17.17226268;-4.870354738;-10.41584845;-6.311853603;-18.96259651;-0.749029478
-7.33253445;-15.62346099;-3.624918891;13.64340084;0.982555044;0.397260523;8.022529252;1.54152016;-1.195619177;1.183750302;-6.713017534;10.29394776;-1.335764089;-16.01023365;-1.854815929;-9.11471459;-4.547993811;-15.02082129;-0.444775145
-5.262527528;-13.11651257;-0.536552709;15.4692698;-1.560324092;-0.347784528;8.639384387;-3.537926303;-4.694885562;0.047896617;-12.93;7.047037502;-4.87442503;-13.3967569;3.792072971;-6.994823486;-1.007617187;-10.02571284;-0.492613336
-2.737026675;-9.353980941;3.221205659;15.44955543;-5.902912347;-0.812267734;9.252609959;-6.832020408;-5.940313023;-0.985235492;-15.8499261;5.077357291;-6.562464292;-9.108020803;10.39830276;-3.99224572;4.330984335;-3.975623351;-0.657246005
-0.353531956;-3.890730308;7.081198809;14.53853085;-10.44136074;-0.725211262;9.325163141;-7.123247868;-4.990328472;-1.055851439;-14.60216324;4.941614923;-5.450637786;-3.861552027;14.77034885;-0.940772922;9.988261329;2.142257957;-0.74072942
0.476491408;2.061331592;9.557198628;13.45349241;-14.5265542;-0.217508488;8.765603214;-5.267691137;-3.48380764;-0.495899706;-10.83299999;6.059645888;-2.074223653;0.908562349;14.04570366;0.903269903;13.71877169;6.713994925;-0.716272113
-1.347324468;6.436599668;9.309439136;12.33395612;-18.41482717;0.291411601;8.034921361;-3.340139553;-3.269361419;-0.528559602;-7.4338075;7.161679804;1.825621329;3.928445589;7.955417101;0.764003375;13.93952263;8.488358228;-0.672558442
-5.5201418;7.842259839;6.327819577;10.95267065;-22.41173563;0.426125664;7.764461113;-2.902792518;-4.872967162;-2.144447958;-6.47749421;7.26215824;4.438371684;4.958384177;-0.344789103;-1.01680898;10.77713136;7.427941375;-0.673374427
-10.26046323;6.567311752;2.194771289;9.206633341;-26.10615044;0.129802462;8.217448315;-3.773182016;-7.049941424;-5.089767238;-7.898263911;6.421791966;5.05022548;4.950422288;-5.839420159;-3.08983224;5.957243581;4.749543542;-0.693270002
-13.38630672;4.322626274;-0.852901027;7.451007182;-28.41007813;-0.332333111;9.068534563;-4.245638172;-7.776248318;-7.839874089;-9.822167335;5.719417128;4.382189214;5.322390418;-4.743567944;-3.851584211;1.670657213;2.142432692;-0.677900356
-13.68078415;3.024853776;-1.334472965;6.414767301;-28.31982478;-0.6169024;9.692327808;-2.538481638;-5.853385285;-8.624751077;-10.16060334;6.472210144;3.892784923;6.891008184;3.048032267;-2.279443018;-0.688993676;0.805368703;-0.633162123
-11.45485215;3.655468917;0.704916259;6.777254157;-25.66063673;-0.571771034;9.699591471;1.722875441;-1.824645002;-6.706626734;-8.161584021;9.309659927;4.635075359;9.283553667;13.94777123;1.685433279;-1.021765539;1.026476704;-0.62527735
-7.929194945;6.027422152;4.10888326;8.722443642;-21.15392349;-0.3142243;9.246188615;7.14607018;2.487839248;-2.913004383;-4.772298869;13.77385019;6.557466153;11.25694453;23.08749403;7.311636804;-0.064073795;2.496707701;-0.689362455
-4.078923251;9.42371589;7.73703586;11.77224042;-15.82839883;-0.086693004;8.853478473;11.54427556;5.362766318;0.953571707;-1.70204875;18.66362425;8.721388932;11.62672005;27.3460023;13.49924125;1.442933633;4.897677059;-0.76211644
-0.006203505;13.34242299;11.2648563;14.98556001;-10.40270367;-0.047518184;8.920707808;13.4031018;6.306632338;3.317124059;-0.0975184;22.76437458;10.15;10.05483802;26.82426686;19.09381015;3.199459398;8.127797049;-0.737567499
4.63891757;17.62239057;14.98602672;17.37827236;-5.213503965;-0.182400545;9.378141488;12.70857176;6.066628026;3.708116226;0.064936884;25.37679286;10.5537951;7.123827966;23.92458978;23.02033206;5.145467088;11.97025764;-0.602878301
9.678606594;21.93804081;18.90924373;18.32463532;-0.627533403;-0.383711775;9.786385237;10.62742469;5.668401632;2.740901681;-0.513331661;26.32141095;10.35949349;3.748082087;21.06056715;24.43012577;7.011120081;15.63169079;-0.497428643
13.91013417;25.3354674;22.12222949;17.76718565;2.685141136;-0.584070957;9.771848937;8.475052609;5.4133096;1.374013887;-1.463501296;25.57876337;10.10259136;0.491001237;18.92385201;23.00399291;8.220481835;17.78358804;-0.591604643
15.7144959;26.48039177;23.17016536;16.19763329;4.129131325;-0.798759907;9.384324715;6.868659035;4.695605213;0.1499806;-3.303519029;23.00173252;9.774441153;-2.652542282;16.53024658;19.25118421;8.329567257;17.29902567;-0.871170566
14.36200445;24.59531442;21.2502521;14.46769441;4.005096297;-1.046272255;9.045106055;5.635327051;2.690596683;-1.014368563;-7.029434839;18.39895884;8.712787098;-5.924488945;12.68283598;14.4458575;7.571492944;14.17776293;-1.050679987
10.88536704;20.32261306;17.20015191;13.50763611;3.933589771;-1.253533986;9.140058594;4.32089453;-0.808553049;-2.479010342;-13.10972074;11.90054746;6.128780677;-9.323143077;7.400457951;10.03628306;6.893034708;9.845233634;-0.761155148
7.651928124;15.66788517;13.31303729;14.01208448;6.18179472;-1.272230814;9.642151737;2.703443359;-5.178917712;-4.419718665;-20.76821447;4.241104188;1.820263127;-12.44380606;2.09828374;6.837278421;7.30400142;6.4252051;0.098146042
6.82422722;12.87604018;11.94359344;16.1556742;12.10262904;-1.015519097;10.11896159;0.887540581;-9.494942218;-6.674843825;-28.19290381;-3.338736285;-3.518051596;-14.74700657;-1.484719068;4.628461694;9.027596404;5.412712209;1.154780916
8.856512976;12.99043486;13.90093258;19.43511591;20.80747222;-0.587753053;10.12298063;-0.927915773;-13.20149736;-8.924193939;-33.53966476;-9.547071299;-8.626868148;-15.94;-2.568380946;2.563554426;11.2024379;6.714435637;1.745598975
12.20283904;15.16595805;17.86904333;22.74887859;29.23909609;-0.263203026;9.607634458;-2.609119911;-16.25688081;-10.89650613;-35.9709655;-13.5405524;-12.37929483;-16.07788843;-1.751490465;0.14702351;12.46521274;8.794152389;1.405703637
14.46611347;17.25943272;21.32256881;24.76143599;33.82432153;-0.298404213;8.986369063;-3.960653918;-18.66323397;-12.355836;-35.97679033;-15.14327814;-14.3102724;-15.30426438;-0.368909123;-2.009984372;11.98534985;9.821981388;0.280217982
14.08276054;17.25214088;22.24425992;24.45427819;32.62212195;-0.721039365;8.777316245;-4.528643983;-19.96829056;-12.94941682;-34.81363752;-14.69558195;-14.63154939;-13.53509782;0.519660085;-2.362312212;10.10435894;8.95758277;-0.917552998
11.2548697;14.4635978;20.35389687;21.62007813;26.41100434;-1.276863911;9.152702723;-3.722237038;-19.38838681;-12.22110076;-33.55546726;-12.70877987;-13.81651889;-10.45781655;0.670375129;0.477447202;8.044081738;6.823584371;-1.424621002
7.504790534;9.753230945;16.9981626;17.0237725;17.93153849;-1.592716627;9.796680302;-1.330137956;-16.57649192;-9.941616981;-32.46556941;-9.586035043;-12.14834353;-5.905096185;0.486813931;6.529784958;6.934163205;4.890225574;-1.029607679
4.349610025;4.732051157;13.93201308;12.09556631;9.921406474;-1.433953718;10.19385905;1.99048675;-12.33388175;-6.519374243;-31.06424843;-5.549537697;-9.586398671;-0.267403242;0.566280855;14.10621602;6.983569962;4.334058334;-0.253682178
2.231166865;0.713801721;12.04080769;8.281925775;3.485143838;-0.856750681;10.08319562;4.821709476;-8.467501838;-3.04563977;-28.71479432;-0.736576642;-5.999718077;5.481041631;1.473285222;20.68658942;7.477371592;5.272194677;0.06734445
0.501106284;-1.820494912;10.9699852;6.401106336;-2.018699179;-0.146284349;9.670058594;5.813587266;-6.690930459;-0.764903009;-25.22464977;4.655820827;-1.520647309;10.25045876;3.784820971;24.40684092;7.546265478;6.878665671;-0.525870485
-1.694790253;-3.031406582;9.788799569;6.371336123;-7.695034255;0.392317056;9.416451816;4.670319672;-7.364927399;-0.278440473;-21.05419077;10.26383699;3.286297901;13.46168136;8.019470244;25.0502787;6.984376208;8.144949146;-1.727685731
-4.5116342;-3.203828378;7.973717907;7.455960416;-13.69018159;0.616403302;9.611872732;2.449097008;-9.142755719;-1.110468852;-17.08061898;15.51432735;7.563292508;15.32977039;14.18066722;23.82778541;6.375825379;8.589595329;-2.71907109
-7.259030553;-2.449019554;5.848255504;8.831718373;-18.89682754;0.574659372;10.11716601;0.797310097;-9.917371229;-2.049335069;-14.1605883;19.66755862;10.48955174;16.5747751;21.20375954;22.20030907;6.439212243;8.390289681;-2.855805224
-9.03365556;-0.806975357;4.20677233;10.06745381;-21.97142578;0.40021105;10.5038289;0.64361858;-8.391695186;-2.057427703;-12.78128653;21.98572855;11.57977714;17.79761906;26.96588191;20.73976568;7.223950573;7.985525337;-2.207812719
-9.457351175;1.522010353;3.593062698;11.17607018;-22.65173552;0.191318818;10.44779284;1.400845049;-5.037663586;-1.048205925;-12.93937805;22.02582457;10.79730461;19.01560751;29.20196186;18.93171294;7.9374704;7.631325222;-1.481447737
-8.830495838;4.178830187;3.937326302;12.24138431;-22.1050265;-0.018586443;10.01312361;1.404154443;-1.682911298;0.091807551;-14.22408389;19.93107273;8.475838358;19.68554921;26.86058403;15.99207717;7.611168685;7.335753525;-1.385507948
-7.632511877;6.920952689;4.824749768;12.9796907;-21.93356111;-0.210267753;9.575665768;-0.689500705;-0.086588183;0.245413919;-16.02210842;16.49601679;5.141055704;19.12192423;20.88303334;11.9155396;6.033346553;7.146160695;-1.989928987
-5.943999145;9.845841398;6.030656454;12.6819453;-22.70313193;-0.337401739;9.472769423;-4.653180525;-0.68374356;-1.047597535;-17.777299;12.85111446;1.326855792;16.92345139;13.69978398;7.810827131;4.09109489;7.386905044;-2.64427203
-3.420346051;13.22807552;7.722775689;10.69067998;-23.33180443;-0.357933925;9.709070972;-8.64722228;-2.491076184;-3.277396181;-19.23374612;9.870538232;-2.561784883;13.09327701;7.738831409;5.218828292;3.142078429;8.498218568;-2.544255481
0.12324648;17.01962176;10.10137117;7.092627647;-21.95028175;-0.303096266;9.981295595;-10.48230745;-4.145854862;-5.434453662;-20.54695981;7.672675059;-6.314042093;7.867919263;4.074369293;4.983066066;3.878321685;10.54841649;-1.467183949
4.097714205;20.46386384;12.8457455;3.033846402;-17.55224044;-0.289639177;9.980945026;-9.212361747;-5.088665605;-6.802730859;-22.14595999;5.60805421;-9.883731472;1.526377076;2.238646196;6.604988152;5.618929297;12.87145463;-0.035540992
7.173476906;22.27208525;14.97611237;0.25902138;-11.02651267;-0.429899747;9.681173963;-5.787201464;-5.83348015;-7.375527055;-24.34996627;2.824932056;-13.26020341;-5.598124368;1.22151889;8.58881662;6.657535091;14.24789949;0.739202351
8.073780026;21.35670913;15.38161153;0.053366368;-4.647177653;-0.707238074;9.343802641;-2.246339524;-7.137737515;-7.581279737;-26.94403187;-0.939872175;-16.29205233;-12.95492814;0.662832938;9.46134462;5.445044615;13.60774051;0.265553837
6.524756144;17.59971001;13.63371544;2.298284803;-0.386601756;-0.943496827;9.255671977;-0.118475523;-8.907482275;-7.655176632;-29.03387049;-4.927904847;-18.57700101;-19.71415757;1.124502222;8.645036555;1.712354535;10.76753163;-1.14149399
3.550796255;12.0368913;10.38828243;5.386471309;1.588292375;-0.918064249;9.456785573;0.674109089;-9.932759984;-7.307852855;-29.38610696;-7.663147804;-19.52819422;-24.97728849;3.229413179;6.562856478;-3.315680157;6.632587475;-2.505632871
0.814123887;6.278743836;6.986944709;7.17571875;3.014599512;-0.556386673;9.719365564;1.541865185;-8.807421485;-6.041257969;-27.14346482;-7.849319532;-18.63131595;-28.14816295;6.550903761;4.032954024;-7.750490359;2.678916244;-2.961551177
-0.50815781;1.600118529;4.541089225;6.376710021;6.146266222;-0.023283316;9.788097847;3.85310834;-5.294504665;-3.826293944;-22.49813446;-5.261521617;-15.77077153;-29.16056187;9.407381205;1.561167944;-10.26473501;0.067647192;-2.4127908
-0.430817365;-1.616866254;3.226339448;3.379382248;11.97889535;0.377665026;9.6397342;7.613698658;-0.922170797;-1.476188929;-16.85460463;-1.00583444;-11.42669938;-28.36422681;9.889310099;-0.882137281;-10.82406777;-0.993751746;-1.542111194
0.069946038;-3.726767081;2.338042623;-0.118464978;19.43880397;0.430554287;9.505297608;11.28142074;1.824354178;-0.283266346;-12.29090086;3.04418125;-6.594537276;-26.18404537;7.273638408;-3.519114548;-10.48378126;-1.233943182;-1.193819039
-0.038363028;-5.19977331;1.015017299;-2.428784625;26.06637171;0.172414075;9.631632348;12.85003906;1.187334595;-1.136874797;-10.56680751;5.252303626;-2.432068527;-22.88023669;2.563851841;-6.272130067;-10.52489428;-1.717900014;-1.666457514
-1.055930738;-6.137552617;-1.007766444;-3.141080829;29.56050755;-0.146212987;10.0150985;11.32287533;-2.591530178;-3.827824868;-12.23399886;5.00245504;0.201721398;-18.62929146;-2.347159921;-8.605868544;-11.61445232;-3.118894323;-2.503105388
-2.503977658;-6.330124511;-3.240665088;-3.351536552;29.00054236;-0.273589601;10.37237916;7.427773976;-7.414551029;-7.129156675;-16.3663685;2.79868716;1.085307712;-13.80792983;-6.138072917;-9.825305863;-13.52043617;-5.335407759;-2.921935544
-3.762872238;-5.714625499;-4.955574553;-4.661586911;24.98819244;-0.157910781;10.38912805;3.077333393;-10.78857369;-9.615934423;-21.07042945;-0.275463971;0.682347405;-9.125557831;-8.811908908;-9.537076781;-15.41564901;-7.629847174;-2.488249476
-4.755476737;-4.718365382;-5.879453834;-7.736887004;18.88416247;0.036443518;10.01886849;0.06412522;-11.49303874;-10.58836886;-24.48352107;-3.286305249;-0.120928435;-5.366039731;-11.08284969;-7.886726354;-16.41438899;-9.116410362;-1.453046704
-6.051737139;-4.097245417;-6.452467489;-11.59733013;11.92779993;0.103988007;9.548194308;-0.995717658;-10.23307653;-10.40203039;-25.69678708;-5.881173514;-0.454583785;-2.882775071;-13.06973394;-5.438254345;-15.96627107;-9.261802788;-0.501646888
-8.331028133;-4.380522104;-7.455378762;-14.25133225;4.883634676;-0.00236298;9.35689125;-0.765725918;-8.891451051;-10.020394;-25.10087118;-8.239062396;0.136930824;-1.282068811;-13.69922479;-2.873220275;-13.98268707;-8.133234728;-0.169650578
-11.71510757;-5.425293236;-9.363354841;-14.21259677;-1.774237784;-0.134274827;9.58586728;-0.439120714;-9.066544929;-10.23220211;-23.99587413;-10.71821892;1.529611471;0.371272417;-11.60021783;-0.759439591;-10.79314035;-6.314698461;-0.442787299
-15.56564149;-6.498272593;-11.98233815;-11.70569496;-7.600501175;-0.1066663;10.01504693;-0.848820896;-11.0404165;-11.1869256;-23.73094076;-13.52118686;3.156432323;2.926098014;-6.799925458;0.53754136;-7.038595279;-4.575527653;-0.857150637
-18.88815381;-6.821441648;-14.62668291;-8.586222309;-12.21368405;0.10119253;10.26232833;-2.1192745;-13.86340711;-12.55192773;-24.90503334;-16.57568386;4.34801688;6.574866962;-1.572973258;0.906172944;-3.492604658;-3.461407524;-0.960908737
-20.94277598;-6.097956304;-16.61025385;-7.016151275;-15.54639141;0.300222475;10.12035901;-3.986621814;-16.31958699;-14.03149837;-27.11742989;-19.61351408;4.659343936;10.78477374;0.662329875;0.575614244;-0.771217793;-3.003433977;-0.700193351
-21.52933874;-4.573217727;-17.59908442;-7.931659048;-17.9315009;0.257026207;9.724256166;-6.356075257;-17.91621285;-15.71478858;-29.41728768;-22.31970072;3.972708702;14.73175986;-2.190848826;0.120289876;0.971484567;-2.711390883;-0.399368927
-20.78367587;-2.645665137;-17.58756153;-10.50486573;-19.81871714;-0.075749948;9.404720405;-9.550200557;-19.15703117;-17.94581369;-31.15052243;-24.46839321;2.321999589;17.79113862;-9.055745247;0.190547685;2.119556148;-1.904485473;-0.395819613
-18.81348913;-0.480613462;-16.66687548;-12.99195273;-21.35509744;-0.48228401;9.374765198;-14.04735699;-21.01423481;-20.88512076;-32.61370609;-26.04698379;-0.401566815;19.61151935;-16.1676772;0.98764502;3.267731347;-0.238791626;-0.696447059
-15.63460611;1.932271322;-14.94123228;-14.23785446;-22.27245586;-0.64721292;9.548679937;-19.96094044;-24.11774371;-24.20852271;-35.00911874;-27.36793426;-4.582780573;19.74;-19.79299499;1.839127327;4.623628022;1.884188793;-0.977750128
-11.51767802;4.306189112;-12.73491888;-14.59337286;-22.24185176;-0.427712671;9.659029831;-26.69176509;-28.28343086;-27.23121389;-39.64465173;-29.08328992;-10.66827222;17.27241815;-19.14845522;1.327312312;5.576173592;3.342649701;-0.915080065
-7.369453689;5.680145294;-10.84595317;-15.51297846;-21.3424324;0.007093507;9.549142153;-33.01086936;-32.63029239;-29.33657818;-46.86960265;-31.97914947;-18.69;11.07192699;-17.14246825;-1.926653339;4.851651074;2.823574472;-0.519625674
-4.640611889;4.659843373;-10.44767248;-18.20729582;-20.0919355;0.303457368;9.349382135;-37.51010741;-36.08259242;-30.32627101;-55.49850667;-36.5428528;-27.87022424;0.610534314;-18.20460046;-8.292715325;1.277182533;-0.431029857;-0.162231871
-4.636115358;0.274145113;-12.51073602;-22.5;-18.87292454;0.218020497;9.357688567;-39.16076413;-37.87924253;-30.42263842;-63.21691511;-42.51132991;-36.67569976;-13.15794681;-24.81587899;-16.72520437;-5.328033794;-6.147380512;-0.258624428
-7.67411277;-7.169058093;-17.09161662;-26.84555024;-17.24794459;-0.170613032;9.733186877;-37.73463369;-37.85705323;-30.00424626;-67.80956086;-48.73342064;-43.41384749;-27.68691433;-35.45578201;-25.32139938;-13.78698118;-13.14953015;-0.901409038
-12.76664254;-15.97349998;-23.06394071;-29.47766506;-13.93750627;-0.517746344;10.30120571;-33.95939346;-36.49822699;-29.38314117;-68.44470706;-53.55365553;-47.06032624;-39.79114117;-45.58897073;-32.48237366;-22.03963122;-20.00895953;-1.767825
-18.13880122;-23.90803399;-28.60099331;-29.72141162;-7.768062402;-0.49028974;10.67336429;-29.36590305;-34.80933526;-28.82304581;-66.14784373;-55.59016108;-47.7850821;-47.1412122;-50.89719498;-37.77077077;-28.16366972;-25.74956797;-2.378861226
-22.24314449;-29.46083642;-32.14018296;-28.38989654;0.997342908;-0.03095579;10.59007813;-25.82799661;-34.03527266;-28.68443157;-63.12155824;-54.47150174;-46.7991492;-49.29650222;-50.20287466;-41.76194496;-31.24920573;-30.12042902;-2.474377467
-24.52720459;-32.56758653;-33.15852998;-26.98218665;10.0661588;0.609590186;10.17229075;-24.88075319;-35.19048493;-29.40722839;-61.36604571;-51.0663213;-45.59565031;-47.57878706;-45.86224975;-45.02855931;-31.5714044;-33.31085009;-2.18110011
-25.42320699;-34.27501275;-32.21959261;-26.40371101;15.98756376;1.086137528;9.83788639;-27.05908308;-38.52711348;-31.20724815;-61.54342725;-47.03812209;-45.07965829;-43.95350351;-41.51159744;-47.18210055;-30.05593697;-35.43458714;-1.852361875
-25.671656;-35.64525044;-30.32304306;-26.29713608;16.10546167;1.22311484;9.941707696;-31.60622643;-43.24409667;-33.7170731;-62.83565463;-43.98515062;-45.15248866;-39.80905013;-39.15535097;-46.90270563;-27.54198489;-36.27307155;-1.752476566
-25.61289698;-36.80994225;-28.12458565;-25.50994099;10.26718529;1.106448024;10.45862038;-36.79397281;-47.73357279;-35.97632218;-63.8094619;-42.68;-44.97919067;-35.51450484;-37.96992351;-43.04874829;-24.41279201;-35.50523337;-1.87504899
-25.04278813;-36.93893592;-25.64898325;-23.24119715;1.007220643;0.948542385;11.00109416;-40.75485785;-50.35782905;-36.94435486;-63.58;-42.83427392;-43.68237679;-30.92056418;-35.62801744;-35.94202765;-20.77105293;-33.19590266;-2.031108983
-23.68361515;-35.11455685;-22.65796789;-19.85317355;-7.998198238;0.876659202;11.16376275;-42.36705731;-50.33922197;-36.2337583;-62.40122388;-43.45738405;-40.94118468;-26.171123;-30.81859171;-27.66153853;-16.85401979;-30.06712147;-2.080326275
-21.76062605;-31.34501954;-19.26200395;-16.66072211;-14.12456127;0.848515002;10.88768502;-41.65541756;-48.176398;-34.47659019;-61.30610616;-43.52334876;-37.11471157;-21.99287325;-24.73636311;-20.94261089;-13.22479395;-27.25483472;-2.058992635
-20.08924781;-26.83843457;-16.17027365;-14.90972294;-17.0919975;0.759283178;10.51349305;-39.4896895;-45.27040152;-32.94482014;-61.16454519;-42.5170732;-32.91031957;-19.1757796;-20.3132066;-17.46115535;-10.54328228;-25.69837359;-2.086135729
-19.5310911;-23.27629471;-14.31162097;-14.83526509;-18.53441803;0.610452567;10.47212607;-36.85934784;-42.99174265;-32.62959789;-61.92941277;-40.57602541;-28.93949325;-17.74551628;-19.91415543;-16.86356831;-9.136983281;-25.62827611;-2.167594323
-20.25915709;-21.65070136;-14.12621198;-15.57970137;-20.34684086;0.5504221;10.89214987;-34.29150206;-41.82741589;-33.46256703;-62.62489726;-38.22141412;-25.50380498;-16.65460579;-23.44349618;-17.33605127;-8.774749662;-26.53319603;-2.127363945
-21.47153353;-21.58279424;-15.13242313;-15.98204476;-23.17195698;0.727757714;11.48121217;-31.81474152;-41.18612609;-34.3084916;-62.01437014;-35.90521927;-22.67910317;-14.39340102;-28.34493412;-17.23470997;-8.851454558;-27.58483095;-1.76589671
-21.83898209;-21.648396;-16.16133141;-15.51616204;-26.12805422;1.094769935;11.79133132;-29.39038252;-39.95143403;-33.77915826;-59.39042533;-33.6652621;-20.49273527;-10.11940894;-31.3525898;-16.40342909;-8.822534365;-28.14427381;-1.102523527
-20.37406121;-20.44347158;-16.11060991;-14.58524013;-27.78710144;1.369104301;11.62774928;-27.33998577;-37.3381741;-31.27163088;-54.92525486;-31.0838367;-18.96029665;-4.424520957;-30.50285836;-16.08118712;-8.527755585;-27.97015979;-0.445948534
-17.07351587;-17.57567995;-14.6561213;-13.99478076;-27.42769461;1.227873995;11.22869144;-26.32743157;-33.4339281;-27.44894133;-49.43875275;-27.56455702;-17.96063349;0.882622085;-25.92823058;-17.53068343;-8.174763573;-27.07174798;-0.177436064
-12.87768947;-13.881229;-12.40411067;-14.14813264;-25.50015542;0.588343189;11.05083671;-26.87325644;-29.09687367;-23.81141416;-43.88479423;-22.76757197;-17.14719103;3.832839269;-19.15056942;-20.64359142;-8.063821129;-25.47591382;-0.407092864
-9.027449621;-10.79825325;-10.41061913;-14.69834083;-23.03644866;-0.273388166;11.35426863;-28.81679132;-25.37;-21.70060418;-38.96508791;-16.94785653;-16.08885651;3.415571624;-11.81602748;-23.8;-8.327624093;-23.1991333;-0.815715532
-6.329980807;-9.442917324;-9.462724748;-14.91706416;-20.66598338;-0.893652201;11.96361719;-31.21282131;-22.87265507;-21.47899429;-35.03867556;-10.97383636;-14.59928151;0.000790784;-5.021340235;-25.14068491;-8.878622521;-20.434646;-0.864266903
-4.843654448;-10.06414068;-9.645256661;-14.37458902;-18.15981919;-0.963428319;12.42193529;-32.79376607;-21.55131088;-22.44;-32.19514717;-5.970457991;-12.97923057;-5.098531493;0.457807756;-24.12519537;-9.520498649;-17.68318845;-0.236777344
-4.111266528;-12.1619004;-10.44407559;-13.28118471;-14.85630138;-0.565994751;12.39702596;-32.65961927;-20.85024746;-23.41613252;-30.29143046;-2.7632035;-11.90678205;-10.44483909;3.697724087;-21.95353928;-10.044202;-15.57649996;0.843972029
-3.655704792;-15.0176893;-11.21765765;-12.2139424;-10.48872266;-0.111417975;11.9722482;-30.6819764;-20.08133696;-23.55772625;-28.92906251;-1.45713157;-11.98673451;-15.0350326;3.742158701;-20.41493984;-10.21694129;-14.46408711;1.714242314
-3.324241796;-18.13906578;-11.63550657;-11.55535145;-5.596417289;-0.018256689;11.56206582;-27.36501805;-18.73385686;-22.72276339;-27.52469337;-1.435248278;-13.27742938;-18.33579756;0.388332638;-20.15892989;-9.760154956;-14.13482022;1.738372067
-3.269970338;-21.30417063;-11.77666139;-11.21222214;-1.124825947;-0.400288371;11.53577936;-23.35472903;-16.60930957;-21.30132238;-25.57271516;-1.795557075;-15.16708026;-20.03487631;-5.123173523;-19.9745052;-8.466402061;-13.99361246;0.795854248
-3.669027979;-24.28525337;-11.87754985;-10.84503515;2.415846179;-1.004685143;11.89598881;-19.0338447;-13.81342761;-19.73944925;-22.95652109;-1.931395794;-16.70583591;-19.91327292;-10.36608911;-17.8390805;-6.439582873;-13.60681282;-0.595970252
-4.433623679;-26.5843207;-11.96666908;-10.27472074;5.461041046;-1.432558962;12.3018687;-14.49133244;-10.66560402;-18.1707432;-20.01125108;-1.837079114;-17.13584327;-17.97548781;-12.97880584;-12.92391965;-4.226853851;-13.13353209;-1.624655823
-5.117802094;-27.45426571;-11.6646088;-9.533264176;9.099660285;-1.443464723;12.40627474;-9.780408194;-7.540963988;-16.36888086;-17.19677217;-1.915430341;-16.21619044;-14.60491219;-12.00573948;-6.788056237;-2.605436705;-13.18219456;-1.73081395
-5.045691011;-26.21193936;-10.28561014;-8.423040873;14.21177868;-1.096935677;12.18726506;-5.135667151;-4.662762301;-13.94109095;-14.61082362;-2.452273668;-14.13807552;-10.44452549;-8.251319841;-2.550476227;-2.066857794;-14.12082991;-0.953721257
-3.577683329;-22.62235022;-7.186585033;-6.073434685;20.73813816;-0.645132006;11.96389289;-0.917642386;-1.945182193;-10.5582222;-11.80107177;-3.201274491;-11.18531319;-6.01096662;-3.369728716;-2.506304227;-2.376350848;-15.42103699;0.159052216
-0.41153742;-17.10551364;-2.185162894;-1.177012458;27.62774159;-0.306597031;12.08257536;2.631714314;0.958272547;-6.109528576;-8.140837194;-3.446408759;-7.490745167;-1.402395429;1.507935821;-6.05575825;-2.634236195;-15.70533056;0.970757779
