Channel 1 - P4;Channel 2 - O2;Channel 3 - P8;Channel 4 - T8;Channel 5 - C4;Channel 6 - Cz;Channel 7 - Fz;Channel 8 - F4;Channel 9 - Fp2;Channel 10 - F8;Channel 11 - Fp1;Channel 12 - F7;Channel 13 - F3;Channel 14 - C3;Channel 15 - T7;Channel 16 - P7;Channel 17 - P3;Channel 18 - O1;Channel 19 - Pz
-92.27586773;-73.37038076;-101.0651844;-100.2541123;-105.4652554;-60.95722819;118.5867647;-89.17414223;-46.21592156;-107.4089985;-85.34769002;-103.9825481;-74.10905146;-111.5283336;-66.3327773;-55.9;-12.98068942;-55.20719475;-52.33332486
-75.96301845;-56.07620464;-80.32147871;-79.9731439;-86.13924213;-45.20395096;129.6489873;-47.50503193;-6.563130904;-68.60403363;-36.95441399;-72.53760875;-35.99077158;-94.68844376;-44.98300235;-42.13693632;4.087868365;-45.45684374;-36.72388308
-35.21309316;-18.23367755;-33.95413903;-33.72443146;-41.04719247;-14.8763144;85.60021573;9.272478045;16.20504146;-5.295938854;30.28054261;-17.79246216;10.96231746;-45.70676389;-11.73272212;-13.18931132;16.26515579;-24.18788546;-9.991366478
5.269244398;15.860737;9.768834283;12.44963391;4.812745973;12.24903146;11.98130797;51.12873773;5.181849883;49.77474969;81.43917972;28.51753199;40.50046152;5.590215761;12.62130567;10.40301579;13.96990384;-8.013792982;11.86127837
23.91;26.05346087;27.39087242;35.61973148;29.46776847;22.25808555;-48.76199671;59.77758875;-30.67873806;72.0884686;93.54773142;42.11893194;39.34624266;31.49007813;15.4225647;13.87987421;-1.341073387;-7.561760182;17.75
16.42454771;9.422186845;15.52732227;30.70412987;27.86316238;13.89559748;-66.49161875;39.44141019;-63.67046272;60.38732696;69.36619197;21.47007813;14.86705267;24.55267475;0.015671801;-2.412912596;-18.86310973;-20.84831649;8.489630537
-3.449118424;-19.58743017;-9.34404698;11.45563197;12.64896241;-2.165439859;-42.33070564;11.23406665;-68.65995638;34.39971425;32.49261204;-13.62480458;-12.21710808;0.034902289;-18.5384005;-25.16909398;-27.03604576;-36.29034358;-5.226816342
-16.26610825;-41.21255415;-25.32808239;-2.070834635;2.347078764;-12.34452927;-4.129491001;-3.567715735;-41.74619825;18.17518761;8.931365273;-37.82975053;-23.66192092;-17.97076439;-25.77208731;-39.19029543;-22.10365864;-42.3106825;-11.72963204
-12.03834008;-44.82215529;-21.88741324;0.834554623;6.79016087;-10.14311057;16.5434361;1.791230172;-1.927206448;22.48195291;9.788521666;-37.91525821;-15.73190586;-15.04572057;-18.26589147;-38.35869423;-10.09969712;-35.78367488;-6.978591818
3.400388415;-34.93038388;-6.138312937;14.81622606;20.97736674;0.352492363;7.3502859;17.44534761;24.66044767;39.35079688;27.33509079;-19.42588867;0.982292108;4.578602026;-4.577589926;-28.37702014;-1.228798395;-23.1251782;3.549607965
14.83919654;-25.23778639;5.083332071;24.92842661;31.09030395;9.329870756;-18.95924187;27.45508141;24.66467676;51.47683523;45.15434012;0.970036621;12.300299;24.23700786;3.066530669;-20.21588274;-1.615441749;-14.04314929;10.44140781
10.75207948;-26.5899508;-0.175849906;20.00773715;26.70115237;9.776032839;-38.3032852;23.40236337;5.868030414;47.54980733;52.32376013;9.732938581;12.1479926;29.69566006;-1.063418119;-20.49797483;-9.085665473;-13.63;8.301607394
-7.801921412;-38.79212493;-19.7790655;1.777336338;8.972801216;2.632594053;-35.83231003;10.10904549;-11.53232567;30.89551166;50.01749679;5.617074554;5.932719382;20.08415169;-12.30086714;-26.78417547;-15.9271845;-19.17350626;-0.39263111
-28.97321726;-52.15217403;-40.37125486;-17.17750611;-11.18502451;-5.058144899;-16.49559929;-0.065449163;-12.22603195;15.36746489;46.80606078;-2.410024414;3.964873107;6.728821525;-20.3805746;-30.97435779;-15.77320742;-23.64315139;-8.160325404
-40.11479964;-56.35429517;-48.81118283;-24.01226754;-22.47410817;-6.697659719;1.573218917;1.592185623;2.956026701;13.17235335;48.7804631;-4.953822427;11.52275079;2.218661675;-18.28146242;-27.1420136;-8.691707929;-22.24855482;-9.112199532
-37.25488104;-48.74380719;-42.18186707;-15.62755347;-21.81083712;-1.527878074;3.569330419;13.21036402;20.23706628;25.28125629;54.0426777;-0.469122747;24.24614937;9.672918727;-7.710426332;-16.83992613;-0.526343777;-16.3505997;-3.559575109
-26.65892712;-35.48342307;-28.56510084;-0.158919384;-15.36693222;5.409188442;-10.10288885;24.88948532;26.31701485;41.87898952;55.9075635;4.676593164;32.29306448;21.01996297;2.80524686;-7.622088917;2.437503545;-11.7602125;2.923525582
-18.22185273;-25.53259111;-19.04304685;10.45237166;-12.07835637;8.132504205;-25.86492132;27.65493948;19.70536567;51.36742677;50.735531;3.286455169;29.03782362;24.83773398;5.015767772;-6.518678191;-1.335470752;-13.39754493;4.672009038
-17.03625001;-23.21934201;-18.46369223;10.02782725;-15.79738238;4.854840648;-29.80643799;20.70269759;10.54238734;49.61170334;42.37890535;-5.517559033;16.58757299;16.3348508;-2.816833838;-14.2738029;-7.867773522;-21.13688887;0.653881687
-20.21250702;-25.62961949;-22.67147212;2.020420069;-22.72635875;-0.947585239;-19.52418353;11.04191649;10.15290507;41.83834972;38.94243882;-15.51267483;3.658661267;0.933974143;-15.25973994;-25.08760913;-11.57688775;-30.23090952;-5.136389183
-20.85380103;-26.31725828;-23.67200005;-4.759856172;-25.68848963;-4.037975074;-5.065671291;6.598036265;20.38269749;36.55703074;45.05686854;-19.22470569;-1.865907967;-10.98554908;-24.44801838;-31.68024182;-10.16562065;-35.54834988;-7.537518507
-14.89575776;-21.40995813;-17.38215721;-4.14421204;-20.89771889;-2.085022414;0.842739037;9.292286499;32.24849796;37.65900253;57.08893346;-14.75960685;0.937360278;-13.00672881;-25.91655288;-31.10916927;-6.275335413;-35.70144221;-4.6988968
-4.604778698;-12.67726985;-7.016285576;2.651741214;-11.19700712;2.607311099;-5.985852607;14.05762734;34.59810366;41.72;65.90505249;-7.426454844;6.23217322;-7.449597995;-21.03587197;-26.53137832;-4.74950205;-33.57996205;0.657556728
3.902339226;-5.392530007;0.34470394;9.064353202;-3.293571212;5.538866759;-18.28278091;14.13163761;24.51263868;42.28295744;64.75343172;-4.908601044;7.202995617;-2.371904435;-14.90774573;-23.87126067;-8.174916404;-33.19;3.9668576
6.279606107;-3.558576407;0.272830704;9.492220342;-1.85458408;4.158103806;-24.56524007;7.487670503;9.986766017;36.57350353;55.10457193;-10.51171328;1.993722597;-4.061393856;-12.23308062;-26.65200906;-14.65056618;-35.89211679;2.857095077
3.408235481;-7.02064879;-5.486102211;4.053243199;-5.747467338;-0.035430018;-19.49174383;-1.357568773;2.707935034;28.30516279;45.18407823;-20.50484752;-5.290381091;-11.82;-14.63451513;-33.43306725;-19.56198293;-39.39832123;-1.074615851
-0.178264289;-12.72719529;-11.35833238;-2.111963441;-9.40769762;-3.118763342;-8.10532702;-5.485114406;7.714896115;24.20378148;42.6137613;-27.69140053;-8.917244511;-19.26746023;-20.89663379;-39.65294254;-19.59359831;-40.19897093;-4.06454861
-0.972305033;-18.33986573;-13.49481591;-3.83356222;-7.684552141;-2.407114004;-0.694888116;-1.684723758;19.30570188;27.72259262;47.88506387;-27.77307569;-6.903824138;-20.40614999;-28.84680457;-41.78631461;-15.40944076;-36.9899348;-3.67947189
0.346326757;-24.37325844;-13.12958835;-0.450784788;0.256193844;1.218349169;-3.400896989;6.933781789;26.67297764;35.81759611;54.50557315;-22.77831249;-2.532122731;-14.72381481;-36.65231067;-40.00494218;-10.80046139;-31.91684877;-0.81118883
0.176014792;-32.78208215;-14.69298788;4.037774152;11.08293965;4.294007529;-13.07440024;13.907893;23.88727435;41.65079825;55.47299648;-18.68144179;-0.863231972;-6.950294112;-42.65515155;-37.25245879;-9.26088954;-28.58202449;1.453431657
-3.728237002;-43.57936503;-20.68484556;4.988522838;20.74628121;4.002951336;-20.63420201;15.03874592;15.06003906;40.63052449;49.9560752;-19.60460469;-3.670058594;-2.167163242;-44.80063715;-36.00675621;-11.09408897;-28.74501198;0.830635572
-9.24258762;-53.12432861;-28.35184658;1.437577745;27.68684026;0.661187768;-19.44710087;11.59161776;10.10881121;34.27799917;43.98378892;-23.93634613;-7.501082925;-1.063003533;-41.17632425;-35.93834349;-13.49692778;-30.79265576;-2.112788567
-11.21217219;-56.22017237;-31.50802832;-3.119740183;32.94537911;-2.702828513;-11.0457533;8.468078001;15.22897036;28.5411883;44.59493934;-25.81825436;-6.617356672;0.321862327;-31.75827583;-34.59281079;-13.3666657;-31.39706873;-4.63873273
-6.132735911;-50.51014354;-26.03613598;-3.99304462;37.54694369;-3.148566729;-3.291324133;9.354514088;27.02035367;28.26470884;53.04390259;-20.57596785;1.873836182;6.336940824;-19.71701936;-30.30321927;-10.25795307;-28.87062418;-4.462134139
4.039037431;-39.2574826;-14.12433849;0.457365953;40.15047117;-0.399401997;-3.034109918;13.42605233;35.81544529;32.91429276;63.58577423;-9.190843374;15.26840633;17.05151777;-10.48229943;-24.48917638;-6.936230366;-25.17579401;-1.834738435
12.56157992;-29.71616035;-3.278575455;7.325586718;37.55956703;3.070554217;-10.07645804;16.53073612;35.19418485;37.37292947;69.13932098;2.168646451;27.28206692;27.52845213;-8.569854355;-21.10216268;-7.151439311;-24.70131604;0.775781738
12.80530631;-28.02987179;-0.705384997;11.56376765;27.7823848;4.37595497;-17.7219698;15.57196218;28.73457638;36.96493302;68.51085409;7.153496328;33.00911886;31.71991044;-14.34785249;-23.57479698;-12.59823007;-30.72466383;1.010012207
3.394448764;-34.66380886;-7.720019531;10.05666205;12.72998767;2.775719339;-19.0755747;11.92168127;27.24811557;32.08113323;68.03684288;4.450229645;32.53363114;27.49322204;-23.39227969;-31.85561602;-21.55951229;-42.48742429;-1.249478648
-10.66041622;-44.07238658;-18.83881846;3.91437249;-2.18930341;0.164631178;-13.19547636;10.66764986;38.32014207;28.21366681;75.40784504;-1.216828812;30.24876534;18.35779651;-29.24020997;-42.04423086;-30.16697323;-55.31804556;-3.859720061
-21.73404923;-48.87803408;-26.2245636;-2.69660919;-11.54768553;-0.815120666;-5.628500551;16.32262663;57.3481763;31.35588644;90.84790075;-3.044980664;30.74341991;10.46365927;-27.66916871;-48.95;-35.05501713;-63.72948195;-4.445209983
-25.11328875;-45.21495143;-25.69850421;-5.880019531;-13.60518864;0.784806623;-3.132817221;28.79466021;68.71784858;42.80969073;103.9893913;2.336408678;34.95736939;7.58;-19.38083791;-49.5447432;-35.27253024;-65.05372289;-2.556232614
-21.85309897;-35.10801651;-19.42602251;-4.629347362;-11.13304686;3.450543495;-7.583343855;43.13740893;57.38410134;57.8789304;100.4656222;12.32343697;39.79295246;8.369121108;-9.212783533;-44.71781466;-32.23331724;-60.87771809;-0.000566461
-16.97906703;-24.34113129;-13.41073035;-0.868754904;-8.741033804;4.716534491;-14.54492534;53.23365287;21.94654804;69.46113752;73.80635313;20.59095977;41.16768704;8.076835837;-2.680974232;-38.26596338;-28.20718351;-55.41897779;0.880381443
-14.9592194;-17.90732585;-12.30823041;2.586920566;-9.094889975;3.472357127;-17.56723543;56.19262291;-21.726281;73.35436264;32.92491216;21.98140908;37.56172894;2.884198186;-2.543419437;-34.20110418;-24.82535241;-52.35032435;-0.647498597
-16.37089508;-16.77677814;-16.0207028;4.112954773;-11.23288428;0.928465784;-14.08433415;53.81644538;-50.12285221;70.83867587;-1.773016713;15.99211464;30.98336892;-6.934662878;-7.723260055;-34.46028558;-22.62749201;-52.53061774;-3.106592608
-18.26237269;-18.20663256;-20.59690305;3.808444177;-12.18385868;-0.586315074;-7.548931424;50.23513291;-48.15697883;66.69703457;-11.70533523;6.412762233;24.83942856;-17.53844259;-14.84427397;-38.36217678;-21.49370998;-54.0547619;-4.229726042
-17.35685752;-18.71389079;-22.10598417;2.592597299;-10.1433859;0.187949756;-4.048629133;48.14321372;-19.52210431;64.81806156;6.949980594;-1.9616969;20.97786289;-24.84440282;-20.69528578;-43.60906922;-21.10783149;-54.10366743;-3.045930123
-12.99209731;-16.88;-19.8368539;1.169526383;-6.233889361;2.31390712;-6.688074368;47.03263332;16.49042426;65.33901057;40.66802394;-6.471492513;18.6690832;-27.49381189;-23.68766146;-47.69158211;-20.94581702;-50.90939056;-0.71479672
-7.347197933;-13.82728168;-16.23706269;-0.141349218;-3.364989312;3.597289135;-12.89557346;44.7115943;39.03630023;65.52745121;68.43417926;-7.235107826;16.22932688;-27.01523932;-23.71277156;-48.80244802;-20.11595218;-44.51753995;0.602978793
-3.200437965;-11.56848345;-14.18170475;-0.943134908;-3.438936369;2.67870089;-16.96782513;40.30485983;39.7754979;63.09123528;76.51147957;-5.519029867;13.42512022;-25.54095573;-21.29541028;-46.20602284;-17.69248234;-36.2999022;-0.255308216
-1.604777554;-11.20003906;-14.43818308;-0.633797032;-5.580217281;0.320985712;-15.34881566;35.69790097;26.63726413;58.5938612;66.9556531;-1.980933929;12.14007813;-23.59910545;-17.21737687;-40.44335913;-13.60314886;-28.08643661;-2.431730488
-1.602752055;-12.60425698;-15.61773643;0.944617701;-6.967558747;-1.288540534;-9.765469787;34.03450395;15.46440688;54.81746993;53.91166999;3.426309888;14.56981271;-20.11432778;-12.81727084;-33.4376432;-9.288841336;-21.66215518;-3.897993255
-1.908076325;-15.51866161;-16.27090707;2.773357353;-5.345132491;-0.561294727;-5.462688677;36.75275993;17.03820158;53.95946608;51.39365701;10.11938531;20.68173112;-14.36648473;-10.1392222;-28.08200135;-7.236433397;-18.61458357;-3.342255987
-2.569557716;-20.42430329;-16.71589636;2.953173229;-0.770695781;2.010058594;-6.315619552;42.03617708;29.79737767;55.54263525;62.55840523;15.91911261;27.48247876;-7.671982253;-11.14915587;-27.01627178;-9.386831933;-20.05413403;-1.34036766
-4.80213909;-28.04481611;-18.61543007;0.244611228;4.989815352;4.262830579;-11.36250079;46.21084681;43.1227625;57.0675099;78.58208859;17.87020032;31.01472688;-2.862714449;-16.32243762;-31.08549652;-15.56427975;-26.03247189;0.232305142
-9.152879634;-37.88926332;-22.71384913;-4.335006188;10.66171202;4.287298251;-15.85647877;46.84506892;47.30603038;56.67734073;87.09189316;14.38155525;29.46670908;-1.884170916;-23.86872547;-38.62113451;-23.31519084;-35.126976;-0.044690043
-13.97201774;-47.48450833;-27.12201607;-7.490698425;16.92103988;2.116978053;-15.72922834;44.7079006;41.46500464;55.13085611;82.56584416;6.747037992;24.67233382;-3.804889711;-30.59648563;-46.35520946;-29.49688567;-44.82920417;-1.854775196
-15.99827804;-53.45179836;-28.14892014;-5.67985169;25.5011215;-0.324464559;-11.29448089;42.7936801;33.23490349;55.06172079;70.18733078;-1.494343373;20.63677834;-5.293628285;-34.02733111;-51.52816711;-32.44989652;-52.76205516;-3.491022928
-12.86266203;-53.80633244;-23.26207545;2.183536572;36.68245489;-0.942608851;-6.839441981;43.33180467;31.34477671;58.16802724;60.62370303;-6.978057731;20.32073878;-3.359355072;-34.11791617;-53.63405998;-32.98046906;-57.9088413;-3.46359671
-5.362759679;-49.51523668;-13.5987087;13.56646658;47.64485554;0.703418899;-6.593659817;45.56485463;37.90781546;63.06506;60.77808081;-8.698935567;23.42046106;2.021098585;-33.08698456;-54.36962166;-33.30847751;-60.84970996;-1.856838372
2.657065827;-43.80202578;-3.625828145;23.8310357;53.5843615;3.085289355;-10.84982257;46.38147409;46.92049086;66.03512787;68.47223511;-8.140809104;26.96462144;7.781683491;-33.38550264;-55.78;-34.86604777;-62.77083669;-0.199175495
6.96731568;-39.6177008;2.017925394;29.37359624;51.03423176;4.123341059;-15.77038782;43.27566337;49.84613255;64.23559038;75.19888527;-7.376897872;28.07;10.34243995;-35.46866067;-58.15597293;-36.85484301;-64.09846496;-0.010641367
6.049093545;-37.3696373;1.951199504;29.93466714;40.7;3.017841454;-16.96477252;36.9585515;43.23097067;58.54614285;74.10496202;-6.95703269;26.38041201;8.64268348;-37.25904494;-59.5248252;-36.84314413;-63.99086629;-1.404798472
2.068740358;-34.85033142;-1.107475398;28.28;27.31323599;0.859080516;-13.48709124;31.217795;31.89554895;53.38262344;66.16372556;-5.496335179;24.12740941;4.963389166;-35.77127281;-57.24334694;-32.91128241;-61.17392047;-3.033668356
-1.03691018;-29.41951168;-2.743209393;27.64406002;16.44723072;-0.462279077;-8.607027456;30.05187995;25.17621057;53.4116539;59.3587551;-1.237269074;23.94070117;2.84339605;-29.52717301;-50.35195793;-25.47937903;-55.36199521;-3.388051879
-0.691269812;-20.53678669;-0.400327784;29.15990558;10.811326;0.014935937;-6.734853055;34.50937116;29.43895843;59.84954874;61.76696333;5.974741831;26.48507057;3.983431985;-19.74954847;-40.62567752;-17.19976565;-47.91091718;-2.207198717
2.595276042;-10.46442196;4.886754471;31.39022614;8.972262652;1.536576827;-9.39556464;41.90321857;42.95591086;69.45257701;74.49453481;14.19438511;30.00867918;6.897515488;-9.430527814;-31.34902686;-10.97137524;-41.00047468;-0.677075011
6.186964662;-2.594413171;9.853198726;32.14993543;7.366030199;2.451685411;-13.93735625;47.98063365;57.15335247;77.01905905;90.39138798;20.82126682;32.0523675;8.452772453;-1.20757466;-24.83163124;-7.770205463;-35.9930406;-0.254606786
7.88808485;1.08136641;12.00710875;30.80773655;3.692027488;1.810808192;-16.07572408;50.11081079;63.14950862;79.25718637;99.59821019;24.63207025;31.63627809;6.830224553;4.103712043;-20.81200656;-6.146515122;-32.43192131;-1.249856877
7.743607449;1.182499349;11.53806952;28.93117569;-1.255207339;0.240155995;-13.85286806;48.82329909;58.48986898;76.8265976;97.40204376;26.53869466;29.94553571;3.206466121;7.246269104;-17.13741637;-3.7778383;-28.63690954;-2.518350902
7.578335668;-0.062130794;10.58568287;28.7312265;-4.720195351;-0.694408925;-9.363451283;46.63972298;48.99486929;73.08274324;88.07434731;28.45179881;29.04643939;0.680684935;9.123964025;-12.09939059;0.321031251;-23.43174511;-2.562248376
8.913288735;-0.933454335;10.80397682;30.78861502;-4.814706759;-0.002026815;-6.726702216;45.54707888;44.37547101;70.927153;81.60346479;31.41126859;29.99392767;1.492492307;9.834830442;-6.321384884;4.870188058;-17.47383019;-1.002266851
11.31814403;-1.480726421;11.63086579;33.1805996;-2.355855604;1.771644945;-8.250706972;45.4885731;50.79603122;70.63162826;85.78226563;34.77747295;32.13683968;5.084631586;9.080039063;-2.470697802;7.450805798;-12.94704994;0.983620093
12.72399895;-2.911210202;10.85924412;32.84479778;-0.075642278;3.031100067;-12.34397041;45.07164163;65.65216491;70.36233115;99.63201207;37.18200688;34.14716961;8.72132516;7.339452929;-2.991720935;6.636385614;-11.81277606;1.703681829
11.32133255;-5.935205491;6.866309945;28.0186714;-0.029993099;2.607353593;-15.05337215;43.51998745;78.24614611;68.55935129;113.099298;38.18496055;35.58112173;10.00472179;6.287572916;-7.835340617;3.223241138;-14.12661208;0.53312116
7.211274642;-9.833273754;0.320072021;19.68024853;-1.651658136;0.852894842;-13.74770406;41.78442595;76.09357056;65.72311644;113.3640749;38.87448405;37.28856236;8.934010527;7.618954382;-14.2074783;-0.499217188;-17.92415097;-1.44652028
2.287839083;-13.20043821;-6.253263787;10.85025547;-2.230777065;-0.656618208;-9.527879308;41.66404738;52.95839197;63.91672699;93.44324881;40.68077814;40.18609874;7.657010946;11.15547261;-18.62105369;-2.732734208;-20.82385476;-2.38775814
-1.455707497;-15.57662594;-10.58936729;4.479637144;0.65264784;-0.541295794;-6.173065868;43.81566087;13.60680434;64.58372956;57.30934858;43.49106405;43.62889016;8.253681085;14.15379828;-19.53512284;-3.60748798;-21.97526892;-1.378757407
-3.536879083;-18.20736525;-12.45634241;1.741068391;6.973595866;1.138859114;-6.643544485;46.68289656;-27.77842868;66.89780331;18.21975882;44.9940825;45.1692415;10.70822443;12.95052993;-18.35901196;-4.808204837;-22.65526142;0.647528863
-5.0059542;-22.96455529;-13.42372962;1.961782736;14.28226221;2.941369508;-10.38256428;47.5461412;-54.82525475;68.30582865;-8.585330415;42.17366637;42.27403318;12.99374106;5.993039848;-18.02173338;-7.784032564;-24.99290495;1.669528248
-6.963372879;-30.28243354;-14.93628492;3.844241693;19.75427977;3.336590372;-13.87641762;44.85876;-57.77762442;66.78;-14.23410464;33.86985192;34.66988726;13.15539216;-4.240976073;-20.39569369;-12.21046092;-29.95055213;0.371534895
-9.133336914;-38.08156107;-16.64690606;6.562162668;22.3;2.061158601;-13.91170082;39.72563003;-38.77846246;62.62880275;-0.674999518;22.17951669;25.18363529;11.35688889;-12.38326377;-24.79151845;-16.11981889;-36.34048858;-2.614180267
-9.996899059;-42.92410254;-16.71745643;9.729711185;22.83036636;0.317692921;-10.50998284;35.07036436;-10.48175522;58.12038268;21.11188476;11.31238101;18.08314613;9.858442675;-13.91267383;-28.73141056;-17.58563258;-41.7295283;-5.150865119
-8.441109363;-42.64350282;-13.87316924;12.60077064;22.61563547;-0.330699711;-6.861128367;33.13892958;11.25114991;55.26800088;37.72781866;4.689881747;16.07197518;10.8370113;-8.717346047;-30.19767869;-16.4288431;-44.40375537;-5.374406008
-5.32165937;-38.23492467;-9.217900434;13.74121065;21.51532022;0.650274787;-6.360341916;33.5706303;16.23717756;53.91579208;40.73459183;2.659203664;18.35321956;14.04431889;-1.542907825;-29.32533756;-14.38816642;-44.63373124;-3.263386789
-3.282544392;-33.27590004;-5.904957471;11.91500329;17.94452683;2.339338245;-9.498191653;33.83624675;5.107503209;52.03109237;30.60891367;2.738767284;21.38557082;16.56950106;1.305730127;-28.10303988;-13.57893153;-44.12999129;-0.634124033
-4.744373089;-31.2308954;-6.701657309;7.52830216;10.70398089;3.240377876;-13.44480316;31.72914941;-12.28087786;48.02162067;15.33790867;2.156702369;21.7387864;15.12595366;-3.348493248;-28.4673912;-14.60667449;-44.22525496;0.424727428
-9.737731905;-32.85602568;-11.51568828;3.114041227;0.888792663;2.631870775;-14.66618793;27.68946193;-23.82565433;42.89317888;4.935535904;0.462010616;18.71436863;8.962482654;-13.05224631;-30.56827239;-16.02071533;-44.4823239;-0.69876695
-15.55645768;-35.87811321;-17.15660879;1.981081051;-8.140579007;1.15682831;-12.13921179;24.79260509;-22.79475778;40.05550098;5.434165327;-0.069674194;14.62972894;0.8211626;-21.36102716;-32.7372798;-15.60830326;-43.05343968;-2.720881881
-18.68835133;-37.16816405;-19.71388799;5.816390926;-13.00459407;0.157853166;-8.225778156;26.2539294;-11.14046076;42.66644704;15.94108711;3.419823045;12.6570935;-5.011547455;-22.39110841;-33.09820915;-12.4022634;-38.53020578;-3.693129466
-17.47107637;-35.47219245;-17.60418947;13.17804493;-12.91761592;0.417686519;-6.450964522;32.52669192;3.224696323;50.72362424;30.20134575;11.56908071;14.13419631;-5.995231113;-14.85209617;-31.29339372;-7.647382276;-31.63624453;-2.75237721
-13.23319854;-32.31379499;-12.68409339;20.28598443;-10.30271573;1.480846055;-8.266580654;40.52190087;12.66259358;60.53012977;41.18595314;21.81088695;17.60226329;-3.212939606;-2.638756543;-28.76265127;-3.883989808;-25.17412836;-0.837050117
-8.967324348;-30.34174746;-8.476210808;23.6526031;-8.714542194;2.156179358;-11.77128851;45.72419121;14.80965576;67.21321604;45.43720573;30.10359909;20.25242723;-0.27626748;8.209502925;-27.37276085;-2.937708946;-22.11456334;0.228218556
-6.722494006;-30.68131481;-7.075935401;22.50722208;-9.786715038;1.691303489;-13.52126396;45.5247721;12.97675593;68.33061115;44.397814;33.9394921;20.39444219;-0.230440534;13.67213458;-27.6761991;-4.517956092;-23.32924838;-0.580108245
-5.996781029;-31.72125511;-7.452967174;19.09171809;-11.88105582;0.499948712;-11.72353812;41.05965154;12.34262945;65.59250927;42.2910753;34.11358685;18.78458197;-3.091283514;13.95170516;-28.35059777;-6.555368423;-26.81834176;-2.544201425
-4.488846349;-30.45896053;-6.609221108;16.67381971;-11.68816985;-0.237328764;-7.868923939;36.10435539;15.45986518;63.27317805;42.56188882;33.82696516;17.75786268;-6.021838124;12.4527032;-27.25401055;-6.900530126;-29.07293421;-3.831057967
-0.461411009;-25.21805601;-2.516563438;17.00236367;-7.418928759;0.284598116;-5.334807816;34.02351011;20.69349007;64.65863569;45.65511447;35.96248777;19.05096968;-5.853526439;12.81487238;-23.10156184;-4.904706652;-27.49138715;-3.101704425
5.438144715;-17.31631129;3.807914707;19.27992291;-0.749141192;1.688330845;-6.280774385;35.30767564;24.42563741;69.48047465;49.53484163;40.83681489;22.26627886;-1.712462124;16.48352333;-16.3245444;-1.632202949;-21.99192072;-0.671999142
10.52634825;-10.19384081;8.943863722;21.29296071;4.305565301;2.707925357;-9.699870196;37.59968583;24.65683155;74.36684198;52.03822178;46.1919532;25.25699068;4.42854748;22.39864916;-8.540757107;1.272874645;-14.72954374;1.770414801
12.26847261;-6.760694471;9.863385098;21.45384526;4.738428877;2.328234569;-12.3881521;37.95514382;22.69582093;75.75329207;52.80327356;49.21113295;25.99520878;9.550724893;28.42285398;-1.35013538;2.91081364;-8.395982233;2.597071212
10.34868337;-7.269302331;6.429353859;19.86833639;1.279499071;0.729413775;-11.9013579;35.29267906;21.5955531;72.70346475;53.14787799;48.69919787;24.26024662;12.02465529;32.87945876;4.353613686;3.482549196;-4.588963331;1.541893007
6.828230441;-9.494892609;1.446457253;17.65081744;-1.898832465;-0.83151916;-8.766270999;31.03848101;22.99781061;67.35600535;54.24828719;45.63278962;21.76083737;12.5924825;34.95863599;8.086302071;3.556595482;-3.402279672;-0.221387561
4.334873234;-10.92078606;-1.70620919;15.44588978;-0.3700354;-1.10504122;-5.938092092;27.66764609;25.41501679;62.88091907;55.50568031;41.86743069;20.7227696;13.25971111;34.14747091;9.153415374;3.176823679;-4.155061469;-1.201999426
3.954573812;-10.87333536;-1.742682403;12.80949333;7.037781808;0.070047302;-6.044048894;26.61583885;25.56361561;60.91785496;54.75998434;38.39045305;22.22389467;15.31820946;29.80602027;6.73414499;1.818472039;-6.234558921;-0.855843416
4.668277501;-10.6983814;-0.157214722;9.117754255;17.25075472;1.647907394;-8.970135711;27.3703735;21.51910192;60.69077494;50.25559026;34.72899063;25.59869504;18.3243248;21.66988154;0.89436449;-0.733345168;-9.185119594;0.108612391
4.693408974;-11.94343054;0.507033602;5.000599309;25.202504;2.305772324;-11.99635684;28.30872636;14.77617183;60.30288951;42.58232482;29.88811793;29.17252654;20.78265296;10.86134452;-6.427619574;-3.525129755;-12.16327538;0.551797706
3.349995121;-14.37312825;-0.897627346;2.614169071;27.40951648;1.577636675;-12.32194161;28.2740497;9.272888164;58.749836;34.73732143;23.73873997;31.47407336;21.65520234;0.201387112;-11.74409649;-4.634264347;-13.65393473;0.009717028
1.665820149;-15.79354973;-3.199739205;4.113078899;24.00366621;0.192758093;-9.636054064;27.38061356;8.17381969;56.71473637;30.07511515;17.44328688;31.88335288;21.16616066;-6.927237318;-11.92776235;-2.504556049;-12.11756704;-0.940807389
1.194559621;-13.96381429;-4.245212121;9.518051656;17.82833315;-0.638429232;-6.378079487;26.45447702;11.23378844;55.53604682;29.80161891;12.52844667;30.4278199;20.22552318;-8.59128068;-6.469642104;2.641216077;-7.23;-1.328775495
2.241149247;-8.888352717;-3.136027786;16.01699538;11.71346907;-0.305419622;-5.475416764;25.86739031;15.06739394;55.52684839;32.13273334;9.553090486;27.29826063;19.22999626;-5.66221293;1.769023582;8.605218491;-0.592466163;-0.766053546
3.262738374;-3.333280257;-1.228411898;19.65825103;6.406839301;0.730551621;-7.656933407;25.02744513;16.08606479;55.38929759;33.84356996;7.696111699;22.77976848;17.59225197;-1.329798163;8.173549978;12.57653334;4.943149166;0.190745307
2.115062547;-0.930302187;-0.946924048;18.26019673;0.784394798;1.452242247;-10.80324619;23.04193246;13.52933545;53.34340377;32.89487228;5.6785122;17.64504231;14.54581239;0.999988578;9.348411616;13.05690764;7.030171308;0.608000413
-1.930715265;-3.372879863;-3.508905769;13.11387192;-6.198225048;1.257452525;-11.90507337;19.85773548;9.976985273;48.90011019;29.92970996;3.136172825;13.38308622;10.39741382;-0.088535746;5.258827516;10.81947883;5.347208438;0.090617182
-7.246238594;-9.056464804;-7.654591725;7.935046233;-13.83740131;0.469777872;-9.813987977;16.69502996;8.983106371;43.56723285;27.45872405;1.11764244;11.68237999;6.837018429;-3.293689952;-1.057255037;8.135717603;1.65580555;-0.846919422
-10.90164708;-14.30612934;-10.55364873;5.861676998;-19.87849573;-0.054147397;-6.271003785;15.26726862;11.98565861;39.76746766;27.56862847;1.205452936;13.34439525;5.765184963;-5.758104981;-5.889946242;6.934715301;-1.650418821;-1.298312474
-10.86175694;-16.13938596;-10.08862914;7.036111427;-22.32430926;0.197064827;-4.301070609;16.44620431;17.19123354;38.91225847;30.20744582;4.058187365;17.51094665;7.576140876;-5.115493164;-7.406843998;7.422443552;-3.295617514;-0.853064918
-7.449355514;-14.26088227;-6.50543149;8.847656802;-21.11560704;0.883729706;-5.471034881;19.56376133;21.28752111;40.34612198;33.47373277;8.714413269;21.990113;10.51026151;-0.907259305;-6.389756537;8.248826443;-3.741624877;0.015389926
-2.864963788;-10.74764915;-2.041422001;8.574948665;-18.13325536;1.161754355;-8.517226573;22.95122055;22.30861859;42.05186418;35.48283447;13.2837746;24.57033191;11.84501387;5.453496923;-4.814811353;7.964001024;-4.268597594;0.439810041
0.721610656;-7.932641937;1.021440732;6.011113286;-15.57161056;0.53904155;-10.56037556;25.18394416;21.0448136;42.38813094;35.99953284;16.36054884;24.32493618;10.04060293;11.80604159;-3.746199341;6.426177588;-5.462522794;0.049929852
2.774180095;-6.491762746;2.074372783;3.638492053;-14.21129826;-0.588602374;-9.751861322;25.90456639;19.83228072;41.24011887;36.34397611;17.84951809;21.87779435;6.010813901;16.42393453;-2.469988688;4.930791583;-6.541496014;-0.614133804
4.327056388;-5.392361642;2.195051268;4.124517982;-13.12791859;-1.250092773;-6.916979241;25.57909964;20.00210781;39.61062181;37.75433624;18.49312889;18.49805202;2.370141239;18.50471284;0.44481579;4.995143427;-6.142837036;-0.599466397
6.478499299;-3.556530678;2.627595843;7.402065883;-10.97020056;-0.785841486;-4.722832402;24.60183608;20.46485571;38.21209165;39.84864;18.65252405;14.91631578;1.260577358;17.9979904;5.257647137;6.915022203;-3.825312581;0.493837759
8.980421097;-1.505546724;3.306040629;10.11601558;-7.481559916;0.513842343;-5.183192498;22.76792898;18.79126511;36.56697153;40.71944209;17.61522543;10.96042107;2.627439183;15.29353236;10.1810954;9.386037156;-0.852986206;2.000419574
10.31248391;-1.311677576;2.875239086;8.210278933;-3.779382046;1.62213273;-7.812853704;19.70036358;13.78440789;33.58490624;38.63443351;14.18659822;6.294804484;4.438442113;11.12371766;12.42701462;10.53067694;0.555376027;2.667155925
9.177907129;-4.796807924;0.172866128;0.602383251;-1.152664758;1.662109682;-10.1058438;15.78616962;7.113535937;29.08443394;33.76917716;8.052466287;1.463912767;4.632929735;6.543525689;10.34065538;9.448829129;-1.046417266;1.745505884
5.97615159;-11.58796468;-4.294413375;-9.251780574;0.414777016;0.667595919;-9.857438939;12.57015099;2.401688631;24.70915308;28.31850437;0.585682915;-1.893571305;3.061281215;2.648504366;4.798768832;6.975276708;-5.087596574;-0.273589835
2.787064811;-18.84603955;-8.372456298;-15.47359672;2.506799143;-0.465796363;-7.174263613;11.99769233;2.46955098;23.15463165;24.81192882;-5.790524428;-2.038635776;1.688982367;0.010819076;-1.331847286;5.025818569;-9.301185329;-1.973362108
1.766044523;-23.04719727;-9.873737003;-14.05503948;6.970745281;-0.784672028;-4.341412118;15.00293896;7.12511461;26.17571071;24.131925;-9.250174094;1.452456276;2.880913219;-1.718387754;-5.224575994;5.105267825;-11.36737627;-2.141599691
3.338143317;-22.41375636;-8.372658749;-5.929151089;14.17430608;-0.101868738;-3.707037509;20.65562827;13.42129859;33.04746063;25.0391038;-9.811612754;7.129006521;7.273851141;-3.546480316;-5.938432028;7.207690284;-10.53065498;-0.751011586
5.810351948;-18.0428434;-5.563927429;3.657170274;22.39224677;0.894923846;-5.552613863;26.69068875;18.11735897;40.8649673;25.63475473;-9.068739301;12.56655183;13.09091165;-6.249617141;-4.651737318;9.942763792;-7.910525249;1.056507442
6.769951928;-12.91508137;-3.854454056;8.956014021;28.88984774;1.317313714;-7.892202153;31.05860372;20.16064425;46.5099236;25.38737979;-8.630298525;16.06156839;17.46748103;-9.522851457;-3.289565907;11.67396859;-5.376051351;1.955236115
5.040029297;-9.735242636;-4.451813209;7.672284033;31.75991292;0.888721866;-8.343523089;33.22506804;21.07080243;48.68022754;25.78900811;-8.663374138;17.72726563;18.61;-11.93506335;-2.869239347;11.67529914;-4.050445276;1.521243676
1.477050111;-9.40294808;-6.640789116;2.034946302;30.94271752;0.148577633;-6.317500383;34.16326746;23.05652157;48.36080152;28.94332609;-7.85695776;19.08512559;16.9462428;-11.83990466;-2.965568686;10.42308589;-3.716567079;0.4858127
-2.03985362;-11.16622915;-8.818150858;-3.56330345;27.66750165;-0.111777891;-3.517704096;35.14486811;26.72423783;47.51087558;35.32108201;-4.834875682;21.53750643;14.39206442;-8.574617297;-2.561700733;8.954243689;-3.486201657;-0.016268701
-4.43688693;-13.94802761;-10.23058672;-6.137280448;23.01899977;0.376400135;-2.329142737;36.49155121;30.51185915;47.27568999;42.77608653;0.288682032;25.06223291;12.53943145;-2.995692584;-1.297472051;7.980938562;-2.943503717;0.511564246
-6.379756175;-17.40451286;-11.73523514;-5.919945503;17.08108879;1.11259054;-3.617647001;37.43042357;32.29603276;47.32179851;47.86897815;5.678995051;28.24488523;11.44167045;3.065348473;0.11816371;7.522586743;-2.620396545;1.533173991
-9.45165745;-21.7570678;-14.84724148;-5.205096209;9.461564232;1.331637996;-5.970510736;37.12231547;31.56851302;46.73088748;48.49128856;9.159574321;29.56463015;10.00184551;7.95298423;0.655521455;7.229759943;-3.3837643;2.048054929
-14.34777173;-26.7763298;-19.97076269;-5.634246924;0.593930457;0.76593551;-7.045998297;35.79972291;30.05714076;45.39227209;45.55672064;10.00875674;28.74686293;7.433296788;11.01692768;0.050873654;6.930705961;-5.394659542;1.557515458
-19.78320154;-31.16436994;-25.51298632;-6.527832821;-7.608132223;-0.071939353;-5.749506691;34.82307604;30.14563317;44.4110536;42.25834586;9.556190111;26.96614842;4.296535336;12.5580297;-0.890249648;6.81231179;-7.716047445;0.526266004
-23.18348874;-33.15906661;-28.80650077;-5.700721066;-12.60618656;-0.366148132;-3.218849368;35.48022259;32.53975246;45.070338;41.46871995;9.991898438;25.73571112;2.087584722;13.14885085;-1.096057606;7.099145814;-9.01739826;-0.069270148
-22.62023706;-31.91123859;-28.11885093;-1.860805162;-13.02689584;0.211088065;-1.734102243;37.58736966;35.38691901;47.35903787;43.46293406;12.38798235;25.50172813;1.779050244;13.08596242;-0.354184357;7.632756758;-8.753741124;0.336654305
-18.32606961;-28.31750982;-24.01547489;3.711423606;-9.837740955;1.148000842;-2.593876586;39.24586744;35.76419415;49.58263783;45.85974206;15.66340229;25.21812752;2.74366242;12.46694591;0.372633899;7.852996549;-7.69890807;1.371123924
-12.48650601;-24.40107546;-18.88803432;7.78831084;-5.785197677;1.533785709;-4.933390314;38.14943312;32.27765087;49.60442449;45.75774835;17.43191383;23.29522065;3.158069988;11.65900112;-0.173042273;7.267905679;-7.270731185;2.072456251
-7.520532292;-21.66948031;-15.0676244;7.618769642;-3.449977397;0.90121092;-6.55743406;33.4494283;26.45204286;46.7073339;42.1822697;16.04351224;19.09244787;1.602850117;11.481433;-2.226456048;5.987992535;-8.200624643;1.783734827
-4.358470478;-19.89202016;-13.158754;3.076432125;-3.485285723;-0.307968186;-5.984733084;26.6149355;21.6194647;42.38721556;36.77130636;12.08442244;13.64634839;-1.571887969;12.71743979;-4.476729002;4.792807952;-9.745479049;0.760416503
-2.159046313;-17.44653231;-11.97664846;-3.247383161;-4.455889956;-1.101637083;-3.795175162;20.50835566;20.22465091;39.2627876;32.23323371;8.048221024;8.994869653;-4.388320154;15.31667269;-4.906553386;4.59967455;-10.2050022;-0.063275529
0.42158491;-13.00269412;-10.01178263;-7.990735679;-4.316221839;-0.81265514;-2.045852378;17.3770015;21.86952495;38.95725046;30.04688111;6.433743157;6.666751933;-4.830177841;18.0901611;-2.363710649;5.744106401;-8.360830791;0.073134148
3.661582501;-7.075406759;-7.020124706;-9.332119008;-2.184489305;0.298058268;-2.327004129;17.35906493;23.76593904;40.75915357;29.43961656;7.828380853;6.591199002;-2.516195821;19.34433728;2.431453847;7.664798043;-4.616021056;1.067314522
6.34398463;-2.031032743;-4.319932641;-7.86101044;1.098710564;1.261531709;-4.280809533;18.65170201;23.15204577;42.22415716;28.43217869;10.50323536;7.283923057;0.999570574;18.03647193;7.273709206;9.252409533;-0.83916972;2.047088208
6.797292371;-0.447618194;-3.619633344;-5.57374983;3.985060311;1.250997734;-5.953914143;19.10062445;19.54833757;41.19809408;25.86131678;11.76029869;7.078019467;3.556957337;14.48089096;9.919374713;9.576311296;0.984562109;2.142758365
4.393592257;-3.158561385;-5.523606087;-4.112980486;5.758769069;0.299703306;-5.637408912;17.84970139;14.95632092;37.52634372;22.48080612;9.869803838;5.353063324;4.184498994;9.969994211;9.421068439;8.424190153;0.185827859;1.228749848
0.135234172;-8.586695076;-9.064228805;-3.767924456;7.156881369;-0.752439534;-3.469657925;15.76330573;11.97735322;33.04027124;20.17864571;5.086052065;2.830989296;3.813517934;5.643052649;6.380369471;6.292334414;-2.226462414;-0.019713808
-4.135533685;-13.87220993;-12.57197061;-3.816114663;9.544536638;-1.020665195;-1.311259979;14.46044337;11.63386601;29.95747764;20.1183963;-0.869353163;0.86204645;4.335290718;1.648223828;2.136397184;3.9333495;-4.492373426;-0.76297425
-7.097845752;-16.80567572;-14.95040266;-3.526268312;13.47054864;-0.347358212;-1.016284459;14.94294174;12.81160877;29.18936541;21.57966937;-6.188352788;0.418092296;6.862617039;-2.605214483;-2.239311251;1.880806479;-5.464785315;-0.709449462
-8.629466393;-17.00140861;-16.1451301;-2.727689639;17.9662005;0.606289038;-2.712355764;16.98751443;13.66223415;30.01312732;22.58040223;-10.00139405;1.589265911;10.69643803;-7.340755671;-6.287800345;0.289730423;-5.271780836;-0.256767301
-9.294767533;-15.53325939;-16.49707393;-1.532693212;21.21850203;1.005153741;-4.686317517;19.64158697;13.50904355;31.22552943;21.69013215;-12.36950454;3.793588382;13.82344617;-11.56450951;-9.767719823;-0.905855604;-4.840100655;0.016281093
-9.321515433;-13.62688639;-15.82664211;0.231661517;21.96887312;0.606463511;-4.97686569;22.15413249;13.42555954;32.52590864;19.34551259;-13.58196305;6.285213395;14.43740149;-13.43699374;-12.17248269;-1.77073872;-4.854394138;-0.032568432
-8.207857069;-11.70755584;-13.35454998;3.065042209;20.35746657;-0.060524897;-3.19396167;24.40773735;14.99358632;34.74;17.45245535;-13.62482346;8.451377052;12.17577048;-11.72714227;-12.80334833;-2.29558802;-5.143442343;-0.002484162
-5.407165808;-9.566872292;-8.666781711;7.147915744;17.50949905;-0.24842687;-0.880521931;26.55907589;18.50324874;38.68584999;17.64273388;-12.31974027;9.803116633;8.140475024;-7.118490844;-11.35633806;-2.458061342;-4.984050593;0.546714519
-1.379430421;-7.231211273;-2.763510999;11.68992188;14.36275547;0.260758821;-0.08584506;28.44597217;22.38635466;43.84936162;19.78007813;-9.841110652;9.971143228;3.892958715;-2.09998411;-8.351231393;-2.255345599;-3.917766306;1.49853313
2.172912068;-5.449768593;2.021371031;15.08090011;10.91705322;0.929093218;-1.473049166;29.52949237;24.49882352;48.27897236;22.06731475;-6.924349887;8.96024519;0.426938637;0.683056621;-4.824527439;-1.629425369;-2.232833736;2.124459695
3.347468317;-5.186552685;3.458244879;15.90506827;6.617641855;0.976092916;-3.707353043;29.52228405;24.09999318;49.97894313;22.63768782;-4.444765947;7.473318594;-2.055038243;0.376768418;-1.458424702;-0.400893834;-0.655607894;1.693369657
1.567444509;-6.59975758;1.109704845;13.99357706;1.436170338;0.150595424;-4.684262205;29.04870736;22.67027013;48.63113955;21.17708884;-2.758515296;6.815143025;-3.625508005;-1.439579957;2.024642021;1.616632721;0.394697933;0.211518027
-1.792888486;-8.61;-3.235841582;10.56351314;-3.502852471;-0.971810331;-3.461214841;29.52040351;22.72739375;46.06325796;19.12512829;-1.501927674;8.140469259;-4.135290253;-2.000856627;6.510610191;4.330571717;1.202354672;-1.41945378
-4.36351425;-9.651229032;-6.885319221;7.284075678;-6.489926553;-1.465127961;-1.117052795;32.10370495;25.61571417;44.92511194;18.31214692;-0.113955339;11.46056859;-3.346084591;0.491718555;12.37510474;7.165387632;2.375977216;-2.045563224
-4.589938017;-9.024832009;-8.265431546;5.080952369;-6.573795437;-0.88380602;0.239693488;36.57260287;30.19555047;46.60990832;19.28981517;1.398915306;15.24022236;-1.523490926;5.553380597;18.60327799;9.220960516;4.060447994;-1.193348511
-2.853366506;-7.582892627;-7.920990392;3.70941216;-4.456976085;0.30968799;-0.609770025;41.09691523;33.58872129;50.14626125;20.84377822;2.238541177;17.10962936;0.261428057;10.94826067;23.08551529;9.792847523;5.554364846;0.515717561
-0.912813414;-6.981002123;-7.629313754;2.384489954;-2.054266516;1.121281638;-2.909162455;43.30850815;33.3488759;52.96861091;21.0709665;1.435850969;15.3430104;0.648662064;14.50601868;24.0386093;8.891798604;5.795678838;1.852566034
-0.167418573;-8.057365125;-8.457344118;0.768147183;-1.016660897;0.878728976;-4.651885618;41.90733025;29.22991579;52.88327281;19.00656155;-1.209186019;10.05081061;-0.978090216;15.60574619;21.43923212;7.309729153;4.339158725;1.971421584
-0.315226619;-9.797555056;-9.565873124;-0.672470631;-1.478340464;-0.197554368;-4.422473739;37.57034676;23.15853061;49.59329336;15.36155353;-4.769906921;3.15657673;-3.854049663;15.10105367;17.20567701;6.100019531;1.919489578;1.063294769
0.346903708;-9.937867432;-8.913870489;-1.243534644;-2.108945441;-1.209285304;-2.651819345;32.46580319;17.62265334;44.63128195;11.81051834;-7.839207288;-2.853357682;-6.256359189;13.92101992;13.84180832;5.830868405;0.004773878;0.12463126
3.216663614;-6.832412827;-5.281684129;-0.886406666;-1.390716946;-1.375182597;-1.151478732;28.7910513;13.9833723;39.9728488;9.584373608;-9.674995231;-6.456626245;-6.730966127;11.78672082;12.56437798;6.19953574;-0.351606002;0.063568021
7.814549329;-1.021372849;0.228165875;-0.381101669;1.050940517;-0.68708393;-1.393524747;27.48340388;12.07721948;36.6575257;8.658577128;-10.8284268;-7.757478488;-5.117857753;7.344760405;12.43067286;6.331376436;0.62155252;0.93001709
11.8288535;4.905046372;4.671464449;-0.624396374;4.254657566;0.147293009;-3.148374484;28.00219207;11.13988702;34.53230522;8.151388231;-12.64812591;-7.889683772;-2.5107941;-0.331414981;11.19847586;5.526130867;1.61222139;1.921879657
12.85292628;8.129205393;5.455774373;-1.683436356;6.991842296;0.390750546;-4.734499871;29.12760484;10.87501807;33.06051082;7.372371812;-16.04366139;-7.796773277;-0.218813;-10.25143205;7.226614658;3.835639913;1.351319871;2.122800427
10.37597085;7.640133468;2.432034851;-2.607155482;9.051620845;-0.056125188;-4.622402639;29.93833351;11.53848879;32.16788988;6.425085932;-20.56787437;-7.462558592;1.326874337;-19.49460982;0.872904647;1.997939815;-0.305666278;1.296161786
6.32018135;4.809815915;-1.904034565;-2.258101327;11.50349914;-0.613074869;-2.882100086;30.16749233;13.08178341;32.22269635;5.837323927;-24.61438609;-6.163970468;2.761603266;-24.87771174;-5.708761168;0.80397585;-2.291726585;0.046522392
3.645388714;2.099337743;-4.289559344;-0.394496894;15.65702942;-0.614784525;-1.124790986;29.85865364;14.47541359;33.2633563;5.744107316;-26.55267302;-3.372622762;4.969949532;-25.01532568;-10.12481275;0.459138914;-3.307797492;-0.750193236
4.185568016;1.082443488;-3.074268787;2.074840563;21.65813027;0.035507385;-1.000842842;28.90799405;14.2042529;34.4340317;5.60607019;-25.82;0.598817165;8.090287097;-21.09588648;-11.32129009;0.496676427;-2.983264798;-0.701572692
7.493883249;1.497668786;0.849897363;3.963627068;28.01613618;0.77031133;-2.658184734;27.06669818;11.68678894;34.4017521;4.846267455;-23.0805676;4.780607869;11.30324379;-15.76898706;-9.942129942;0.305863153;-2.162163741;-0.1663441
11.53884184;2.03610995;5.196521097;4.970822042;32.51919307;0.901312544;-4.594605114;24.37339856;8.251045428;32.49246463;3.744156321;-19.44157104;8.305749747;13.58494356;-11.12973961;-7.348659647;-0.212277466;-2.045645294;0.15985732
14.47802076;1.967777479;8.320111726;5.930180358;33.74462522;0.280045166;-5.03733141;21.4541655;6.484278643;29.44829218;3.525930127;-15.55723497;10.96221495;14.65524199;-7.49561731;-4.324004456;-0.470354746;-2.96798771;-0.086542114
15.88677283;1.973043456;10.2695077;7.790270685;31.85955073;-0.552786916;-3.567868756;19.23263423;8.217094693;26.9565787;5.315298048;-11.4684724;13.0124848;15.14488787;-3.89625328;-0.651644026;0.307261822;-3.94597006;-0.639082458
16.4591444;3.348360189;12.0217433;10.26876957;28.09527918;-0.872736262;-1.491043632;18.23216486;12.79963883;26.2556813;8.809335114;-7.23278684;14.52350114;15.75995247;0.345331134;4.142277602;2.316667989;-3.474185694;-0.918615065
16.68554869;6.352869659;13.81568904;11.59631059;23.50882033;-0.455819604;-0.61870526;18.15504515;17.29999562;27.0775649;12.02298065;-3.571106929;14.96392131;16.23522453;4.489871418;9.701137309;4.798136458;-0.917530198;-0.627200042
15.95204021;9.365075833;14.35090626;9.840323778;18.25926159;0.206582717;-1.605979022;18.2287593;18.6791862;27.96484059;12.61725276;-1.716639673;13.57031763;15.16503817;6.778642316;14.53272193;6.411866087;2.727433512;-0.040714031
13.03987105;9.853765051;11.77140578;4.754692752;12.05593281;0.372745093;-3.38075717;18.05155354;16.21098591;27.72842565;9.850425955;-2.457125091;10.19427846;11.05007813;5.983550622;16.87439662;6.121994807;5.435239418;0.26711333
7.590811794;6.496840443;5.606135265;-1.59011938;5.234276825;-0.233396299;-4.180306902;18.09022652;12.05589948;26.66898074;5.43628437;-5.245937125;5.788197861;3.75372702;2.680423084;16.02482683;3.939027738;5.691220051;-0.012496884
1.086746974;0.619539368;-2.176363519;-6.197036681;-0.754108113;-1.128003753;-3.2142418;19.21692555;9.398120579;26.30867673;2.371520759;-8.333731165;1.941112539;-4.921974324;-0.940784452;12.98942375;0.982118353;3.716839019;-0.620923025
-3.750694338;-4.428828777;-8.147156127;-7.511590517;-4.118605459;-1.484312111;-1.39947683;21.58820953;9.670807225;27.75284286;2.537756697;-9.995749944;-0.252076748;-12.16065796;-2.613477552;9.866545877;-1.165259358;1.359246889;-0.978061906
-4.803009511;-5.611970787;-9.768569418;-6.676956013;-4.194622982;-0.891192148;-0.486584022;23.92701903;11.26318018;30.18739189;5.06853333;-9.876309637;-1.018221972;-15.90649289;-1.591546145;8.467362415;-1.343835116;0.71683425;-0.737576446
-2.108914177;-2.401259858;-7.170959468;-6.410569165;-2.226644705;0.241282897;-1.399251191;24.0790402;10.89420752;31.0694839;6.965707624;-9.245499663;-1.638302361;-16.0861471;0.992143492;9.263183165;0.616630352;2.599624606;-0.119965039
2.236061366;2.968199198;-2.838386968;-8.349273042;-0.584247629;1.010781744;-3.341245032;20.62816273;6.543648499;28.11232117;5.58164978;-9.851195348;-3.234613732;-14.32230538;3.191245382;11.39655275;3.928693439;6.024707754;0.293487949
5.784271276;7.362224545;0.515186088;-11.23183034;-0.914749226;0.800642891;-4.510132607;14.29769286;-0.563538267;21.45231893;0.9324223;-12.30708225;-5.643251883;-12.45230501;3.721274957;13.55623332;7.337560737;9.066159885;0.110048218
7.587464311;9.135320626;2.029406331;-11.73615983;-2.776701623;-0.188707507;-3.761509122;7.841225471;-6.676378138;14.01308407;-4.155518704;-15.44465687;-7.402138488;-11.14502252;2.605696847;14.86374545;9.717888443;10.28713086;-0.501988053
8.612227361;9.045485001;2.960009766;-7.4903849;-3.992623493;-1.127737259;-1.681225734;4.284400911;-8.418012685;9.510741468;-6.291697098;-17.27658563;-6.949982691;-9.746990493;0.630924387;15.08952498;10.48544684;9.591666751;-0.969573356
10.42040653;9.023518848;4.989260618;0.293094731;-2.504856775;-1.287715107;-0.067673605;4.788134414;-5.482873484;9.607237802;-4.357432001;-16.80645102;-4.056350227;-7.352279717;-1.648960808;14.25930347;9.719713043;7.919556013;-0.85277566
13.36391257;10.00196264;8.205154996;7.032894253;1.821091324;-0.652060701;-0.29567383;7.83034503;-0.903224071;12.5834059;-0.578707786;-15.11670843;-0.242065273;-4.008824295;-4.317988513;12.27166967;8.025498694;6.207096687;-0.258311844
15.96686404;10.79540664;10.65197119;7.991469362;7.012039862;0.129339612;-2.066774766;10.40250573;1.310146177;14.72145186;1.089466319;-14.71791062;2.235636868;-0.906702745;-7.599703676;9.007895242;6.199997668;4.581076107;0.259481476
16.08671041;9.046724568;9.914925625;1.995803133;10.61209333;0.373941407;-3.693297689;10.28111804;-0.812964538;13.30554064;-2.015041631;-17.6097411;2.049284079;0.625937637;-11.1250298;4.77515616;4.805850704;2.428156667;0.217018767
12.83291293;3.396124828;5.339290321;-7.442824443;11.73129469;-0.011180964;-3.648865427;7.547042173;-5.953803514;8.739604196;-9.246662843;-23.62532807;-0.229744023;0.374908163;-13.89424373;0.477509218;3.835904478;-0.850090332;-0.346538015
7.525957209;-5.06175596;-1.123624325;-14.66353505;11.74799856;-0.488260895;-1.955222964;4.166511157;-10.89132726;4.008170291;-17.18744636;-30.42235332;-2.638725048;-0.44491599;-15.13070863;-2.85843051;2.705155269;-5.158006658;-0.90605245
2.821441877;-13.341795;-6.255158136;-16.05350147;13.0594098;-0.445619547;-0.13518064;2.088226453;-13.19203105;1.979726229;-22.18461363;-35.11788644;-3.373066403;-0.151626887;-15.23035359;-4.877256088;0.678130992;-9.70356289;-0.940530986
0.742337894;-18.69167709;-7.975003046;-12.49952405;16.97390202;0.188296915;0.209974245;1.549019871;-12.91909758;2.90853064;-22.80699521;-36.21817622;-2.116939595;1.978135349;-15.7620907;-6.232314912;-2.467051205;-13.59642856;-0.418270483
1.30685796;-20.46779296;-6.75853539;-8.156581231;22.57703444;0.859490404;-1.125046264;1.051169718;-12.09143153;4.304076789;-20.38575238;-34.32115456;-0.13434522;5.053878898;-18.28285112;-8.004435472;-6.005406054;-16.43283253;0.174879361
2.877562897;-20.20909576;-4.894781609;-6.717176275;27.53;0.914197657;-2.782487403;-1.018232518;-12.61189883;3.260827701;-17.50365045;-31.18199273;0.841974457;7.24082657;-22.88096927;-10.5925164;-8.480571708;-18.33541219;0.288641487
3.815171498;-19.9516195;-4.31965054;-8.439039417;30.05067392;0.239683197;-3.122642593;-4.609479026;-14.58798749;-0.812954488;-15.92161643;-28.12331966;-0.0637288;7.156201213;-27.75685583;-13.06608383;-8.558123688;-19.49220529;-0.180619611
3.893237981;-20.34099127;-4.982261951;-10.42080711;30.29701366;-0.589789895;-1.754297161;-7.705990389;-16.42470512;-5.475777004;-15.64290189;-25.22267931;-2.379958214;4.800876336;-30.34780936;-13.6873272;-5.981328802;-19.73303957;-0.79584799
4.217452346;-20.20715467;-5.166265066;-9.700215183;29.93406647;-0.813665288;0.106365928;-7.840285503;-16.39632192;-7.194071804;-15.59436613;-21.87229696;-4.883872018;1.304628343;-29.16776367;-11.30994177;-1.91270199;-18.62241161;-0.987069022
5.807254115;-17.90650534;-3.396973555;-6.267221278;30.30835816;-0.180167852;0.775429326;-4.176981586;-14.15287287;-4.278511841;-14.96257385;-17.99003906;-6.626263095;-2.16572622;-24.85905868;-6.510523495;1.677846393;-16.0057919;-0.579652331
8.238544716;-13.14503543;-0.134653993;-3.221502455;30.92050398;0.805238803;-0.324422847;1.616998822;-10.84794397;1.703683798;-13.84078456;-14.57952944;-7.489522781;-5.292668113;-19.58193085;-1.411057051;3.220240903;-12.45258975;0.047030154
9.689320994;-7.583116123;2.343110892;-3.915030661;29.64324317;1.314998104;-2.118437407;6.495582458;-7.948937813;7.226977807;-12.73203066;-13.00597456;-7.935276355;-8.527891704;-15.27624042;1.800295202;2.51243263;-9.078952296;0.314220731
8.436455595;-3.630850068;1.830407187;-8.663114281;24.58999837;0.929608689;-2.86954139;8.267437872;-5.975277173;9.673493995;-11.65197432;-13.6328729;-8.361351942;-12.23333862;-12.28254231;2.515853824;0.76258623;-6.790058594;-0.020850339
4.500549351;-2.46785807;-1.785947648;-14.03134459;16.05144997;0.002973297;-1.78643093;7.145893824;-4.34287076;9.327898776;-9.91836086;-15.15410541;-8.755093181;-15.94740488;-9.462777321;2.171776022;-0.300874206;-5.54950708;-0.6448727
-0.050903915;-3.023168299;-6.158800554;-15.43761176;6.790487589;-0.664546557;0.238099079;5.406836182;-2.334891388;8.881662392;-6.929321618;-15.39865616;-8.9197058;-18.51798366;-5.62717413;3.103097655;0.424135748;-4.333194669;-0.982758463
-2.486723259;-2.827044652;-8.134940678;-10.87563663;0.335297283;-0.543337197;1.440688447;5.497307294;-0.129965193;10.98202047;-3.14803773;-13.06370596;-8.92602786;-18.99028662;-0.941924751;6.676886579;2.828465567;-1.887424066;-0.728514333
-1.373031735;-0.038482917;-6.082885984;-2.57763734;-1.423700171;0.169250821;0.801172593;8.136044667;1.171718698;15.95168505;-0.218691335;-8.936477479;-9.229720481;-17.41254467;2.943922135;12.18141725;5.896451482;2.260437344;-0.121210083
2.476379982;5.036611004;-1.019020793;4.75323444;0.542199375;0.757452429;-1.030362712;11.83936736;0.536993124;21.50971783;0.062336757;-5.518268511;-10.27641548;-14.80128227;4.14210223;17.32219594;8.530155281;7.319437661;0.282595041
6.759829621;10.16240098;4.275615713;7.537497575;3.254110862;0.653383097;-2.341484666;14.07803281;-2.016578313;24.52073981;-2.923966192;-5.279762229;-11.98281918;-12.29756193;2.021693592;19.8692381;10.19286664;11.65681305;0.121384383
9.417581968;12.88573446;7.284570736;5.653253165;3.899084875;-0.056375759;-1.931538074;13.01485412;-5.46583354;23.14650931;-8.182802793;-8.91548292;-13.64867966;-10.29296578;-2.329643895;19.11779748;10.94258732;13.80698622;-0.448648615
9.869944061;12.3123568;7.248878219;1.696181616;1.615880745;-0.738996505;-0.198579782;8.499998482;-8.853231749;17.67641248;-13.97512651;-14.94744645;-14.44833657;-8.31162398;-6.994511173;16.0783287;11.00771725;13.33697989;-0.909274046
8.877251893;9.574417371;5.098598065;-1.837687473;-2.336359416;-0.817679146;1.254431775;1.800483302;-12.32639675;9.697725073;-19.21511732;-20.89230937;-14.07183283;-5.709799229;-10.58765144;12.42442691;10.4164997;11.0057007;-0.856660986
7.414057143;6.787616425;2.229435883;-4.678935;-5.867476762;-0.295759255;1.116177083;-5.400039063;-17.04983572;0.744148788;-24.13963203;-24.9533468;-12.91339392;-2.488912243;-12.88851846;9.212497228;9.037460845;8.213334286;-0.354103706
5.749496775;5.508646496;-0.584306716;-8.29472285;-7.567955933;0.28146657;-0.42405769;-11.79529567;-23.9507208;-8.224083266;-29.6882073;-26.889685;-11.62542901;0.571374305;-14.33029379;6.428507396;6.916218574;6.20853775;0.150970364
3.566457472;5.94317346;-3.231412705;-13.46014986;-7.280545158;0.374106446;-1.867306408;-16.58467849;-32.43324694;-16.27720561;-36.25162705;-27.54653492;-10.47144985;2.594057284;-15.0414688;3.566201682;4.48175979;5.567953407;0.243032496
0.847819434;7.330912017;-5.514020617;-18.47473542;-5.572786112;-0.027989717;-1.805954247;-19.23743342;-40.35156613;-21.9256081;-43.03997806;-27.70300382;-9.119252024;3.455404445;-14.50623981;0.517511559;2.342134105;6.143803358;-0.115541199
-1.511067891;8.88145932;-6.637638605;-20.0148777;-2.901431598;-0.408561844;-0.228637595;-19.46980661;-45.45933008;-23.58130829;-48.71775016;-27.367697;-7.096131361;3.995169329;-12.21088362;-2.121096524;0.837216903;7.328145173;-0.62026261
-2.116816258;10.29935123;-5.640733432;-16.05777296;0.657243288;-0.254410377;1.478052344;-17.59672221;-47.19296867;-20.98428266;-52.71305722;-26.07582157;-4.469743604;5.370219945;-8.579239454;-3.562580116;-0.192619876;8.381266519;-0.971633379
-0.227297522;11.52781448;-2.404426087;-8.184751758;4.968106541;0.397878366;1.823532389;-14.81661446;-47.24249928;-16.24060614;-55.90573173;-23.72527209;-2.059322334;8.123317809;-5.127706039;-3.578053733;-1.138703422;8.700772713;-1.165155502
3.441192712;12.20147438;1.823173263;-0.916545496;9.308141658;0.935282573;0.595890367;-12.87624142;-48.32904901;-13.11566508;-59.92453233;-21.0003867;-0.896441743;11.78339575;-3.481350023;-2.693360772;-2.069171254;8.041513495;-1.428987851
7.083305513;11.57548987;5.080965114;1.66325446;12.4322163;0.715546465;-0.948565787;-13.1054282;-52.1233775;-14.65796356;-65.57957633;-18.89559368;-1.372910007;15.30065955;-4.028379181;-1.626955416;-2.435098673;6.671721853;-1.881434736
9.121921058;9.151379887;6.101421405;-0.79434864;13.27956327;-0.305675971;-1.258440295;-15.49320502;-57.97790168;-20.85898113;-71.82387448;-17.78375786;-2.8550045;17.85047549;-5.452032956;-0.538317958;-1.405390305;5.339615893;-2.277804566
9.350597848;5.419587478;5.254671285;-4.593279349;11.69177619;-1.459198775;0.070528168;-18.60208788;-63.45886916;-28.33261179;-76.24609343;-16.96642929;-4.159233664;19.24574909;-5.674745211;1.134082844;1.375994138;4.934416958;-2.144667483
8.900131466;1.898936193;4.147275607;-5.066067805;8.467954987;-1.895713948;1.921685622;-20.49676988;-66.16334205;-32.513761;-76.76552653;-15.22089886;-4.505328099;19.64183631;-3.485249643;4.033223072;5.266892248;5.942056507;-1.21835795
9.075792425;0.243701008;4.1864079;-0.467225638;4.698245442;-1.310785081;2.693769455;-20.01911807;-65.29830293;-30.81386072;-73.12643423;-11.91844887;-4.107246372;18.94997611;0.539559298;8.035415074;8.874443454;8.048690092;0.219784851
10.13270712;1.075363197;5.382535104;6.647320385;0.985933202;-0.215312952;1.78143856;-17.43471278;-61.82826219;-24.31202457;-66.95356976;-7.715642727;-3.872816509;16.66829494;4.618334564;12.05087862;10.97498639;10.25326313;1.461864408
11.11049519;3.537766143;6.48132792;11.73325559;-2.752080951;0.497274315;0.127208585;-14.00014019;-57.30632355;-16.70111503;-60.39357416;-4.161286365;-4.491882927;12.39717379;7.322184132;14.77179214;11.39753765;11.51563735;1.891365024
10.87486306;6.01349371;6.317328499;12.23122322;-6.788899769;0.308669188;-0.661738616;-10.898868;-52.5941709;-11.4203536;-54.58655926;-2.515205235;-5.758948068;6.557896467;8.703165884;15.77873901;11.13200735;11.52122765;1.465716187
9.395649893;7.445593274;5.145285754;9.730204753;-10.94105683;-0.509025447;0.193152727;-8.474012577;-47.60820674;-9.321629366;-49.28869091;-2.776127782;-6.764475311;0.530997251;9.994127344;16.02159168;11.53891371;10.97740077;0.735494692
8.049022507;8.163328243;4.678789863;8.456713407;-14.43787453;-1.176768022;1.924973548;-6.341459855;-42.14755004;-8.652322922;-43.84988201;-3.732897016;-6.780343217;-4.083656912;12.19944384;17.18082506;13.28855641;11.16524242;0.375374181
8.594463917;9.510719514;6.703221023;11.4538577;-16.45003906;-1.120729946;2.942102738;-4.138894037;-36.81684046;-7.122446921;-38.48437829;-3.960854566;-6.004868354;-6.532549547;14.92710055;20.37765459;15.89250575;13.04097782;0.637099063
11.67161009;12.58567342;11.42376706;17.81354208;-16.7711529;-0.468845724;2.312512233;-2.120150186;-33.01661725;-4.117511787;-34.52923515;-2.89254252;-5.445490412;-7.348832059;16.5956031;25.28141748;18.19131682;16.5483343;1.199964246
16.11483354;17.14391726;16.99525985;23.35087822;-15.99576389;0.101130583;0.63205257;-1.019485609;-31.93176946;-1.157447148;-33.38463608;-1.09480795;-6.016132055;-7.706232874;15.86644428;30.33482372;19.35086658;20.64558666;1.526792163
19.69139246;21.57050353;20.69053614;24.06382035;-15.02205228;-4.10078E-05;-0.527217059;-1.350325684;-33.46686758;-0.361776429;-35.13078864;0.360519188;-7.676782513;-8.21212064;12.97836026;33.86580387;19.49650394;23.98668217;1.373220986
20.65419054;23.92296808;20.76939237;19.32246533;-14.34715606;-0.742557574;-0.073534384;-2.854133195;-36.18156455;-2.438510488;-38.19029527;0.756347121;-9.434669799;-8.246395887;9.690323361;35.12087116;19.44680289;25.69448426;0.972887143
18.83834622;23.18803847;17.53755211;12.07968961;-13.80044138;-1.530199799;1.596012111;-4.661974406;-38.36848797;-6.031936153;-40.47799246;0.035485135;-10.24142234;-6.539658097;7.780922263;34.38395885;19.80608593;25.64420701;0.744664822
15.48141539;19.78539951;12.81802723;6.109148225;-12.9112007;-1.763654055;2.968977012;-6.034404909;-39.34624404;-8.94293267;-41.09107305;-1.608448081;-9.971168128;-2.577279625;7.391184647;32.20603204;20.24076002;24.13761538;0.831167771
12.06911408;15.03632026;8.418539353;2.883141085;-11.48323926;-1.376987844;2.82361148;-6.977979702;-39.81760604;-10.03196696;-41.02995276;-4.286467199;-9.548695557;2.415154272;6.710591369;28.57965651;19.60737006;21.37752776;0.937707299
9.286455729;10.15928796;4.959204554;0.880415412;-9.76817666;-0.852783911;1.361392381;-8.143957345;-40.98483043;-10.06609475;-42.25482482;-8.424161967;-10.0543593;5.918799518;3.371497817;22.91867397;16.86162576;17.28424031;0.642307712
6.928229315;5.642816215;1.974604304;-2.226327828;-8.072190601;-0.721734082;0.016227462;-10.0979815;-43.2479113;-10.81142752;-45.86358111;-14.12532415;-11.59166586;5.845790175;-3.568332641;14.92594416;12.00213539;11.82981953;-0.125370027
4.664863712;1.398045603;-1.007045742;-6.728148896;-6.254575755;-1.036916993;0.119612415;-12.66048365;-45.69261171;-13.29089581;-50.98623466;-20.51148673;-12.97824981;2.248874023;-12.69344079;5.55700658;6.269516846;5.547601963;-0.925820158
2.786105264;-2.623734593;-3.552691203;-10.17003906;-3.741487442;-1.329570743;1.661851065;-14.97061759;-46.85123891;-16.83592315;-55.38168206;-25.79488009;-12.62491366;-2.387985229;-21.08563505;-2.888935763;1.443516551;-0.32244543;-1.168550421
2.15173699;-6.004566684;-4.469886322;-9.523005291;-0.180970757;-1.090459724;3.299062025;-16.25304466;-46.05293691;-19.75710476;-57.22633353;-28.22156696;-9.898680103;-4.626095311;-26.19741176;-7.820712105;-1.191920357;-4.289353289;-0.676485255
3.411681562;-8.000790532;-2.836874591;-4.244210258;3.836420148;-0.315496601;3.599420824;-16.5914308;-44.13677848;-20.9382464;-56.53909579;-27.20029628;-5.785903512;-2.286678006;-27.19831436;-7.844836745;-1.430078125;-5.377484186;0.090136885
6.290387823;-8.059955243;1.09572862;2.681500334;6.77076978;0.417787297;2.37263132;-16.97205401;-42.87151631;-20.83911596;-55.02914164;-23.6819366;-2.237314199;4.195794111;-24.84580826;-3.580621648;0.072427688;-3.633855068;0.409988266
9.661852021;-6.214386383;5.989504518;6.850349848;7.056520918;0.443241478;0.849012496;-18.50833332;-43.58554231;-21.00093345;-54.56804696;-19.44136469;-0.712201392;12.1932336;-20.29710662;2.802826954;2.470850406;-0.017960805;-0.027468651
12.35820694;-3.047450735;10.38106893;5.964182812;4.30708334;-0.369225226;0.54006958;-21.5056413;-46.20688145;-22.57473505;-55.69811613;-15.83910584;-1.144487309;18.63257488;-14.14098258;8.942018095;5.224186865;4.181114673;-0.774649387
13.93305502;0.629599549;13.58609645;1.687366706;-0.219022283;-1.4365885;1.8339176;-25.18774359;-49.52742875;-25.28974014;-57.50906033;-13.08034191;-2.196881246;21.71419721;-6.535059481;13.49896293;8.047441105;7.910507264;-0.96969443
14.6535276;4.02749863;15.71214916;-1.833410557;-4.382905931;-1.919345062;3.625877733;-28.32717952;-52.40530372;-27.82494846;-58.9320705;-10.54265164;-2.55608271;21.45036972;1.874973355;16.42458496;10.53782765;10.51595265;-0.115782962
14.77954775;6.386032048;16.87368563;-1.524813509;-6.634424459;-1.424830924;4.328984093;-30.22397541;-54.80491615;-29.1937917;-60.18608662;-7.800703439;-2.129151449;18.92958107;9.409664751;18.27199861;11.99177162;11.54077816;1.38993513
13.93707381;6.93327179;16.53573748;2.07188399;-7.030520559;-0.340153347;3.334779483;-31.1802691;-57.76330504;-29.78122938;-62.95855606;-5.371472589;-2.109269791;15.17654141;13.98635397;19.29218256;11.69826276;10.53898977;2.487538301
11.34433073;5.102699818;13.81413764;5.454121341;-6.986060128;0.498010553;1.57885479;-32.08329386;-62.36;-30.99595906;-69.04986592;-4.471200006;-3.880914962;10.58982816;14.53159593;19.09561521;9.476536646;7.217424941;2.299262168
6.800576461;1.015303884;8.582957911;5.355153628;-7.983415469;0.50381842;0.690486219;-33.50546289;-68.6448164;-33.81464624;-78.62345982;-5.973006622;-7.738634869;5.235633629;11.90196264;17.07858128;5.935917363;1.834190379;0.880394234
1.488227095;-4.18216675;2.309981464;1.610365253;-10.32392121;-0.198965258;1.508395949;-35.13848277;-75.46891993;-37.57418665;-89.61497979;-9.48482189;-12.52495533;-0.527189145;8.357632778;13.15032188;2.160741157;-4.549635409;-0.78421469
-2.363744992;-8.601127072;-2.400177945;-2.829288402;-12.93712876;-0.942291441;3.323890777;-36.04737582;-81.32350326;-40.20242503;-98.89652506;-13.38974207;-16.46517362;-5.813307265;5.899381047;8.108647162;-0.946068255;-10.31269717;-1.56092978
-2.950643604;-10.55455834;-3.479781917;-4.67491611;-14.34063311;-1.125092858;4.538458209;-35.48492865;-85.41071295;-39.80448934;-104.3118502;-15.87936299;-18.44784631;-9.600874301;4.832971821;3.378950899;-3.09858745;-13.95216665;-1.072357928
-0.390293353;-9.58651787;-1.026609624;-3.320140196;-13.8758972;-0.710908404;4.122133983;-33.53215125;-88.03875326;-36.29312695;-105.9818235;-16.17327314;-18.67426756;-11.3416578;3.773120906;0.361247942;-4.478080246;-14.75065436;0.041057289
3.076916295;-6.800706498;2.539043888;-1.380048828;-12.16644412;-0.185316516;2.531630032;-31.0354582;-90.10834405;-31.67564784;-105.9142487;-14.96504232;-18.221796;-11.21245892;1.054358451;-0.140326874;-5.185572053;-12.96861497;0.714567326
4.548496001;-4.151090662;4.106892406;-2.28327408;-10.47478936;-0.054551116;1.257478478;-28.96912825;-92.26880667;-28.74721752;-106.3413948;-13.770236;-18.02789771;-9.824149373;-3.696133468;1.879380639;-4.87535143;-9.478863054;0.379373819
2.556035794;-3.153855391;2.125465154;-7.097737411;-9.595874938;-0.374774511;1.437099585;-27.83463503;-94.52031129;-29.26606976;-108.1468727;-13.71513466;-18.22927102;-7.729854276;-9.151216486;5.736486424;-2.994663104;-5.194276584;-0.590540421
-1.844768618;-3.961141335;-2.292222883;-13.43950483;-9.267159938;-0.742552234;2.822005789;-27.58726732;-96.49878457;-33.03907077;-110.4963213;-14.68612071;-18.34280697;-5.206074251;-13.27397175;10.27907298;0.525790774;-0.745735323;-1.272345151
-5.894127036;-5.470420356;-6.294741;-17.43577068;-8.537529501;-0.724634151;4.042678192;-28.01569219;-97.98079703;-38.47221923;-111.69;-15.40326875;-17.9315224;-2.425187156;-14.70293456;14.13490922;4.768426354;3.432124837;-1.049785972
-7.236822667;-6.322550274;-7.505585674;-16.993735;-6.655278215;-0.293166665;3.904630132;-29.06595517;-98.98377092;-43.88524464;-110.3322894;-14.25274931;-16.9790359;0.306500435;-13.3003353;16.05834988;8.072410591;6.858609937;-0.156297953
-5.650421138;-5.94289692;-5.748820567;-13.49299466;-3.62585758;0.155814436;2.50025115;-30.72085458;-99.34728444;-48.38487994;-105.9079004;-10.22366546;-15.58115084;2.632656189;-9.573086846;15.4001614;8.975551816;8.988087878;0.566648764
-3.039348495;-4.788995304;-2.948312329;-10.45;0.005565548;0.210001221;1.107803427;-32.58208572;-98.32;-51.71668014;-98.60850076;-3.368571073;-13.34454631;4.553128542;-3.828105246;12.49274526;7.180078125;9.525294764;0.453763156
-1.762363127;-3.673233439;-1.386078233;-10.38920385;3.8014763;-0.130711748;0.987038146;-33.69801512;-94.76738743;-53.58872383;-88.94075613;5.340596981;-9.266713928;6.721073171;3.87097286;8.609218644;3.779297739;8.783999602;-0.379882784
-2.702431118;-2.826407496;-1.8275447;-12.70157356;7.761061191;-0.431636642;2.205837401;-33.00551386;-88.02358494;-53.4252799;-77.63514335;14.49791854;-2.447618008;10.1916842;12.83542104;5.353281522;0.53252254;7.665543328;-1.15742384
-4.644531697;-1.578695901;-3.050756368;-14.34512711;11.9488712;-0.242458656;3.592775921;-30.14275205;-78.70044641;-50.94424015;-65.79570056;22.76412788;6.868925776;15.65607898;21.01449214;3.775300582;-1.280370398;7.127782702;-1.15949997
-5.402353287;1.015909021;-3.07855926;-12.71024368;15.80979919;0.436752178;3.850793724;-25.92853981;-68.65216025;-46.95789389;-54.79917387;29.22737372;16.88383268;22.71735148;25.55369664;3.807096621;-1.575147691;7.489948277;-0.381403134
-3.698428414;5.12341463;-0.991986929;-8.101008738;17.96563162;1.097175839;2.78054903;-21.97822324;-59.95998101;-43.39619608;-45.68459776;33.60387543;24.99468001;29.82693744;24.63542079;4.443028837;-1.262041608;8.138318435;0.466358006
-0.244179783;9.565379282;2.212901422;-3.679290775;16.90632631;1.15114836;1.462606652;-19.63845338;-53.67043282;-42.19585502;-38.44361361;36.2362501;29.26325846;35.00094616;19.1639698;4.54167489;-1.369970671;7.931137551;0.604964185
2.802788912;12.30697756;4.38622254;-2.963386198;12.13906819;0.470551802;1.22607307;-19.05026579;-49.29071236;-43.81424309;-31.97528247;37.80534735;29.48794099;36.8067327;12.61906067;3.628814467;-2.231732397;6.046498344;-0.110037231
3.479222717;11.72051449;3.90205461;-7.05185707;4.830864583;-0.461222196;2.372190131;-19.10492622;-45.43204;-46.64385398;-25.0130603;38.79824087;27.04810601;34.91291443;8.785709127;2.086896996;-3.340570864;2.64;-1.05873128
1.401226076;7.717559622;0.85853947;-13.87388588;-2.69729272;-0.935787804;3.857443032;-18.33997362;-41.0216728;-47.96624469;-17.39464252;39.03568383;23.69559045;29.90248032;8.97418331;0.639623283;-3.894543778;-1.190090332;-1.399838242
-2.139698472;1.918703301;-3.100701187;-19.94252845;-8.334516645;-0.609118498;4.248051948;-16.04440001;-36.04600435;-45.80355716;-10.53180925;37.67786319;20.3299719;22.67638891;11.03429367;-0.359908839;-3.503128941;-4.092059907;-0.78619689
-5.295175141;-3.267383884;-6.072923549;-22.9879558;-11.37907663;0.225726596;3.066053558;-12.68393863;-31.25401564;-40.23439642;-6.462158944;33.86295205;16.752264;14.04825569;11.15564794;-1.179551347;-2.472159494;-5.262500901;0.377955055
-6.99276467;-6.013698231;-7.189400352;-23.28323484;-12.6691881;0.913909056;1.26897942;-9.358248675;-27.21161809;-33.16523944;-6.090823866;27.60531261;12.48976523;4.821629329;7.116709566;-2.277370664;-1.499910988;-4.765827309;1.328980568
-7.46081254;-5.984765083;-6.959585409;-22.79869846;-13.62197211;1.000858703;0.399559311;-6.828128486;-23.66905146;-26.83419972;-8.084120059;20.23527515;7.832761902;-3.920262216;0.301656455;-3.609633587;-1.110258256;-3.202606061;1.589275651
-7.707030068;-4.261490969;-6.588413933;-23.22429016;-15.03399056;0.575066927;1.176979218;-4.977388597;-19.86365985;-22.34494845;-9.503769146;13.88740088;4.06694431;-10.83179437;-5.289580148;-4.363319255;-1.305224924;-1.092301291;1.276777712
-8.557661972;-2.45014785;-6.983624654;-24.68603664;-16.61976508;0.10685882;2.830087891;-3.133488293;-15.45478467;-19.40021036;-7.868657314;10.25928399;2.646223839;-14.83349666;-6.317487681;-3.443201883;-1.661345836;1.46838617;0.846492395
-10.07864584;-1.636431696;-8.250663639;-26.09575714;-17.55777143;-0.029893991;3.798201083;-0.884022534;-11.1492976;-17.27489523;-3.064087756;9.509599787;4.027956318;-15.78391827;-2.963481027;-0.371385894;-1.703319606;4.598030401;0.580215432
-11.71864707;-1.842295417;-9.902780662;-26.49225371;-17.42783338;0.113291333;3.16413651;1.393655322;-8.333865978;-15.97210266;2.479047691;10.1588694;7.205123892;-14.67232756;1.053449478;4.139531309;-1.214131649;8.105232834;0.353962881
-12.86388688;-2.235536584;-11.39589888;-25.95887584;-16.64087307;0.179039497;1.502048888;2.768113042;-7.956097925;-16.41554907;5.56311632;10.12917546;10.35297247;-13.05620766;1.377046815;8.446284418;-0.286356737;11.16472103;-0.100654655
-13.25476854;-1.858964804;-12.46576217;-25.34536198;-15.9959035;-0.073485028;0.35395998;2.514088789;-9.632474282;-19.49163237;4.594564946;8.170923411;12.03746718;-12.11910137;-3.54245182;10.91010004;0.813367379;12.55187309;-0.745596874
-12.99998158;-0.381381722;-13.10042456;-25.30913899;-15.82864078;-0.482077258;0.809443325;0.692786535;-11.81120514;-24.8598152;0.694007753;4.616500865;11.98600561;-12.07316544;-11.27490365;10.82162679;1.777516944;11.33122882;-1.109864287
-12.35851621;1.582444628;-13.37823234;-25.80502009;-15.58027511;-0.630551535;2.491657611;-1.953064948;-12.90070855;-30.69241686;-3.265992961;0.946823601;10.8720845;-12.33428315;-17.38357397;8.674534015;2.308723096;7.519071145;-0.682849951
-11.60091505;2.770675243;-13.43846316;-26.5327164;-14.20645378;-0.296047907;3.884392758;-4.648587582;-12.41873304;-34.6828052;-4.825677391;-1.394780662;9.464299955;-12.21741287;-18.79387269;5.692945126;2.175371693;2.242566616;0.520602539
-11.03264046;2.046730074;-13.56194833;-27.7085711;-11.06943039;0.254573057;3.705396171;-7.161363336;-11.20175339;-35.53694595;-3.53696317;-1.954693137;7.998932381;-11.46866472;-15.75386385;3.074016293;1.367210269;-2.727843181;1.802816821
-10.98478158;-0.767276561;-14.10870219;-30.09428209;-6.530160737;0.445653962;2.071010738;-9.799650143;-10.54890921;-33.74542748;-0.830501749;-1.292544498;6.313253198;-10.17491975;-10.95938182;1.513100364;0.274852398;-5.780915236;2.275198562
-11.59518136;-4.498017917;-15.18942746;-33.99320554;-1.75054346;-0.076765161;0.388702583;-12.8997543;-11.09387546;-31.06171334;1.502568822;-0.224655459;4.474016285;-8.254958138;-6.93226641;1.208451701;-0.334464595;-6.133405233;1.622905605
-12.51027868;-7.004551815;-16.31877185;-38.15592753;2.072878162;-1.051265063;0.080083923;-16.32814385;-12.37187738;-29.18648866;2.786585215;0.931904594;3.142592582;-5.189757476;-4.140244673;2.091615985;0.309766848;-4.040365206;0.449514771
-12.87969039;-6.266831566;-16.48591912;-39.92558751;4.359565804;-1.741928243;1.305003946;-19.45384411;-13.34997297;-28.72315636;3.705204758;2.45128458;3.206562198;-0.429607316;-1.438043853;3.923288589;2.416499429;-0.529627931;-0.173295169
-11.86357826;-1.643373736;-14.80085241;-36.95853518;5.183242575;-1.536332098;2.848028692;-21.55348717;-13.29831809;-29.09280037;5.354607213;4.667126188;4.983759875;5.796343631;1.88855728;6.186910861;5.294312913;3.115257094;0.376247578
-9.393545574;5.460403921;-11.32143885;-29.29908101;4.818647441;-0.490720495;3.256399236;-22.2049997;-12.13846171;-29.21540913;8.189348071;7.454380541;7.795944515;12.0624318;4.715534838;8.056697905;7.592312117;5.844657438;1.670053711
-6.562986565;12.02939443;-7.359328472;-19.95315518;3.357204234;0.671240997;2.173545624;-21.30412909;-10.01460858;-28.21624819;11.87011578;10.2901489;10.41026389;16.29443895;4.87990994;8.721295911;8.070280285;7.120632969;2.508747907
-5.17940979;14.8587777;-4.862726278;-13.14612826;0.805443464;1.131532872;0.645452525;-18.79311834;-6.67231957;-25.63584065;15.99799259;12.81661062;12.01799132;17.02650418;1.531922996;7.969101343;6.40540767;6.933237866;1.894819504
-6.644811196;12.18576752;-5.201174643;-11.3947551;-2.479990493;0.641468265;0.133531216;-14.52585845;-1.449475388;-21.26978844;20.7968922;15.2721007;12.85628462;14.40398555;-3.280855143;6.553157814;3.442946011;5.609297904;-0.102277479
-10.93187601;4.569229907;-8.224260764;-13.68200131;-5.568506887;-0.29235095;1.158648746;-8.534733352;5.958137588;-15.12377666;26.89505812;18.25901313;13.8545649;10.06795361;-5.600019531;5.878996817;0.664123498;3.532507613;-2.329814102
-16.45135093;-5.500621566;-12.32896897;-16.28536602;-7.323051522;-0.852289188;2.829318151;-1.458337922;14.68185649;-7.687091064;34.35305201;22.0017075;15.5890399;5.943216046;-2.59700384;7.060078125;-0.784550517;0.925376302;-3.417658455
-20.97807304;-14.97306477;-15.51740102;-15.69180087;-7.152421708;-0.588450303;3.678548878;5.420489299;22.76686103;-0.163614913;41.97722246;25.83834378;17.52299874;2.881291563;4.869637896;9.96407582;-0.82490296;-2.181632778;-2.815784201
-23.00255589;-21.69429801;-16.66549766;-11.30038831;-5.505969524;0.254452974;3.022455979;10.79833674;28.36277529;5.865714969;47.81;28.56060135;18.31206304;0.256111947;12.52461738;13.00547472;-0.438028635;-5.774960975;-1.157399892
-22.55121057;-25.08349432;-16.08280645;-5.76360733;-3.624980528;1.0176601;1.580053711;14.23698135;31.13123375;9.366565958;50.57201561;29.41924044;16.98980692;-3.186086981;15.76281446;13.95448457;-0.944458039;-9.608042494;0.313512055
-20.93421816;-25.77383039;-15.02819823;-2.755855078;-2.697977011;1.227362837;0.788582173;16.49861596;32.59210585;10.66193714;50.79594418;28.88701816;13.98316951;-7.984370847;13.06294323;11.28082881;-3.095366795;-13.09303355;0.725002588
-19.69042347;-24.68806538;-14.65461072;-4.05625998;-3.099230375;0.960029297;1.460343571;18.85590981;34.90735336;11.28368838;50.48867581;28.35786158;10.96413302;-13.29346136;6.872198573;5.13513766;-6.583228971;-15.47586784;0.140680665
-19.55098809;-22.31523123;-15.2248474;-8.32785071;-4.321555971;0.668697503;3.031242029;21.79713277;38.95309389;12.73680766;51.41110038;28.88153827;9.536522445;-17.44382773;1.250321429;-2.67869456;-10.24;-16.22568651;-0.705487134
-20.13048339;-18.65328195;-16.11640568;-12.48385451;-5.597526951;0.678849619;4.092816701;24.21469973;43.26870203;15.06972687;53.3806401;29.99142577;9.829747862;-19.21077494;-1.633364234;-9.675177244;-12.71810199;-15.37885755;-1.169708163
-20.43150574;-13.68445356;-16.45695132;-14.3613768;-6.59969883;0.861122823;3.7044049;23.9240097;44.87195049;16.50513045;54.13919522;29.75974406;10.24814604;-18.67981532;-3.076032701;-13.92845278;-13.19044672;-13.57578787;-1.225508596
-19.66003906;-7.856250507;-15.79657702;-14.41606263;-7.573033975;0.797982817;2.261397868;19.2977717;41.42248055;14.63046168;51.06245586;26.23228277;8.693869901;-17.00142496;-6.158550408;-14.84013919;-11.69448779;-11.74200791;-1.312214335
-17.73875609;-2.131301335;-14.33985356;-15.09961009;-8.810314997;0.271099169;1.115441831;10.78647099;33.06541259;8.331597833;43.37568039;19.15333542;4.319061858;-15.34352923;-12.40804714;-13.13346108;-9.031280952;-10.63243894;-1.727852377
-15.26565234;2.402167059;-12.72364314;-18.58908329;-10.01191577;-0.425440549;1.30726421;1.047109539;22.49843071;-1.078670869;33.02160825;10.50619407;-1.631449533;-14.04394151;-19.91844701;-10.30517736;-6.375420469;-10.55580972;-2.210941377
-13.11408097;5.00581853;-11.66359378;-24.85705968;-10.1886783;-0.684299875;2.597427514;-6.548339447;13.23003906;-10.52036211;23.41258118;3.290487368;-6.601519509;-12.71385211;-24.74425493;-7.974828434;-4.815627139;-11.43523764;-2.147521397
-12.02532683;5.49808087;-11.73383088;-31.64022986;-8.265814489;-0.142718374;3.699360186;-9.942504128;7.435182695;-17.12604503;17.08211959;-0.568029131;-8.508755159;-11.09851003;-24.40639506;-7.397121252;-4.980976373;-13.07505712;-1.214613182
-12.37632581;4.139411126;-13.25272553;-36.16864817;-3.896938661;0.918211953;3.496401733;-9.422692405;5.05318451;-19.96832531;14.17514962;-1.49406891;-7.108520598;-9.754760868;-20.35343827;-9.133466027;-6.834973052;-15.34207731;0.172191846
-14.07384656;1.427715275;-16.1027285;-37.08605186;2.197513454;1.733607384;2.105934161;-6.932232707;4.6428674;-20.1851759;12.96044734;-1.672666787;-3.913565468;-9.766751141;-17.03716186;-12.81664963;-9.690572038;-18.07617647;1.078682836
-16.49639809;-1.962274621;-19.49172573;-35.01244037;8.62349488;1.672226287;0.793704373;-4.355846187;5.021117828;-19.5340384;11.77626276;-3.090513191;-0.87705941;-11.65719253;-18.22849448;-17.10399606;-12.46438886;-20.82663055;0.792923614
-18.55768392;-5.112336945;-21.94772617;-31.52395383;14.05409559;0.779059045;0.810366414;-2.267219691;6.161483614;-18.74311731;10.60013011;-5.862623546;0.973329175;-14.4963265;-23.71179801;-20.0344756;-14.0947027;-22.71239143;-0.558808076
-19.05064496;-6.907581389;-21.84249957;-27.6918242;17.6840114;-0.244501383;2.226934129;-0.122641904;8.650192418;-17.14023206;10.84483697;-8.24850186;1.857429788;-16.15530006;-29.29076119;-19.84110203;-13.93677362;-22.63741166;-2.078298204
-17.26181263;-6.387002533;-18.33814087;-23.54094905;19.12075534;-0.619842009;3.852186131;2.462006045;12.39868691;-13.82580417;13.64277259;-8.303971352;2.448687435;-14.6936604;-30.22477866;-15.88669995;-11.93354164;-19.80369877;-2.799532815
-13.53201944;-3.288158858;-12.16365847;-18.77488058;18.02910386;-0.129773452;4.3153107;4.697212413;16.00738946;-9.206489351;18.28724514;-5.703077093;2.88416831;-9.841942944;-25.21498235;-9.137742887;-8.49759734;-14.20041238;-2.421424614
-9.308673155;1.593615147;-5.552713888;-13.88022398;14.07991447;0.735626972;3.31724331;4.950667478;17.54464433;-5.3338583;22.376587;-2.125527305;2.57737979;-3.366389195;-17.510644;-1.77332199;-4.242124121;-6.733515644;-1.447255214
-6.501490872;6.578049376;-1.193119371;-10.40126503;7.389600902;1.237685129;1.895529084;2.224831159;16.14157535;-4.554681059;23.65735998;0.137854742;0.977860833;2.027890518;-12.13772492;3.914098078;0.212586754;1.093329892;-0.654287808
-6.46689331;9.805450364;-0.792044269;-10.00022918;-0.969892653;1.029725318;1.458368451;-2.557447735;12.96569583;-7.539814907;21.97999604;0.151080175;-1.53570224;4.417436338;-11.59069934;6.652586055;4.248631355;7.739157669;-0.413647427
-9.281113488;10.08757045;-4.21488594;-13.079731;-9.03710617;0.410958118;2.481256348;-6.747766946;10.60171436;-12.41578084;19.59856682;-0.84226901;-3.598466824;3.683997456;-13.68898922;6.644565436;7.191170032;12.10855338;-0.48146051
-13.79586162;7.403075192;-9.76733619;-18.1782749;-14.81480479;-0.007856879;4.071257705;-7.696435376;11.23445344;-15.86315756;19.45209066;-0.461823995;-3.820965753;1.138849374;-13.48372509;5.119015633;8.4015084;13.76887271;-0.406740409
-18.39922709;2.786218945;-15.34297156;-22.70334582;-17.38553984;0.108657198;4.800958794;-4.697941652;15.08073439;-15.398995;22.82347702;2.781705495;-1.960367223;-1.787024283;-7.647642685;3.4023212;7.60044502;12.9319079;-0.106453387
-21.88999078;-2.238668228;-19.54551427;-24.45939295;-17.41256764;0.531293752;4.039424838;0.423621719;20.32198964;-11.05689449;28.32959033;8.189769694;0.770380471;-4.613223318;2.360187089;2.20975241;5.216293699;10.33287902;-0.007898
-23.84683678;-6.281478491;-22.01933163;-22.83442554;-16.56458967;0.728590988;2.547620626;4.593740758;24.52779355;-5.182670175;33.06150585;13.38028394;2.599053629;-7.792727533;11.06915577;1.582274806;2.404741241;7.070843116;-0.594510824
-24.34931161;-8.447445917;-22.95230574;-18.87717071;-16.26965103;0.411350209;1.785606253;5.622459823;26.34861091;-0.619309112;34.8696975;16.12514726;2.570048828;-11.77782221;13.14899479;1.327638443;0.566073997;4.363382941;-1.797186447
-23.46206569;-8.386850988;-22.40104313;-14.41134999;-16.77048506;-0.170031738;2.569315165;3.527918329;26.13570578;1.190555615;33.86763757;15.96498426;1.231761786;-16.12915547;7.587176531;1.459354926;0.588018986;3.179130677;-2.863914361
-21.04271957;-6.202728012;-20.13966787;-10.97341246;-17.2042734;-0.462560001;4.315516182;0.117249369;25.16424969;0.745529239;31.98025386;14.31577033;0.059142391;-19.51783462;-1.449089571;2.239098136;2.330987163;3.859894762;-2.914673014
-17.06258135;-2.38648317;-16.14409184;-9.262776597;-16.5638794;-0.15622304;5.570606966;-2.646105795;24.33755827;-0.503842095;31.08037861;13.11475277;0.134717205;-20.61662287;-7.677051328;3.859315691;4.761046923;5.968520891;-1.728962907
-12.09395097;2.207570067;-11.16299373;-9.206192627;-14.66777105;0.487043611;5.335333998;-4.042716177;23.57077032;-1.579879548;31.41058243;13.25185888;1.239341228;-19.07792092;-7.180610169;6.13421765;6.666601095;8.524543202;-0.041315786
-7.415894945;6.465055211;-6.710508449;-10.27984527;-12.30724299;0.848470973;3.966747378;-4.687599245;22.27558832;-2.564923356;31.60769831;14.08419377;2.114805529;-15.75321519;-0.846087086;8.513211034;7.436287191;10.5255624;0.983285362
-4.508892;9.273949494;-4.343157637;-11.76458739;-10.49882497;0.526454581;2.833117949;-5.476407866;20.28483319;-4.033885021;30.15136078;14.27939226;1.619917039;-12.00778697;6.862838268;10.38659248;7.321017642;11.41462933;0.691429634
-4.257022165;9.878247545;-4.756366021;-12.93592033;-9.556678624;-0.263602556;3.049096137;-6.521200471;18.19568199;-6.128757768;26.82672178;13.08083202;-0.255194591;-8.756996919;11.44088442;11.37651238;7.019955633;11.17691496;-0.506866376
-6.456826636;8.144150175;-7.427208576;-13.34983628;-8.816419699;-0.84951742;4.461843463;-7.069820246;16.77651628;-8.297529772;22.89774952;10.85035139;-2.37270467;-6.013459812;11.23710492;11.36067905;6.980695204;10.04954395;-1.477590273
-9.994751068;4.596166103;-11.06605679;-13.18224441;-7.213184064;-0.695636536;5.817952853;-6.36923305;16.0872647;-9.918973949;19.95051481;8.545421092;-3.372166825;-3.203664129;7.681518486;10.28359192;7.0228369;8.15907104;-1.327105262
-13.51902545;0.22315104;-14.45401412;-13.29041767;-4.144750478;0.104101848;5.944029674;-4.522238742;15.30187092;-11.0606716;18.57262979;6.804139883;-2.679005725;0.168009157;3.235500301;8.041435171;6.593116993;5.45767188;-0.171193784
-16.07415932;-3.827902255;-16.96469461;-14.71740898;0.154202605;0.887284233;4.838570751;-2.448791582;13.53976434;-12.46133725;18.08789427;5.583811534;-0.75040055;4.134620316;-0.778640694;4.637108049;5.399771787;2.037110809;0.954968362
-17.28315094;-6.545284313;-18.43480617;-17.82908685;4.978076523;0.993862685;3.662617234;-0.996199757;10.95820955;-14.64923359;17.4813049;4.629351319;1.528813998;8.393113418;-4.600068359;0.477729945;3.841837364;-1.492383051;0.972358292
-17.10962684;-7.276721882;-18.68894792;-21.73682953;9.785406067;0.339152314;3.643267526;-0.115224421;8.973188015;-17.07868423;16.50121081;4.14893236;3.621763461;12.63157555;-8.684623597;-3.535411659;2.833693429;-3.997164154;-0.327572585
-15.57850721;-5.874321679;-17.323188;-24.59610315;14.41298072;-0.521895586;4.913270796;1.029310159;9.202875579;-18.28003906;15.80602693;4.854250278;5.538431689;16.60942462;-12.2133451;-6.343112543;3.159468599;-4.340244483;-2.098976313
-12.77427316;-2.732306296;-14.03370651;-24.71611109;18.66844192;-0.889980188;6.367474744;3.077659779;11.94529318;-17.08841835;16.01964544;7.200854009;7.353923989;19.91308292;-13.08454212;-7.317859134;4.901710895;-2.103987951;-3.119870125
-9.069080787;1.33436409;-9.1670825;-21.69875543;21.80490067;-0.524759947;6.672861878;5.599335357;15.57012246;-13.89848053;16.68905086;10.56021995;8.64419298;21.76072479;-9.5279419;-6.649796812;7.414632094;2.045020678;-2.735769708
-5.247200226;5.369962194;-3.879032588;-16.71637219;22.58104669;0.18210834;5.500169828;7.273138474;17.52101222;-10.69930254;16.29145543;13.2522666;8.510019531;21.25306503;-1.9224664;-5.189045872;9.829403055;6.673284651;-1.28460906
-2.278092348;8.596680895;0.378341445;-11.70179842;20.06432585;0.599722054;3.840678541;7.081578319;16.22488772;-9.656070154;13.44290303;13.61176604;6.24419623;18.00375687;6.836446837;-3.848271126;11.62616243;10.3702295;0.290468488
-0.856623757;10.58383365;2.672691589;-8.114608768;14.54;0.435431956;3.117547548;5.435144326;12.32847957;-11.36035499;8.251737187;11.24121461;2.009410531;12.60075662;12.85119453;-3.046251733;12.78865264;12.42443955;1.228457951
-1.096432976;11.1709567;3.013927973;-6.273304879;7.632644105;-0.0384265;3.911287228;4.073685249;8.164103173;-14.29630766;2.50743795;7.311399384;-3.171012613;6.381903375;13.50029927;-2.629458257;13.47654939;12.9162505;1.434592311
-2.644353998;10.26097671;2.023528124;-5.700927382;1.351385474;-0.300571176;5.46714365;4.650272113;5.831000802;-16.09070863;-1.609973121;3.556837773;-8.163625204;0.598059231;8.810979395;-2.271156111;13.61077611;12.27021519;1.307127807
-5.079714966;7.744268714;0.200160414;-6.008936363;-3.256375691;-0.117297979;6.421830035;7.166754466;5.489307539;-15.53956645;-3.257655575;0.802890391;-12.52917818;-4.349247727;1.070748778;-1.915621933;12.83692699;10.76646216;1.182566821
-8.173904789;3.717700074;-2.468528697;-7.389804569;-6.711614163;0.22478501;6.060597576;9.713781265;5.318839135;-13.64875422;-3.592147015;-1.651179544;-16.59429028;-8.893681058;-6.797013132;-1.81652285;10.94438212;8.494165797;0.992020506
-11.72402163;-1.141360232;-6.126233146;-10.22484764;-10.39454473;0.216181835;4.937461737;9.919570209;3.181385516;-12.72878968;-4.761825587;-5.191360989;-20.6876071;-13.48495714;-12.78937462;-2.140936138;8.33719752;5.753331832;0.45260384
-15.13659597;-5.438818588;-10.26538168;-14.2287341;-15.07454805;-0.336374671;4.298560541;6.993427662;-1.446485354;-14.29033737;-8.096664277;-10.31674423;-24.28175363;-17.7147514;-16.3434919;-2.577061425;6.039573744;3.414131389;-0.449446335
-17.27601254;-7.486069526;-13.4067977;-18.07064215;-19.94932827;-1.060468146;4.869123949;2.614244568;-6.946829334;-17.59028117;-13.07365413;-15.79033447;-25.96449054;-20.27420096;-17.83081276;-2.432527153;5.105272866;2.708573118;-1.232681558
-16.93484387;-6.185229387;-13.78887974;-20.01533355;-23.08549579;-1.324586891;6.153198645;-0.205809594;-10.90440833;-20.15943385;-17.92921646;-19.38325968;-24.44550377;-19.92467176;-17.75820625;-1.255965147;5.854441654;4.432902426;-1.247155977
-13.71189581;-1.829253063;-10.69106578;-19.15781639;-22.95612483;-0.836403792;6.906678335;0.548801997;-12.16155909;-19.91353533;-21.29749192;-19.65702853;-19.80323835;-16.70507651;-16.36770888;0.542654961;7.577555418;8.151930936;-0.284897397
-8.602146818;3.814752396;-5.3071286;-16.18830657;-19.78208532;0.029183844;6.338087764;4.269182201;-11.79839112;-17.02263264;-23.335148;-17.2312478;-13.82374136;-12.26813903;-13.76353947;1.718069092;9.003818777;12.14663408;1.118838188
-3.692579727;8.338438188;-0.28703122;-12.94787103;-15.49027308;0.508097731;4.902568585;8.168119015;-12.17220263;-13.87215396;-25.29382041;-14.35200432;-8.97252766;-8.901647321;-10.22310927;1.015119171;9.204672544;14.33405163;2.039076254
-1.018078885;9.97714885;1.900917286;-11.06660243;-12.25180131;0.112496145;3.92779441;9.467603756;-14.8192001;-13.0872628;-27.96749799;-13.03954669;-6.718913571;-7.922651101;-6.330611328;-1.773069503;8.229720037;13.59646773;1.909428011
-1.334901027;8.508317651;0.620653089;-10.79130716;-10.78285101;-0.909262472;4.400708039;7.549788921;-19.00019587;-15.28736009;-30.52557593;-13.37661297;-6.56;-8.740606554;-2.85828084;-5.3899408;6.98136047;10.55034623;1.00772388
-3.703234836;5.17030615;-2.538094217;-10.95795754;-9.822080434;-1.749748943;6.03578436;4.337835823;-22.12675943;-18.49730274;-30.92928105;-13.43957874;-6.569361063;-9.392223036;-0.531727929;-7.791312179;6.453733354;7.144861918;0.221883316
-6.182859096;1.715432824;-4.940715178;-10.06950988;-7.227705857;-1.724081013;7.498199493;2.662517926;-21.72067532;-19.72753001;-27.67878555;-10.97954523;-5.030607536;-8.137978538;0.212851755;-7.498092037;6.966784316;5.35451582;0.276524181
-7.102429689;-0.667823565;-4.741843355;-7.498309505;-1.790762583;-0.863256621;7.592743089;4.026697467;-17.29989953;-17.37885255;-21.36400225;-5.430365994;-1.797369465;-4.815191778;-0.531822291;-4.622718438;7.99726643;5.92537875;1.099115147
-5.958896143;-1.787392074;-1.962462298;-3.790747159;5.71290057;0.107625407;6.334523271;7.604314713;-10.69872669;-12.4446137;-14.57407871;1.494010665;1.739369388;-0.852020564;-1.975299453;-0.765697029;8.689390513;8.083789991;1.897790945
-3.363955118;-2.025192348;1.93248077;0.074909026;13.03863234;0.392182123;4.921172151;11.18776061;-4.668397432;-7.549677176;-10.12464998;7.149246618;3.987498955;2.00887895;-2.751198106;2.161642325;8.575305865;10.35752604;1.891569002
-0.252775968;-1.551883512;5.453095634;3.665600062;18.05181771;-0.200155523;4.635309814;13.13869212;-0.98955512;-4.726067892;-9.051153685;10.10951954;4.579538578;3.1404756;-1.509086548;3.297059878;7.910996874;11.80556149;1.042147829
2.880779677;0.071204222;8.236203804;7.338245616;20.04407989;-1.114979205;5.688413999;13.63070288;0.395482463;-3.854040104;-10.05606007;11.26909551;4.618436517;3.390989679;2.219282345;3.344825347;7.406960359;12.68318142;0.124154343
6.102204706;3.539655145;11.00952434;11.55724588;19.79856343;-1.561971886;7.064996039;14.19964104;0.704614698;-3.037661935;-10.85738869;12.9503056;5.538755025;4.122676681;7.500703146;3.896509778;7.647702524;14.07361155;0.057917533
9.545680965;9.025651649;14.54835053;16.02989314;18.54938526;-1.208316108;7.496531895;16.13070759;0.882321832;-0.473786595;-10.25322843;16.78839736;7.623825564;5.842801993;12.41803169;6.12690962;8.702253234;16.85616962;1.091573794
12.90573702;15.68436771;18.67131869;19.59730417;16.88098703;-0.441214378;6.650101918;19.165881;0.715073319;3.863569655;-9.128148834;22.20635143;9.541765626;7.666007165;15.34485677;9.876992181;10.18790764;20.8702853;2.560371203
15.45940738;21.92728785;22.21011117;21.07079008;14.51892518;0.015282309;5.424679248;21.62727685;-0.843313665;8.125243491;-9.586797928;26.76861844;9.371578868;8.06782157;16.16535582;13.76930289;11.62439116;24.91341701;3.440895593
16.60436222;26.29050127;23.94603394;20.24024193;11.03961701;-0.238216182;5.084403241;21.75103438;-4.603691234;10.02327394;-13.04105516;28.08740118;6.266190754;6.222515189;16.339748;16.16908814;12.70450718;27.51196249;3.213231983
16.37003906;28.2199404;23.6157246;18.05532834;6.669702937;-0.940004883;6.044527473;19.00864725;-10.37903764;8.463565313;-18.94988543;25.65657425;1.308235694;2.714414306;17.54157236;16.19530015;13.27268267;27.82230045;2.275557514
15.37206806;28.16650271;22.05297748;15.74825578;2.338060494;-1.444380979;7.45170418;14.32332321;-17.15832117;4.027351255;-25.2770156;21.10658615;-3.218928058;-0.993432471;19.87042316;14.05524863;13.14150114;25.99900817;1.559722254
14.22034556;26.96350751;20.35913795;13.71252833;-1.058162438;-1.333724186;7.961552933;9.156758892;-23.91852408;-1.882520159;-30.19952944;16.75799108;-5.573963297;-3.814103105;21.23918849;10.59671709;12.03835047;22.85872745;1.705303392
12.94268375;25.0468047;18.90151662;11.24943659;-3.405683841;-0.790475591;6.998156713;4.416869844;-30.24116879;-8.226858797;-33.54744816;13.77181789;-5.879275846;-5.85506849;18.74730774;6.585577474;9.807853293;19.21848348;2.527921642
11.00631779;22.17774085;17.0887125;7.498509162;-5.347389303;-0.392802742;5.322099249;0.15139863;-36.21773446;-14.71659888;-36.77802631;11.4454357;-5.944705266;-8.064129926;11.17175613;2.335438414;6.685651331;15.45554277;3.235619139
7.970955497;17.87050211;14.13208886;2.691422933;-7.452392502;-0.541485201;4.365599726;-3.879940266;-41.91284289;-21.22736023;-41.62807975;8.137934819;-7.771047784;-11.05586416;0.546333843;-2.091287778;3.333533099;11.55028725;3.171389985
4.18286975;12.11129501;10.06280357;-1.554905754;-9.392671139;-1.066499919;4.934061571;-7.528229809;-47.08931797;-27.10468272;-48.7005868;2.915352689;-11.98013474;-14.22783374;-8.702728981;-6.420719417;0.525791404;7.439325949;2.402562098
0.813863143;5.709113455;6.006093375;-3.381849281;-10.00295015;-1.386759022;6.466969093;-10.27243679;-51.55306888;-31.30263649;-57.15999752;-3.515011067;-17.41123049;-16.01752103;-12.67031713;-9.950261052;-1.287397339;3.298570032;1.639464649
-0.907740384;-0.066005078;3.374988032;-2.386212609;-8.298523659;-1.073238231;7.54425611;-11.92996866;-55.72066242;-33.36122511;-65.60161302;-9.292597479;-22.09959166;-15.12090252;-10.7405077;-11.82578373;-2.177209292;-0.481020675;1.581937959
-0.697858411;-4.300190443;2.640780743;-0.341133126;-4.579851376;-0.28377395;7.180482208;-13.25828531;-60.6527973;-34.23256054;-73.11584406;-12.78712999;-24.7281147;-11.62616313;-5.94856742;-11.61631613;-2.542206614;-3.556848924;2.296251159
0.390426022;-7.067732262;2.765336395;-0.148733647;-0.559914907;0.347115519;5.722449987;-15.66568558;-67.26221399;-35.94978343;-79.54908519;-13.69089262;-25.36286873;-7.083316841;-2.553031598;-9.740415421;-2.733934027;-5.885286731;3.170501342
0.566064886;-9.372895602;1.847923478;-3.762984111;1.758746586;0.27459071;4.527766771;-20.10713125;-75.29047585;-40.18326401;-84.90464849;-13.03613699;-25.01129873;-3.452602086;-2.753403115;-7.41718856;-2.871216972;-7.76529953;3.455818148
-1.519841755;-12.42091096;-1.485619328;-10.77294781;1.628189451;-0.449829614;4.720454781;-26.11293316;-83.06762402;-46.86194116;-88.74035469;-12.33120727;-24.56914824;-1.814107191;-5.253973039;-6.155846046;-2.999477797;-9.669046696;2.881404813
-5.882688284;-16.72452907;-7.040713517;-18.80513731;0.261375221;-1.19968033;6.165502793;-31.90582117;-88.50831363;-54.12346313;-90.37465523;-12.63704138;-24.14254074;-1.857247299;-6.839968758;-7.075952131;-3.368329798;-11.98349393;1.800803773
-11.21512106;-21.64378143;-13.13449058;-25.32085343;0.089397158;-1.311891944;7.59962902;-35.62893614;-90.6703849;-59.72311418;-89.76015284;-14.20849286;-23.24718937;-2.431115723;-5.545120374;-10.39804377;-4.437021431;-14.78516039;0.787740275
-15.68856871;-25.63024103;-17.63853327;-29.17523724;3.135148686;-0.660029297;7.791246502;-36.67119223;-90.53793777;-62.68771751;-88.01449225;-16.65517417;-21.52412206;-2.534643161;-2.584894776;-15.30731709;-6.47070435;-17.7131103;0.105913213
-17.87539907;-26.98758963;-19.10300796;-30.59823605;9.756551152;0.24994597;6.660039063;-35.9258351;-90.20402277;-63.72729468;-86.7754176;-19.17790837;-19.1893639;-1.86808176;-1.288565107;-20.22101018;-9.048573432;-19.9904171;-0.440631157
-17.17716266;-24.69438306;-17.17476912;-29.81583221;18.63241265;0.738158214;5.33160974;-34.75228071;-90.99369156;-64.04591528;-86.71336513;-20.66278186;-16.80131775;-0.621464149;-3.928661507;-23.36858326;-11.01677469;-20.65729951;-1.167804903
-13.6907687;-18.88389893;-12.26467503;-25.90965172;27.78750777;0.540396083;5.087673863;-33.60966541;-92.11894063;-63.72989675;-86.58773125;-19.89245346;-14.67050633;1.052183382;-9.295823262;-23.50162689;-11.11964173;-19.0171697;-2.056534688
-7.931270069;-10.82065531;-5.072389327;-17.36751386;35.65216592;-0.001284404;6.187357096;-31.67636219;-91.18270538;-61.3846419;-84.03499556;-16.20042157;-12.60414871;3.199000234;-13.32675266;-20.45972022;-8.938096225;-15.12247937;-2.660862137
-0.809450194;-2.453298169;3.462313355;-4.135116185;41.31168638;-0.299825555;7.643261847;-27.88751466;-86.3415176;-55.58579533;-77.79818879;-10.34849831;-10.31371459;5.681518464;-12.4438942;-15.2924747;-5.388006075;-9.970907485;-2.49056246
6.195187964;4.24930669;11.84988509;10.69495014;44.01011181;-0.081605634;8.148050104;-22.46911645;-78.41216437;-46.93492407;-69.59289355;-4.801066508;-8.083942876;7.757283016;-6.788347616;-9.787525808;-2.274957818;-5.149679615;-1.502393144
11.11508431;7.940632895;18.00358673;21.50337224;42.73730221;0.381496718;7.285856696;-17.46490939;-71.01908492;-38.70413615;-63.72591942;-2.684577823;-6.942460571;8.26527248;-0.442669243;-5.58233291;-1.130202675;-2.012481441;-0.211340488
12.15781402;8.295323704;19.94082024;23.23686588;36.61277875;0.570388433;5.909248579;-15.54222973;-68.32947031;-35.08155359;-64.25924057;-5.723668434;-7.975245157;6.472253279;1.769747261;-3.351261815;-2.174700543;-0.878022068;0.710969956
8.712958445;6.009230547;16.97321016;14.9186102;25.89615699;0.247961773;5.342972162;-17.89541899;-71.91921535;-38.11907751;-71.67360422;-12.56236109;-11.26540246;2.870257853;-1.653639789;-2.58556719;-4.221457913;-0.842303965;0.987015513
1.978709157;2.396941528;10.47151155;0.823339876;12.65967878;-0.295109411;6.161377533;-22.99264811;-79.20974635;-45.82351001;-81.75795045;-19.00358008;-15.4120732;-0.92069762;-7.405130589;-2.121336395;-5.61218286;-0.423459855;0.91204495
-5.409474573;-1.214493096;3.411291956;-11.85758218;0.256658455;-0.518958214;7.671883796;-27.35530237;-84.88156512;-53.14779565;-87.97814211;-20.44646307;-18.21301056;-3.270920182;-9.821362293;-1.040108231;-5.459263645;1.366410266;0.983643092
-10.67327688;-3.972207111;-1.203440697;-17.3635711;-8.303764082;-0.17505383;8.572013425;-27.92040837;-84.42917912;-55.37245911;-85.87990793;-15.01819127;-18.13154015;-3.833965063;-5.361534586;0.719624447;-4.216487835;4.308041562;1.334140357
-12.30693349;-5.619654817;-2.008831441;-14.63995193;-11.96007813;0.412759861;8.156710345;-24.19150958;-77.32040366;-51.37517457;-76.31463734;-5.077148814;-15.43911872;-3.862924387;4.534482243;2.481959123;-3.15183424;7.183221218;1.526961755
-10.67561279;-6.27065188;0.137412126;-7.283750666;-11.95826047;0.614869643;6.949981919;-18.49916629;-67.43119842;-44.27511204;-64.97181103;4.234311578;-12.09182627;-5.137280027;14.52464876;3.542592932;-3.193273982;8.76241272;0.952316988
-7.455943737;-6.101835119;3.033577855;-0.477207161;-10.69166536;0.084645689;6.181917583;-14.20179025;-60.42091714;-38.97894375;-58.43302941;8.510724288;-10.36968905;-8.295488533;19.44256687;3.845724576;-4.117215573;8.793972753;-0.514533257
-4.427464354;-5.252173481;4.732122569;2.561822014;-9.956637765;-0.872612578;6.613008264;-13.29885076;-59.95922027;-38.58514277;-59.62102664;7.120416907;-11.29218573;-11.9847521;18.0189823;4.040039063;-4.739127728;8.189768165;-2.21354402
-2.533732346;-3.979793034;4.630234447;1.992210871;-9.991996193;-1.510876704;7.813472822;-15.32711487;-65.49581228;-42.42580926;-65.99618849;3.455831415;-14.00497211;-13.65882579;13.32273506;4.858598515;-3.92079306;8.239666663;-3.092595083
-1.795567794;-2.838403398;3.341985542;-0.02454978;-9.951229938;-1.2727045;8.57392684;-18.26203454;-73.02935015;-47.10086863;-71.76247228;2.180568129;-16.56248135;-11.50582843;9.826293847;6.355837618;-1.545891028;9.48294607;-2.509259663
-1.906917399;-2.578255594;1.687899826;-1.860310559;-9.215248763;-0.2864374;8.061127814;-20.46545746;-78.09960295;-49.42757526;-72.3276192;5.559408293;-17.44600971;-6.00191257;9.752121041;7.671881759;1.321000267;11.15608122;-0.768248076
-2.833660587;-3.732329661;-0.19432409;-3.812121052;-8.275016318;0.715071075;6.631951896;-21.94536245;-78.72287588;-48.82016321;-67.66;11.64823721;-16.6336037;0.176633075;11.71527432;7.554051935;3.173576224;11.67092782;1.076486216
-4.86809264;-6.195888121;-2.859754793;-7.367942294;-8.373110907;0.992909974;5.534581622;-23.93612793;-76.27338144;-47.31713047;-62.16302118;15.65934667;-15.46151192;3.861986941;12.48457253;5.226561981;3.060325387;9.740303125;1.999388363
-8.179512372;-9.202588463;-6.799768523;-13.36111975;-10.25761855;0.400820924;5.764326445;-27.35111793;-74.00242826;-47.55351225;-61.36523677;13.39464365;-15.49095661;3.432338219;9.985952089;0.914850809;1.059581362;5.261784011;1.710883786
-12.37491569;-11.80272232;-11.71317841;-20.89146095;-13.22344062;-0.527804224;7.134585321;-31.62041868;-74.57584775;-50.59309147;-67.98127379;4.177519332;-17.31344496;-0.318985905;4.837013365;-4.35599249;-2.029475813;-0.688217256;0.724627032
-16.52730975;-13.49007813;-16.49955432;-27.95918199;-15.37003906;-1.059922563;8.430606337;-34.98833101;-78.45021323;-55.37793994;-80.08859737;-8.715453059;-20.1619357;-4.989960834;-0.679316861;-9.445698536;-5.367900403;-6.638013598;-0.209302605
-19.64623188;-14.43075208;-19.94250229;-33.0365721;-14.92535873;-0.871401137;8.511705606;-35.95795125;-83.96396086;-59.93091598;-92.38804113;-20.12596958;-22.4894404;-8.24797883;-4.855777311;-13.64824374;-8.482975205;-11.55973704;-0.750889014
-21.14855428;-15.05136429;-21.41410162;-35.95590701;-11.54285174;-0.255409553;7.347056365;-34.51588392;-88.63814315;-62.91987975;-99.31836058;-25.85394032;-22.96231061;-9.039614616;-7.699003439;-16.68797776;-11.12252797;-15.09825744;-1.115808606
-20.93385906;-15.33079075;-20.97783374;-37.28176436;-6.503612439;0.217053666;6.030158679;-31.99798157;-90.49942705;-64.11126002;-97.83680973;-24.35334827;-21.1401423;-7.598290925;-9.965154191;-18.31379938;-12.86656667;-17.15701912;-1.645032089
-19.10301072;-14.484793;-18.91333928;-36.93955449;-1.706816044;0.238067513;5.763039194;-29.7375098;-88.63489158;-63.54799702;-88.40437987;-16.63769392;-17.50946208;-4.629348184;-11.3360302;-18.03478618;-13.03871225;-17.41284804;-2.279448844
-15.72426021;-11.47164278;-15.27319313;-33.69540875;1.649424506;0.001036008;6.754710223;-27.78479689;-83.08350618;-60.64100521;-74.21137141;-5.175693404;-13.07300329;-0.652707561;-9.920374434;-15.37454995;-11.12717431;-15.34750123;-2.50325348
-10.9678824;-6.027898289;-10.0194694;-26.28321765;3.602044231;-0.059225948;8.053571203;-24.94061742;-74.65839024;-54.43167111;-59.64120174;7.071826832;-8.912285281;3.903820826;-3.941163709;-10.4486986;-7.357495433;-10.80920176;-1.849897545
-5.476647728;0.629466833;-3.63105316;-15.27595278;4.844920266;0.254465988;8.460967151;-20.12993568;-64.9987448;-44.99776834;-48.8501423;17.09330014;-5.948331082;8.179117536;5.875170498;-4.248083458;-2.818036621;-4.514629774;-0.486087421
-0.485683679;6.173964157;2.521517424;-3.832261647;5.716578519;0.678807764;7.665452393;-13.85521159;-56.51444065;-34.59630055;-44.66158755;22.27284224;-4.81572246;10.75057409;15.74239793;1.813283127;1.115018869;2.127086866;0.739616136
2.647825998;8.540303823;6.638695867;3.770426027;5.764027647;0.741215327;6.533262211;-8.29687771;-51.68645997;-27.06868183;-47.63686015;21.37867895;-5.68059362;10.33999325;21.19328833;6.857602449;3.667397814;7.873727965;0.928612852
3.280955622;7.349854979;7.629640104;4.968130483;4.279950607;0.242217086;6.281121867;-5.779493698;-51.74277152;-25.48603029;-55.51493972;15.71967351;-8.02956239;6.881823221;20.73331292;11.22;5.143061707;12.49861419;-0.062270637
2.008632074;4.269502267;6.022204104;0.880405886;1.246015011;-0.501271031;7.306548612;-6.813409878;-55.55739789;-29.74142592;-63.66794455;9.282727463;-10.67751458;1.958827932;17.56446279;16.16263094;6.557904184;16.83142431;-1.375650589
0.333528642;1.928811252;3.768645791;-4.324269239;-2.29706054;-0.902140719;8.778440195;-9.429495849;-59.8568206;-36.18863093;-67.00725898;6.99756705;-12.19999485;-1.971340871;17.46936782;22.71674032;8.711061245;21.85255715;-1.762910462
-0.371474853;2.142311743;2.935337114;-6.367189371;-4.907704153;-0.628016698;9.386557096;-10.5450997;-61.04166485;-39.9697232;-62.75645898;11.73730886;-11.67207062;-3.104363612;24.17977361;30.54441958;11.47512577;27.5739548;-0.597099014
0.19202831;4.770956181;4.250393092;-3.899385576;-5.906743405;0.076296629;8.564014737;-8.411406849;-57.63523023;-38.48566674;-52.46975674;22.04347645;-9.27;-1.40368021;35.94994876;37.81223433;13.91942043;32.72332085;1.55333166
1.198367204;8.090102044;6.694486799;0.69519522;-5.99592476;0.575425993;7.04307729;-4.211066616;-51.62263243;-33.38448942;-41.68092656;32.49641746;-6.282932771;1.587368631;46.37433609;42.30551255;15.16525071;35.62090674;3.303587059
1.621581672;10.34683895;8.501004294;3.30334314;-6.709167363;0.384633497;6.211324789;-1.453701123;-47.49559269;-29.45532902;-36.93730249;36.90271953;-4.444894826;4.05768717;49.09133187;42.9732371;15.22138644;35.58916321;3.509605102
1.350909499;11.23661771;8.74111222;1.262649152;-9.09407711;-0.412678747;6.846956498;-3.520384463;-49.40420436;-31.17472104;-41.84577959;32.29693381;-4.968487922;5.258647168;42.69880237;40.6652466;15.03839593;33.68374818;2.153316199
1.485934072;12.09667156;8.138632107;-4.74110581;-12.72911119;-1.239646653;8.397790488;-11.1702861;-58.28127737;-39.46935678;-54.68932352;20.93423143;-7.876026365;5.772378848;31.85408038;37.42163522;15.68245859;32.02110787;0.341602292
3.456463982;14.66367265;8.386980509;-11.36881741;-15.93696023;-1.520336271;9.478229571;-21.8748676;-70.98180567;-51.07923885;-69.31133718;8.777040395;-12.02757987;6.592109189;23.57881163;34.85291658;17.30675356;32.15167504;-0.564032213
7.638067808;19.42302075;10.5240202;-15.1458855;-17.05380814;-1.152597453;9.137485778;-31.46163119;-82.14175051;-60.89463218;-78.81131936;1.519085405;-15.79528768;7.923215845;21.75248969;32.93567531;18.8194904;33.79883783;0.033286851
12.64744143;24.91779405;13.76437171;-14.759464;-15.71947513;-0.552454826;7.735069826;-36.83692481;-87.54572736;-65.42467982;-79.67968867;0.9859342;-17.95549253;8.819552309;24.3122844;30.25261303;18.60303689;35.0642374;1.604254796
16.01879754;28.60663773;15.84635728;-11.54770321;-13.1355706;-0.258225248;6.613577421;-37.83288352;-86.71368744;-64.85625938;-73.71760442;4.403059097;-18.29275404;7.983568895;25.43740552;25.52621122;15.76915082;34.01187476;3.017230867
15.84305904;28.60668531;14.68741354;-8.196261507;-11.10635688;-0.469988448;6.863866271;-36.97239716;-82.97511589;-62.41228477;-66.62601484;6.831740969;-17.62442852;4.998241583;20.8332018;19.18692629;10.96454053;30.36185577;3.447797678
12.12317472;24.96203498;10.02432245;-6.955564273;-10.68;-0.93064932;8.316617434;-37.50126675;-81.07510845;-61.80052017;-64.36475572;4.780087891;-17.28101522;0.86975646;11.64522943;13.61321225;6.067228188;25.86877586;2.914592843
6.775312494;19.49849005;3.699897365;-8.693056345;-11.49813155;-1.218071935;9.690624825;-41.18624998;-84.03743393;-64.79272284;-69.70634321;-1.651058737;-18.33150311;-2.626793846;3.707062558;11.70798535;2.977844965;23.01087135;2.072092088
2.267995642;14.48681951;-1.633566213;-13.05577156;-12.32082914;-1.140397017;9.765433559;-47.33956421;-91.39704835;-70.5467891;-81.01710513;-9.365626398;-20.94094171;-4.253902747;2.758606161;14.82534888;2.41233185;23.02629099;1.547507765
-0.029554905;11.26028693;-4.32943008;-19.0542762;-12.20089042;-0.859173145;8.501685459;-53.49388372;-99.81175049;-76.741641;-93.64738556;-14.74534388;-24.18879345;-4.169616244;9.63966853;21.63751912;3.584479192;24.91633676;1.449249852
-0.515114127;9.863772863;-4.627709202;-25.34158922;-11.28309871;-0.654332633;7.078028011;-57.00665896;-105.3665712;-81.28871788;-102.6751091;-15.92623695;-26.48227814;-3.648155444;19.44712101;28.85066892;4.959805642;26.2720143;1.436608721
-0.597259148;9.850198511;-3.979058563;-30.18337425;-10.59270544;-0.599991176;6.809053556;-56.43828448;-105.8497199;-83.27759416;-105.200126;-13.34604144;-26.40829379;-3.96075184;25.30674319;33.26875222;5.444872647;25.27686058;1.189845657
-1.244604311;11.33337187;-3.510153636;-31.69317216;-11.07096044;-0.495674914;7.938480185;-51.97575768;-101.5635916;-82.75909067;-101.0789634;-8.64302785;-23.5895219;-5.396089446;23.60314292;33.68308413;5.089677505;22.2424104;0.776524191
-2.099865854;15.21815855;-3.011444442;-28.66949132;-12.73165635;-0.126095265;9.416961517;-44.95949167;-94.46907637;-79.99760304;-92.19602336;-3.227289593;-19.02472184;-7.205558861;16.41563646;31.23455223;4.817801436;19.38851249;0.565250659
-1.885603368;22.3043839;-1.309924017;-21.57063197;-14.65;0.424446547;9.867994609;-37.07634719;-86.62959982;-75.07410957;-81.17126097;2.231338867;-14.63242908;-8.411135833;9.354378922;28.10201164;5.477037;19.01550326;0.807600136
0.294464583;32.01696078;2.355055537;-12.69645002;-15.74366754;0.752510888;8.85271891;-29.74614269;-79.18985032;-68.14549205;-70.38799416;7.268070585;-12.20630009;-8.691346456;6.823410451;25.64527079;7.001750677;21.55143446;1.331118832
3.913976579;41.93424833;7.221285078;-5.12111405;-15.63928351;0.479413444;7.271102558;-23.87165697;-72.44469584;-59.93776416;-61.64818417;10.93658707;-12.41962708;-8.579181079;8.71898423;23.47786117;8.33857758;25.08824193;1.66344753
7.167538314;48.70085686;11.20044977;-0.991568538;-14.89581767;-0.345284795;6.53364617;-19.83357998;-66.59544968;-51.85806481;-56.20402254;11.90357002;-14.53941395;-8.885265806;11.14119547;20.13021641;8.167573268;26.82921186;1.475241905
8.222190239;49.80422411;12.29690507;-0.462318439;-14.447548;-1.182567014;7.269051666;-17.58013378;-62.32991999;-45.53866163;-54.7632553;9.383592656;-17.04127613;-9.943678579;10.21384616;14.67488654;5.858513236;25.32599244;0.911469322
6.578617699;44.98302288;10.11098632;-2.082426732;-14.79652899;-1.395920787;8.75711204;-16.7733574;-60.67052414;-42.17396753;-57.29409593;4.081164754;-18.66432097;-11.36059961;5.584529162;7.950873317;1.971874635;21.73993755;0.480920225
3.463412374;36.2954121;6.202780813;-4.224808124;-15.65512476;-0.78431876;9.604138894;-16.99947876;-62.24240075;-42.14212543;-62.77185715;-1.776329653;-19.11607457;-12.41277846;0.670095215;2.390888063;-2.009669353;19.12905758;0.593324951
0.970031738;26.87364772;3.02480937;-6.261669809;-16.30752528;0.214569396;9.032664722;-17.97099584;-66.60043056;-45.06;-69.15838837;-5.4752432;-18.92501722;-12.63874992;-0.364695687;0.582498807;-4.482278603;20.30276749;1.171776758
0.653306032;19.30888361;2.279975206;-8.489311477;-16.32846105;0.8520917;7.594612678;-19.57759367;-72.17616655;-50.02330358;-73.83111682;-5.213296362;-18.643158;-12.05471181;3.844548152;3.666239729;-4.503314107;25.86369163;1.705187418
2.651892869;14.73845042;3.969202648;-11.03976885;-16.00848218;0.662141007;6.653758342;-21.72610186;-76.91693852;-55.75222618;-74.46693702;-0.928935663;-18.15233654;-10.8674541;10.7993781;10.74708217;-2.105891261;33.8436578;1.700925773
5.907524142;13.02419978;6.761641741;-13.02756118;-16.10585358;-0.185365698;7.120509028;-24.11048674;-79.22561487;-60.68337145;-70.13396652;5.829699776;-16.744811;-9.079907388;16.29062505;19.66724311;1.929519015;41.07146703;1.129925315
9.142442554;13.54769531;9.226673417;-12.97515619;-17.11903962;-1.067716065;8.609296189;-26.16973613;-78.68595065;-63.30073254;-62.12219412;12.66492386;-13.96652441;-6.470519639;17.74748643;28.45242316;6.581420576;45.1344325;0.465048705
11.71603364;15.82109929;10.83981964;-10.28060513;-18.6708694;-1.451906523;9.7943086;-27.36563396;-76.25411361;-62.82672659;-53.95817241;17.12903887;-10.48982973;-3.00708807;15.91597047;36.30863906;11.01825437;45.49901808;0.284601814
13.71549963;19.51215324;11.99743961;-6.331279302;-19.51578459;-1.309207804;9.630951098;-27.614964;-73.87479093;-59.90646475;-50.25201665;17.28999968;-8.154484571;0.736631921;13.64092523;43.50237919;14.75927934;43.17596418;0.799357063
15.37667066;24.153962;13.2049001;-3.987710412;-18.21891734;-1.04882371;8.313339661;-27.50692663;-73.66429352;-56.62858878;-54.58222495;12.2050332;-8.942059947;3.654933117;13.08616028;50.3855347;17.60312962;39.49605032;1.71155716
16.50793987;29.10215869;14.30669124;-5.565912097;-14.07804109;-1.067662527;7.08635932;-28.04478877;-76.91234685;-55.5451602;-67.33132643;2.438597209;-13.54863524;4.722638983;13.94383023;56.47563242;19.49021949;35.13398535;2.496880226
16.51947979;33.95807462;14.51491722;-10.9058791;-7.699902286;-1.360753872;7.091106162;-30.02081926;-83.27814544;-58.13606609;-84.76978716;-9.657871055;-20.64721621;3.665870049;14.09741771;60.3871767;20.43326159;30.09784134;2.822819533
15.04451657;39.05862585;13.20792589;-17.24933584;-0.870420895;-1.561419228;8.313273185;-33.46357202;-90.64663999;-63.76130711;-100.2992601;-20.47314559;-27.49440706;1.115407866;11.9109084;60.67108054;20.53067137;24.45431676;2.728039248
12.54886768;45.37733102;10.73227074;-21.2186013;4.216635041;-1.357479643;9.603972867;-37.58890425;-95.96349033;-69.96174833;-107.6055236;-26.68082272;-31.54502926;-1.889999225;7.907989407;56.87117051;19.9858979;18.93749298;2.449885189
10.28582499;53.60237716;8.402230757;-21.37857471;5.957670612;-0.86125126;9.7481777;-41.31711189;-96.85939889;-74.03277188;-104.1532302;-27.1319418;-31.96729673;-4.611603613;4.281240474;49.93667369;19.05640886;14.78618833;2.130480462
9.501101142;62.9413464;7.581315909;-19.27890366;4.048724117;-0.549136146;8.58904099;-43.97623665;-93.22616034;-74.80478958;-92.90504976;-23.78752883;-30.01051853;-6.928261707;2.736350439;41.64694841;17.93016979;12.92544595;1.720901916
10.45629705;70.65178901;8.548088738;-18.09143651;-0.443878114;-0.801444284;7.169366251;-45.65925656;-87.63703231;-73.33613334;-80.94170393;-20.72621469;-28.01860439;-9.057988855;2.729643266;33.48294245;16.60511177;13.23037571;1.163373124
12.05313614;72.94013267;10.08949936;-19.97022814;-5.673711378;-1.475099731;6.763845452;-46.97148003;-84.02266763;-71.99543945;-75.49041804;-21.55457577;-27.84532464;-11.04981703;1.812821863;25.80834179;14.86595946;14.54326169;0.616246028
12.41759398;66.89833924;10.21825204;-24.32929645;-9.950530653;-1.943128968;7.700766161;-48.38039041;-85.16421422;-72.61051295;-79.61517934;-26.86352211;-29.78160566;-12.60879843;-2.109485226;17.98019536;12.3989208;15.45026106;0.423504427
10.07949131;52.29584092;7.525236749;-28.42354366;-12.52132702;-1.615987572;9.062572043;-49.68355618;-90.5770117;-75.0549251;-90.25503339;-33.59392851;-32.63086783;-13.44730163;-8.56319459;9.293080306;8.996139551;15.17296686;0.795107248
4.931569153;32.01252413;2.174867785;-29.64059801;-13.7701048;-0.499032424;9.538502612;-50.00791329;-96.36976553;-77.29358652;-99.97445279;-36.95272356;-34.69480966;-13.77977105;-14.33451232;0.023865253;4.740009766;13.86384542;1.497557698
-1.683345352;10.76900135;-4.172966306;-27.49662462;-14.74035569;0.729599986;8.637728429;-48.34155713;-97.45734659;-76.80294409;-101.4649617;-33.6731625;-34.84994952;-14.36881527;-15.64432152;-8.235974753;0.065732219;12.1485108;1.909358084
-7.772169578;-7.041746831;-9.412717645;-23.69324578;-16.30049495;1.231391717;7.142339233;-44.20874581;-90.82600692;-72.28883078;-92.02350262;-24.34300653;-32.99303158;-15.92311076;-10.97177892;-13.24666532;-4.327309986;10.42151373;1.483929987
-11.78159358;-19.0449386;-12.20910792;-20.36318632;-18.50881657;0.693434678;6.386474579;-38.02116516;-77.64676699;-64.48705592;-75.18369134;-13.11112673;-29.72959531;-18.29813923;-2.250397162;-13.3401966;-7.660769893;8.58425533;0.257097629
-13.2416522;-25.13924294;-12.51926762;-18.20178298;-20.60263033;-0.40174188;7.032709674;-30.90146775;-62.69682812;-55.59;-58.48555708;-4.946220759;-25.74108129;-20.24154602;6.530694283;-8.357352629;-9.271118349;6.462093394;-1.069819557
-12.62252866;-26.42858929;-11.15759128;-16.16407285;-21.59485175;-1.164542966;8.475752147;-24.14830459;-51.40970969;-47.85379302;-48.86026497;-2.381834036;-21.3780481;-20.04160343;12.20007813;0.311904755;-8.75728504;4.46608354;-1.610257373
-10.65903375;-23.84136256;-8.88335066;-12.87743876;-21.01676327;-1.019476881;9.416420232;-18.71293995;-46.58597751;-42.42991914;-48.61489195;-4.02626595;-16.70376538;-16.67996661;14.4920202;10.54855961;-6.084700735;3.782834273;-0.97891107
-7.736016724;-17.51922806;-5.797750808;-8.317154893;-19.23944045;-0.148578981;9.064596545;-14.97235341;-47.04269105;-39.13858799;-54.52467702;-5.80996559;-11.80530406;-10.62015124;15.78858124;20.56974035;-1.660435515;5.75436898;0.387095921
-3.787815268;-7.306875265;-1.501955264;-4.088929179;-17.13718882;0.70466318;7.853742636;-12.82768943;-49.03362344;-37.11075926;-60.42859647;-3.989200283;-7.036273709;-3.610193925;18.85952224;29.53531162;3.659917229;10.84042577;1.561069588
1.30072632;6.264038265;4.200296506;-2.018584794;-15.37491364;0.874896447;7.011250158;-11.94866272;-49.225049;-35.63312964;-61.43518761;2.237648214;-3.006010963;2.353808655;24.47921737;37.42206114;8.731190435;18.00878999;1.850425768
7.211704951;21.48268613;10.72202167;-2.38133956;-13.89358494;0.292349246;7.394648838;-11.96176767;-46.94065181;-34.54195851;-56.91807863;10.23601417;-0.371353785;6.118199121;30.7778163;44.46754547;12.5044074;25.15802045;1.309434242
13.09058003;35.99323898;16.7838674;-3.481388592;-11.99489812;-0.548746004;8.682643531;-12.51038929;-44.10278013;-34.01330107;-50.47231921;15.72882855;0.405867514;7.751589558;34.71802849;50.74355568;14.5373514;30.39619207;0.61960512
17.94626234;48.00255882;21.15538248;-3.056430541;-8.932882641;-1.09132568;9.674456675;-13.2550223;-43.18246395;-34.11222362;-47.1376407;15.51500999;-0.768782367;8.074873713;34.42080848;56.17883559;15.3413996;33.29158089;0.462983538
21.24681989;57.21116344;23.46873573;-0.275058203;-4.520727543;-1.198885415;9.416562044;-13.91297091;-44.99249742;-34.58341838;-49.95747723;9.306062644;-3.537296956;7.866332091;30.49941175;60.85621921;16.24869828;35.15418816;0.945466231
23.21772468;64.6875656;24.43095627;3.49210396;0.713963045;-1.186746072;8.105235168;-14.35539795;-48.11779876;-35.05984169;-58.16848546;-0.327540696;-7.1079096;7.411994755;25.45092818;65.11734878;18.71999679;38.07587337;1.563871816
24.56096949;71.70746881;25.20701645;5.851266101;5.88221273;-1.413507838;6.921400624;-14.68;-50.28737146;-35.45017488;-67.98511831;-9.588041593;-10.43884507;6.638954129;21.70078386;69.19365924;23.40725511;43.35874242;1.714534676
25.76494021;78.38382674;26.39408252;5.455592374;10.22870929;-1.859644935;6.946177141;-15.16043193;-50.35308933;-36.10218373;-75.12129132;-15.46120666;-12.61011891;5.513175949;19.87060853;72.59151457;29.55182544;50.41878565;1.261444657
26.52249995;83.10122525;27.35832269;3.082662916;13.33797523;-2.11773495;8.159785651;-16.06102503;-49.12742068;-37.54285185;-77.18707119;-16.93914584;-13.24871411;4.219658108;18.55704902;73.82709084;35.18416087;56.92517314;0.647179673
25.74200892;83.2014121;26.4809715;0.743861079;14.95216342;-1.80997751;9.451024525;-17.42729577;-48.4356572;-39.97462142;-74.50820531;-15.01056702;-12.73457451;2.970703292;15.68660183;70.95537845;38.10244772;60.0752775;0.461937111
22.22406695;76.48100009;22.21134747;-0.327834618;14.70154911;-1.024760704;9.630445853;-19.01438311;-49.34436639;-42.94128225;-69.2503106;-11.75966051;-11.98253903;1.729279176;10.33327996;62.7264625;37.06271469;58.14606664;0.884061221
15.57447798;62.51480417;14.22306356;-0.906544595;12.13224137;-0.328883171;8.513868506;-20.43907234;-51.21831769;-45.47678306;-63.87953251;-9.262733128;-11.88430397;0.228767025;3.610838564;49.61526455;32.42451089;51.33622572;1.514699315
6.70511388;42.98690264;3.861215698;-3.012162165;7.09829852;-0.304208055;7.08079798;-21.4741792;-52.44732358;-46.6872736;-60.13388567;-8.814747333;-12.7819146;-1.667797423;-1.994625548;33.92975487;25.84303879;41.46424062;1.75580517
-2.478010591;20.92860484;-6.457044973;-7.793050126;0.170576411;-1.013387502;6.569035137;-22.26433227;-52.12087849;-46.3607981;-58.88918845;-10.6405551;-14.35271675;-3.633286938;-4.321865367;18.81194068;19.25284309;30.87217748;1.374201241
-10.04171532;-0.52692413;-14.50370845;-13.99032863;-7.386550138;-1.890403757;7.346694678;-23.25107997;-51.02731431;-45.1229837;-60.40692656;-13.97428932;-15.96218609;-4.968145151;-3.010887056;6.764181877;13.86566556;21.33387665;0.723397406
-15.01704058;-19.0628873;-19.32621642;-18.47534065;-14.17816387;-2.183474462;8.600215526;-24.78461139;-50.94368141;-43.94617996;-64.27073381;-17.34856067;-17.14968314;-5.119154859;0.293750822;-1.29453233;9.841654201;13.6106668;0.415300254
-17.74921167;-33.35023598;-21.46391104;-18.52858105;-19.39663571;-1.580503821;9.114343489;-26.6628909;-52.76196108;-43.30182635;-68.95375154;-19.02497083;-17.81547822;-4.174774072;3.137267131;-5.840078125;6.744142053;7.733611086;0.747059266
-19.38432349;-42.67041685;-22.22507139;-13.96146871;-23.12342629;-0.474111633;8.409067255;-27.97908932;-55.16128637;-42.58573769;-71.71849705;-17.55107541;-17.98766877;-2.848320277;3.986842498;-7.701064186;4.293432532;3.583120143;1.417821004
-20.88043074;-46.53804107;-22.60395081;-7.287774163;-25.96474673;0.364896441;7.176158227;-27.5216878;-55.2045622;-40.35862291;-69.5876267;-12.36355401;-17.48576881;-1.911134739;3.27859159;-7.095868341;2.763315154;1.240756622;1.802702251
-22.26095542;-44.72046557;-22.62153693;-1.83849973;-28.3387007;0.419353279;6.617735739;-24.59073959;-50.62226244;-35.41168507;-61.2394535;-4.22333902;-15.92831037;-1.565886291;3.048777131;-3.567960481;2.729108165;0.900366133;1.533680503
-22.63488044;-37.58236982;-21.50420458;0.534384405;-30.04211488;-0.182284;7.312575158;-19.71369065;-42.00182431;-28.00800511;-48.58268589;4.805070968;-13.18415663;-1.33863818;5.417422442;3.161315255;4.448881235;2.535169507;0.848752681
