Channel 1 - P4;Channel 2 - O2;Channel 3 - P8;Channel 4 - T8;Channel 5 - C4;Channel 6 - Cz;Channel 7 - Fz;Channel 8 - F4;Channel 9 - Fp2;Channel 10 - F8;Channel 11 - Fp1;Channel 12 - F7;Channel 13 - F3;Channel 14 - C3;Channel 15 - T7;Channel 16 - P7;Channel 17 - P3;Channel 18 - O1;Channel 19 - Pz
0.767324041;-3.780157623;7.950289592;12.13335341;7.817402451;4.619274552;120.3707944;26.69471784;14.97592406;3.959152547;2.403949196;-0.013811349;14.76937975;0.883763558;22.96290023;13.06035708;26.64921934;48.38861322;8.232734954
15.39199864;12.793511;24.98026598;28.42639725;29.60470097;15.79992942;96.41729331;39.02734898;32.00395764;21.05277623;18.92886803;15.63837316;27.61644301;25.07470058;35.2904468;31.18857992;33.0568824;54.3251476;16.86265475
24.99663626;25.45300354;36.0496177;36.00421948;43.25700632;19.39617514;40.5706578;40.18899078;35.76899501;30.59118618;29.43102997;26.4561183;31.43970807;39.21096448;34.52178888;39.26088291;26.70670747;45.34664441;17.15228187
23.46559748;25.94367702;33.80394394;30.36221648;41.58208868;13.36779208;-13.15539704;28.76313918;25.69959092;26.98507693;27.59012041;25.9819547;24.9195957;37.20319169;21.45706209;34.31217305;11.74911107;24.92024194;9.280423184
12.36619516;14.35471353;19.90116809;16.35522481;27.1172132;2.088900223;-35.93687427;11.38663025;9.780489726;13.57496282;15.53748359;15.79662978;13.49062447;23.13232123;4.577649639;21.33540981;-3.1222227;3.04942143;-1.28074832
-0.572542951;-1.254993116;3.39603853;3.706792111;9.513350598;-6.99336935;-22.71218301;-2.28040462;-1.471417647;-0.116751597;1.911044699;3.683532227;4.997452091;7.784591068;-6.056023753;9.209233107;-10.33354444;-10.41811439;-7.841415656
-7.424637171;-10.95413;-6.217314945;-0.750341475;-1.794607983;-8.758614147;7.464839354;-6.379064245;-2.496713139;-5.588204827;-4.770456149;-2.738188158;3.765177179;0.650441889;-5.929851428;4.18055481;-7.975090194;-12.06322193;-7.177289504
-5.713674496;-9.945147845;-5.725998239;2.15807359;-3.86198394;-3.751199963;28.12614037;-2.302455551;4.011196687;-1.409661421;-2.126873364;-1.66141487;7.759402559;3.53843378;1.213765682;5.881705017;-0.159769622;-6.233774241;-1.337723966
0.505666497;-1.249122916;0.388560404;5.648660596;-0.949304934;2.895955843;25.31586614;3.475167698;10.17354372;6.375568661;5.157287697;2.34525658;10.88786316;10.4098046;6.95155499;8.646570249;6.662755304;-0.848376365;4.513074775
4.562645525;7.531836711;4.449370676;3.247442988;0.182068589;5.79330542;5.645913514;4.983552832;9.535002662;9.473891382;9.741893943;2.888348395;8.325466209;13.01789742;4.967642321;6.662588221;8.387990898;-1.240503958;6.232540018
2.599078916;10.35520033;1.942928871;-5.782378799;-3.891539838;3.314166545;-12.18745148;1.142301565;1.883676874;3.872418051;7.487176881;-2.662143917;0.442456412;7.54;-4.349886128;-1.331031757;5.47235959;-6.787850512;3.506073059
-3.859518237;6.831179314;-5.422737956;-16.16992425;-10.97953859;-1.731460479;-13.92891022;-4.281273566;-7.251188087;-7.370912765;0.11359358;-11.17828237;-7.732804959;-2.963402178;-14.86440713;-11.37871532;1.445628092;-12.50280459;-0.628611766
-9.906919955;1.403964364;-12.02462016;-21.33502046;-15.91146816;-4.927700268;-0.493015259;-6.57944106;-11.53922058;-16.93039987;-7.01256282;-16.75024261;-10.82848896;-11.71418581;-19.97604219;-17.80304379;-0.573630783;-13.72589926;-2.737627695
-11.73446895;-1.101707252;-13.54989089;-18.83389454;-15.33392705;-3.980182972;14.86587847;-4.315586495;-8.960483729;-19.04936337;-9.628958262;-15.83021589;-7.52563867;-13.90708355;-17.70321515;-17.71182897;-0.339275038;-9.858722544;-1.778618807
-9.683944686;0.438655412;-10.54365558;-12.03636895;-10.45868916;-0.278965202;19.03785774;-0.39408522;-3.066542309;-13.72504927;-7.768787076;-10.12959049;-1.482681219;-10.12999135;-11.57386301;-12.86566713;-0.093305107;-4.295996883;0.474606815
-7.504412367;2.999137684;-7.480705332;-6.950176245;-5.684856772;2.717582219;9.916833838;0.593942816;0.242851711;-6.201663058;-5.021322759;-4.988697282;1.757108793;-5.020048828;-7.049636208;-7.696616863;-2.035505284;-1.088660628;1.391743002
-8.793717735;2.529528411;-8.532018251;-7.180743634;-4.669704098;2.608554282;-3.120462222;-3.733734568;-2.520472784;-2.583943352;-4.96126042;-4.827559411;-0.845510426;-2.778454334;-6.841569688;-5.456357841;-6.038859551;-1.470432578;-0.105163678
-13.86609299;-2.337898691;-13.8803545;-11.31820816;-7.419285571;-0.057201396;-8.402716173;-11.67347501;-9.998263743;-5.272862089;-8.056395278;-9.599909158;-7.712032639;-3.592604727;-9.065511368;-5.775151456;-9.565029131;-3.155777209;-2.768038699
-19.65696469;-9.179231013;-19.68605179;-14.69459729;-10.77525028;-2.576538924;-2.126970039;-18.91193595;-17.50695818;-11.69140989;-11.602306;-15.09061711;-14.27926667;-3.88855639;-9.470434;-5.446205835;-9.71504115;-2.707415433;-4.358914138
-22.49889949;-13.96410849;-21.48912345;-13.67044582;-11.56219954;-2.642150641;9.17901886;-21.87845574;-20.86428326;-16.88267888;-12.41591802;-16.53837646;-16.72016913;0.128642517;-5.456292927;-1.457938981;-5.555458089;1.341034365;-3.71864701
-21.17884409;-14.39432412;-17.93229508;-8.653349033;-9.43423903;-0.315161944;15.25823502;-20.16264105;-19.27361365;-17.53115761;-9.703956067;-12.37634558;-14.57290969;8.924571351;1.715776295;6.421648755;1.235203163;7.345294372;-1.690688269
-17.64855336;-11.4803167;-11.63318654;-3.424602851;-6.96108503;2.221811226;11.32396237;-16.25363588;-15.19823833;-14.16174548;-5.618854867;-5.053187886;-10.31553953;19.11876784;8.280240307;15.54875565;7.807594765;12.19094749;-0.186982131
-14.97562141;-8.210078125;-6.681794848;-1.653957767;-7.091736199;2.738563443;1.728140346;-13.19370027;-11.83364592;-10.09079424;-3.22448209;1.428654531;-6.651514239;26.25409988;11.44106769;22.58347358;12.31379015;14.04878899;-0.373506008
-14.54039284;-6.758698604;-5.154807015;-3.788956926;-10.42914283;0.921112948;-4.601473851;-12.29599537;-10.59791106;-8.41376457;-3.842153985;4.871641092;-4.109505316;28.29711898;11.76641385;25.90687095;14.97151371;13.74545018;-1.660238917
-15.00368798;-6.807966894;-5.705986498;-6.937143248;-14.761002;-1.477018859;-2.334061985;-12.68248821;-10.63478457;-9.669961572;-6.10200137;6.243650589;-1.028192664;26.87417434;12.43499764;26.30595506;17.28362503;13.64691043;-2.354399663
-13.85188095;-6.337758691;-5.278279155;-7.609255791;-17.14846683;-2.308273739;5.872871767;-12.63445753;-10.31246451;-11.91240314;-7.345769817;8.124436976;4.277701323;25.38900372;16.12997464;25.65689584;20.30371484;15.22122678;-1.300437437
-9.989064451;-3.934827917;-2.190328185;-4.758554771;-16.58133733;-0.951276452;12.31193131;-11.26714219;-9.010245181;-12.74030108;-5.944278529;11.90813061;11.31684866;25.8894448;22.4114479;25.0556782;23.56569572;17.55964824;1.019486608
-4.967757033;-0.35597634;2.253329977;-0.489546249;-14.79340679;1.218946206;11.38822359;-9.047333718;-7.520681322;-11.33220396;-2.451033682;16.36645234;17.28094296;27.48431965;27.88713461;24.11790534;25.57031519;18.18623328;2.901553195
-1.739345896;2.118095945;5.021489018;1.996927077;-14.57033577;2.141415747;4.418807923;-6.951645243;-6.90701413;-8.806829802;1.252970887;18.78248278;19.15746409;27.56784838;29.00361773;21.91494238;25.27715871;15.40708024;2.937364093
-2.049551869;1.909058944;4.258767228;1.246571978;-17.14245063;0.91623518;-1.997811869;-5.323557191;-7.128564772;-6.875167118;3.808606273;17.51342799;16.26944336;24.57130136;25.03541995;18.47765518;23.18739731;10.10205019;1.251010019
-4.801980574;-0.143372069;1.16969705;-1.330371318;-21.01855421;-1.455619623;-2.182856406;-3.60911766;-6.855048955;-6.206460944;5.426221361;13.63426943;11.03401333;19.6839658;18.76165737;15.35744526;21.03276915;5.377605367;-0.630164428
-6.846656705;-1.208921113;-0.818701218;-2.909525667;-23.26962348;-3.026386434;3.626192834;-1.155664217;-4.658044623;-6.001656242;7.246763402;10.22308811;7.25988103;16.0081343;14.35299511;14.68487297;20.35897519;4.351397611;-1.116796554
-5.530980585;1.252324434;1.108812086;-1.829227106;-22.07968992;-2.625986112;9.840664679;1.822264303;-0.431778377;-5.036105499;9.784906271;9.95357242;7.372899384;15.93199247;14.30923614;17.55866024;21.25444051;7.887959951;0.098700631
-0.846030602;7.298432248;6.781496874;1.030372151;-18.30170431;-0.813790497;10.81816209;4.148279994;4.302174977;-3.084004475;12.05739333;13.07273514;10.80062963;19.04727898;17.92913568;23.16823856;22.31147547;14.06628103;1.857959795
4.614631992;14.28424476;13.14559386;3.194749064;-14.69200647;0.723086653;5.909555083;4.623338013;7.490895829;-1.352173548;12.29036259;17.39897566;14.71230265;22.40667762;22.34645704;29.35854936;21.81773357;19.67226978;2.61571879
7.785179235;18.80559725;16.70715243;2.894506698;-13.55276164;0.705504796;-0.227698239;3.139545952;8.05222168;-1.504247961;9.568839539;20.18742334;16.35691927;22.86179221;25.00518823;34.08955486;19.14453914;22.4109093;1.7872043
7.521538899;19.19046625;16.21953933;0.617207197;-14.85315925;-0.664538114;-2.075804494;0.91213472;6.474294014;-4.142767725;4.884610398;20.19603301;15.0357591;19.47723586;25.43216093;36.56368692;15.19690626;22.13766798;0.189281599
5.308078615;16.52457989;13.4144945;-1.413321002;-16.39557689;-1.998765534;1.757180802;-0.428407756;4.093052772;-8.099673114;0.575575478;18.2995888;12.22346531;14.04971691;25.02414622;37.22766084;11.64071127;20.40233047;-0.751001755
3.823025261;13.49649039;11.31693812;-1.265142296;-15.76655024;-2.035511407;7.497581463;-0.101295159;1.843120892;-11.18045074;-1.395309037;16.38073285;9.989475408;9.4452137;25.37518875;36.90969721;9.640313584;18.99589871;-0.263337023
4.685218236;12.15859733;11.70020868;1.026238937;-12.30949225;-0.748365218;9.848471244;1.310905445;-0.316586778;-11.76183939;-0.844176487;15.66834149;9.225642929;7.281016224;26.79616154;36.03482681;9.160753356;18.79660593;1.145151425
7.265739055;12.48237377;13.81981821;3.598235954;-7.45690897;0.71455932;6.824443346;2.53330331;-2.840798352;-9.933204327;0.712466972;15.96838035;9.16723063;6.890412297;28.25030682;34.60382137;9.309486382;19.65786319;2.208376004
9.417229482;12.76195706;15.3252338;4.524506805;-3.285341913;1.1311562;1.385813014;2.834381853;-5.581018843;-7.274712611;1.457707059;16.24878946;8.446475041;6.275788482;28.51029889;32.76307698;9.28657574;21.04124796;2.036321847
9.33368237;11.30678054;14.37046903;3.59286921;-0.700822816;0.300494828;-1.448483086;2.718330912;-7.446102404;-5.505619823;0.712716696;15.80431056;6.593533427;4.044726252;27.29555889;31.19581498;9.0705935;22.56;0.848079796
6.917391178;7.876860063;11.05620438;2.526502354;1.116733746;-0.846145613;0.786822935;3.459446027;-7.207895399;-5.145402007;-0.799646091;14.8496385;4.612070144;0.608576004;25.35240284;30.78432779;9.306050953;23.94897496;-0.295669025
3.616814977;3.719281183;7.098112944;3.464585172;3.599472701;-1.161272619;5.888229564;5.881352263;-4.772538758;-5.274330358;-1.948179323;14.09368087;4.154013046;-2.285412781;23.55942038;31.77864155;10.59812642;24.72522068;-0.451404072
1.078114318;0.377893598;4.229023493;7.00724351;7.107446554;-0.34301424;9.161590704;9.430822297;-1.695688566;-4.542435578;-2.405059209;13.86490137;6.046760428;-3.126073878;22.04896505;33.27730843;12.88806595;24.15;0.437302518
-0.113862481;-1.540746658;2.85164271;11.46018877;10.24;0.824453626;7.752604078;12.33709039;-0.313318068;-2.548069031;-2.932401139;13.71929636;9.435215718;-1.885005417;20.21220102;33.62172401;15.42080334;21.72478869;1.5999701
-0.579788029;-2.585554311;2.058909756;13.88241608;10.77816006;1.231181948;3.140948133;12.74451019;-2.075353267;-0.417241103;-4.542957468;12.90110538;12.23306864;0.06743368;17.5123294;31.50677722;17.25331391;17.79490479;2.193643347
-1.238240438;-3.629427659;0.816201497;12.08783502;7.448627048;0.469064306;-0.374007589;9.943025293;-6.418767472;-0.069054668;-7.403484365;11.15622509;12.49450549;1.162786393;14.23229696;26.95263167;17.82793205;13.60893406;2.024323947
-2.307480638;-4.887489956;-0.902844143;6.08481098;1.019405781;-0.816872183;0.331141034;4.80337668;-11.1222322;-2.70786515;-10.55523067;9.070533046;9.640255335;0.841727283;11.38643933;21.36438284;17.18596685;10.64252863;1.60821134
-3.129890014;-5.711092209;-2.067368928;-1.99665707;-6.144104831;-1.546138487;4.430584449;-0.808435539;-13.88203216;-7.708375057;-12.7189061;7.595007005;4.688558793;-0.197108932;9.87924549;16.64913987;15.78721237;9.704430185;1.591687385
-2.885389497;-5.274417149;-1.587880207;-9.238824349;-11.62670169;-1.19299398;8.054549309;-5.116467691;-13.87623595;-12.78772506;-13.42224689;7.210307625;-0.533036772;-0.742404887;9.735691533;14.09983374;14.21391772;10.57965214;2.120888521
-1.448567789;-3.437745382;0.623360081;-13.46484691;-14.34405812;-0.237851327;7.912868679;-7.258936589;-12.15429392;-15.41521419;-13.40143581;7.507920377;-4.506580223;-0.030495646;10.14102581;13.86126112;13.00418367;12.47704495;2.742708949
0.412416585;-0.973257871;3.491479804;-14.0186502;-14.77804162;0.31025067;4.2558447;-7.443103121;-10.69229062;-14.50747373;-13.92436878;7.54453746;-6.699280716;1.877382036;10.22561495;15.22775728;12.59494184;14.79239265;2.883105333
1.623730115;1.00299954;5.588867411;-11.61415173;-14.13991353;-0.144528517;0.51545664;-6.56690987;-10.9945511;-11.24357102;-15.68523479;6.603170098;-7.498432936;4.432060483;9.813945889;17.33262631;13.19634725;17.41449415;2.412576456
1.586221765;1.810507057;6.112351313;-7.720498348;-13.364292;-1.24712345;0.071308081;-5.712116513;-13.33671349;-8.436486265;-18.28757837;4.666459509;-7.66771433;7.13070293;9.421858218;19.58263373;14.55489304;20.28690361;1.762665049
0.446195915;1.486970343;5.165025051;-4.003704009;-12.76482732;-2.03110063;3.175742583;-5.785381999;-17.04546732;-8.865604077;-20.74765735;2.249017169;-7.803760223;9.690962395;9.551020432;21.58223327;15.82991415;22.73585295;1.510043945
-1.293838403;0.419453354;3.226540969;-1.959736635;-12.40077779;-1.800424369;6.824993327;-7.312530402;-21.2993497;-13.63772681;-22.48821345;-0.13719215;-8.099698607;11.81672675;10.02965317;22.84497933;15.86918007;23.39465911;1.845908919
-3.33483697;-1.183102256;0.486975001;-2.572482804;-12.51818548;-0.742165821;7.59784799;-10.28963282;-25.62579028;-21.58071546;-23.86341439;-2.325514131;-8.424891687;12.9855075;10.09045958;22.76255451;13.87672347;21.03382142;2.430197517
-5.708363158;-3.380893035;-3.206907532;-5.92836331;-13.4710793;0.267993538;4.788519047;-14.11479138;-29.75310083;-29.97431892;-25.74228206;-4.387169144;-8.567959499;12.64164347;9.118494617;20.96317058;10.05095149;15.68969354;2.74137286
-8.362755542;-6.082748296;-7.733559388;-11.03160478;-15.18480649;0.458143531;0.976678358;-17.74754868;-33.20309609;-36.08430585;-28.59455881;-6.340167708;-8.498432261;10.68379072;7.297622378;17.71575434;5.648250038;9.044194483;2.562108241
-10.69716445;-8.636224394;-12.10641451;-16.14637683;-16.79761536;-0.18693651;-0.407428519;-20.15282886;-35.25485112;-38.5319384;-31.991642;-8.115741856;-8.547425371;7.731213488;5.448910712;13.91783131;2.291305152;3.527637541;2.13595946
-11.63893203;-10.00342723;-14.68027539;-19.64571817;-17.02010649;-0.988969099;1.778110301;-20.82627175;-35.46277206;-37.73519958;-35.02;-9.863125985;-9.401757812;4.790330232;4.154893196;10.5710831;0.941376742;0.705065285;1.870603389
-10.35843685;-9.523773858;-14.20110346;-20.85936231;-15.06698241;-1.255402486;5.417147391;-20.03802004;-34.25214922;-35.30625865;-37.21473645;-12.17951119;-11.81709108;2.518828297;3.028940891;8.144781022;1.281034282;0.207265298;1.906053285
-7.070998614;-7.612664482;-10.89227572;-20.28699013;-11.4022652;-0.917467537;7.154784216;-18.58551833;-32.925918;-32.92683239;-39.10976275;-15.80085267;-16.09607449;0.736133163;0.942127798;6.367933077;1.991047589;0.113125091;1.983255416
-3.197191219;-5.673959549;-6.595572505;-18.98749577;-7.602435611;-0.53703102;5.486863693;-17.22587729;-32.91649321;-31.45387185;-41.85844367;-20.81819323;-21.61233979;-1.319311302;-2.857335143;4.629428139;1.730534249;-1.472536926;1.737042739
-0.630329502;-5.143457191;-3.698845475;-17.63200886;-5.358201085;-0.701337527;2.082365491;-16.23255037;-34.8455516;-30.74280961;-46.25755587;-26.0992058;-26.77743843;-4.144510445;-7.706515302;2.633002855;0.087624292;-4.893344919;1.109750292
-0.589779195;-6.378214062;-3.588675526;-16.01548965;-5.372972495;-1.398995951;0.18513403;-15.42230906;-38.20766209;-30.15156806;-52.07802083;-29.62550593;-29.65123343;-7.27160909;-11.60245521;0.741324202;-2.192873698;-8.677127802;0.457545201
-2.891493428;-8.322747664;-5.791292408;-13.44629135;-7.015641973;-1.979911259;1.625473471;-14.59207706;-41.99390312;-29.27405087;-58.32119485;-29.74080109;-28.94851148;-9.38454275;-12.49609706;-0.262659444;-3.81474035;-10.69652774;0.22284683
-6.146501127;-9.278092553;-8.433218595;-9.668726749;-8.958572707;-1.74775805;5.192184702;-13.9469171;-45.74585181;-28.38905946;-64.15384299;-26.42598263;-24.8289772;-9.240990784;-9.805536147;0.246397819;-3.840768465;-9.759725668;0.481392643
-8.688179955;-8.176486548;-9.615706661;-5.484243214;-10.23129471;-0.636550884;7.804995555;-14.11451057;-50.1270365;-28.37700279;-69.64934317;-21.51377133;-18.91331255;-6.672818693;-4.874673573;2.323795841;-2.207680535;-6.349213926;0.816401751
-9.524269663;-5.332181208;-8.626767408;-2.46873005;-10.83349437;0.664333752;7.346189337;-15.71827308;-56.50014355;-30.22510122;-75.66981972;-17.52664474;-13.46721633;-2.830469642;0.040159286;5.503913058;0.456907098;-2.022292838;0.675084361
-8.690684396;-2.085738369;-6.142704816;-1.955667597;-11.49099258;1.27153351;4.536986904;-18.8818138;-65.86074314;-34.46725932;-83.05990045;-15.97536397;-10.2771023;0.554079305;3.412702003;9.162122228;3.426438542;1.864245626;-0.101866433
-6.916497379;0.302758736;-3.447675747;-4.103359768;-12.8818564;0.862730674;2.185503276;-23.10268191;-78.03658574;-40.88693818;-91.97818557;-16.47828509;-9.942131101;2.307997375;5.331519598;12.79712819;6.314049037;4.949792074;-1.07640815
-5.008384653;1.548208011;-1.449596925;-7.821138284;-15.0521913;-0.048907939;2.566873511;-27.61046106;-91.81809015;-48.62014531;-102.0255267;-17.42868821;-11.96076402;2.475873634;6.914724078;16.01081166;9.036549047;7.583960543;-1.554505122
-3.443334159;2.302784008;-0.289176031;-11.622024;-17.48263558;-0.567986885;5.370331948;-31.90815011;-105.8602694;-56.57493368;-112.991307;-17.63475829;-15.38279897;2.042175791;8.848537397;18.33615895;11.46913005;9.902934899;-1.191125078
-2.346957487;3.32084287;0.302788998;-14.70054742;-19.64588866;-0.198207699;8.062667104;-36.05281842;-119.5277181;-63.93884549;-125.3502946;-17.5054927;-19.43076305;2.038012483;10.41728065;19.23684419;13.226238;11.27795949;-0.317271313
-1.681907331;4.651498973;0.416653223;-17.3587875;-21.4882702;0.73318906;8.267249427;-40.46901434;-132.9358033;-70.50818898;-139.8163178;-18.73024539;-23.65007813;2.795644407;9.937613661;18.39056226;13.82908704;10.73109117;0.320507443
-1.388089683;5.602162378;-0.227549758;-20.4638568;-23.40527879;1.369097451;5.934813244;-45.47472846;-146.1916153;-76.64047358;-156.1955038;-22.71203435;-27.64869558;3.884401857;6.232227246;15.99951945;13.09918634;7.933729774;0.193660812
-1.399345475;5.465253445;-1.926342739;-24.43240019;-25.77981638;1.062662293;3.333190489;-50.89639169;-158.580452;-82.8017126;-172.6133101;-29.12982078;-30.86492815;4.623581523;-0.173636097;12.75475491;11.36991572;3.792947118;-0.558059615
-1.64910759;4.284924644;-4.512773511;-28.61673808;-28.52981083;-0.084101927;2.923658128;-56.02235216;-168.5135237;-88.9232467;-186.0666816;-35.92775788;-32.72248506;4.617676607;-7.217712639;9.381558552;9.273563446;-0.026805424;-1.260090332
-2.15487513;2.91608507;-7.280422475;-31.61088363;-31.05055729;-1.33003418;5.115607865;-59.85965843;-174.3879589;-93.98563046;-194.1650993;-40.79941491;-33.08924536;3.867978866;-12.70666175;6.138149263;7.276541771;-2.310794903;-1.302520049
-3.093373886;2.302655847;-9.423010061;-32.22473522;-32.5507647;-1.921693302;7.949316841;-61.48962251;-175.6973578;-96.23515524;-196.7830015;-42.91769696;-32.58343287;2.510280932;-15.74761411;2.76576366;5.396319748;-3.178479911;-0.672594111
-4.693337829;2.639064712;-10.58573845;-30.34235013;-32.4635676;-1.67439007;8.944736872;-60.3692293;-173.4798275;-94.10993742;-196.2081522;-43.42140138;-32.33159919;0.595733893;-16.99431892;-0.991742035;3.379200348;-3.834524011;0.049856826
-6.933094511;3.190603364;-11.01811655;-27.00760895;-30.63912586;-1.027708003;7.372744721;-56.55875222;-169.7130938;-87.43246344;-195.4761419;-44.23698014;-33.24157805;-1.78020694;-17.58655369;-4.751555049;1.18051179;-5.383268272;0.22116167
-9.298777485;2.932648708;-11.21345441;-23.72356782;-27.30367097;-0.587784576;4.865647233;-50.87210538;-166.108247;-78.06767899;-196.0737281;-46.26527778;-35.30444468;-4.145374918;-17.84202567;-7.398315774;-0.724907887;-7.77257822;-0.293227088
-10.92784952;1.404091134;-11.41981679;-21.55372107;-22.97605732;-0.608872609;3.853992295;-44.82894586;-163.2057863;-69.40356547;-196.810308;-48.52414033;-37.47505679;-5.566023291;-16.95624808;-7.771444015;-1.557595266;-9.856040633;-1.012931502
-11.1775082;-1.022390185;-11.51605353;-20.69248662;-18.45953206;-0.869173867;5.315495285;-40.23340706;-160.3894021;-64.71745952;-194.8138901;-49.00826097;-38.2572095;-5.083935858;-14.000111;-5.646047124;-0.864823353;-10.57190478;-1.288296738
-10.22367745;-3.682132695;-11.35495249;-20.71359464;-14.79390982;-0.992800719;7.913117051;-38.39725069;-156.6868454;-65.32605042;-187.937161;-46.52693268;-36.59158066;-2.432748214;-9.261317462;-2.151519263;0.947046895;-10.19766095;-0.886306969
-9.131609102;-6.401725705;-11.17003906;-21.13713169;-12.9691542;-0.857064394;9.277144284;-39.3834052;-151.6585007;-69.74529093;-176.7102572;-41.91926418;-32.44654656;1.568029272;-4.600257005;0.843178088;2.672588563;-10.48930021;-0.188324042
-9.181209009;-9.689148826;-11.53699438;-21.76061751;-13.41754063;-0.681625684;8.205108366;-41.83183979;-145.7133779;-74.54810802;-164.296776;-37.57610431;-26.77970267;5.362781969;-2.348016795;1.982727687;2.998278855;-13.427832;0.16882224
-10.86253125;-14.0534927;-12.81323253;-22.50650396;-15.6260742;-0.738561233;5.7409837;-43.66;-139.7289364;-76.47635585;-154.4515025;-35.65365838;-21.01208401;7.571231317;-3.607336982;1.322641876;1.347286096;-19.50987157;-0.127468807
-13.34153409;-19.06652341;-14.55915404;-23.04215701;-18.27934102;-1.004408648;4.168072145;-43.30471286;-134.3879679;-74.43221652;-149.0088544;-36.47880439;-16.4370214;7.779520971;-7.421212116;0.109249984;-1.746729205;-26.98781343;-0.792306803
-14.93505343;-23.15752935;-15.59233038;-22.67146403;-19.99513408;-1.12806549;4.884050284;-40.67403741;-129.7616432;-69.98328856;-146.7504403;-38.46373739;-13.88756203;6.596470127;-11.57903795;-0.400635641;-5.018278791;-32.76468044;-1.215616872
-14.35846104;-24.57715563;-14.83378751;-20.76296236;-20.2009877;-0.768285317;7.131963291;-37.08954665;-125.3583548;-66.04106644;-144.4076523;-39.54780741;-13.67702141;4.96317432;-14.42396936;-0.095585153;-7.326342939;-34.34611231;-1.021373195
-11.82811677;-22.89716893;-12.3565065;-17.46433301;-19.48805577;0.023505072;8.736175805;-34.2252685;-120.4703212;-64.69369207;-138.964029;-38.90582374;-15.62828481;3.326312301;-16.13979432;-0.153362169;-8.380490051;-31.41914791;-0.40174581
-9.109837147;-19.77394901;-9.718435945;-14.09542212;-19.12211362;0.765979762;8.130578561;-32.85381063;-114.5196617;-65.7863219;-129.5698209;-37.49398877;-19.07756237;1.382467741;-18.41898441;-2.039381878;-8.855756645;-25.93274262;0.070772781
-8.365625148;-18.13549991;-9.119000973;-12.73334485;-20.05384644;0.930827109;5.79409378;-32.39976146;-107.260163;-67.25;-117.83417;-37.04870019;-22.9396899;-1.414300645;-22.79114085;-6.211106329;-9.869108903;-20.71710351;-0.028894297
-10.59467519;-20.19236643;-11.85307781;-15.05395635;-22.19672914;0.415738371;3.786133996;-31.65905072;-98.88384194;-66.82475309;-106.5351438;-38.47077534;-25.98838005;-5.065491747;-29.03629932;-11.63459027;-12.211256;-17.73692975;-0.596659943
-14.8325414;-25.72059373;-17.1909716;-21.08792823;-24.54064063;-0.330948429;3.839431125;-30.0584673;-90.08652712;-63.76610992;-97.84218191;-40.98841989;-27.32990061;-8.693074358;-35.03965046;-16.51488655;-15.83065497;-17.2109166;-1.106201669
-18.74053044;-32.00412905;-22.6055692;-28.74614451;-25.98461755;-0.67192482;5.781045469;-28.33352667;-81.99746617;-59.20572513;-92.25438229;-42.75549817;-26.80361223;-10.99679312;-38.23419966;-19.59444351;-19.84044334;-18.03030025;-1.09649135
-20.17970761;-35.61854637;-25.30207777;-34.58681774;-26.17812491;-0.326069778;7.720723658;-27.95961769;-75.81383385;-54.97563667;-88.72373856;-42.30656933;-25.00342881;-11.16227244;-37.46766546;-20.90642576;-22.97845692;-18.90347497;-0.588914893
-18.62644761;-34.80740036;-24.01558417;-35.54386656;-25.67024598;0.38272949;7.803720846;-29.74179816;-72.16698514;-51.96396549;-85.56359834;-39.63403798;-22.87078102;-9.49303025;-33.81589767;-21.39080458;-24.22755325;-19.25080389;-0.056819507
-15.42044264;-30.69384933;-19.80745615;-30.68146652;-25.2745583;0.798548483;5.899552275;-32.75545177;-70.56281944;-49.4093695;-81.3886991;-36.07949816;-21.1523709;-7.265139753;-29.76443866;-21.81319817;-23.28211556;-19.2902278;0.01492004
-12.72310135;-26.41842405;-15.3083079;-21.91710799;-25.2352529;0.493054949;3.687991221;-34.63018997;-69.36296643;-45.69825013;-75.59129826;-33.27836589;-20.12227721;-5.923266584;-27.48651001;-22.03340531;-20.66351182;-19.50968546;-0.428971196
-12.00415769;-24.85328902;-12.97470145;-13.18671565;-24.93750697;-0.376249662;3.096899543;-33.09740912;-66.49936325;-39.92894866;-68.33151822;-32.1124355;-19.71849373;-6.219136183;-27.56645497;-21.30210858;-17.44631482;-20.13605918;-0.973406595
-13.15526305;-26.59944092;-13.59863034;-8.426907327;-23.41218392;-1.21589748;4.550562867;-27.64973187;-60.58717449;-32.85731927;-60.27565011;-32.44;-19.85854856;-7.864578357;-29.01066993;-19.26106594;-14.71274849;-21.01054989;-1.120923498
-14.78401457;-29.71487435;-16.0515782;-9.483938255;-20.18426753;-1.510706876;6.628009295;-19.99730975;-51.73542729;-26.38425728;-52.26324301;-33.56914271;-20.54472423;-9.818375758;-30.28468271;-16.6156565;-12.98739584;-21.78097374;-0.746215755
-15.34352782;-31.27890786;-18.30215737;-15.15485246;-15.72471429;-1.243862477;7.408556447;-12.92102615;-41.48665908;-22.01;-44.95101003;-34.81571116;-21.61026897;-10.8750704;-30.38698675;-14.7149097;-11.96254823;-22.0539926;-0.202180873
-14.20129733;-29.5355971;-18.85960848;-21.92443377;-11.13091409;-0.862325402;6.235990803;-8.382987956;-31.8931453;-19.57278975;-38.4909802;-35.59799599;-22.37790479;-10.13366798;-29.16291692;-14.30287385;-10.72127506;-21.33794614;0.011619246
-11.91493979;-25.0146742;-17.60545865;-25.94988488;-7.341024954;-0.840862921;4.280688903;-6.329598341;-24.33430992;-17.34704945;-32.41500703;-35.15775949;-21.68785036;-7.18328167;-26.87225587;-14.56480247;-8.386298044;-18.98133659;-0.292999371
-9.650039063;-19.90382736;-15.54589485;-25.0951297;-4.571315268;-1.25037223;3.415932909;-5.047157114;-18.8438675;-13.41758277;-25.89599866;-32.47855324;-18.48260534;-2.132252874;-23.65711705;-13.46003906;-4.811156825;-14.42043609;-0.828010711
-8.285598013;-16.29589434;-13.84229739;-19.8196006;-2.423896795;-1.714781123;4.47762064;-2.69160716;-14.33152369;-7.173563085;-18.32302977;-26.78215609;-12.61263455;4.359288629;-19.47999954;-9.257500617;-0.827326861;-7.730999257;-1.101506257
-7.869436733;-14.7020309;-12.92465514;-12.48995211;-0.485754101;-1.776902778;6.51538501;1.267017066;-9.460078125;0.302524012;-9.829601727;-18.31481252;-5.222718627;11.08489194;-14.49506586;-2.082418054;2.190514935;-0.040195332;-0.87003418
-7.713531502;-13.8783373;-12.29356652;-5.700039063;1.190474525;-1.324925597;7.697517086;5.775636713;-3.540183621;7.205316856;-1.357425148;-8.670210228;1.688887917;16.53303298;-9.330650214;5.859503871;3.20253414;6.724375063;-0.355237041
-6.9253811;-11.92512188;-11.01936784;-0.767891402;2.181257669;-0.689508227;7.001681189;9.173373518;3.115928803;12.44039285;5.85454313;-0.151912316;6.323005553;19.44306696;-4.86866026;11.70175898;2.227985056;10.81823027;-0.032335008
-4.941142616;-7.686738341;-8.455223763;2.655458035;2.241292878;-0.333705211;5.123954961;10.4922605;9.508567403;16.28953026;11.01735296;5.516131667;8.025210865;19.43465048;-1.661967742;13.94661158;0.383174242;11.81776692;-0.192038088
-1.757795565;-1.395818327;-4.63431567;5.779499545;1.729709233;-0.430743547;3.792870091;10.01298904;14.62836653;19.81237733;14.23570578;8.187757009;7.462213308;17.26856611;0.449566417;13.51611345;-0.819100787;11.0644188;-0.679521337
2.14623976;5.767765119;-0.165005971;9.417118789;1.43452623;-0.718553003;4.158055079;8.741747006;18.03956436;23.6143746;16.34459089;9.203838308;5.955328852;14.4666901;2.113657829;12.9744993;-0.41739259;10.9708288;-1.044546036
6.030602115;12.65653155;4.166035235;13.24287241;1.88622594;-0.757869704;5.756487167;7.406615867;20.05734976;27.12291662;18.31067265;10.26247862;4.535269972;12.47372366;3.800445587;14.51529946;1.472503694;13.55221387;-0.957489991
9.108418977;18.80353954;7.733637631;16.03341187;2.767668615;-0.35032172;6.991566929;5.899940565;21.48106441;28.99072971;20.67180209;12.13391347;3.441628873;11.90940811;5.30989959;18.27552801;3.88783339;19.13264062;-0.506986304
10.7363485;24.28539697;10.17045228;16.5754396;3.003664362;0.267055489;6.644540055;3.596545525;23.06581561;28.20253736;23.37386548;14.2064547;2.356157451;12.40733489;5.927440155;22.25299103;5.761146622;26.07854012;-0.11070078
10.60772947;29.07933195;11.29331514;14.48180558;1.546674087;0.623547218;4.99687262;0.161218172;25.01715388;24.86087042;25.98128112;15.14015377;1.024305474;13.08844187;5.102726956;23.82063339;6.576457033;31.70839623;-0.128539685
8.908675908;32.60808275;11.04927473;10.34971934;-1.743568113;0.424382094;3.534266978;-3.940341224;26.78859473;19.99364519;27.96437315;14.00437624;-0.365664254;13.24388704;3.025792309;21.61210458;6.483590643;33.75673994;-0.53645204
6.315949755;33.94617883;9.57178319;5.293365263;-5.850480059;-0.200856651;3.539060743;-7.684565101;27.34881254;14.67573332;28.83610011;10.94758562;-1.388422671;12.69595525;0.549897788;16.35531837;5.901781304;31.48193701;-0.95621601
3.750391985;32.53584909;7.254527809;0.348638711;-9.211659995;-0.823692341;4.903336037;-10.24259603;25.84831667;9.370928042;28.18787921;6.928326375;-1.939873422;11.63538942;-1.501684368;10.14151163;5.04170372;25.84007813;-1.00652444
1.957552158;28.7788559;4.676131997;-3.789667681;-10.72880373;-1.088071595;6.26485913;-11.57425713;22.32062451;4.098031087;25.81650176;2.856267556;-2.580504841;10.19037742;-3.049135188;4.834561938;3.757355877;18.78030164;-0.649404871
1.139403249;23.93605963;2.322368116;-6.674836465;-10.40690989;-0.988360377;6.315808922;-12.39534558;17.90129578;-0.883132445;21.96617375;-1.071120758;-4.290680435;8.167273558;-4.87418722;0.875728609;1.767683224;12.18344536;-0.217456814
0.86599807;19.3226691;0.257284343;-8.016712951;-9.173690911;-0.817646714;5.039248277;-13.62931836;14.25185886;-4.766325206;17.42819791;-5.323989616;-7.794062785;5.184692558;-8.050604022;-2.723356961;-1.060840394;7.027812178;-0.104257943
0.333106723;15.38202026;-1.991953981;-7.89614077;-8.086969494;-0.859363967;3.708768999;-15.85082578;12.42158239;-6.817772257;13.21780517;-10.43729042;-12.98452979;1.038153876;-13.16917449;-7.388653004;-4.676084234;3.117644185;-0.406324423
-1.179541355;11.37603273;-5.165708943;-7.156300603;-7.576585062;-1.120975382;3.65670615;-19.10810345;11.91980976;-7.438968355;9.914828169;-16.42632543;-18.89311159;-4.052683334;-19.94961956;-13.85086885;-9.025530909;-0.594487954;-0.842208847
-3.903056918;6.011238998;-9.704343736;-7.467452734;-7.25615287;-1.349343382;4.976093727;-23.06276879;10.82314822;-8.50314042;7.199415537;-22.65393173;-24.17097661;-9.500866125;-27.42051678;-21.63429453;-14.14840247;-5.270783484;-1.015482374
-7.427140776;-1.372242913;-15.21452562;-10.66687025;-6.332431344;-1.291935826;6.387784192;-27.10064538;7.106016805;-12.22690622;4.137341234;-28.09714267;-27.67366986;-14.58686207;-34.34776656;-29.30779279;-19.92327653;-11.34245402;-0.775483722
-10.84937849;-9.878444543;-20.35313173;-17.55692703;-4.199666539;-0.940940556;6.416515919;-30.23532362;0.419376927;-19.1620504;0.200589992;-31.65055631;-28.74577928;-18.60831375;-39.48699961;-35.10368961;-25.61480767;-17.94434016;-0.347545978
-13.13640323;-17.11199254;-23.30675569;-26.93606364;-0.777776538;-0.527846494;4.791953848;-31.04230427;-7.007012034;-26.95684941;-3.733419713;-32.24419244;-27.16035398;-20.85099504;-41.58710387;-37.46209399;-29.70157062;-22.99584287;-0.121114865
-13.54278009;-20.29829418;-22.68584061;-35.69404329;3.521793491;-0.285370117;2.765969232;-28.03340742;-11.24589986;-31.25851064;-5.371956805;-28.92357418;-22.9863537;-20.56435989;-39.46897673;-35.37429119;-30.36667447;-24.04582081;-0.295629329
-11.93061439;-17.83605011;-18.3566679;-40.17741931;7.998442577;-0.218747751;2.027992037;-20.53736478;-9.018883568;-28.52334101;-2.297843634;-21.17637864;-16.62923242;-17.1888118;-32.48521309;-28.65016067;-26.50213794;-19.54889305;-0.706406174
-8.860429615;-10.32811356;-11.70145506;-38.13682471;11.8054615;-0.115199515;3.193017813;-9.555920058;-0.016604322;-18.80719118;6.219087764;-9.492074781;-8.974000361;-10.82195122;-21.20515658;-18.15828088;-18.55589082;-9.857234237;-0.98151552
-5.384717271;-0.429231911;-5.080585839;-30.07352752;14.03602804;0.215364807;5.239055861;2.193432613;12.47524917;-6.307035345;18.27561519;4.295899052;-1.320004883;-2.564629867;-7.727984926;-5.837701751;-8.532885834;2.752549113;-0.879239867
-2.591546121;8.428579772;-0.728212397;-19.10697201;13.9333882;0.705850846;6.410742787;11.39441571;23.24232961;3.051372346;30.13913056;17.40125792;5.073822624;5.673514217;4.886080769;5.772070434;0.960655834;15.13998606;-0.499261503
-1.093178332;13.68689111;0.328945532;-9.398608892;11.3;1.044051554;5.772594463;15.87109955;28.10096325;5.426784831;38.37393482;27.22710334;9.604772041;11.96849956;13.92814795;14.42845167;8.008615284;24.82207865;-0.184160585
-0.738054076;14.73269352;-1.282184074;-4.058874148;6.876500921;0.9404745;4.00955777;15.80516665;26.21133114;1.533162774;41.781318;32.59464225;12.59526227;15.32168139;18.28438851;19.03764005;12.11926543;30.96096832;-0.209872555
-0.742044445;12.82770207;-3.726044256;-3.738128687;2.293771079;0.412119966;2.764989013;13.52763312;20.25358943;-4.066648467;41.73484571;34.16864586;14.89365396;16.08333102;18.73497458;19.89215168;13.95066931;34.18532992;-0.546298753
-0.190267166;10.05512565;-5.02338139;-6.621948831;-0.58478985;-0.187965266;3.136583229;11.96317483;14.48777262;-6.310901717;40.7421952;33.71894747;17.0426379;15.53240527;17.11010087;18.12607412;14.37450186;35.4836337;-0.894661402
1.395516;8.020400492;-4.099467309;-9.690548642;-0.634625204;-0.442550561;4.702401807;12.78717829;12.15217639;-3.119745129;40.46385477;32.76055225;18.69168313;14.92180799;14.98478357;14.8196916;13.71232908;35.11569611;-0.955577194
3.79580613;7.107366985;-1.217325348;-10.42962393;1.880068359;-0.215736806;5.945561059;15.55746661;13.95213471;3.531812997;40.78961012;31.62498378;18.80950689;14.71108412;12.91815344;10.45739172;11.7463814;32.44599526;-0.684054321
6.306912136;6.638367254;2.386198729;-8.055469121;5.472180836;0.230072632;5.662521858;18.33749897;18.40715243;9.557549846;40.59603828;29.6576016;16.60345245;14.53594549;10.71975967;5.120629637;8.374618913;26.81462268;-0.314854914
8.255798739;5.659712391;5.334817798;-3.707763146;8.343978709;0.451014791;4.055401338;19.22745554;23.40893277;12.00654601;39.32649903;26.28265515;12.40777528;13.84243331;8.312646779;-0.856985579;4.201650288;18.66454608;-0.153860879
9.423695865;3.713005558;6.835333262;0.341804223;9.424841564;0.185713967;2.521532269;17.62445957;27.61385137;11.02668076;37.84330933;21.94253926;7.747440422;12.57137159;6.271335054;-6.458358881;0.442704023;9.889539419;-0.328381581
10.06842698;1.077461819;6.861925152;1.951153422;8.826271055;-0.445260132;2.358393196;14.3672072;30.72548344;9.161085883;37.70939286;18.04345838;4.422062727;11.27833091;5.475725878;-10.26171854;-1.823125931;2.986843281;-0.702299624
10.55989755;-1.567536462;5.802597964;0.16805587;7.462867715;-1.064693124;3.585612333;10.84875259;32.81354178;8.804749215;39.53574801;15.92141747;3.277108207;10.60410412;6.196959643;-11.27853735;-2.391132356;-0.41140905;-0.999765636
10.95;-3.686148525;3.940185097;-4.423128626;6.219553391;-1.362209226;4.955322494;7.928306187;33.58278694;10.0440633;41.95504902;15.70911063;3.631437338;10.59606361;7.508104601;-9.690144162;-1.990408849;-0.518838931;-1.006267643
10.84055413;-5.187594268;1.197366654;-10.19771074;5.345438404;-1.326029501;5.11710824;5.482453848;32.35208638;10.61541486;42.30027333;16.08049791;3.827213107;10.50679573;7.6550323;-6.886980078;-1.609693117;0.853648352;-0.681712726
9.662614988;-6.318571008;-2.687805971;-15.51003906;4.504208044;-1.193750219;3.850974301;2.801470297;28.69144698;7.872389666;38.57750753;15.10584436;2.465126869;9.264551236;5.164568503;-4.779364182;-1.710659031;1.55621291;-0.132615068
7.151071283;-7.342752462;-7.739777721;-19.60907739;3.34764931;-1.195565569;2.241909546;-0.645474659;23.0081442;1.038262146;31.13549095;11.53373975;-0.654264992;6.218523821;-0.201421078;-4.902088632;-2.052482999;0.397226316;0.479477732
3.654891238;-8.338221799;-13.42834578;-22.85815728;2.076220699;-1.343346973;1.660024414;-4.73157429;16.46705619;-8.069222203;22.61798236;5.523519664;-4.584313427;1.540087891;-7.400078125;-7.904989997;-2.269400353;-2.43094119;0.993764697
0.066554847;-9.265990047;-18.69651669;-26.09923367;1.51151669;-1.456355966;2.505386968;-8.760418039;10.32401905;-16.27590592;16.20335859;-1.608296081;-8.131028047;-4.008021356;-14.91366693;-13.60174469;-2.605025258;-5.933887236;1.255500221
-2.560247403;-10.16917529;-22.31072459;-29.60636075;2.630121456;-1.377997394;3.87186663;-11.89175343;5.332063365;-21.09832623;13.55791339;-8.229605056;-10.76188252;-9.658154378;-21.62769258;-21.2774632;-4.011254679;-9.247120985;1.136144714
-3.446522168;-11.23792091;-23.31520521;-32.43949839;5.918390748;-1.155562681;4.417796853;-13.4912041;1.774383824;-21.96474303;14.11666769;-13.05938261;-12.75542198;-15.02362566;-27.03568687;-29.87562635;-7.385319863;-12.10917379;0.611955045
-2.351734569;-12.6304607;-21.36359803;-32.79689467;10.99077424;-0.997494916;3.61715977;-13.21600585;-0.001452115;-19.874117;16.11414173;-15.27351549;-14.55426201;-19.97331269;-30.76598146;-38.0175036;-12.55864543;-14.62024473;-0.154301536
0.389297777;-14.21549176;-16.82486871;-29.24;16.66991237;-1.046131369;2.231026888;-10.97616317;0.761492375;-16.125621;18.29253696;-14.33296475;-16.01110567;-24.20313188;-32.13739028;-44.14761445;-17.9886866;-16.72683607;-0.839739798
3.983874578;-15.51881323;-10.67761889;-21.93180642;21.41258134;-1.192747056;1.578025167;-6.984704265;4.837667581;-11.37757487;20.74051278;-10.06895017;-16.28628224;-27.00728578;-30.41533375;-47.03931524;-21.57941705;-18.06431537;-1.135490332
7.389976531;-15.98982427;-4.240263916;-12.890198;23.82971361;-1.133117835;2.297053945;-1.889222581;12.1020467;-5.738504795;24.24406116;-3.136276364;-14.51700228;-27.54750046;-25.66207264;-46.45696514;-22.08159457;-18.33676885;-0.960882984
9.61984058;-15.39866157;1.219850318;-4.919744541;23.11795843;-0.637721778;3.75352361;3.252578211;20.95481813;0.500327686;28.96672194;4.690873976;-10.6296267;-25.41786239;-19.31206195;-43.41242079;-19.95446545;-17.79514109;-0.535352799
10.1237169;-14.0239416;4.911719131;0.099325023;19.33248303;0.201169039;4.630401578;7.330582909;28.82383123;6.450147242;33.87688785;11.02496851;-5.505343558;-20.99135781;-13.66257743;-39.61833448;-16.94783424;-17.21860882;-0.220404387
9.105294709;-12.45404648;6.802976485;2.30674354;13.44711767;0.981911157;4.145019772;9.720515828;33.59031031;11.04680198;37.5547513;14.16602312;-0.297558812;-15.21591465;-10.40783532;-36.38454433;-14.71051839;-17.28337718;-0.242313767
7.517678898;-11.16742954;7.557803493;3.473462545;7.108444015;1.280353313;2.762608189;10.58524657;34.89792044;13.88176531;39.59554302;14.31516383;4.496266623;-9.033830651;-9.343127137;-33.76972704;-13.56090066;-17.86106024;-0.52668387
6.59813765;-10.26262645;8.079934697;5.384662742;2.049495307;0.980572246;1.755551335;10.63631405;34.25983777;15.52503532;41.14467967;13.60085075;9.333317766;-2.944306435;-8.443335551;-30.71284741;-12.4338107;-17.96547885;-0.791391786
7.12323451;-9.570910763;8.889608875;8.24812921;-0.65408003;0.370954321;2.028593171;10.50128545;33.79943615;16.88834914;43.85309151;14.62544042;14.95985174;2.923899225;-5.466842986;-26.10399583;-10.02114046;-16.533983;-0.81555737
8.862445361;-9.015817762;9.755623402;10.42082163;-1.083122805;-0.077562001;3.299766959;10.22393296;34.59774738;18.15417835;48.07581995;18.48997461;21.33849837;8.374817331;0.109192262;-19.933374;-6.096854703;-13.43881705;-0.636257684
10.6781835;-8.828836809;9.895521646;9.733132201;-0.356586718;-0.066958527;4.383584819;9.350750028;35.97931692;18.32645266;52.01486791;23.85146775;27.16387377;12.86340717;6.448479732;-13.52729681;-1.853635246;-9.816580536;-0.485755219
11.29531935;-9.351261721;8.656492456;5.396960857;0.11575129;0.328503607;4.297389963;7.544513219;36.29465382;15.98135512;52.82503912;27.87520657;30.5179459;15.74677135;10.66907924;-8.622952428;1.063736706;-7.322301827;-0.526767438
10.2305082;-10.56565841;6.179700034;-1.042710103;-0.444341224;0.765816497;3.158476691;5.158831891;34.48989356;10.69537374;48.97101518;28.4324625;30.24050766;16.89388045;11.13921526;-6.045653121;1.995805916;-6.851325514;-0.646797167
8.17583001;-11.82669871;3.487464992;-6.548663778;-1.722642296;0.927557591;2.049255349;3.191049849;31.08929032;3.90494995;41.87439636;25.81095119;26.92376783;17.04399676;8.876885766;-5.13857013;1.9055028;-7.79849297;-0.532748829
6.494544775;-12.16130125;1.832861941;-8.654947479;-2.64518364;0.748740608;1.993483278;2.565691521;27.74615969;-1.686463911;35.30934737;22.52265996;22.68243391;17.4391422;6.829807863;-4.470137114;2.610039063;-8.530169449;0.016595968
6.173409117;-11.01674725;1.74460401;-7.196431917;-2.243299977;0.402911194;3.006329929;3.33140409;25.78920152;-3.846700613;32.83460426;21.32058252;19.82233707;18.89610953;7.544972552;-3.218198739;5.213911891;-7.726320713;0.830280072
7.040217929;-8.870838895;2.508203449;-4.383524068;-0.379747156;0.099326345;4.098902474;4.4982289;25.08350505;-2.387323174;35.24363889;23.02056823;19.41614148;21.06371689;11.10236313;-1.995838517;9.062313706;-5.483002089;1.433107468
7.88479485;-7.128452614;2.551535224;-3.180816017;2.21003418;-0.100460547;4.220637379;4.725991063;24.23827698;0.670378882;40.07914319;25.90092726;20.84546849;22.56473294;15.00589205;-2.340571762;12.12557808;-3.242348994;1.428856721
7.410613194;-7.272538644;0.51511665;-5.248413952;4.53633552;-0.283667294;3.250637351;3.325464626;21.96912105;2.466498224;43.5832585;27.14374018;22.55272183;22.01798384;16.11793376;-5.274880472;12.53072389;-2.614649661;0.874040621
5.255996923;-9.883960995;-3.780197195;-9.991083975;6.068867984;-0.531449504;2.110268932;0.722964579;18.3531934;1.129480963;43.45311892;25.08427593;23.27215711;19.15382878;13.03957753;-10.21956389;9.991439309;-4.116345713;0.282222322
2.241283619;-14.31815027;-9.220758757;-15.33131043;6.936047101;-0.78263039;1.89364984;-2.021602075;14.77981666;-3.314555645;40.16156099;20.39256481;22.70691232;15.07903701;7.004539655;-15.29133378;5.971384851;-6.917272609;0.204306834
-0.376526222;-19.32047601;-14.24447522;-19.45805161;7.486584917;-0.861235658;2.829597995;-4.218403555;12.57746458;-9.480058594;35.90395044;15.26846917;21.21375517;11.409524;0.64608868;-18.81018237;2.473381703;-9.788313985;0.722963438
-2.023274905;-24.06422524;-17.9772367;-22.10653668;7.677493951;-0.643603624;4.046663076;-6.154709463;11.55762007;-15.92181465;32.29776363;11.45379047;18.98856438;8.946172226;-4.204750166;-20.72258796;0.479066695;-12.3518375;1.319257515
-3.3367016;-28.69341556;-20.74358255;-24.41438394;6.913853724;-0.198958517;4.367765034;-8.704106942;9.905593721;-21.97806482;28.98391661;8.857639745;15.67075415;7.000934802;-7.768544325;-22.63171325;-0.678787339;-15.4372498;1.277788372
-5.602925901;-33.8430964;-23.52797992;-27.61160134;4.547831027;0.240723593;3.405014904;-12.2268332;5.728860682;-27.51051699;24.37967336;6.000180545;10.83122782;3.984178596;-11.59824782;-26.29175413;-2.539119852;-20.13110836;0.323138573
-9.51377871;-39.51320979;-26.82703281;-31.71573403;0.614780359;0.463015945;1.943201518;-15.7443829;-0.929528464;-32.00220961;17.83443296;1.835015619;4.90103427;-1.175459818;-16.63059418;-31.79282358;-6.028788063;-26.3174218;-1.058602613
-14.27113699;-44.32471747;-29.86441646;-35.30528572;-3.886733632;0.444401604;1.251721919;-17.2314603;-7.373634314;-34.09635172;11.12932289;-2.739218754;-0.422880321;-7.923911753;-21.81315094;-37.02877495;-10.51686175;-32.05853512;-1.928688438
-17.84368021;-45.97877217;-30.88545711;-36.49387601;-7.511393446;0.351028482;1.947725623;-14.96059021;-9.664553401;-32.2362537;7.804919503;-5.123307163;-2.889479768;-14.21214239;-24.57647002;-39.02911054;-14.15206821;-34.53705503;-1.621556241
-18.27749722;-42.76912808;-28.38860637;-34.26545528;-9.332132405;0.371444903;3.443724854;-8.905433004;-5.271690996;-25.99454934;10.71373324;-2.93583253;-1.149574484;-17.80206501;-22.78289535;-36.16780617;-15.1524866;-31.96076674;-0.29736459
-15.0996104;-35.04240778;-22.37286443;-29.13517893;-9.581931422;0.537217588;4.477284299;-1.060190837;5.006958965;-16.93900467;19.78091466;3.956470591;4.144721472;-17.74713777;-16.49290119;-29.47199761;-12.98636407;-24.94855184;1.153210547
-9.740374382;-25.3911873;-14.62007813;-22.74685145;-9.427798523;0.696214612;4.234786323;5.669640932;17.35215033;-8.155623164;31.82343166;13.00577936;10.52645938;-14.92673752;-8.060935683;-21.94309731;-8.570825043;-16.25143574;1.795155689
-4.639894185;-17.26854484;-7.751137451;-16.87940681;-10.03589158;0.659255446;3.049398854;9.236026329;27.26912683;-2.619524925;42.55857739;20.54883442;15.15042924;-11.28868134;-0.518466128;-16.4166486;-3.48445827;-8.974010762;1.368664601
-1.704290268;-12.94509587;-3.725055285;-12.67731044;-11.67315946;0.38049832;2.05496025;9.585495079;32.24089712;-1.553114556;49.14813865;24.13860554;16.47118744;-8.460651658;4.37048535;-13.67219257;1.046420947;-4.661343556;0.448594777
-1.241463978;-12.28733187;-2.852048185;-10.53738752;-13.55932867;0.004950727;2.133991096;8.369265085;32.79286904;-3.93480336;51.31499761;23.83655638;14.9744575;-6.80467141;6.820884193;-12.26485972;4.592399201;-2.698277694;-0.079393635
-2.082169312;-13.23105027;-3.958627421;-10.42357159;-14.55982493;-0.255228408;3.129611447;7.535375114;31.37922037;-7.420356059;50.43410625;21.59261351;12.52588616;-5.521970406;8.114659524;-10.10093703;7.230668462;-1.366531743;0.228456388
-2.65390083;-13.51559125;-5.446836375;-12.07844591;-14.1248185;-0.294557657;4.028109762;7.929696424;30.18441005;-9.889117583;47.76025288;19.42774597;10.95367171;-3.528651358;9.095176493;-6.356789509;9.015105483;0.44566031;1.034168235
-2.092793001;-12.28742247;-6.358594989;-14.88917219;-12.7054494;-0.177220103;3.918080176;8.930468121;29.63931065;-10.48357362;43.53606913;18.01007813;10.97968887;-0.285166223;9.500078125;-2.136727298;9.800924518;2.351925393;1.566724872
-0.574714149;-10.35645206;-6.673964292;-17.69033076;-11.34218504;-0.042010218;2.828561392;9.25445291;28.68431191;-9.577058549;37.67498165;16.69249231;12.19658827;4.023937244;8.642611204;0.587747614;9.53329017;3.077598289;1.334174112
1.221619076;-9.04496736;-6.788737514;-18.97729934;-10.80725611;0.043598144;1.681703539;8.159050134;26.2952923;-8.011372968;31.08235937;14.70871948;13.8662493;8.882501645;6.610937374;0.736978968;8.568913467;1.918744847;0.563264622
2.893611215;-8.739431632;-6.799091681;-17.63783041;-11.01058007;0.128631;1.426036476;6.04876591;22.80602601;-6.404679984;26.01547097;12.25370677;15.68681781;13.84460292;4.659472959;-0.979541817;7.5519093;-0.328926528;-0.018928832
4.606394815;-8.459984814;-6.301143447;-13.72946605;-11.1008388;0.279474645;2.168035246;4.080872357;19.86864408;-5.033175892;24.80914994;10.41774094;17.83765686;18.51314079;4.26754538;-2.766284547;6.851624915;-1.85626993;0.142258034
6.706401594;-6.836180975;-4.863935312;-8.620899688;-10.09336008;0.446560412;3.102846655;3.201907302;19.13520886;-4.129204237;27.93436266;10.09828496;20.35766458;22.21834978;5.680256834;-3.363128794;6.094336408;-1.360584384;0.91197776
9.125056078;-3.614450608;-2.671353759;-4.240392064;-7.469290877;0.452342556;3.289793222;3.435564869;20.82191439;-4.076868425;33.15810629;10.98054164;22.55136818;23.91252762;7.349364818;-3.133234682;4.333676033;0.713306399;1.576543158
11.22230525;-0.308822006;-0.648704575;-1.905215212;-3.321670126;0.141570667;2.534817433;3.927645261;23.35844953;-5.220810413;36.74435786;11.59075804;23.09199676;22.6175157;6.958309054;-3.686513831;0.844682726;2.315738282;1.491736686
12.2780973;0.702932682;0.149188715;-1.599221283;1.903285025;-0.434317652;1.555305934;3.58672575;24.38137878;-7.519360394;35.88790608;10.41329837;20.85033787;18.1722164;3.279944909;-6.415272019;-4.099973633;1.26399303;0.689881866
12.19522418;-1.990451524;-0.578091247;-2.243483825;7.674333185;-0.985155866;1.282935799;1.736703488;22.2588972;-10.4960539;30.47724093;7.086184248;15.80536456;11.61234683;-2.713483856;-11.24342189;-9.194483652;-3.124127934;-0.110895138
11.72835272;-7.546206397;-1.988280273;-2.711816904;13.34972068;-1.168115387;1.966719414;-1.672317281;17.01255749;-13.63013356;22.83660769;2.638717335;9.277074074;4.719804591;-8.500412623;-16.64487961;-12.9317461;-9.526860199;-0.129836333
11.94145023;-13.22166596;-2.603540175;-2.74653457;17.96283111;-0.858201556;2.921108422;-6.273356863;10.0986342;-16.80855733;15.81034783;-1.380768327;3.253403226;-1.027091017;-11.92951115;-20.83881317;-14.65701609;-15.59221471;0.752916612
13.28532492;-16.17388528;-1.376840731;-3.039484675;20.21814817;-0.273787388;3.158468296;-11.54870999;3.425532185;-20.30905268;10.89209775;-4.061204075;-0.702684036;-5.303141605;-12.80279663;-23.06740281;-14.95231274;-19.54578366;1.814594591
15.06609782;-15.35193403;1.497957448;-4.462678397;18.95939165;0.16699049;2.319125506;-16.86799269;-1.564535365;-24.21625446;7.890590924;-5.563396488;-2.179845321;-8.886880198;-12.79121319;-23.87802395;-15.00299841;-21.15411193;2.038914853
15.79425054;-12.06112113;4.660873759;-7.144024767;13.90480774;0.15937284;1.033247697;-21.36832699;-4.208286393;-27.80403098;6.110669185;-6.565829155;-1.826930318;-12.74290885;-13.7935322;-24.29613936;-15.48323351;-21.40390077;0.954497273
14.18686309;-8.84350616;6.475365124;-10.18768844;6.085078682;-0.253720438;0.373017464;-23.98249549;-4.421479292;-29.59815324;5.643012012;-7.380364327;-0.643715142;-17.00862713;-16.1948175;-24.77359674;-15.94459054;-21.36567876;-0.941621182
10.05099351;-7.628674127;6.036540751;-12.26990945;-2.464426845;-0.715552524;0.892657207;-23.79016906;-2.439466025;-28.29398518;7.380886563;-7.636934933;0.725834243;-20.75482906;-18.54422069;-24.9227494;-15.2782157;-21.31937973;-2.542650349
4.370460833;-8.595984363;3.560854771;-12.60701342;-9.663726125;-0.828046282;2.132194177;-20.50756193;1.224028645;-23.87058804;11.75848376;-6.799395476;2.196252884;-22.73247374;-18.90146545;-24.22132566;-12.87599416;-20.84581168;-2.987169091
-1.426652816;-10.49934228;-0.027604098;-11.51465832;-14.38321336;-0.442119967;3.033159905;-14.71632446;5.741285455;-17.89816654;17.58889018;-4.911895741;3.928451532;-22.46152358;-16.62553489;-22.8969746;-9.459363965;-19.63086252;-2.310356222
-6.382291012;-11.96848062;-3.843502653;-10.15456119;-16.80072842;0.257346273;2.880039063;-7.599597027;10.16557181;-12.59412156;22.40240873;-2.741622618;5.902844421;-20.70561102;-13.00298658;-22.00289268;-6.772581878;-18.07891805;-1.363952627
-10.35739565;-12.5711561;-7.44644933;-9.728678897;-17.92163384;0.914925178;1.909350449;-0.363541337;13.89246125;-9.247205863;24.26253433;-1.110160794;7.783684915;-18.88977013;-10.15982078;-22.47415362;-6.289130835;-17.06373774;-1.086650015
-13.59115624;-12.77426036;-10.62992135;-10.75456597;-18.67950985;1.259299243;1.045905273;6.209082192;17.02038674;-7.277304726;23.49013834;-0.070820661;9.143300806;-17.92424635;-9.229370139;-23.98898293;-7.954535528;-17.01692615;-1.735680504
-15.9444846;-13.00691533;-12.92965236;-12.87173249;-19.29608932;1.242318111;1.031240315;11.76330703;20.18384577;-4.788573083;22.57976702;1.184250122;9.781701083;-17.41912751;-9.399332754;-24.7710159;-10.02723804;-17.24471898;-2.702197437
-16.57590868;-12.84003906;-13.46025056;-15.13348641;-19.29936779;0.984148465;1.755649524;16.04720963;23.85946299;-0.262415558;24.11983188;3.489572584;9.841177743;-15.96416847;-8.66615326;-22.71950827;-10.22274969;-16.22315211;-3.03473245
-14.41711637;-11.14912772;-11.37536805;-16.41805124;-18.0489858;0.622128606;2.398219994;18.68210783;27.6901604;5.975184457;28.41635245;6.715830026;9.661857773;-12.27021843;-5.606845889;-17.07458345;-7.317550707;-12.75868793;-2.217334768
-9.107872111;-7.179152363;-6.632094972;-15.69843378;-15.26793259;0.222543627;2.222027281;19.34606484;30.48689088;11.78448274;33.00263422;9.68102245;9.578620316;-6.265900327;-0.594745726;-9.263723051;-1.998432077;-7.086490365;-0.56959327
-1.618328176;-1.549559712;-0.382855856;-12.23999206;-11.18534089;-0.181264456;1.271814341;18.24934367;31.05740936;14.81688661;34.70558216;11.25225543;9.871882737;0.704360345;4.585772825;-2.16662926;3.649090354;-0.954302156;1.02106656
6.00472833;3.781338703;5.444264551;-5.927151565;-6.29880408;-0.506104229;0.328322027;16.41617982;29.27042216;14.43486425;32.65133805;11.73919036;10.86488678;6.696440813;8.320251815;1.693723897;7.549516723;3.444573379;1.772316693
11.65639788;6.697797458;9.167364311;2.329343389;-1.072470947;-0.618672617;0.175307566;15.36291103;26.45376208;12.35314146;29.55752528;13.19124655;12.95370865;10.32403158;10.47254078;1.652458432;8.832090187;4.865611184;1.52650557
14.25930414;6.355368053;10.25642781;10.51791432;4.15683555;-0.447294301;0.872636122;16.25341937;24.68177805;11.40589147;29.9207096;17.994625;16.39248737;11.3889803;12.22775067;-1.016559203;7.978017235;3.638490891;0.738161745
14.18622354;3.706644036;9.474793843;16.20486553;9.087723774;-0.096622272;1.71230542;19.10646073;25.40093352;13.38185769;36.3204719;26.65661358;20.91845639;10.62170302;14.63396035;-4.37900768;6.002652497;1.080973287;0.016488357
12.80937748;0.702939925;8.204158865;17.85737608;13.41254057;0.175864874;1.889096041;22.68087711;28.42993161;17.66607755;46.81876218;36.57771287;25.53671208;8.897147175;17.21722121;-7.339519764;3.508809676;-1.725944038;-0.347890995
11.59463801;-1.162352661;7.521386005;16.01062983;16.97186449;0.143434079;1.251675071;25.19326616;32.12850766;21.79609144;55.75014874;43.05340498;28.74430168;6.623990517;18.01142285;-10.14641654;0.425115809;-4.726509015;-0.49262355
11.39990515;-1.788151524;7.72493365;13.28745676;19.9624982;-0.188052168;0.432675592;25.39581793;34.62279453;23.48373191;57.52740891;42.0508906;29.15427454;3.719374818;15.08571306;-13.62781875;-3.470078125;-8.601768097;-0.707480788
12.35007813;-2.182828234;8.560353756;12.93159573;22.89348288;-0.548340966;0.243133484;23.2683519;35.13944887;22.45589279;50.60326045;32.82521123;26.1437281;0.0065797;8.284519015;-17.99554055;-7.870150961;-13.74136575;-1.07987618
14.14797039;-3.317693853;9.777993421;16.63982406;26.1614833;-0.598514913;0.904335176;19.87787989;34.4247347;20.62390309;38.51687383;18.42973298;20.09322349;-4.451907549;-0.358517968;-22.36827539;-11.83873137;-19.47098034;-1.395370626
16.39302914;-5.169912253;11.41445556;23.19343886;29.50485998;-0.210012207;1.837049873;16.58196171;33.9697475;20.4704102;27.2309881;3.715702151;12.07506469;-9.394611868;-7.968888539;-25.44736831;-14.42997598;-24.29249662;-1.35960948
18.62670329;-6.770277382;13.52119576;29.01467164;31.823048;0.407024543;2.202100966;14.19953654;34.71275842;22.99949837;20.8783988;-7.69984371;3.254245538;-14.63440991;-12.87216846;-26.69875089;-15.45987406;-26.97133446;-0.910315569
20.2050829;-7.137227319;15.65175337;30.45157015;31.64810307;0.84649665;1.683011322;12.71524673;36.27276476;26.93127218;19.2103141;-15.29210515;-5.544563694;-20.1716837;-15.65641173;-26.92176059;-15.67659992;-27.51420678;-0.321847207
20.32685939;-6.191109305;16.71458353;26.27490146;28.04220639;0.813745013;0.778140787;11.61647752;37.29907364;29.78017689;18.56118715;-21.0968683;-13.82843965;-25.94086105;-18.40476466;-27.62925475;-16.09967973;-27.12914323;-0.006790161
18.39238136;-4.796173041;15.51130849;18.59999976;21.29493682;0.347946448;0.331625001;10.49392926;36.61643416;29.91830262;15.29691778;-27.44458397;-21.09845539;-31.41087685;-22.77364874;-29.72956439;-17.057048;-27.12792912;-0.189491305
14.48946894;-3.905976562;11.64552259;11.51802022;12.87836174;-0.221161885;0.744695565;9.423825659;34.24735243;27.95519601;8.851655552;-34.85461718;-26.56691023;-35.48863203;-28.51719772;-32.64365694;-17.76396641;-27.67893992;-0.725901352
9.570352429;-3.631083255;6.068833869;8.382146267;4.658677413;-0.538982492;1.6056021;8.91620615;31.54888443;26.36020302;2.027266865;-41.65919087;-29.25101569;-36.95569076;-33.62234604;-34.64719102;-16.86550409;-27.51623591;-1.204581649
5.054773914;-3.134907971;0.728280474;9.691926797;-2.068781659;-0.4869577;2.082195366;9.576207311;30.42047009;27.67565047;-1.391368606;-45.4176571;-28.43326124;-35.18583301;-35.84462068;-34.19742955;-13.55702674;-24.95432214;-1.228970895
2.05346735;-1.504199754;-2.532875741;13.07364928;-7.031838393;-0.226762096;1.706787955;11.77740622;32.20664368;32.73893399;0.472814297;-44.79225208;-24.16;-30.59205474;-34.32230954;-31.17516346;-8.392706537;-19.45521242;-0.657804094
0.760962349;1.186376188;-3.051734183;15.2883524;-10.66152691;-0.012522244;0.816467093;15.52234705;37.03345181;40.22073212;6.529493929;-40.38209152;-17.3982262;-24.42804864;-30.00932431;-27.03982413;-3.118746844;-12.46533871;0.347624156
0.487223001;3.642296884;-1.609310004;14.70215476;-13.3626468;0.044043344;0.235392413;20.4541362;43.88473473;47.67261024;14.06798603;-34.05566926;-9.710662787;-18.08106189;-24.76140009;-23.78480489;0.366116849;-6.748872628;1.448631884
0.316079519;4.284040741;0.295796321;12.36354564;-15.03095402;0.043728967;0.495935287;25.90844051;51.17883703;53.12998819;21.04363289;-27.58512705;-2.638302827;-12.39247251;-20.02084517;-22.53165521;1.150692146;-4.608223354;2.296485204
-0.121625285;2.632333979;1.582869424;10.95031696;-15.20230775;0.15698469;1.328813631;30.99296528;57.38735337;56.04614595;27.25203582;-21.79553613;2.852679093;-7.482444563;-16.2201658;-22.84154937;-0.260118253;-6.278892586;2.639358005
-0.372577849;-0.054225211;2.264511127;12.49218066;-13.63483014;0.419506066;1.903255482;34.78613187;61.42017805;57.05056628;33.56760414;-16.76765749;6.588694629;-3.103675294;-13.20674491;-23.2015925;-2.456164172;-9.699154914;2.365587213
0.400530891;-1.538391666;3.197603126;16.67601929;-10.74191773;0.669940085;1.598098167;36.68813595;62.79965236;57.0244027;40.23446468;-12.60010024;9.034896207;0.879441235;-11.00950069;-22.21991392;-4.099558486;-11.84918741;1.531553332
2.628002966;-0.25695805;5.195744094;21.03225557;-7.440841514;0.693513802;0.586412805;36.75932427;61.74350172;56.41079199;45.95971237;-9.808315917;10.92705185;4.320710678;-10.04173227;-19.58968354;-4.636411867;-10.70991957;0.382252141
5.839231291;3.423382544;8.265124159;22.81515746;-4.51940228;0.43615124;-0.314227557;35.7546525;59.13604111;55.25669929;48.68305556;-8.937619178;12.89131488;7.003481062;-10.52419853;-16.17559265;-4.337561525;-6.477009372;-0.691101018
8.876936505;7.37153119;11.55697068;21.09382945;-2.071951876;0.081539534;-0.3918478;34.69761582;56.23657928;53.70188395;47.28272405;-9.8416953;15.18368451;8.918624289;-11.80555828;-13.30853095;-3.833119848;-1.259891738;-1.301776561
10.6587432;9.178581678;13.99469332;17.44703531;0.481672405;-0.093108943;0.304045129;34.18553589;54.08993015;52.23683377;42.62196438;-11.46155255;17.59794855;10.25695967;-12.45777469;-11.91577413;-3.6248249;2.395250306;-1.274502417
10.88556102;7.806231853;14.98912761;14.7580187;3.775309488;0.039197463;1.011715179;33.90043865;52.9147157;51.37011506;36.97422962;-12.47273455;19.55193371;11.10079391;-11.30552055;-12.08669593;-3.918278179;3.044164875;-0.766714699
10.14344873;4.124199338;14.65007813;15.05536382;7.778794129;0.332559009;0.969349876;32.73875583;51.93300437;51.01944634;32.34604695;-12.31066625;20.33798988;11.16269506;-8.575956992;-13.21975823;-4.731107199;0.923022472;-0.18766494
9.335937751;-0.012834084;13.40222667;18.03547095;11.59046089;0.485491003;0.130215603;29.5571153;49.8995117;50.29830944;29.17550697;-11.66139264;19.46375953;9.926667012;-6.072337034;-14.4697273;-6.000179464;-2.649110986;0.055575246
8.915956281;-3.312067023;11.45122672;21.34342245;13.93853189;0.304151076;-0.786482558;24.05911301;46.06968945;48.05719894;26.48522656;-11.93135205;16.92678849;7.158193018;-6.019726018;-15.13996399;-7.525032761;-6.405515839;-0.190357262
8.533317182;-5.912539297;8.644570494;22.35072164;14.01553482;-0.115843257;-0.963003704;17.19729608;40.9274691;43.83760368;23.2295562;-14.10571399;13.24707707;3.327556831;-9.392929775;-14.884475;-8.874164672;-9.891518836;-0.762262307
7.36709807;-8.903876943;4.861429409;20.07764909;12.00538838;-0.449858295;-0.254461246;10.7775498;36.07485306;38.45584254;19.53564785;-17.95390333;9.195432293;-0.531128131;-15.07941098;-13.790832;-9.504624977;-13.36547865;-1.344678253
4.861342603;-12.9876431;0.53410398;15.85683707;8.914858499;-0.400008545;0.6534895;6.506981336;33.27507433;33.67241004;16.71074392;-22.24208573;5.361014024;-3.540961812;-20.62135523;-12.39973472;-9.144481026;-17.08256733;-1.716453761
1.269939335;-17.49487716;-3.258997876;12.30833338;5.866454584;0.066701139;0.857253321;5.106988912;33.30125063;31.13264538;16.06133985;-25.73383351;1.8479203;-5.734077276;-23.99334985;-11.57073225;-8.152008213;-20.64685365;-1.876696858
-2.419842658;-20.65080381;-5.327475277;11.43251814;3.40061869;0.691794447;0.063844518;6.044589062;35.43382957;31.36139101;17.64774906;-28.08864328;-1.663777248;-8.142553104;-24.99547937;-12.08304621;-7.454713594;-22.9880684;-1.965619539
-5.122759097;-20.90405592;-5.159939386;13.21890858;1.277628276;1.122326828;-1.124131991;7.990571449;37.98857988;33.54987944;20.12118487;-29.89333989;-5.508580299;-12.0084153;-25.14047484;-14.07785445;-7.958736585;-22.98522167;-2.08177798
-6.362801552;-18.22607112;-3.331494852;15.73100924;-1.149666022;1.161417886;-1.734226575;9.639060327;39.48756031;36.23541929;21.78732125;-31.85236308;-9.567257065;-17.62858604;-26.15406235;-16.71595623;-9.79629317;-20.26097544;-2.180655169
-6.53131984;-14.29412083;-1.163326009;16.53656407;-4.33977537;0.874560724;-1.287789941;10.35370324;39.61199375;38.29080651;21.95117547;-33.90130921;-13.10499829;-23.73147205;-28.3491421;-18.42520761;-12.01729856;-15.56327436;-2.146741361
-6.533622409;-11.37502857;0.135764961;14.42197261;-8.189822911;0.492228507;-0.21943913;10.31310295;39.26748057;39.47161539;21.39203103;-35.04498033;-15.07689924;-27.94967894;-30.22;-17.73587625;-13.06838293;-10.46332126;-1.954073204
-7.114102827;-10.76516119;0.206278104;10.19887116;-12.08774751;0.220452145;0.524924815;10.2037434;39.78366881;40.21391677;21.62683991;-34.05218201;-14.71554711;-28.13870078;-29.57493254;-14.21055248;-11.80292275;-6.567377201;-1.739875397
-8.352715512;-11.97132604;-0.372082039;6.110508914;-15.25138835;0.124947146;0.341389421;10.76312066;41.90702246;41.01240826;23.67190561;-30.38583167;-11.99119416;-23.64102257;-25.26170404;-8.803795154;-8.311336277;-4.736573534;-1.70093983
-9.656169592;-13.20408605;-0.636833216;4.327931843;-17.06204006;0.158688105;-0.503635719;12.46789646;45.33970405;41.99157682;27.3679388;-24.57795652;-7.613876121;-15.63499983;-18.09555318;-3.346043832;-3.947829381;-4.769300846;-1.902427429
-10.19296113;-12.73673668;0.040523345;5.596762345;-17.20708619;0.262597336;-1.142456839;15.47056556;49.0963772;43.00980915;31.7374326;-17.79281842;-2.577842873;-6.400814741;-10.3038613;0.507287858;-0.518359382;-5.69349837;-2.188664898
-9.437056389;-10.08429469;1.615347958;8.905153781;-15.65920068;0.41907977;-0.914159468;19.69900721;52.31227763;44.09958819;35.90443661;-11.04199064;2.418720506;1.886091376;-4.022422506;2.111188012;0.776851968;-6.453204136;-2.301608126
-7.473309607;-6.203391856;3.56545743;12.2928568;-12.62747075;0.614768825;0.033278202;24.97064269;54.84455995;45.73984373;39.69036826;-4.764691634;7.266493603;7.977771021;-0.076516555;1.884246701;-0.109393038;-6.562256023;-2.11591595
-4.93146572;-2.724399774;5.333014201;14.16775292;-8.549853909;0.781863638;0.892333889;31.0274446;57.2485004;48.6323835;43.4269928;0.933519156;12.27013078;11.57468647;2.080986714;0.651267365;-2.359178441;-6.337561247;-1.774837651
-2.657750951;-0.907627224;6.601607077;14.23879896;-4.068761007;0.815262673;0.946844808;37.48537395;60.2312269;53.12445177;47.32388695;5.755991411;17.68374267;12.82797384;3.440128941;-1.094788536;-5.074768401;-6.581035432;-1.584936221
-1.337984247;-1.064901224;7.259173257;13.52475951;0.100598206;0.675179071;0.225573533;43.75143455;64.05247348;58.75146857;51.1144107;9.04963261;23.33963789;11.95812199;4.465623781;-3.377471058;-7.87393909;-7.914815696;-1.744286452
-1.23735466;-2.680087891;7.246528317;13.55199793;3.397655074;0.473817728;-0.541496834;48.99020715;68.30073616;64.28693048;54.34471221;10.26939717;28.65196705;9.357658753;4.931638313;-6.280442378;-10.84438814;-10.2043437;-2.143205825
-2.119721171;-4.906339979;6.572711347;15.34693973;5.604325141;0.432098145;-0.615202424;52.22858205;72.12743372;68.28230176;56.96104413;9.677628768;32.96194474;5.950345474;4.565408739;-9.371856257;-14.00451905;-12.48054517;-2.430711529
-3.346212234;-6.969175809;5.524031677;18.86497709;6.852288947;0.70609024;0.058315838;52.64935486;74.69259985;69.72159221;59.50973599;8.563061725;35.92093649;3.233237385;3.7391581;-11.65589316;-16.85517319;-13.47547618;-2.311999834
-4.130453969;-8.285682297;4.785342403;23.12519002;7.443324435;1.221062517;0.79344793;50.01219732;75.50682254;68.38872743;62.63158165;8.614392732;37.59634424;2.670599518;3.439928157;-12.21416351;-18.50963023;-12.47024639;-1.829714313
-3.887926852;-8.457818633;5.181080967;26.84605709;7.628596721;1.675078583;0.799328265;44.99063388;74.52864796;64.82096559;66.25171896;10.81589174;38.23291747;4.737542502;4.470976654;-11.02894051;-18.34919713;-9.889476865;-1.377676007
-2.540800435;-7.358483134;7.092772596;29.12115555;7.515872176;1.743380653;-0.083798033;39.1477012;72.08535027;60.01844098;69.23628835;14.70147245;37.89890328;8.357442265;6.61148986;-9.227350803;-16.64333081;-7.178916076;-1.413571647
-0.595758862;-5.291432304;10.00347726;29.75290756;7.142182497;1.335417781;-1.222980988;34.40809996;68.74742476;55.14904134;69.9356609;18.58139728;36.34572476;11.30624364;8.567018814;-8.407842374;-14.54589435;-5.957175633;-2.093294092
1.106882989;-2.982039626;12.64607154;29.15106382;6.588551772;0.691153221;-1.751534597;32.19829437;65.20543248;51.3318102;67.2687547;20.61243967;33.22917845;11.45722146;8.873780933;-9.477663788;-13.37278733;-6.955260956;-3.122793462
1.869962414;-1.233516943;13.78668749;27.96755504;5.979935857;0.222322466;-1.334795417;32.71587313;62.11369302;49.41811873;61.51889925;19.93476023;28.52768598;8.063803545;7.065182182;-11.89444138;-13.67468176;-9.467328876;-3.94895584
1.548417779;-0.418712214;13.10356154;26.72377999;5.343740919;0.213947473;-0.44675177;34.80558651;59.89;49.71059119;54.24075684;17.07438219;22.80730926;2.184924221;4.127451328;-13.95059015;-14.82949138;-11.73720323;-4.138082982
0.595954588;-0.225955803;11.44505049;25.59982291;4.470039063;0.621465963;0.082393153;36.58253381;58.55970964;51.73581524;47.39817243;13.40397186;17.08248772;-4.051954578;1.82410811;-13.94535022;-15.50260996;-12.06831382;-3.649490369
-0.30593588;0.060914155;10.18969564;24.41943368;2.955520278;1.122173217;-0.179813689;36.45506182;57.7696996;54.30260576;42.41512173;10.15839191;12.33367485;-8.823978956;1.395232813;-11.39058721;-14.65140169;-9.918081008;-2.813530552
-0.77051688;0.924571609;10.16727075;22.78687127;0.46706297;1.370087891;-0.904472384;33.91992514;57.00632654;55.95868504;39.76142096;7.7559684;9.020286716;-11.65547844;2.656781321;-7.359388411;-12.32;-6.223927205;-2.06827465
-0.971689922;2.159190423;11.00987788;20.32152951;-2.948464119;1.241250755;-1.345932422;29.66136617;55.8842652;55.66349006;39.14372942;5.834585117;6.943666819;-13.43377538;4.205187738;-3.741190286;-9.625160561;-2.744185943;-1.683239726
-1.428523996;3.036062455;11.49463429;16.93122846;-6.763313065;0.879077296;-1.055104265;24.97916881;54.30771833;53.27825057;39.89300055;3.818346337;5.549744656;-15.45888321;4.545795747;-1.987986648;-7.949146076;-0.900251399;-1.665874213
-2.474623904;2.991525244;10.62504177;13.02318001;-10.19536287;0.530608433;-0.291442245;21.02057664;52.40483929;49.55281544;41.16076197;1.483637963;4.421169681;-18.25967765;3.242485675;-2.278265006;-7.951660534;-0.950736073;-1.861547324
-3.862859032;2.229627447;8.549781518;9.511427384;-12.62744394;0.339102477;0.241244034;18.34967947;50.32790226;45.62818526;41.94916964;-0.883360468;3.565782781;-21.02627628;1.20336261;-3.646919642;-9.128268829;-2.052525197;-2.101796861
-4.877074575;1.637367499;6.509467803;7.524510659;-13.92311004;0.275177767;0.07296164;17.03135908;48.11616251;42.40599548;41.29955987;-2.744838749;3.28143968;-22.03535376;-0.073124985;-4.867814949;-10.21463475;-3.082533645;-2.262571206
-4.912460789;1.986234155;5.798795441;7.877396511;-14.4104933;0.242224193;-0.584987248;16.9583344;45.73734198;40.19219658;38.78996851;-3.69184319;3.732302439;-19.75972045;0.337758998;-5.347236904;-10.10669473;-3.537250687;-2.231520614
-4.068037545;3.06799503;6.584435924;10.56209696;-14.55296975;0.225434947;-1.043439193;18.00089556;43.23556195;38.77007813;35.01502379;-3.663828458;4.622782163;-13.93055209;2.108824331;-5.377851883;-8.619658484;-3.821118661;-1.895420006
-3.229050529;3.572570397;7.596128262;14.57789488;-14.55568058;0.322614094;-0.794494672;19.8245789;40.80320244;37.72634408;31.48721319;-2.941276569;5.291686927;-5.895441491;3.928928951;-5.679697041;-6.576776779;-4.76346809;-1.226209403
-3.494117599;1.957924132;7.024007097;18.27062681;-14.19377076;0.623033192;-0.002864032;21.63514618;38.67350573;36.72;29.76229631;-2.015369544;5.208948929;1.928348341;4.43684625;-6.711665397;-5.233807861;-6.826414924;-0.403191148
-5.340522719;-2.28770608;3.953349082;20.04774363;-12.97513167;1.061055604;0.635695185;22.26389478;36.92404717;35.529853;30.30690327;-1.429631259;4.505699586;7.190419248;3.089322327;-8.335975941;-5.497642707;-9.68;0.184660267
-8.179545304;-8.007933624;-0.815638201;19.08389483;-10.51258564;1.407082724;0.539371909;20.72502422;35.39231076;33.962944;32.0190606;-1.595722529;4.091934552;8.729920456;0.375475714;-10.03667454;-7.469333411;-12.47137129;0.140537957
-10.69347557;-12.96382717;-5.255732826;15.62102456;-6.855198814;1.431462361;-0.214322804;16.89673899;33.80888694;31.81559913;32.91639811;-2.582114713;5.192999555;7.122065866;-2.658226005;-11.40244127;-10.53419433;-14.51413507;-0.641463278
-11.74601423;-15.28433549;-7.555710966;10.7214952;-2.584760534;1.105391881;-0.955191973;11.74994208;32.03130964;28.96082674;31.56391622;-3.987995603;8.567299798;4.385275972;-5.119754395;-12.40463288;-13.81494118;-15.7825335;-1.820881864
-11.18951864;-14.70046229;-7.38955661;5.678198756;1.352822763;0.651252046;-1.04060341;6.83055154;30.13426382;25.45238275;28.12873834;-5.082614301;13.92566052;2.986501642;-6.693937898;-13.24879965;-16.60820908;-16.78894088;-2.767604
-9.942989482;-12.60934946;-6.017715771;1.475465341;3.972761131;0.379355241;-0.4525648;3.300790368;28.23147393;21.4976078;24.18361295;-5.247552211;19.95631686;4.619107109;-7.568332271;-13.99296791;-18.54150019;-17.9712756;-2.958378797
-9.263528505;-10.91606458;-5.163523195;-1.400868739;4.586437878;0.440252626;0.186653797;1.255555338;26.18763874;17.31163605;21.40943441;-4.462984104;24.95082653;9.358058884;-8.050874824;-14.3289684;-19.46506555;-19.14077202;-2.32887832
-9.757136807;-10.5568317;-5.579405721;-2.799440844;3.038133442;0.705370075;0.198412868;-0.133710262;23.55743805;13.04436376;20.30378295;-3.410457308;27.62684187;15.6364559;-8.230058594;-13.74999746;-19.28639336;-19.48114835;-1.307407663
-10.88025738;-10.84421637;-6.436929999;-2.639217661;-0.216931038;0.882406818;-0.511037031;-1.743907281;19.95071979;8.941151983;20.02018124;-2.970285348;27.64029154;21.07127038;-7.896131489;-11.95747428;-17.93317763;-18.11049906;-0.497667777
-11.30873337;-10.10754179;-5.987245191;-0.828870673;-4.227617911;0.766828635;-1.351997575;-3.603460473;15.63129637;5.634101434;19.46913045;-3.395874265;25.52701793;23.68907696;-6.696557592;-9.137417223;-15.46032109;-14.740469;-0.25570083
-9.893580762;-7.083314014;-2.931131873;2.550686859;-7.856473896;0.410605003;-1.594209875;-4.736450766;11.83568706;4.207660793;18.64922371;-3.841997306;22.2066408;22.85050899;-4.364545803;-5.858528287;-12.17080759;-9.903543081;-0.486268366
-6.497930162;-1.963275223;2.569138024;6.979672638;-10.20982338;0.063580882;-1.052355878;-3.927629394;10.3718446;5.742078265;18.89289991;-2.797027959;18.42764809;19.34267739;-0.89862872;-2.692253224;-8.616377065;-4.609079153;-0.79744357
-2.132822217;3.658314965;8.941917037;11.42825709;-11.01832631;-0.054157446;-0.276432798;-0.828565982;12.55231471;10.45848306;21.62379648;0.694671888;14.48345838;14.63660774;3.323035446;0.091290783;-5.455639073;0.225952259;-0.858059147
1.645733564;7.803491264;14.15806587;14.62574153;-10.76343581;0.05838733;-0.061338624;3.487053111;18.08942072;17.05491784;26.58921305;5.857098633;10.27499755;9.857092233;7.482493652;2.471790872;-3.255332804;4.078111602;-0.65038724
3.597121372;9.260312044;16.78498982;15.55778618;-10.43988545;0.200146909;-0.718468594;7.006439483;24.7662883;22.8887755;31.15626309;10.05025039;5.563080084;5.193630344;10.3740829;4.332052922;-2.335713096;6.667717886;-0.423136776
3.330117307;8.056043531;16.42813037;13.90237807;-11.04250497;0.168660401;-1.777010879;7.982310351;29.28382701;25.15593069;31.53216134;10.03732097;0.205872189;0.141599334;10.67873233;5.178563683;-2.699144699;7.642839776;-0.419530122
1.265629209;5.093983465;13.47729973;10.14839756;-13.04399541;-0.045997004;-2.394003053;5.984329855;28.91082223;22.45473337;25.22522199;3.975613605;-5.710478458;-5.665765291;7.484211579;4.274333177;-4.026400321;6.556442121;-0.642305755
-1.765251036;1.452786066;8.641527038;5.347245601;-16.15525724;-0.255751417;-2.104868548;2.053128905;22.97408591;15.7043161;12.97011206;-7.186457783;-11.8203686;-11.72602594;0.865509921;1.183087898;-5.732399375;3.294493363;-0.86401165
-4.894575683;-2.031943167;2.769534552;0.667584984;-19.49685356;-0.262433943;-1.23382833;-2.088787637;13.26114603;7.712922866;-1.368628231;-19.93255853;-17.47167008;-16.65467947;-7.828916855;-3.669273434;-7.109475109;-1.399167813;-0.856513326
-7.350454122;-4.720720742;-3.020135564;-2.995239517;-22.06053639;-0.061737447;-0.592976227;-5.120306159;3.073576001;1.596065088;-12.9245182;-29.97878263;-21.80475704;-18.95626785;-16.28497803;-8.908484017;-7.57352898;-5.886536668;-0.615221703
-8.456172675;-5.989316154;-7.313891464;-5.191638835;-23.1708067;0.132928085;-0.746382921;-6.702985714;-4.482965652;-0.929267957;-18.50762936;-34.52693984;-23.98652911;-18.032956;-22.11567261;-12.7833804;-6.939375826;-8.352412251;-0.36729976
-7.729954812;-5.333230192;-8.839030143;-5.873307163;-22.67950464;0.078503156;-1.508781228;-7.240039063;-7.932081396;-0.243577438;-18.01835866;-33.54836202;-23.5640573;-14.68250398;-23.93973736;-14.08003906;-5.558758608;-7.889550715;-0.358533778
-5.144124094;-2.781345568;-7.204270224;-5.246356367;-20.8186307;-0.264577098;-2.129657876;-7.163966824;-7.7765658;1.887886851;-13.81495387;-29.36987806;-20.74171884;-10.7;-22.04859584;-12.76846865;-4.172506922;-5.145463704;-0.618381296
-1.323145144;0.809102085;-3.332213203;-3.636467466;-17.86357997;-0.671066532;-1.98668464;-6.419269511;-5.692411392;3.826069898;-8.773132662;-24.99010943;-16.34444319;-7.843306224;-18.22968733;-9.926224178;-3.495497198;-1.9477408;-0.921199075
2.610344729;4.023429962;0.933038282;-1.403661739;-13.8728358;-0.82977573;-1.152411777;-4.550611981;-3.218278973;5.215539754;-4.578298483;-22.3278628;-11.40806443;-6.859607688;-14.78127271;-6.990593229;-3.766778103;-0.080736479;-0.98171591
5.577956912;5.691650739;3.919303649;1.123193235;-8.705722259;-0.614347382;-0.322501678;-1.247169493;-0.836362616;6.976750652;-1.342276291;-21.48441386;-6.631464256;-7.190565094;-13.24645841;-4.87106637;-4.578053247;-0.084445279;-0.711615883
7.14253417;5.640552477;5.152510585;3.723323076;-2.325357109;-0.207910812;-0.182024324;3.177731085;2.011470163;10.25141878;1.55311116;-21.2689017;-2.084853453;-7.465771676;-13.59643981;-3.542934873;-5.138406393;-0.991665956;-0.311845522
7.693761079;4.74581998;5.502288299;6.352086672;4.809716269;0.035431892;-0.79572106;7.791602987;6.09806186;15.20381575;4.378576582;-20.36711894;2.583549844;-6.37215227;-14.35553394;-2.368484779;-4.82488173;-1.223843558;-0.123238999
8.03149243;4.172938924;6.295988116;9.137059368;11.5540153;-0.118437386;-1.574965012;11.51603424;11.43326124;20.6290213;6.681999569;-18.24448124;7.585436029;-3.321835535;-13.60686487;-0.840833861;-3.635826289;0.044292372;-0.36709339
8.642055748;4.401259825;8.097055239;12.25744547;16.29327939;-0.585416407;-1.837217271;13.68203388;16.85880531;24.64194899;7.755746007;-15.26835978;12.53150008;1.401155216;-10.27842767;0.861729945;-2.204678185;2.132787209;-0.990526246
9.247159133;4.86041521;10.15047625;15.7402671;17.55900608;-1.025417623;-1.432377308;14.27522363;20.53412997;25.88950643;7.343745965;-12.20018454;16.48536432;6.921425203;-4.922747612;1.952956259;-1.342065283;3.332961977;-1.724651427
9.015985858;4.516351262;10.97041395;19.29003906;14.76882773;-1.111427545;-0.860416523;13.78638886;21.03185053;24.38893077;5.909776924;-9.604890852;18.5421332;12.15722695;0.499656599;1.67844678;-1.430375748;2.255913482;-2.276611984
7.293586544;2.914185833;9.597903755;22.28809716;8.679540114;-0.779390107;-0.783606408;12.8924061;18.34671189;21.45582019;4.316459277;-7.621298435;18.48994498;16.07407967;3.71260107;-0.003148306;-2.120443872;-1.009756333;-2.482751211
4.251411608;0.739295454;6.480412386;24.01919219;1.225513491;-0.256712976;-1.395737324;12.236433;14.14219197;18.89027411;3.309588795;-6.129432147;17.00049771;17.81622555;3.426025073;-2.260195793;-2.566086354;-4.862943665;-2.32320309
0.896330474;-0.677988123;3.216650914;24.03882498;-5.273562172;0.139357291;-2.234431012;12.36797724;11.00298961;18.05906686;3.26301628;-5.031237659;15.14746303;16.86073387;0.049317681;-3.911232758;-2.034540221;-7.338620034;-1.849170841
-1.618515991;-0.583683775;1.340087891;22.46994676;-9.169694814;0.2513955;-2.60414908;13.69331153;11.06812256;19.42970056;4.253356844;-4.363844181;13.60280177;13.24304865;-4.607415465;-4.262221531;-0.4530426;-7.579123341;-1.146235439
-2.859476189;0.266748624;1.112791557;20.01063278;-10.23042805;0.172019352;-2.211337185;16.29885504;14.82385111;22.64783757;6.172194761;-4.205743442;12.15211989;7.701291438;-8.426003637;-3.638936509;1.494207907;-6.5201646;-0.381866951
-3.462478039;-0.170134354;1.303812008;17.5811698;-9.623375905;0.119107305;-1.42423174;19.72196546;20.77882077;26.85305905;8.6332493;-4.547219547;9.936780815;1.518862393;-10.15897554;-3.215831901;2.767297761;-6.290278986;0.149964946
-4.663135415;-3.884156358;0.134499714;15.77646172;-9.133344613;0.22701631;-0.926760682;22.91625565;26.23564844;30.91182439;10.80356751;-5.290329314;6.242729273;-3.975997782;-9.96877348;-4.258072695;2.565792647;-8.786352147;0.115080523
-7.342274351;-11.31190923;-3.354289219;14.46648966;-10.0841183;0.441921884;-1.099688437;24.58230077;28.71092953;33.53393771;11.52958339;-6.366922494;1.196468907;-8.001446621;-9.054663505;-7.307550614;0.712919288;-14.45411501;-0.632667288
-11.30064721;-20.8234496;-8.564591409;12.85620286;-12.62930338;0.597380754;-1.706663388;23.74664663;27.15912175;33.48188368;9.917859935;-7.815851087;-4.207611549;-10.61082586;-8.6970158;-11.85276816;-2.370610784;-22.06827733;-1.843598391
-15.29665478;-29.60882275;-13.74699292;10.04828876;-15.8257624;0.577962575;-2.165581894;20.23302024;22.29711519;30.01542933;6.033483161;-9.690949482;-8.773638493;-12.45618824;-9.388404068;-16.6462192;-5.982477705;-29.51980675;-2.899085326
-17.79926753;-35.31842405;-17.15648515;5.794599105;-18.36702976;0.409965931;-2.131387591;14.71694347;15.92685747;23.40430983;1.110223837;-11.84376308;-11.90560722;-14.18043763;-10.5887664;-20.38240354;-9.455143831;-34.93285795;-3.135086941
-17.89381825;-37.273312;-18.04;0.925897097;-19.41194772;0.20407658;-1.827080468;8.367432047;9.808283736;15.11406884;-3.031943661;-13.77007813;-13.86480087;-15.87916946;-11.17118558;-22.2657111;-12.28003906;-37.35677724;-2.275252458
-15.72037404;-36.45660214;-16.78242738;-2.904055453;-18.92037736;0.024878037;-1.805385052;2.383223656;4.882080917;7.387204313;-5.003908637;-14.69033613;-15.26270059;-17.02958937;-10.17451968;-22.17974342;-14.08373236;-36.77240054;-0.656622974
-12.22597395;-34.46929845;-14.28212114;-4.084273112;-17.31925248;-0.169596591;-2.370740408;-2.249778581;1.302772837;2.3479842;-4.523744893;-13.86577951;-16.22815551;-16.92908996;-7.354270574;-20.51802369;-14.63918182;-33.72334112;0.946391719
-8.517087239;-32.37843536;-11.21141537;-1.998799734;-14.85123286;-0.45172086;-3.22275862;-4.73154709;-0.924736523;1.122380437;-2.237112672;-10.97652436;-15.98856474;-15.29314223;-3.255973283;-17.94296468;-14.00826454;-29.0446241;1.79800741
-5.310964892;-30.32829262;-7.777127743;2.575941841;-11.19437573;-0.789473964;-3.682119638;-4.405387797;-1.388729933;3.474184372;1.083704532;-6.338112634;-13.28070585;-12.53912351;1.105921584;-15.26043608;-12.69399022;-23.84910445;1.642309828
-2.791704222;-28.04383229;-4.042886668;7.928714996;-5.703642729;-1.001014528;-3.310891024;-0.970875368;0.619411204;8.103604152;5.166782423;-0.834850349;-7.318054923;-9.525750206;4.678231599;-13.36081952;-11.56842962;-19.52157336;0.800043945
-0.80693811;-25.59940944;-0.350200207;12.43501356;1.892332985;-0.870462389;-2.354850496;5.087444177;5.346787862;13.32857424;10.07544209;4.388323014;1.436898346;-6.937330709;6.679226118;-13.04947479;-11.47852912;-17.39667187;-0.122454469
0.872974259;-23.68437971;2.654127904;15.43659925;10.88892471;-0.341636383;-1.581050161;12.24585395;11.8135963;17.70339841;15.42586686;8.317418146;11.31007813;-4.776590429;6.74596151;-14.7125723;-12.72671357;-18.14078412;-0.665503869
2.430535703;-23.1332296;4.429230488;17.36237772;19.59494525;0.382275714;-1.633694618;18.27401593;17.79651602;20.30822676;19.84314941;10.36884704;20.2373442;-2.356775789;4.985446436;-18.01716397;-14.81122295;-21.27403378;-0.762320636
3.982022238;-24.18311711;4.966782236;19.03089815;25.97384669;0.939403418;-2.480263703;21.16284354;20.78644882;20.75416551;21.40017551;10.48370862;26.73567196;1.173634622;1.950514;-21.95279691;-16.68814347;-25.31397765;-0.653703982
5.521650544;-26.15892772;4.774036693;20.69668356;28.52681085;1.048438046;-3.449416071;20.12931136;19.36663607;19.10493872;18.90475219;9.001870201;30.31822147;6.115972549;-1.528554442;-25.32414384;-17.43795561;-28.58654816;-0.602030057
6.795219442;-27.88667926;4.382066442;21.61279803;26.86582919;0.701625722;-3.830261244;15.99656373;14.05596628;15.82412702;13.01895346;6.399032584;31.15787706;11.79135527;-4.693850931;-27.42773329;-16.87889383;-30.18170096;-0.672148531
7.254886118;-28.48798657;3.827265791;20.50048141;21.69074905;0.158965125;-3.493532656;10.6280989;6.992455225;11.68222083;6.155075441;3.039154058;29.44746401;16.6873809;-7.250618738;-28.42123928;-15.66447222;-30.3439043;-0.744676422
6.272078307;-27.89344967;2.619902401;16.61596781;14.31284687;-0.247662369;-2.976009698;5.784953819;0.666255091;7.529083142;1.031548795;-0.903290412;25.12434174;19.11631944;-9.506343163;-29.06326889;-14.77195248;-29.9926691;-0.699236544
3.573579047;-26.68773578;0.28324343;10.61472661;6.113496005;-0.340554064;-2.959447631;2.224666672;-3.396140644;3.997993863;-1.068116925;-5.290687061;18.24027096;18.02374465;-12.04900364;-29.97908716;-14.75760013;-29.76190771;-0.56319058
-0.401373533;-25.48867371;-2.996106453;4.516476512;-1.763990704;-0.179444934;-3.626581521;-0.321637636;-5.095529487;1.36406512;-0.937300478;-9.741759645;9.611330904;13.516398;-15.09291637;-31.01614276;-15.34645978;-29.34975907;-0.48250187
-4.567000226;-24.43283514;-6.217978693;0.705766612;-8.47475599;0.041322406;-4.4853413;-2.35735217;-5.166433223;-0.290430502;-0.430478592;-13.45617742;1.053503561;6.844020597;-17.96445741;-31.23100893;-15.67122612;-27.72494689;-0.560098877
-7.738607592;-23.18403816;-8.127960538;0.59688971;-13.4647393;0.170876354;-4.820319507;-3.738612535;-4.152618588;-0.742169776;-0.609849918;-15.35736647;-5.197198725;-0.143065331;-19.22020047;-29.57241956;-14.96750705;-24.02757612;-0.736739636
-9.314337545;-21.37750898;-8.076142862;3.837744957;-16.52531317;0.198571156;-4.355235233;-3.502519308;-1.873137644;0.499598493;-0.627823618;-14.56708994;-7.598519875;-5.782914848;-17.47935927;-25.75803721;-13.17559707;-18.4187134;-0.840212627
-9.573796353;-19.03664656;-6.473381904;8.555618931;-17.84907156;0.205491613;-3.518697649;-0.612908461;2.173380972;3.842225521;1.638207974;-10.96421394;-6.172555156;-9.249134125;-12.47614902;-20.65338669;-10.98114806;-12.16817664;-0.75635618
-9.333448595;-16.57933205;-4.451081785;12.44597712;-17.92885788;0.244202181;-3.070980378;4.956838025;7.859967101;8.954545538;7.63292569;-5.456769301;-2.477070123;-10.74624837;-5.561558006;-15.82768221;-9.282930699;-6.899631059;-0.551126997
-9.209445503;-14.45775987;-2.989413561;13.98245403;-17.26561271;0.275746576;-3.433820206;11.72061897;13.83527894;14.39078538;16.43165923;0.265211488;1.324622857;-11.17776872;0.808563858;-12.60425122;-8.534339801;-3.607677896;-0.417906202
-9.084741632;-12.82654157;-2.228060116;13.02638111;-16.07563113;0.222591892;-4.332280991;17.26546748;17.91726167;18.02428379;24.75650764;4.400669746;3.637863625;-11.49723087;4.345102464;-11.32353297;-8.493750683;-2.236014042;-0.494326805
-8.244675571;-11.57671717;-1.523854969;10.58190022;-14.26373788;0.074413614;-5.066025044;19.59636914;18.29985185;18.2321485;28.81655214;5.753638236;4.060416592;-12.13839243;4.115241544;-11.36253226;-8.569000242;-2.113257987;-0.723218537
-6.107321071;-10.67646874;-0.190753518;8.005292223;-11.72849521;-0.071010368;-5.149560217;18.30533448;14.70268842;15.07377557;26.64541272;4.094691904;3.137803939;-12.87908113;0.835426557;-11.8439538;-8.44424165;-2.80499773;-0.895535266
-2.957679632;-10.41841082;1.722443058;6.249038109;-8.737433881;-0.08583522;-4.72972642;14.74244429;8.597431851;10.51919752;19.2269371;0.028305484;1.612601328;-13.2136201;-3.886119992;-12.42025085;-8.442307938;-4.58772968;-0.841929809
-0.034643659;-11.23242241;3.304347736;5.575342252;-5.968363983;0.056621026;-4.404998961;11.10437705;2.344907143;7.375317671;9.666719515;-5.434891508;-0.141768756;-12.94618891;-8.716637327;-13.48;-9.293171267;-8.086272821;-0.596023721
1.203589301;-13.14494457;3.459502816;5.784464306;-4.045984046;0.223786836;-4.629804487;9.133238702;-2.10050019;7.544348543;1.164738344;-11.24915056;-2.074801091;-12.52356839;-13.24283457;-15.62059145;-11.46831885;-13.35892732;-0.374084314
0.155070565;-15.35937531;1.881259328;6.667404486;-2.867603646;0.206793804;-5.269163441;9.333951738;-3.987702891;10.84254086;-4.644291004;-16.43511529;-3.964336493;-12.77673982;-17.62053217;-18.84504297;-14.60317818;-19.23440407;-0.384656371
-2.305516335;-16.4129523;-0.454622575;8.30648235;-1.314360163;-0.113924349;-5.722815176;11.13605389;-3.6124954;15.26310765;-7.889301585;-19.99235057;-5.040322444;-14.17812656;-21.61471969;-22.16923193;-17.47626039;-23.55493191;-0.639725982
-4.172806631;-14.91668071;-1.70143797;11.00820027;2.230486025;-0.658263291;-5.502458403;13.66745536;-1.558839585;18.48373467;-9.382869589;-20.89071256;-4.175801731;-16.14736739;-23.96475518;-23.98981055;-18.59488522;-24.27206068;-0.937434826
-3.454224883;-10.38597731;-0.212690325;14.91925994;8.725773031;-1.188624626;-4.719601595;16.39264285;1.864162973;19.44063694;-9.425162483;-18.32979066;-0.580167176;-17.01106166;-22.78054753;-22.95833405;-16.99031436;-20.64975523;-1.026970289
0.624094888;-3.560938573;4.443623106;19.59141189;17.42204326;-1.475751377;-4.020758578;19.10477523;6.469804077;18.73825084;-7.566356469;-12.18506624;5.528222043;-14.82355749;-16.82342126;-18.72765426;-12.69298084;-13.71345586;-0.800317832
7.123614456;3.999109109;11.17932603;23.82541841;25.7360313;-1.457343486;-4.018441127;21.41109084;11.54704494;17.62821691;-3.421665091;-3.334439447;12.81038423;-8.626406015;-6.729353337;-12.07233569;-6.61973933;-5.633037803;-0.340132549
13.89241287;10.71028124;17.93310182;26.00666123;30.32257875;-1.267330596;-4.736813737;22.34385281;15.48080345;16.50730719;2.335865997;6.425865433;19.37335655;0.678725298;4.844813273;-4.387197086;-0.030588364;1.499898057;0.199732789
18.68988487;15.5630513;22.67018219;24.87467472;28.80319077;-1.121521157;-5.583653095;20.64266988;16.24442867;14.32741212;7.815734722;14.91995883;23.63165313;10.50576084;14.42672424;2.99413274;6.030201031;6.645080134;0.740085449
20.22607859;18.18836423;24.22933164;20.35621791;21.11748442;-1.157141452;-5.879869173;15.65876585;12.620767;9.56;10.84102139;20.34327237;24.90352021;17.80323243;19.55049546;9.183108915;10.97127142;9.940653035;1.289615486
18.55731386;18.54910961;22.61850877;13.92466122;9.660887906;-1.347913641;-5.465854075;8.224647557;5.29256842;1.990245735;10.28027676;21.86483739;23.43788965;20.59441286;19.97120974;13.68447806;14.53576403;12.05508217;1.815313073
14.75285694;16.70064202;18.75313444;8.104447355;-1.871518613;-1.542838875;-4.832057591;0.727301768;-3.112727309;-6.226852722;6.754296231;19.82620798;20.00694305;18.8763978;17.46914784;16.15233739;16.5567935;13.3724232;2.127853776
10.176933;12.89454175;13.91332289;5.224805679;-10.22742676;-1.578193838;-4.656637527;-3.865402405;-9.237365547;-11.36714759;2.201575804;15.50427435;15.45390919;14.34772221;14.45610767;16.29648172;16.84774654;13.64212116;1.949867935
5.854826614;7.862806401;9.234575782;6.083612117;-13.92580295;-1.371903893;-5.176323367;-3.520695549;-10.74970214;-10.46;-1.335118182;10.58575041;10.48721455;9.233697631;12.43030087;14.05707581;15.30950039;12.28137823;1.158817302
2.213581523;2.855913603;5.415601123;9.398999311;-13.52178288;-0.948320463;-5.968868178;1.735684862;-7.497054509;-3.48590676;-2.816489587;6.567362313;5.708409028;5.060191161;11.35531362;9.864052278;12.13014819;9.005399142;-0.00600693
-0.794390277;-0.804713889;2.68028187;12.5401772;-10.85222036;-0.408483674;-6.346763914;9.805496073;-1.32652902;6.267992099;-2.515432948;4.280797175;1.653285741;2.168298021;10.2710603;4.701047398;7.88679735;4.269937941;-1.003924526
-3.363144195;-2.416878763;0.947032738;13.19778483;-7.858252075;0.10948679;-5.999689128;17.61920559;5.211766083;14.10647115;-1.488975161;3.700260908;-1.313606319;0.134738513;8.498873332;-0.135873852;3.453672923;-0.774031113;-1.34052465
-5.509662846;-2.267627951;0.111989017;10.93453139;-5.680407681;0.459537998;-5.293142341;22.65932315;10.31874261;16.80095818;-0.731242553;4.120512836;-3.178103731;-1.427553494;6.408869146;-3.445034991;-0.23671693;-4.730274451;-0.949817734
-6.903667821;-1.302452393;0.301909094;7.527136703;-4.40858415;0.522355178;-4.944026128;24.00023787;13.59579015;14.40782064;-0.601973722;4.655113176;-4.306132907;-2.427780585;5.148274418;-4.457281248;-2.462352443;-6.493728876;-0.279199587
-6.92513143;-0.287059554;1.927560105;5.792916478;-3.430639553;0.260357459;-5.364224399;22.34301342;15.62204931;9.791213823;-0.78882676;4.817163517;-5.196500181;-2.548706687;5.607439001;-2.984855231;-2.917330915;-5.598020837;0.037940876
-4.948293668;0.868964932;5.443647697;7.678100299;-2.039799399;-0.232443028;-6.269331043;19.20073822;17.00286158;6.333433095;-0.666419267;4.83232899;-6.088998342;-1.866426529;7.518681571;0.573994587;-1.81153538;-2.298833868;-0.311900722
-0.750246621;3.025651653;10.9101673;12.95751046;0.071598033;-0.741177594;-6.912229358;15.88707206;17.73425625;5.620825392;0.253981786;5.440362482;-6.73591521;-1.167475509;9.466882742;5.29464868;0.163739799;2.534011051;-1.05092019
5.164439644;6.967867668;17.63914376;19.4726865;2.663749069;-1.029639965;-6.73652113;12.9720879;17.34;6.783107496;2.020672898;7.270106255;-6.555143013;-1.555233607;9.85477531;9.874476959;2.036681095;7.639639762;-1.518329661
11.55734139;12.46426845;24.23024333;24.69196049;5.184727676;-0.982560025;-5.865905884;10.44516055;15.53549981;7.778854861;4.179697492;10.21652634;-5.083613942;-3.586795487;8.10158975;12.96785305;2.912413727;11.68878804;-1.209408349
16.86955893;18.03674773;29.07951482;27.38190816;7.249436912;-0.689694103;-4.994405307;8.297353327;12.74727771;7.399907846;5.959933767;13.31708042;-2.391536278;-6.657070399;5.154691984;13.69526498;2.368292481;13.68273597;-0.205849407
19.90078823;21.7224932;31.1143828;28.12860821;9.087480534;-0.396200036;-4.780725409;6.97;9.991637746;6.31207319;6.643150964;15.2983062;0.872360854;-9.221208491;2.902299171;12.08037033;0.673355242;13.30631516;0.868919755
20.38638368;22.32060385;30.31284008;28.39776589;11.64664231;-0.341729516;-5.289540223;7.266039721;8.195181277;6.35728766;5.954005932;15.44393506;3.853406669;-9.791808217;2.892982179;9.063213781;-1.343560509;11.03914155;1.344820159
19.11166455;20.20100504;27.6750946;29.01481359;16.16985583;-0.602614097;-5.969872705;9.75122994;7.524118706;8.809387283;4.218861559;14.13136814;6.004241368;-7.991294994;5.27764724;5.954004777;-2.750660529;7.90883057;1.042814056
17.46547277;17.06190643;24.66941432;29.39985766;23.36791221;-1.055040657;-6.171884879;14.0753855;7.279139243;13.09222381;2.119202537;12.58119685;7.355662459;-4.836046643;8.724356509;3.62876752;-3.027824222;4.990271596;0.403285512
16.68915095;14.81373882;22.51170408;28.22078525;32.63866698;-1.482659235;-5.725453001;18.74481701;6.445069988;17.01535424;0.151800544;11.9594786;8.3588805;-1.993508846;11.35489354;2.058385978;-2.292839352;2.946566603;0.095169169
17.26997487;14.4122439;21.70998167;24.88198434;41.88764817;-1.736883483;-5.064899668;21.61153811;4.460917549;18.29987633;-1.789178444;12.50744756;9.448541278;-0.553881504;12.03356442;0.585980325;-1.077741298;1.89056208;0.437276985
18.81604701;15.4581811;22.07172702;20.4978051;48.2277181;-1.820667975;-4.807497283;20.88243009;1.619202279;16.14194271;-4.286574669;13.39458924;10.67977492;-0.25336819;11.11031674;-1.218213147;0.170022583;1.607303244;1.125271066
20.41715882;16.75523808;23.03423503;17.38296088;49.2879404;-1.83858144;-5.185618292;16.09003906;-1.18381942;11.60686922;-7.718222406;13.439102;11.71047238;0.251486478;10.11984777;-2.833674136;1.460892983;1.902355041;1.497335297
21.1915113;17.29223553;24.00257248;17.33658811;44.40373565;-1.872968874;-5.848941966;8.442635914;-3.118801661;6.655741742;-11.55086414;12.13448261;12.11160245;2.271555502;10.66254486;-2.901572976;3.195348755;2.760758129;1.109700399
20.65675308;16.86334433;24.47887675;20.06756359;34.95246631;-1.904210265;-6.200730262;0.312180929;-3.991266012;2.696431034;-14.32018973;10.14005859;11.73138052;5.995041546;13.23521052;-0.242113713;5.692564329;4.189246312;0.12702709
18.76167971;15.92181049;24.01724775;23.08705578;23.60522489;-1.843118742;-5.944000587;-5.874428077;-4.305624312;-0.165290079;-14.54340682;8.793725747;10.81244903;10.25148364;16.78724995;4.94581841;8.700078125;5.911632203;-0.807628055
15.68998017;14.92242145;22.2038915;23.26249134;12.96206032;-1.634610684;-5.335405639;-8.721730616;-4.830411522;-2.686775963;-11.99233092;8.988331319;9.772183244;13.28987179;19.27717901;10.70736204;11.31869154;7.236615584;-1.11068325
11.67951481;13.79322492;18.80379835;18.90339592;4.428631864;-1.325978104;-4.927935043;-8.330909633;-6.02637859;-5.392701424;-8.274980185;10.29268922;8.828154395;13.95559377;18.85252318;14.24517521;12.46754114;7.286371905;-0.742164412
7.010586208;11.99986649;14.00529188;10.82668675;-2.011812895;-1.030861904;-5.055798186;-5.935334449;-7.750295644;-7.841772301;-6.048774163;11.04396047;7.771987349;12.38049609;14.9030327;13.60326361;11.58306023;5.472331264;-0.224757955
2.114734735;9.117432599;8.538254432;1.673680081;-7.124835515;-0.824232403;-5.540250446;-3.006158717;-9.399253353;-8.877846423;-7.240261596;9.401921672;6.081223798;9.723383042;8.361028534;8.94138847;9.03677613;1.887355437;-0.189248178
-2.370481978;5.384084089;3.49120761;-5.870808615;-11.45169896;-0.674237677;-5.876313123;-0.425594229;-10.33727729;-7.607937629;-11.55157931;4.6162839;3.305737033;7.247618219;1.128283145;2.454795604;5.951295082;-2.668365226;-0.841994724
-5.724974331;1.733830733;-0.128585862;-10.52123454;-14.76811999;-0.484470445;-5.711463813;1.776035011;-10.28802882;-4.254870275;-16.47890376;-2.401039538;-0.537449223;5.491808175;-4.952074323;-3.021195476;3.540260652;-7.043725985;-1.807342749
-7.406583389;-0.754432248;-1.842148592;-12.49075863;-16.29734476;-0.212860925;-5.166397348;4.041805316;-9.45994069;-0.185777707;-18.97998828;-9.576735223;-4.838909114;4.131185507;-8.928590011;-5.711314786;2.444645393;-10.23117808;-2.465148314
-7.279366889;-1.577853692;-1.8787718;-12.46837183;-15.40404441;0.047986286;-4.708159802;6.629309729;-8.383412438;2.877557774;-17.62208626;-14.84589984;-8.641333949;2.518256023;-10.92345423;-5.707534468;2.512557398;-11.70336623;-2.476558241
-5.655511138;-1.153819809;-0.986592016;-10.62817892;-12.17663906;0.118873673;-4.707334304;9.190352456;-7.610774258;3.834562651;-13.5937846;-17.16358124;-11.11425575;0.358433605;-11.6648131;-4.42080942;3.106799309;-11.46339303;-2.041428736
-3.12934881;-0.531573313;-0.001810037;-6.66273719;-7.470574753;-0.114952697;-5.098172674;10.89283191;-7.463259215;2.683469384;-9.798885242;-16.75197361;-11.97501152;-2.055933926;-11.77515895;-3.262786307;3.628976436;-9.894909724;-1.680598989
-0.315284908;-0.67779465;0.571037886;-0.754277356;-2.444130112;-0.577829065;-5.452972516;10.97474076;-7.931815718;0.29786594;-8.734457801;-14.59958167;-11.60798226;-4.182629293;-11.31863187;-2.655624295;3.838536365;-7.576900799;-1.75659721
2.363118344;-1.823824346;0.759334723;5.596347525;2.022631838;-1.023607836;-5.390019531;9.313413179;-8.737577402;-2.161269594;-10.78792398;-11.72491934;-10.81927304;-5.759649392;-9.869160371;-2.066484032;3.785374936;-5.141439536;-2.164725793
4.750898896;-3.286969649;1.041387877;9.941859793;5.63434014;-1.204109335;-4.927944254;6.601343555;-9.494861562;-3.716719525;-14.20411866;-8.733753793;-10.38058187;-7.020058594;-6.97771845;-0.840309295;3.534200044;-3.13460156;-2.457320655
6.91565901;-3.84872707;2.059023574;10.45676013;8.607939105;-1.058905409;-4.459498751;4.010347346;-9.899534633;-3.735991087;-16.60231859;-5.823016565;-10.63468889;-8.413100243;-2.662444051;1.031841662;3.018033341;-1.838369222;-2.268495878
9.033910761;-2.442178051;4.262264194;7.51245438;11.39915293;-0.772091365;-4.379360696;2.569087965;-9.868189887;-1.953475301;-16.71920351;-3.009069445;-11.38865128;-10.11983517;2.423369021;2.901797508;2.188317413;-1.128198599;-1.642954589
11.26063489;1.23520301;7.626491769;3.84455025;14.45176885;-0.644660468;-4.720657376;2.63540916;-9.572948778;1.408159696;-15.00832114;-0.296529761;-12.14019901;-11.83010817;7.230253847;4.133094938;1.299860635;-0.528828556;-0.973208521
13.61627653;6.483547082;11.55686126;2.911715228;18.03312855;-0.879059012;-5.137582012;3.739532546;-9.360470681;5.444323364;-12.81870141;2.277908239;-12.47814708;-12.98941171;10.76472026;4.727048294;0.992921228;0.455632991;-0.616282856
15.92662906;11.83582209;15.04480571;6.506584695;22.07651762;-1.44113219;-5.240845896;4.826093684;-9.602000019;8.606864298;-11.10481636;4.593161947;-12.39455088;-13.27930937;12.46066697;5.25109656;1.986533782;1.897430045;-0.556697564
17.8527831;15.65746485;17.04745968;13.37093765;26.00024919;-2.098086071;-4.963723808;4.722739924;-10.55496755;9.226839028;-9.902907951;6.302666852;-12.30963387;-12.87637567;12.294818;6.118068264;4.553521673;3.227408591;-0.437599762
19.01509144;16.84988203;16.93602351;19.88042846;28.65298572;-2.588769006;-4.615462487;2.615671495;-12.2918135;6.378708235;-8.941006851;6.753108763;-12.8001977;-12.242298;10.67910029;6.938684014;8.191126277;3.501499528;0.062424984
19.14962108;15.33290957;14.77935779;22.32379456;28.60878891;-2.785281044;-4.578733215;-1.619869897;-14.68546039;0.550170867;-8.580307571;5.214254648;-14.21462566;-11.64014507;8.282592851;6.665780455;11.79855845;2.062643875;0.858433474
18.19417266;12.04468222;11.28319227;19.13725886;24.84098985;-2.729276649;-4.941959737;-7.308982811;-17.40007813;-6.416979745;-9.933680507;1.449642194;-16.42519524;-10.84052782;5.890772066;4.535352612;14.28627832;-0.848465151;1.455652338
16.24154897;8.412996463;7.400847431;11.57853953;17.44905144;-2.541717379;-5.412801708;-13.1271375;-19.8731428;-12.18894009;-13.82823833;-3.737643702;-18.86799464;-9.322231228;4.280538111;1.017904014;15.1869425;-4.03438367;1.348775704
13.40894238;5.555634454;3.852221649;2.584999483;7.915811244;-2.306127499;-5.589331199;-17.51779291;-21.36026048;-15.10180798;-19.51575297;-8.522914158;-20.82591338;-6.818269708;4.028521817;-2.136493869;14.81883182;-5.981482626;0.485959188
9.762378079;3.681695175;0.864965952;-5.101570271;-1.419944632;-2.028587405;-5.329095395;-19.2851993;-21.14480299;-14.89215887;-24.49233358;-10.86629025;-21.75964062;-3.71734333;5.254893666;-2.968084291;13.89924237;-5.820102595;-0.622264451
5.407206184;2.103196739;-1.69690341;-10.10456089;-8.461057296;-1.69124284;-4.869662267;-18.12435219;-18.90868802;-12.57383354;-25.94089281;-9.701286069;-21.4873991;-0.920837619;7.458199296;-0.729466433;12.93957132;-3.930558387;-1.274644311
0.706777057;-0.104208804;-3.934239848;-12.25048829;-12.34572851;-1.326411738;-4.594127414;-14.78284847;-15.069275;-9.635393834;-22.83310361;-5.67129487;-20.14654498;0.783037194;9.650078125;3.490664262;11.91728906;-1.722533319;-1.137476924
-3.562310471;-3.217031297;-5.566510302;-11.64422249;-13.66880587;-1.026995725;-4.670348401;-10.68418095;-10.78178833;-7.151083892;-16.94794735;-0.78613629;-18.0286025;1.329292272;10.84861552;7.515841812;10.47488391;-0.695638565;-0.519324754
-6.321913751;-6.397738022;-5.924147409;-8.087179485;-13.78382379;-0.879508855;-4.906229765;-7.157709006;-7.444348271;-5.347128799;-11.77581758;2.862437923;-15.44173167;1.448185518;10.71064061;9.675799563;8.444378408;-1.422241657;-0.120520637
-6.601094954;-8.045582916;-4.308129229;-1.427689395;-13.70548681;-0.8862958;-4.951693957;-4.716248721;-5.893855789;-3.75186869;-9.9813684;4.441156452;-12.68401122;2.105714566;9.894726326;10.00695718;6.215097247;-3.168842391;-0.458035661
-4.030950454;-6.788103128;-0.464461543;7.587579635;-13.42509571;-0.956236018;-4.646094811;-2.852441148;-5.797899588;-1.656892224;-11.37034666;4.789868386;-10.0808802;3.745357873;9.835590644;10.10759385;4.58983959;-4.419063593;-1.442679438
0.897672961;-2.43903257;5.166138944;16.95480218;-12.12503044;-0.978250714;-4.174284174;-0.510836755;-5.736711633;1.475199816;-13.01176961;5.613242479;-7.969771191;5.939817678;11.968376;11.76787533;4.208612358;-3.914137869;-2.457658518
7.008921697;3.775755909;11.59490969;24.13727928;-9.074301857;-0.912730178;-3.882597934;3.074840658;-4.050751602;5.819449991;-11.47710257;8.098603001;-6.568011637;7.731128119;16.83507348;15.47657501;4.99957958;-1.469360558;-2.865096669
12.95589478;9.91606312;17.71480409;27.47269857;-4.454822289;-0.817815625;-3.936073276;7.765954534;0.038335466;11.14546233;-5.450739512;12.04970265;-5.791438849;8.373589196;23.6414444;19.99162308;6.123202643;1.982914522;-2.512242019
17.74922193;14.46324064;22.71939377;27.18614823;0.571043117;-0.786783401;-4.153477425;12.56464801;5.804555674;16.81879652;3.327402571;16.18642668;-5.184853481;7.868053988;30.58024898;23.28643116;6.493608073;5.091701078;-1.821791219
20.9835061;17.07808883;26.26388578;25.17920953;4.632980171;-0.853722372;-4.187085997;16.27564907;11.38052553;21.87706539;11.45027902;19.29083152;-4.090439796;6.858581707;35.74512052;24.07513687;5.498460151;6.971415298;-1.411966555
22.68538498;18.45091423;28.33401665;23.725864;7.170550189;-0.952827108;-3.879862867;18.27528253;14.90161018;25.29408359;16.33403537;21.1829109;-2.026156427;5.996221603;38.06587064;22.68394257;3.373084518;7.633098148;-1.585752483
22.98680752;19.4092641;28.98862567;24.05076498;8.888729021;-0.967908517;-3.453520133;18.79992117;15.62947199;26.4196236;17.75730818;22.67157035;0.921481308;5.312471204;37.68271982;20.60774347;0.954369153;7.714717578;-2.120194071
21.9245187;20.01696835;28.18758733;25.78985756;11.25814138;-0.829473506;-3.332483018;18.54450241;14.23552101;25.3426084;17.30433389;24.51787849;3.943123152;4.128587983;35.56099705;19.17404429;-0.971470499;7.800698046;-2.510087891
19.51417129;19.39248182;25.807386;27.56250157;15.38472105;-0.578283757;-3.753211211;17.9079173;12.0428821;22.84297648;16.39111089;26.32113726;5.738577197;1.582597134;32.66216815;18.4340259;-2.201067784;7.893799523;-2.427308915
15.98426959;16.39698579;21.79523491;28.01756262;21.04583366;-0.347158507;-4.52099368;16.50583481;9.826650115;19.83974179;14.71891966;26.35169325;5.070465869;-2.640739237;29.27103543;17.16692336;-3.115485262;7.428452732;-1.988858378
11.90664398;10.64832493;16.33415944;26.48422645;26.5724932;-0.281949814;-5.151264002;13.36509483;7.127720714;16.66669549;10.53210314;22.59750959;1.380134855;-7.939324298;24.93844902;13.95223854;-4.186224405;5.764688071;-1.617249569
8.047891797;3.054526239;9.913569622;22.88500168;29.66113777;-0.464642589;-5.27960981;7.67832269;2.644171706;12.74423741;2.411517949;14.28374802;-4.854947576;-13.04662386;19.04361996;8.420019531;-5.429304241;2.741849236;-1.643305024
5.010156201;-4.564503492;3.269592848;17.300837;28.57832084;-0.884907943;-4.971263769;-0.443871762;-4.585011837;6.998840837;-9.029117948;2.699189808;-12.23045863;-16.69553488;11.53943431;1.70083564;-6.287229211;-1.13344713;-2.017162718
2.921511694;-10.48833021;-2.783090255;9.826261781;23.01301711;-1.457159284;-4.646698835;-9.787622611;-14.12832904;-1.180965738;-21.08037645;-9.327408414;-18.96700595;-18.21265489;3.32653613;-4.219868719;-6.053547332;-4.970993629;-2.376792058
1.416572973;-13.98146421;-7.57364179;0.925030494;14.13286205;-2.050430858;-4.690492607;-18.55299726;-24.08150156;-11.13448346;-30.6054313;-18.93122243;-23.64749471;-17.68509948;-4.023210707;-7.685507836;-4.490778136;-7.992211467;-2.392972791
-0.065171855;-15.41913979;-10.771364;-8.14419845;3.940789697;-2.512408237;-5.102606714;-25.19740249;-32.04957673;-20.91644053;-36.04011741;-24.61300125;-25.77477183;-15.70557211;-9.015213567;-8.198956457;-2.116260152;-9.852952734;-2.067093654
-1.869739179;-15.63746087;-12.45874774;-15.45868721;-5.590494712;-2.700659288;-5.512141821;-29.03254798;-36.46734619;-28.18118068;-38.0744811;-26.61020842;-25.86759119;-12.98430197;-10.96;-6.397600902;0.106251251;-10.60057904;-1.715183575
-3.888357373;-15.09865494;-13.01502006;-19.27372159;-13.12593851;-2.538512367;-5.537105726;-30.24803285;-37.30063478;-31.40119401;-38.54671386;-26.16116744;-25.05611881;-10.11242962;-10.22689599;-3.386654808;1.440478848;-10.39321749;-1.665520206
-5.635187986;-13.57178116;-12.8461639;-19.02170171;-18.12648692;-2.07766344;-5.151272947;-29.49019506;-35.69103912;-30.60789966;-38.6241179;-24.41100088;-24.41409456;-7.535945622;-7.910678404;-0.070887537;1.875846524;-9.285930644;-1.955660477
-6.56555475;-10.56425179;-12.12086781;-15.65270123;-20.67921218;-1.512235232;-4.711944005;-27.41023296;-32.93927661;-27.1986729;-37.8944588;-21.85018679;-24.4118631;-5.594564682;-5.186132181;3.041114031;2.041929731;-7.283121569;-2.30601708
-6.405948228;-6.088777898;-10.7073266;-10.98019493;-21.23779246;-1.100554158;-4.619724408;-24.50566958;-29.68614924;-23.02533619;-35.09793729;-18.58428782;-24.7935637;-4.476914048;-2.786257314;5.614057088;2.611211985;-4.57480364;-2.386804824
-5.285813958;-1.051307429;-8.38332828;-6.521436232;-20.42115801;-1.018858795;-4.929342381;-21.24156385;-25.89090851;-19.43709593;-29.73034876;-14.96877275;-24.91170168;-4.106690311;-0.890793948;7.27539333;3.696581861;-1.671454421;-2.1259696
-3.613956041;3.151048927;-5.174860223;-2.754795087;-18.86834367;-1.241851636;-5.283062823;-18.17814382;-21.48141022;-16.868743;-22.99049634;-11.87214723;-24.26271568;-4.111467501;0.612660725;7.749700762;4.768950014;0.783094187;-1.772933965
-1.810509473;5.566830926;-1.54295381;0.65433421;-17.09101003;-1.547934694;-5.241563756;-15.87494733;-16.99124924;-15.07126902;-17.18365945;-10.25192898;-22.85334047;-3.987052668;1.780102349;7.231302329;5.188158597;2.447821596;-1.662344286
-0.082736119;6.417862756;1.771155831;3.970657498;-15.32709128;-1.663387967;-4.713045517;-14.61795166;-13.56641933;-13.61755463;-14.11876194;-10.42458151;-21.17020922;-3.392253539;2.463438203;6.552072153;4.900788826;3.618746992;-1.899785838
1.611242147;6.973222792;4.154800231;6.743725995;-13.48188052;-1.449778752;-4.078242474;-14.23882501;-12.32085951;-12.23791185;-13.94455214;-11.73932921;-19.82045559;-2.36956305;2.439841437;6.806819789;4.66655693;5.103669166;-2.262237836
3.390618155;8.562124059;5.457876064;8.056671943;-11.23732967;-0.995726465;-3.878767131;-14.23656028;-13.5979805;-10.8322923;-15.44114046;-13.02875914;-19.13865971;-1.326616489;1.6547663;8.574728181;5.522028914;7.597668278;-2.406147502
5.183720619;11.41152521;5.949800098;7.46181756;-8.302315815;-0.541887084;-4.336345052;-14.12092672;-16.7498442;-9.338202537;-17.42133186;-13.50860331;-19.0453277;-0.798099656;0.338409475;11.30516338;7.827167633;10.94510725;-2.190311068
6.549520948;14.19949165;5.909033793;5.688805673;-4.656629099;-0.297265407;-5.134226991;-13.65988186;-20.56091518;-7.696658035;-19.85835877;-13.36423004;-19.21254882;-1.168394607;-1.113944405;13.42215817;10.6549752;13.86755465;-1.812697296
6.749336572;14.74712003;5.204322392;4.334191129;-0.619612716;-0.290189515;-5.665255616;-12.78235795;-23.88888587;-5.947848335;-23.61308174;-13.49279505;-19.34038945;-2.532533576;-2.394448884;13.21076046;12.10885385;14.49770254;-1.630505151
5.098443357;11.45427705;3.291528066;4.638042907;3.316924793;-0.366718552;-5.535764855;-11.23257929;-25.9851012;-4.275606778;-28.97891818;-14.5871434;-19.28711849;-4.729223895;-3.453527092;9.946872854;10.47497566;11.50393564;-1.826122825
1.441442933;4.514923166;-0.275870837;6.347448204;6.785675364;-0.328340633;-4.885984816;-8.38;-26.37159178;-2.858163447;-34.47838536;-16.34007813;-18.97456533;-7.446536989;-4.452934245;4.492356844;5.442955931;5.102952775;-2.228448359
-3.53931939;-3.946724741;-5.199238801;7.729877493;9.761443861;-0.091404966;-4.252209545;-3.538730657;-24.66101211;-1.6384406;-37.28144155;-17.49680516;-18.23905624;-10.30139481;-5.557117134;-1.098280309;-1.503176533;-2.776369628;-2.461312883
-8.443184592;-10.95930299;-10.23580748;6.895933789;12.52732176;0.257068119;-4.103314531;3.281808973;-20.77617764;-0.308867616;-35.23775298;-16.80538269;-16.87730169;-12.8994319;-6.754263616;-4.746860274;-7.868557856;-9.408534709;-2.290619527
-11.73439656;-14.32161428;-13.74654089;3.44492641;15.3769053;0.537947714;-4.465813992;10.74802989;-15.54143083;1.334115681;-28.98020112;-14.15630245;-14.94884482;-14.94863542;-7.860642584;-5.549609492;-11.6038857;-12.76274885;-1.853021842
-12.51608271;-13.71862981;-14.6915451;-0.948035921;18.2233036;0.613134806;-4.957432925;16.33389601;-11.02986958;2.896187454;-22.23573302;-10.98449823;-13.09428913;-16.43068774;-8.688754719;-4.230658542;-12.23208523;-12.62126498;-1.548282474
-11.03879374;-10.66089851;-13.35042;-3.621044458;20.37695456;0.461811958;-5.17288199;17.39097961;-9.987260063;3.24600694;-19.75667428;-9.525720639;-12.49696416;-17.69428899;-9.208984735;-2.569204529;-10.88047219;-10.57133439;-1.680809042
-8.593273001;-7.371788349;-11.18031736;-2.953168413;20.68894538;0.154774572;-5.054061001;12.62774233;-14.32003906;1.047839366;-24.18369946;-11.37709894;-14.32340361;-19.29990291;-9.543230772;-2.188745447;-9.26;-8.858315927;-2.169984553
-6.803786057;-5.416405715;-9.855774241;0.246591276;18.05796752;-0.222778406;-4.909998583;3.058276278;-23.54816577;-4.268034615;-34.11834293;-16.34941517;-18.90423109;-21.61322163;-9.790776043;-3.499417451;-8.395673737;-8.869052935;-2.597106029
-6.731527111;-4.954120149;-10.17044958;3.160973708;12.07052869;-0.615080966;-5.088275712;-8.272819653;-34.46565831;-11.80345303;-44.88320815;-22.41088958;-25.22096726;-24.40352529;-9.853725125;-5.466985352;-8.049286255;-10.27263426;-2.558250355
-8.333483414;-4.986694847;-11.59748012;2.987750145;3.419871677;-0.97393265;-5.621940674;-17.70997418;-42.58485401;-19.39855759;-51.47247744;-26.76446989;-31.15836761;-26.80313597;-9.443806004;-6.335729641;-7.194111763;-11.37737183;-2.012890873
-10.58779543;-4.271329529;-12.79276227;-0.919446892;-6.178309373;-1.219233134;-6.187566203;-22.71614246;-44.64971226;-24.746079;-51.58824708;-27.34425995;-34.48835353;-27.7704836;-8.29187658;-4.816665723;-5.069169968;-10.39707317;-1.313338987
-12.15408309;-2.181245412;-12.59834583;-6.422964336;-14.59915297;-1.253474191;-6.408506301;-22.88709779;-40.58200903;-26.68274989;-46.66375912;-23.79674713;-34.01738799;-26.79357083;-6.387100869;-0.959915035;-1.917392323;-6.688838306;-0.882573761
-12.10931238;1.038218449;-10.7583554;-9.997927279;-20.16960681;-1.041877453;-6.210511856;-19.72820816;-33.46764705;-25.7235543;-40.34414867;-17.43460241;-30.16763203;-24.30878023;-4.026922519;3.856507192;1.180582864;-1.09332518;-0.828641587
-10.3177242;4.641426382;-7.868376699;-9.149510111;-22.325941;-0.686273024;-5.89086343;-15.48716942;-27.52126969;-23.44851535;-35.76207938;-10.35374275;-24.62128244;-21.45904711;-1.617025511;7.807506509;3.195369119;4.785019797;-0.850696184
-7.312207776;7.951616006;-4.751731641;-4.101999919;-21.71;-0.402239374;-5.83621421;-11.87736562;-25.41818761;-21.236939;-33.67356986;-4.372745785;-19.28743454;-19.31070638;0.611029285;9.782560569;3.983935575;9.723954895;-0.534530707
-3.907509103;10.65083182;-1.897435158;2.411155195;-19.66788084;-0.385325168;-6.157323976;-9.448289359;-26.83601174;-19.34921351;-32.64135937;-0.409930349;-15.28925491;-18.1036978;2.709453146;10.05153747;4.358474201;13.548507;0.223036036
-0.864308457;12.65476817;0.568364286;7.011392087;-17.46783138;-0.659589618;-6.586783929;-7.796861787;-29.13402276;-17.05023569;-30.77887516;1.515252596;-12.60007813;-17.12639435;4.845903574;9.992893178;5.336125081;16.85441937;1.056888383
1.254652587;13.83319701;2.490862909;7.795410739;-15.70728157;-1.037829782;-6.736410711;-6.233819919;-29.51366314;-13.59306944;-27.45904617;1.906003764;-10.45435578;-15.32869146;7.016912336;11.08547681;7.214668573;20.11968472;1.416123644
2.132745245;13.94066623;3.424924024;5.260356178;-14.22132305;-1.24314229;-6.470257867;-4.333531121;-26.97291496;-9.166441556;-23.64983445;1.420763429;-8.118516725;-12.18649918;8.93717331;13.87552214;9.268993667;23.02075257;1.061546496
1.795895005;12.862127;2.909454711;1.574353248;-12.45250215;-1.106987843;-6.038836687;-2.055568957;-22.66587765;-4.960323806;-20.81713046;0.708087408;-5.428364061;-8.114360545;10.25434383;17.63879182;10.33650593;24.55959441;0.33404527
0.723107425;10.91179172;1.082518951;-1.062868919;-9.94465677;-0.687310464;-5.84499704;0.460666112;-18.61699717;-2.279115326;-19.5157226;0.355731854;-2.773121827;-4.097058188;10.91912912;20.94268645;9.797056612;23.88455097;-0.080597955
-0.247852399;8.80650132;-1.030703137;-1.715950243;-6.595684295;-0.210355616;-6.061114373;3.11375462;-16.01367429;-1.469504934;-18.93376613;0.757322285;-0.67413458;-0.879423858;11.33411317;22.64373484;8.099257594;21.06652566;0.266913294
-0.371836744;7.202059221;-2.054787228;-0.880348168;-2.548724542;0.114434178;-6.461544752;5.86273104;-14.50306039;-1.607949386;-17.74298096;1.842695195;0.61711455;1.554443548;12.03676773;22.53909121;6.35046024;17.10867567;1.144922285
0.378822646;6.114064051;-1.378378338;0.315553469;2.088589958;0.250556274;-6.635290251;8.60332011;-12.9502013;-1.250765172;-15.46598787;2.859275597;1.179061813;3.724828337;13.08;21.18494656;5.281760908;13.1249629;1.740524939
1.013184149;4.748160245;0.072416499;1.061242598;7.383835161;0.332639365;-6.385257549;11.08923179;-10.83741758;0.365684354;-13.15046851;2.491379463;1.162564875;5.832650883;13.6230463;19.08640433;4.462913505;9.37267282;1.274032474
-0.026682253;2.010310297;0.239757927;1.248807187;13.42100046;0.516117006;-5.938416246;13.00658006;-8.979600796;2.687762755;-12.734959;-0.562685286;0.515431627;7.134860925;12.19720704;16.00465042;2.490353977;5.01566979;-0.342227211
-3.753976257;-2.583262317;-2.539796795;1.191298779;19.97666398;0.816632544;-5.759903728;14.12146442;-8.891718216;4.315945951;-15.56805196;-6.774612472;-1.029147783;6.192243803;7.632093457;11.06;-1.898067571;-1.072974998;-2.339942117
-9.575233787;-8.278067061;-7.973246284;1.125646874;26.33398833;1.083055356;-6.131269008;14.33575249;-11.37136019;4.18622922;-21.2231313;-15.21257285;-3.68257596;1.948096921;0.060370837;3.650419484;-8.604319445;-9.048474917;-3.587407083
-15.15919605;-13.29908283;-13.54461077;0.99944568;31.43505155;1.125976121;-6.878416891;13.58819866;-15.58283685;2.447400424;-27.52629031;-23.65739324;-7.293827277;-5.164480909;-8.762714966;-5.532169083;-15.8196248;-17.42071038;-3.377261662
-17.58164433;-15.87557006;-16.00696603;0.646392518;34.2859166;0.883433929;-7.505848234;11.71341509;-19.52769374;0.265290786;-31.80748054;-29.4965694;-11.28691555;-13.03773228;-16.18131119;-14.30152017;-20.89702357;-23.6403757;-1.908147886
-15.15661589;-15.39356278;-13.71028304;0.049082193;34.31144999;0.473246187;-7.624743442;8.432312571;-21.60236661;-1.306813557;-32.51116808;-30.99961912;-14.92064095;-18.93491097;-20.02319604;-19.94749838;-21.88864368;-25.64759005;-0.101240324
-8.73369706;-12.8360074;-8.048307682;-0.653243464;31.40512845;0.085610239;-7.291367159;3.525378357;-21.98388197;-2.444477716;-30.09162603;-28.27734592;-17.68886221;-21.11719157;-19.75838975;-20.81633246;-18.68706447;-23.28700221;1.082429841
-1.468935149;-10.15545811;-2.823213156;-1.437816373;25.69648513;-0.183918609;-6.949801594;-2.945990263;-22.66490569;-4.682755961;-26.65927599;-23.33124953;-19.57619;-19.89599103;-16.67223466;-17.39098035;-13.00124506;-18.52041865;1.280344213
2.913317007;-9.008681625;-1.840546503;-2.648067752;17.31924811;-0.405641956;-7.030320846;-10.56613131;-26.02279602;-9.873701226;-24.68890288;-19.08596521;-21.00170896;-17.32894523;-12.98067433;-12.04972165;-7.244496953;-14.23254075;0.849834051
2.268904162;-9.763079337;-6.409227258;-4.905328671;6.463235137;-0.722980896;-7.565735638;-18.70403449;-32.98121824;-18.7324491;-25.6474791;-17.89470324;-22.50793347;-15.76474304;-10.54291883;-7.622586904;-3.159935324;-12.46806759;0.442747757
-2.837405205;-11.47764766;-14.54565781;-8.686458174;-6.286648669;-1.179780014;-8.16898693;-26.7296827;-42.15388538;-30.07301651;-29.3340269;-20.34665132;-24.40727164;-16.2814743;-10.04129089;-5.744556767;-1.108588042;-13.34771346;0.438821747
-9.751344274;-12.81786365;-22.433298;-13.90799292;-19.64274938;-1.630602039;-8.38520715;-34.10660526;-50.59758527;-41.30355711;-34.18532177;-25.05426369;-26.59120469;-18.10966667;-11.05914143;-6.1358594;-0.371605849;-15.37197908;0.712655673
-15.59393794;-13.16191476;-27.02233877;-19.88317418;-31.7216888;-1.828599197;-8.09371715;-40.30149318;-55.58171795;-49.79878702;-38.20978703;-29.52600275;-28.58;-19.36684555;-12.7761022;-7.221533387;-0.056455806;-16.76783203;0.878495453
-19.02500278;-13.04193411;-27.85841337;-25.69804592;-40.66185583;-1.627528748;-7.597714006;-44.66876555;-56.07810004;-54.16123918;-39.94016037;-31.58321236;-29.75312928;-18.46604847;-14.59684749;-7.504389739;0.166451563;-16.79356082;0.731550819
-20.72064565;-13.61702515;-26.90043013;-30.67971065;-45.41850974;-1.126396219;-7.331597819;-46.53696529;-52.99943391;-54.5686549;-38.93597711;-30.46999237;-29.63048042;-15.1349482;-16.23270539;-6.60896127;0.00904067;-16.04905385;0.456383312
-22.3889837;-15.64402331;-26.65870738;-34.55326855;-46.19299399;-0.624895521;-7.465313458;-45.54970185;-48.23267916;-52.16667696;-35.73300663;-27.03440103;-28.07742357;-10.37771101;-17.34049111;-5.280277996;-0.905426937;-15.69283654;0.4173222
-25.20767516;-18.7839017;-28.20190925;-37.18404033;-44.16591105;-0.414011215;-7.770491897;-42.03732627;-43.36919494;-48.14990876;-31.44607802;-22.97390381;-25.34960369;-5.560794338;-17.25112186;-4.509555671;-2.473849857;-16.32881438;0.74876544
-28.88318778;-21.77660493;-30.52500382;-38.20800857;-40.7041455;-0.565241406;-7.861067742;-37.07864002;-39.07939089;-43.25475283;-27.31222592;-19.72281509;-21.95657482;-1.42089043;-15.21251404;-4.625198163;-4.005449618;-17.51048706;1.155405935
-31.9316001;-23.30652248;-31.5757497;-36.98573819;-36.60877632;-0.884785635;-7.570510958;-32.09579002;-35.38269241;-37.88493587;-24.34032683;-17.72400468;-18.40324889;2.264222486;-11.03631695;-5.109230755;-4.638834394;-18.21525137;1.139464198
