Channel 1 - P4;Channel 2 - O2;Channel 3 - P8;Channel 4 - T8;Channel 5 - C4;Channel 6 - Cz;Channel 7 - Fz;Channel 8 - F4;Channel 9 - Fp2;Channel 10 - F8;Channel 11 - Fp1;Channel 12 - F7;Channel 13 - F3;Channel 14 - C3;Channel 15 - T7;Channel 16 - P7;Channel 17 - P3;Channel 18 - O1;Channel 19 - Pz
-22.26614088;-14.14820397;-25.95560298;-20.16523932;-19.55431312;-8.751207323;116.3069554;-3.66200345;20.48711556;-17.26478378;-6.590266039;-17.67210017;7.260701333;-34.6816719;-12.23372474;12.56603215;60.36165869;21.27608237;0.865892454
-15.49470425;-7.842546393;-16.23853993;-12.38917995;-17.15087934;-7.157200343;95.42693347;5.004086835;29.15295461;-5.14809472;2.677154219;-7.706101798;11.89966304;-26.95808123;-6.164479108;20.78067127;54.59737728;24.46352434;1.227399959
-5.166616344;1.011812842;-2.867463601;-2.826883207;-9.858088903;-3.707420587;47.11;9.39808973;25.45;6.266789195;6.893828773;1.333222669;10.28084384;-13.96102456;-2.294911453;22.98272645;35.0586031;20.78184058;1.521257492
3.716409558;7.409532853;7.670258603;5.057910298;-0.602658611;-0.296520123;-2.756686426;8.134897675;12.97737723;11.77064998;4.811176214;5.418619939;3.859704413;-2.342528186;-2.433014216;18.62109192;11.95634797;13.03016946;1.532970449
7.919436807;8.641550814;11.6795613;9.395756989;7.192866445;1.423975231;-30.85;3.231193022;0.002400138;10.50777891;-0.923100242;4.076310446;-3.165858789;3.274878807;-5.30012017;10.5950055;-4.093015009;5.575129078;1.189785303
7.826335334;5.907528995;10.31056155;11.19253116;11.84925444;1.067588048;-30.29631672;-1.432132448;-5.957940317;6.25167887;-5.67221194;0.496940576;-6.397499167;2.932436925;-7.51283931;3.18907279;-8.54635977;1.429242035;0.657036885
6.647686598;2.982391129;8.134532187;13.49578541;14.226925;-0.406110887;-12.31690451;-2.621962868;-2.506637571;4.475989824;-5.877393059;-0.945932539;-3.772210872;0.577793135;-5.872459401;-0.523673901;-4.652022252;0.684591184;0.271292716
7.760485689;3.089014049;9.494942708;18.99219719;16.63266787;-1.532118152;4.305953069;0.519246715;7.148751811;8.526198085;-1.113722958;2.151326041;3.523054647;0.692226826;0.500787778;-0.128189547;0.240361573;1.196075138;0.319331383
12.22122605;6.44592245;15.39107919;27.81917282;20.80112209;-1.419784532;7.184385765;6.514431813;17.38812861;17.66091052;6.129527108;8.701482246;12.14563847;4.909987849;9.458463441;2.514699773;0.489398066;0.657143081;0.802764825
18.19664169;10.3271241;23.06100802;37.24084693;26.51406106;-0.277872987;-2.593701362;12.97248608;24.24778884;28.09843752;12.47217896;15.18372446;18.71722136;11.04784387;16.90288485;4.870706526;-4.324872781;-1.672041442;1.372861623
22.53188842;11.44818242;28.31336306;43.417023;31.80889073;0.923566993;-14.31859141;18.11903817;27.34671519;35.8926376;15.80849458;18.27487075;21.47828884;15.01429737;18.99833833;5.309079996;-10.32220054;-4.766113975;1.522682987
23.1302987;8.699616308;28.67403071;43.91328532;34.45788458;1.294435598;-17.89914749;21.37123967;28.7234257;39.30181742;16.13218493;17.01896369;20.59010794;13.93067975;14.28089008;3.722682183;-13.21986975;-6.982329622;0.937921801
20.36806608;4.063873797;25.00152058;39.11496647;33.48879039;0.679494565;-11.7557013;22.85443448;30.14028463;39.07016203;14.76843477;13.07107384;17.29644424;8.075793942;4.53123824;1.096255936;-11.74299226;-7.391180955;-0.230285568
16.62829611;1.047814657;20.54815247;31.65834724;29.62693364;-0.335391272;-2.6450488;22.60708929;31.33571782;36.8940191;12.95673176;9.125678729;12.85322528;0.37750101;-6.063288044;-1.407260857;-8.02512107;-6.243491126;-1.381790621
14.4614928;1.911127318;18.38219664;24.54443383;24.48588353;-0.976762831;1.20999177;20.29265344;30.51334026;33.69513701;10.98812436;6.92487539;7.994510818;-5.882737604;-13.04228436;-3.168893721;-5.244730433;-4.44931065;-1.796117226
14.79347398;5.858645064;19.17686211;19.47293617;19.30219266;-0.893340032;-2.818815903;15.60143019;26.2832466;29.15725013;8.391892559;6.319898733;3.032906095;-9.251506621;-13.98498089;-4.309015283;-4.892048604;-2.757459481;-1.074025835
16.42236998;9.567701167;20.91720427;16.49033208;14.2463011;-0.346534192;-10.31662235;8.834931556;19.13324815;22.64453523;4.728340313;5.847879193;-1.836977128;-10.59694307;-9.732126865;-5.417464276;-5.946754758;-1.366486463;0.599551625
17.02984192;9.627276032;20.56636717;14.79932597;8.74458569;0.099185982;-14.46534243;1.035897835;11.14964862;14.38662349;0.170081787;4.109142215;-6.442438098;-11.80770518;-3.786784089;-7.070323243;-6.283754939;-0.097303648;2.550193819
14.88121927;5.065354541;16.35541188;13.6817232;2.384756114;0.063524831;-12.14729669;-6.489533869;4.384887948;5.72858556;-4.567886437;0.794891236;-10.74561226;-13.95576271;-0.186335169;-9.381908919;-4.706392651;1.294977824;4.004467807
10.01853547;-1.859694291;9.063558345;12.68539387;-4.434147658;-0.396871484;-6.191873699;-12.81927345;-0.569993615;-1.749854895;-8.732345451;-3.287227475;-14.8648991;-16.41670686;-1.088324624;-11.78796697;-1.750288556;3.066524359;4.51771733
4.210269448;-7.120976284;1.506812604;11.20360389;-10.62976945;-0.927498426;-2.277350451;-17.6562304;-4.571152839;-7.350671627;-11.93808212;-6.965906432;-18.82081181;-17.50614274;-5.564060831;-13.20676522;1.200954511;5.605148674;4.167438804
-0.206176333;-7.567448654;-3.27770193;8.297682445;-15.16440786;-1.219884689;-3.696438997;-21.00937612;-8.625761013;-11.53654094;-14.17325121;-9.49937555;-22.19953302;-15.94866782;-10.3819018;-12.59848743;3.343422921;9.310732163;3.413512342
-1.77953289;-2.943323798;-3.878392933;3.333289062;-17.72444743;-1.236235088;-8.704302901;-22.72172492;-12.62748279;-15.14051164;-15.54934912;-10.83263279;-24.13070479;-11.93957302;-12.26639416;-9.694275754;4.940902612;14.05783448;2.754123692
-0.791524346;3.985514742;-1.245163607;-3.012638499;-18.81669211;-1.148261881;-12.50270971;-22.40640808;-15.33335171;-18.30613126;-16.13924967;-11.30104708;-23.74938411;-7.024908276;-10.10056749;-5.4364211;6.496901819;18.65472288;2.425325852
0.963642787;9.145292548;2.011366748;-8.508842994;-19.27780634;-1.101968634;-11.72350879;-19.94301575;-15.58951431;-20.21187359;-16.04560096;-11.18840218;-20.84594102;-3.015962034;-5.555189698;-1.714526925;7.619533287;21.00219453;2.32979803
1.273939587;9.51059331;3.20027832;-10.57255047;-19.65176171;-1.06102382;-7.28937622;-16.0871634;-13.63891217;-19.88357089;-15.51703162;-10.53661238;-16.1582872;-0.837741048;-1.736174545;-0.398209182;6.902418537;19.21018786;2.199779758
-1.189170435;4.647983158;1.032690453;-8.266506643;-19.91286853;-0.874426353;-3.280792599;-12.5218856;-11.24986042;-17.34548828;-14.85814488;-9.277073634;-11.00303255;-0.11610562;-0.872347921;-2.214727071;3.115980982;13.03863699;1.841233697
-6.101612343;-3.34143202;-3.783509144;-3.433718422;-19.64909566;-0.480654595;-3.111849601;-11.07467399;-10.44879806;-13.98125635;-14.14049708;-7.459958047;-6.489207475;0.362008888;-2.758510579;-6.251327358;-3.353992692;4.506916023;1.27826986
-11.66219763;-11.2276398;-9.051041628;0.286281202;-18.43951808;-0.02672807;-6.57361788;-12.53407274;-11.87983451;-11.63632869;-13.02161921;-5.333407615;-2.922040528;1.813499208;-5.080472827;-10.50370406;-10.25335924;-3.038027503;0.718073574
-15.59375593;-16.422174;-12.31460013;0.133943263;-16.08668848;0.232765864;-10.28119369;-15.92470108;-14.16564475;-11.122997;-10.9631118;-3.219599669;0.151464508;4.870804245;-5.311590848;-13.14233471;-14.82435453;-6.926971702;0.393636242
-16.39525705;-18.08678197;-12.11955195;-3.424933072;-12.60352305;0.173216846;-10.88875308;-18.85652483;-14.82654825;-11.38845571;-7.771175714;-1.325878247;3.345613207;9.496681299;-2.687085756;-13.60052268;-15.75003906;-6.824273929;0.411264542
-14.13462137;-17.10176521;-8.662410487;-6.74;-8.125301823;-0.051334172;-8.044699597;-18.81527897;-12.04898231;-10.13049872;-4.007487885;0.344067466;6.823015968;15.21063701;1.252093326;-12.69075698;-14.04988647;-4.750559676;0.697381245
-10.34073626;-15.13691457;-3.561238042;-5.676433511;-2.948822646;-0.105118874;-4.493711945;-14.58148723;-5.94417908;-5.477511817;-0.831404789;1.927631806;10.15968254;21.29226068;3.90529019;-11.69554395;-12.14641213;-3.410469319;1.051830096
-7.08371218;-13.52323563;1.058965875;0.992658921;2.314115345;0.24925702;-3.424832688;-6.873963742;1.602605109;2.533191116;0.715714219;3.55789754;12.71807309;26.83169672;3.620445145;-11.18139179;-11.87475293;-4.110261303;1.249666069
-5.809994853;-12.59951649;3.637376225;10.25768495;6.696779749;0.922101965;-5.595949091;2.137656137;8.266302665;11.80864872;0.465497229;5.238852324;14.1159995;30.77436818;0.907951647;-10.49335555;-13.09236967;-5.893447347;1.13024088
-6.621387872;-11.796462;3.844808867;16.88170453;9.149286235;1.523082643;-8.80444834;10.05;12.72479265;19.4824591;-0.696797566;6.810518242;14.36312039;32.15814702;-1.988159542;-8.319921967;-13.998615;-6.536895859;0.650362602
-8.373947697;-10.22565941;2.562655543;17.34150177;9.046966546;1.63662656;-10.03315086;15.35943346;15.1926878;23.64520306;-1.402375889;8.029358379;13.6287342;30.52583685;-2.691598801;-3.837663254;-12.79255445;-4.527012151;-0.092232248
-9.440145921;-7.278287473;1.294121504;12.60628277;6.594620521;1.13150292;-8.201580117;17.87746676;16.83501702;24.27198904;-0.688718831;8.750246798;11.99304395;26.24389658;-0.15985531;2.518062997;-9.191843098;-0.342935226;-0.864102015
-8.595029822;-2.848577672;1.409429374;7.448859685;2.792487882;0.260335882;-5.033302842;18.35597988;18.68372455;22.7946934;1.471086825;9.134367759;9.52097704;20.43435483;5.013620175;9.276907378;-4.547662218;4.01810951;-1.349250666
-5.505027459;2.840664559;3.622471757;6.725088412;-1.06649736;-0.523645996;-3.369935024;17.74538653;20.90927858;20.81779407;4.354796396;9.732571189;6.595062324;14.47964976;11.42003906;14.93699244;-0.580503857;6.837065426;-1.264551638
-0.658962417;9.512012806;7.857836361;11.55140796;-4.043746364;-0.880811125;-4.577018741;16.62080292;22.8682495;19.03848132;7.144961855;11.29227303;4.072618073;9.382849242;17.84699318;18.9078689;2.045024208;8.228096676;-0.507620104
5.026237563;16.88103357;13.40780697;18.47238406;-5.915525954;-0.78720469;-7.407490887;15.05451685;23.71702531;17.12566972;9.45720288;14.28924902;2.911945804;5.38663221;23.58499778;21.65414657;4.03269977;10.0914964;0.743345849
10.57007813;24.4314604;19.19265844;22.33052639;-7.045221888;-0.489324175;-9.258438489;12.85927774;23.06122591;14.47693014;11.35110747;18.43908935;3.428066208;2.074248491;27.98287947;24.01233842;6.45809269;14.46287814;2.061716764
15.09992759;31.20793496;24.035578;20.53268994;-7.931906091;-0.280686091;-8.567157837;9.938089142;21.24091106;11.11448179;12.95976598;22.58723241;4.814498437;-1.157516313;30.0169499;26.34162002;9.467712037;21.62362357;2.953498554
17.93705982;35.98881631;26.98114651;15.23148738;-8.800965671;-0.295700468;-6.140058594;6.514832809;19.18772836;7.976113066;14.21474421;25.21212908;5.496406215;-4.592165475;28.62807724;28.24706473;11.92290032;29.55919889;3.103216574
18.77216482;37.89901951;27.65795373;11.60676259;-9.497799058;-0.470505567;-4.281352165;3.163988272;18.0150045;6.408834564;14.97920969;25.33685778;4.227285294;-7.965536219;23.73794544;29.04905752;12.33629607;35.24801724;2.540264607
17.90621706;37.07126933;26.52530247;13.6052344;-9.663853159;-0.660473979;-4.622956412;0.662448934;18.52390242;7.280296523;15.41225161;23.24690858;1.136899958;-10.60265515;16.99018971;28.4963229;10.24649378;36.76645599;1.61624585
16.29414543;34.76957885;24.74786978;20.58462494;-8.977089447;-0.778180974;-6.679420977;-0.28277033;20.76523397;10.33587066;16.07716644;20.42789132;-2.162898662;-11.77527421;11.25620204;27.03887365;6.766000161;34.55130402;0.799970615
15.14602796;32.69308511;23.59634849;27.5997188;-7.275282206;-0.826819453;-8.396845166;0.641945496;23.81932815;14.18365319;17.5167351;18.65098784;-3.628839794;-11.05338491;8.929349727;25.43030596;3.776514982;30.87965876;0.416213044
15.17986719;31.81189178;23.63450566;29.14101158;-4.564317242;-0.825183604;-8.102367232;3.107901915;25.99065204;16.86568772;19.58042046;18.79898893;-2.262048013;-8.497480978;10.19831309;24.07604854;2.455308008;28.07569989;0.491151706
16.01243427;31.55415983;24.23557569;23.37769951;-1.030568223;-0.729144343;-6.020476915;6.135455119;25.49282459;16.69035037;21.15822673;20.29814374;1.13454262;-4.661528661;12.76511518;22.77824499;2.410864096;26.9207057;0.793184405
16.23199276;30.03357045;23.87128866;13.58798148;2.892991674;-0.45019782;-3.996561803;8.425486031;21.38543565;12.96200306;20.74295665;21.618094;4.544570864;-0.447165515;13.47506105;21.13296938;2.166121334;26.46340008;1.024791997
14.27219976;25.29532286;21.11413859;5.729474709;6.518540601;0.035312194;-3.753400188;8.94035642;14.23252556;6.344391765;17.54259504;21.48942128;6.239363649;3.145826624;10.77684642;19.18414074;0.548274035;25.20383769;1.024294556
9.576584328;16.77482017;15.72968902;4.127195767;9.110238051;0.595817226;-5.326354026;7.442428314;5.990869886;-1.288814515;12.30014179;19.90984345;6.021836153;5.331196832;6.115667971;17.65003906;-2.22833467;22.52127597;0.842781695
3.219367086;5.929770812;9.072780194;8.608484251;10.29475568;0.980777185;-7.096301062;4.656790825;-0.912705398;-7.53126225;7.091634979;18.16255184;5.250982423;5.834268311;3.05020833;17.40665605;-4.702450862;19.13654297;0.661339616
-2.547796429;-4.446352946;3.432073826;15.10437989;10.41391427;0.982255162;-7.33189258;1.918141669;-4.78275266;-10.45731628;4.137723879;17.85926145;5.673090699;5.052509697;4.62830968;18.62351776;-5.368818964;16.33408322;0.629631833
-5.595287228;-11.7767806;0.713118642;18.95022705;10.4822635;0.601435771;-5.781167566;0.481261337;-5.370376323;-9.539195241;4.465943135;19.80416657;8.034483848;3.961172448;10.98777476;20.34989043;-3.885407433;14.75786395;0.753930869
-5.189250502;-15.04385221;1.347807948;18.14731446;11.64408449;0.079330936;-3.857801339;0.895801302;-3.674667092;-5.950322862;7.412286139;23.5917016;11.57767487;3.744019879;19.07419674;21.03812379;-1.274181934;13.90124581;0.911642314
-2.355620185;-15.02923519;4.166119135;14.17930774;14.41761243;-0.248086522;-3.296274948;2.803524644;-1.07235044;-1.986224872;11.29618126;28.1950586;14.74723929;5.274949025;24.77093274;19.69214794;0.986362613;12.71993673;0.965790053
0.894558228;-13.40440644;7.265003186;10.14617691;18.24355906;-0.17078805;-4.549992148;5.237533643;1.516041288;0.14383733;14.67575595;32.93685696;16.43093772;8.675888755;25.84486953;16.72581944;2.133554549;10.76346161;0.878898073
2.882677356;-11.46141241;9.19903989;8.083834122;21.69448646;0.259508113;-6.401885987;7.189602736;3.831055469;-0.551886711;17.16643461;37.91694195;16.67925979;13.15976453;23.43690127;13.76163225;2.549197254;8.762627201;0.735485154
3.170347835;-9.454308027;9.646021584;7.701754757;23.241065;0.774124331;-7.10913737;8.08045393;5.843832806;-3.504210998;19.23564783;43.49411194;16.36985315;17.24284334;20.94051638;12.42513491;3.149910765;8.108962849;0.662436919
2.479535885;-6.93762164;9.178496677;7.29062394;22.06446593;1.071613186;-5.997896971;7.88833237;7.227095812;-7.217756728;21.2880981;49.32535447;16.21776959;19.25190098;21.16144152;13.03394552;4.370182951;9.654399771;0.719487381
1.83208507;-3.650331618;8.487512363;5.647782555;18.37956654;1.003212747;-4.045964817;6.947771266;7.298964516;-10.3829914;22.94664854;53.94180887;16.05711017;17.93726904;24.01587148;14.23479694;5.690934954;12.86965844;0.85195628
1.675061525;-0.095429459;7.772657743;3.170278907;13.11358811;0.635725502;-2.953389737;5.628131117;5.526190805;-12.63833957;23.21063381;55.42527815;15.00884378;12.96884962;26.60866351;13.94749507;6.135904945;16.10593855;0.942026505
1.6673818;2.694673707;6.763846742;1.232241075;7.260395557;0.171043168;-3.58847932;4.119218472;2.118357369;-14.46941669;21.34947579;52.76820394;12.32444531;5.131284215;25.64837601;10.9630973;5.278503298;17.77347409;0.911725065
1.185887547;3.966185556;5.233112706;0.599114974;1.420751151;-0.196081631;-5.236690839;2.416722038;-1.877114411;-16.44619944;17.70228088;46.80867532;8.10895703;-3.873083034;20.28688032;6.011901855;3.851317473;17.48468182;0.789205689
0.011196264;3.88110945;3.433514619;0.457644821;-4.189303;-0.375906984;-6.307456146;0.441491173;-5.148614043;-18.52844478;13.61475034;39.87498869;3.284105816;-11.9734805;13.09989219;1.484917137;3.396897098;16.2489195;0.682918337
-1.431557885;3.402531072;2.019932457;-0.998692048;-9.405318594;-0.38893868;-5.810310102;-1.840960129;-6.945852125;-20.07109439;10.50156714;34.30139518;-1.12790562;-17.44705889;8.357833892;-0.025359354;5.209357338;15.59508852;0.686923228
-2.445138625;3.512773395;1.52624888;-4.929710151;-13.84963075;-0.309025815;-4.234611554;-4.388123088;-7.508121143;-20.5159488;8.808317624;30.93816122;-4.711164169;-19.51534523;8.860544482;2.646653711;9.388405682;16.3609297;0.798818826
-2.650068359;4.428846148;1.906107557;-10.58844773;-17.00321937;-0.207883836;-3.051922807;-7.125572422;-7.767229361;-20.11607432;7.766485672;28.84044836;-7.713560664;-18.54947622;13.76537958;8.543311678;14.70726021;18.11543654;0.920892591
-2.228314596;5.476622475;2.59300767;-15.52718733;-18.52514617;-0.136593983;-3.337354084;-9.993745056;-8.5839023;-19.96598642;6.17397008;26.38948877;-10.4504186;-15.77816805;19.11893463;15.22963845;19.33807537;19.61978498;0.944290934
-1.614292036;5.716350829;3.049456004;-17.11035355;-18.48266324;-0.13069244;-4.793468851;-12.92659921;-10.12377564;-21.18880844;3.558343403;22.92976504;-12.66810719;-12.64430078;20.75476275;20.2667829;21.85801845;19.88032719;0.844675716
-0.9649972;4.776893449;3.302114072;-14.15064842;-17.24532521;-0.206404315;-6.055386441;-15.75503367;-11.81335234;-23.88440111;0.743959536;19.57265179;-13.51210222;-10.15012379;17.41221282;22.50757541;21.85132899;18.90851934;0.706501055
0.040729731;3.194763668;3.94118248;-7.508752808;-15.13318054;-0.339521902;-5.961754572;-18.10106641;-12.81858761;-26.72537631;-0.66466566;18.49097661;-12.16809799;-8.53316726;11.74242864;22.44180357;19.8274844;17.60138148;0.652530589
1.828914271;1.986857017;5.531614046;0.575146259;-12.16818931;-0.453296061;-4.603943695;-19.36498008;-12.60438653;-27.63472542;0.527938087;21.25697418;-8.603030926;-7.407211703;8.433761413;21.52551166;16.6893065;16.90027302;0.736556884
4.294617178;1.827439851;7.931018199;7.705860221;-8.203024092;-0.446207351;-3.20188401;-18.8778272;-11.16249117;-25.13515482;4.203981655;27.54507189;-3.720730855;-6.214516028;10.82159831;21.07010453;13.19942046;16.94867983;0.891575473
6.513918016;2.507433317;10.14054287;12.21715055;-3.344804199;-0.25617837;-2.953819086;-16.19782903;-8.846664956;-19.40450567;9.017562363;35.20948204;1.2321027;-4.660587711;18.45172799;21.43679248;9.732728409;16.92007813;0.981771542
7.166403989;3.091794935;10.89315421;13.39012087;1.724198144;0.082891406;-3.942146031;-11.41464686;-6.071427467;-12.25715391;13.35543927;41.63697192;5.49840116;-2.85800558;27.34286403;21.96035867;6.311813155;15.61729296;0.918920112
5.428795633;2.61119723;9.557252778;11.33250171;5.896240105;0.442077949;-5.097737117;-5.26715489;-3.146608908;-6.056879637;16.37359614;45.29613016;9.158359087;-1.141961602;32.7139219;21.51535;2.777246118;12.34855457;0.745374108
1.658145548;0.724290477;6.639868367;6.941310294;8.243199427;0.66620068;-5.228605225;1.054676352;-0.290734919;-2.338444886;18.31155752;46.33836731;12.7115797;0.24176783;32.18360117;19.28879675;-1.006246582;7.427899863;0.608345253
-2.706551858;-2.125937833;3.473175263;1.925040983;8.643016044;0.667525793;-4.139813566;6.370646337;2.326450739;-1.087129371;19.93240062;45.94636821;16.30469985;1.308274087;27.18180278;15.29861313;-4.928860909;1.995604713;0.638993573
-6.003606054;-5.088012093;1.316770455;-1.534375757;7.907988623;0.479569465;-2.807314125;9.987407346;4.620434101;-1.09888772;21.65180073;45.12393935;19.32743998;2.235893775;21.67144159;10.42254023;-8.459942161;-2.622315295;0.833182002
-7.354407573;-7.4345263;0.566075765;-1.717239136;7.245476239;0.23412401;-2.45907357;11.89310802;6.626499782;-1.055686454;23.11097778;43.95423594;20.75520329;3.097009883;19.21806343;5.990214675;-10.67798375;-5.523552178;1.03749612
-7.090614481;-8.843237716;0.649778566;1.517807954;7.400746253;0.079405504;-3.426822324;12.5374031;8.376705249;-0.498484138;23.5022924;41.81755482;19.93631785;3.649602712;20.54646634;3.185191144;-10.64050271;-6.456480567;1.063611581
-6.333590491;-9.320384853;0.631166644;6.314794837;8.10062917;0.095365395;-4.832000591;12.3608806;9.636926483;-0.052793937;22.29958187;38.19596313;17.12677779;3.369772057;23.24713446;2.54844531;-7.989689299;-5.67848089;0.848116719
-6.100527309;-8.977599468;-0.01703047;9.670945625;8.211302555;0.257136696;-5.389488155;11.44396745;9.776302102;-0.854996804;19.74526132;33.26555108;13.31536555;1.719158425;23.67616638;3.792282488;-3.406879728;-3.710294135;0.529887915
-6.626334798;-7.921440263;-1.074565379;9.18666934;6.501521527;0.459229166;-4.582674599;9.573686292;8.061007311;-3.662446746;16.71860962;27.80054531;9.524072276;-1.530108344;19.56075443;5.978931932;1.504154321;-1.201734156;0.373763315
-7.351235829;-6.297370722;-1.865671618;4.547163737;2.471567203;0.574899884;-3.130526824;6.694510767;4.32600227;-8.250453178;14.16450424;22.61096102;6.219090497;-6.122356545;11.46406049;7.956662171;4.982043403;1.119311833;0.587057926
-7.466699892;-4.310993212;-1.845561979;-2.339748379;-3.308084505;0.513419866;-2.32619891;3.36270304;-0.461726733;-13.4111043;12.59555255;18.13192778;3.322054836;-11.39088042;2.240703087;8.844306949;6.095184496;2.606592895;1.162560369
-6.510795027;-2.073090287;-0.956206833;-8.639134178;-9.519893547;0.252352624;-2.861284299;0.759751434;-4.334398056;-17.46107783;12.03102585;14.53763339;0.723064469;-16.50636022;-4.891116719;8.357503554;5.279212604;3.059950754;1.867568162
-4.562558845;0.639595499;0.496232926;-12.32271888;-14.79111148;-0.157761884;-4.210536837;0.136627648;-5.289939046;-18.92812036;12.292293;12.15385208;-1.2728468;-20.74117688;-8.152738239;6.868410039;4.013935806;3.112578015;2.391447969
-1.998457614;4.416469052;2.230350722;-13.07525125;-18.26814197;-0.610047607;-5.127349933;2.036895401;-2.536204405;-17.09744302;13.2719439;11.60677909;-2.043814982;-23.62061327;-7.689980832;5.220120519;3.837963462;4.268590512;2.545999219
0.85028447;9.840797031;4.21535392;-11.869751;-19.76909915;-0.974849333;-4.783098791;5.893897068;2.901786151;-12.24187021;14.90153544;13.41811667;-1.211815094;-24.93639796;-4.698740032;4.400848511;5.383958242;8.339820472;2.374837442
3.784201072;16.87220347;6.509110124;-9.821235574;-19.56891256;-1.145639285;-3.50658736;10.37221912;8.759763751;-5.49207734;16.92417969;17.37672782;0.906471037;-24.6847952;-0.176880405;5.193746373;8.087006655;16.4366606;2.098663791
6.52980685;24.45244334;8.897335365;-7.417846306;-18.1019431;-1.083673571;-2.460306227;14.25835406;12.96952376;1.605151768;18.83424382;22.36161501;3.468393341;-23.00380429;5.595912359;7.89269478;10.69904438;28.07350645;1.946407808
8.535545687;30.74944022;10.74673365;-4.701202076;-15.81802834;-0.838300242;-2.566272857;17.23778004;14.92803144;7.691921472;20.20133547;26.96844931;5.821028574;-20.13705083;12.54849164;12.16201;12.1574252;41.01976562;2.002242554
9.08630206;34.01746474;11.30329626;-1.965385083;-13.20200266;-0.525041509;-3.669665997;19.92883962;15.66058159;12.10533396;21.16613227;30.54086645;8.123592132;-16.40528648;19.95693624;17.11564968;12.16491195;52.14160501;2.176346013
7.745514244;33.55603874;10.24267672;-0.035836907;-10.79658365;-0.266976017;-4.695910453;23.10087523;16.77967704;14.99802087;22.59670297;33.7134291;11.23498709;-12.16443009;26.2229105;21.64180993;11.15139855;58.85087043;2.30562339
4.782587127;30.10897449;8.003863866;0.333163297;-9.097261669;-0.131242746;-4.643463387;26.67296454;19.07745535;16.96023367;25.56184078;37.85206967;15.84106763;-7.762844855;29.67420789;24.86798908;9.795408539;60.3290932;2.292607775
1.182066071;25.40474019;5.574644545;-0.59805235;-8.35586306;-0.09934169;-3.500125342;29.33018247;21.8569098;18.36180804;30.34319078;43.67911537;21.50866565;-3.532304157;29.78055451;26.51768128;8.553580611;57.76699534;2.171861557
-1.862373796;21.14249114;3.844375834;-1.336895968;-8.454589431;-0.088875075;-2.25490649;29.17578159;23.48820879;18.89156286;35.71648461;50.15506017;26.5188269;0.179209252;27.68790507;26.89942837;7.505271751;53.4545627;2.061890144
-3.642589388;18.11277678;3.013441842;-0.188127485;-8.971948121;-0.010220458;-2.007796159;25.04824505;22.68982541;17.70582859;39.21128894;54.64673727;28.76078728;2.983512836;25.45544238;26.4808041;6.473482011;49.30281836;2.055540111
-4.314256868;16.01552965;2.522696991;3.149004553;-9.40238779;0.179525429;-2.991424552;17.57432522;19.49486505;14.17362748;38.42834506;54.48597504;27.11154284;4.519202531;24.47391857;25.33352755;5.186230006;45.76749514;2.145308618
-4.679329864;14.0104934;1.555331027;6.843189574;-9.370426785;0.456175351;-4.380469616;9.150334866;15.18954168;8.703035169;32.67583672;48.90673252;22.29642738;4.643927968;24.33446582;22.92524707;3.346138738;41.88415423;2.241357251
-5.543093501;11.5213723;-0.28916371;7.970353674;-8.70881794;0.746153093;-5.038804256;2.776712;11.3829078;2.96165279;23.80643551;39.93987066;16.58763624;3.669566632;23.18221584;18.55388785;0.702551151;36.36312873;2.257612194
-7.126919417;8.694680508;-2.670174009;4.776026133;-7.409776352;0.963678752;-4.513473091;0.476649118;9.026299179;-0.832292201;15.54314967;31.51205767;12.55500995;2.454920132;19.43292696;12.22168269;-2.728867163;28.94569059;2.186507674
-8.948373994;6.239231992;-4.753208355;-1.594633567;-5.565005601;1.04497412;-3.387048249;2.314226522;8.119745597;-1.186081397;11.55248997;27.26420824;11.74219739;2.183421819;13.55079151;5.286431286;-6.369846583;21.02184891;2.099187561
-10.20556436;4.852576052;-5.797133004;-7.460450694;-3.38109774;0.968699845;-2.703715331;6.5964203;8.16446136;1.684121781;13.40017569;28.52350289;14.10079925;3.81983321;8.372601263;0.224245455;-9.027074055;15.01867694;2.076591329
-10.3353754;4.702605872;-5.614784052;-9.041848899;-1.230337812;0.762844514;-3.021618488;11.03573214;8.792318275;5.91290485;19.67757534;33.74829247;18.37305256;7.481335783;7.481686674;-0.596106269;-9.359925078;12.94221713;2.136235681
-9.336787509;5.316335013;-4.59614251;-5.220670287;0.386687188;0.498392998;-3.954321991;14.05790009;9.969742928;9.14294128;26.8729208;39.72345946;22.94221582;12.10955856;12.65573408;3.551985363;-6.739235861;15.07364951;2.219480135
-7.685736894;5.882827289;-3.363549862;1.541183122;1.030152561;0.26542882;-4.587237922;15.45054827;11.69550271;10.03802382;31.44091685;43.60241391;26.49660898;15.74699244;22.24922135;10.97619895;-1.920677875;19.72937043;2.247777329
-5.990674638;5.699970259;-2.396039286;6.934523429;0.56564919;0.131725328;-4.349383997;16.08282303;13.64037864;9.109697543;31.7525565;44.41512;28.22134923;16.39984005;31.81528924;18.23088127;3.08518419;24.25347282;2.19514179
-4.683064322;4.472909349;-1.906311076;7.908180179;-0.735235566;0.100583956;-3.52698504;17.04678781;15.19620145;8.263911495;28.71150595;43.16406318;27.71861371;13.08312993;36.68339573;21.95067919;6.052510064;26.55709923;2.111325478
-3.924048152;2.356302944;-1.968083096;4.743957655;-2.365103397;0.098536905;-2.965043075;18.85272837;15.92181829;9.369351922;24.73647346;41.66605966;25.00282319;6.452708864;34.77087384;20.72280854;5.880590725;26.17266932;2.07560015
-3.684464933;-0.175800376;-2.657965841;0.501539732;-3.935800837;0.014312652;-3.262288029;21.14071148;15.90557005;12.84786289;21.90747584;41.09602166;20.64797589;-1.398175154;27.71500501;15.77839949;3.300524162;24.1897299;2.123420432
-3.837195385;-2.501490032;-4.006944363;-1.650083008;-5.456127062;-0.224265024;-4.218261402;22.96766095;15.60859159;17.28059656;20.60431451;41.23991725;15.82501366;-7.925875214;19.61894807;10.07032837;0.404763105;22.26126871;2.212449642
-4.173095463;-4.014113686;-5.803693815;-0.989996514;-7.294810152;-0.58473471;-5.034764983;23.40578824;15.29411344;20.31344402;19.56441163;40.8428576;11.95249372;-11.36668013;14.39419077;6.411147062;-0.693979051;21.48774065;2.259446658
-4.404629115;-4.303019263;-7.501699421;0.417770953;-9.820830616;-0.928838728;-5.064579218;22.1027738;14.64519036;20.24058333;17.23936031;38.66213308;10.03849138;-11.49863341;13.58727399;5.954187886;0.875563734;21.95709193;2.216207287
-4.27393291;-3.349562813;-8.436344397;-0.144715179;-12.97402695;-1.088604982;-4.401966564;19.55173102;13.08249932;17.18501136;13.37867662;34.43654054;10.16264992;-9.507408008;16.0654384;7.97115026;4.424122576;23.11859811;2.116756722
-3.767067517;-1.63917781;-8.278913942;-3.283118547;-16.09949921;-0.974319608;-3.773701053;16.96492884;10.62294347;13.08919659;9.599371068;29.15073053;11.53337169;-7.09673553;19.47316089;10.88628637;8.439979081;24.50946652;2.051448113
-3.268578531;-0.052201514;-7.389467374;-6.494691726;-18.20521098;-0.639052978;-3.847825726;15.77709095;8.477645571;10.54937292;8.444232645;24.49793435;13.11336761;-5.453566426;22.12327819;13.64128774;11.7027273;26.15809125;2.08727484
-3.456941862;0.50050903;-6.733429406;-5.916818834;-18.50003906;-0.250794792;-4.612095593;16.94515988;8.64027702;11.29021877;11.56086577;21.9411293;14.31985169;-4.726079216;23.87434887;16.34017515;13.89141928;28.36795807;2.20295909
-4.915020979;-0.458219544;-7.328647955;0.482075924;-16.86645816;0.010597987;-5.395870282;20.35949822;12.53317965;15.2669483;18.32247507;21.95646901;15.23357266;-4.273458849;25.54513558;19.79458043;15.33033429;31.17370509;2.298674863
-7.684129637;-2.683794307;-9.561969365;10.83112827;-13.96391069;0.059429448;-5.503708982;24.73070679;19.69349317;20.90300094;25.93822136;23.86806937;16.18895146;-3.397604315;27.63736536;24.47818861;16.27876312;34.03928327;2.278553252
-11.09976613;-5.306535619;-12.85498832;20.16484397;-10.908197;-0.059002284;-4.864758266;28.13455635;27.64493967;26.18864495;31.04488764;26.3059244;17.18295276;-1.968845215;29.59036184;29.80396649;16.50703802;36.11481988;2.139890565
-14.08670635;-7.292068507;-15.94162076;23.63391672;-8.73530257;-0.218248715;-4.097680756;29.00225242;33.25912262;29.82839372;31.70098384;27.9680428;17.7096572;-0.510677028;30.18787974;34.29432569;15.5463849;36.83305839;1.990979338
-15.76056149;-8.008647082;-17.59954212;19.75750786;-7.963366591;-0.300420486;-3.939220896;26.97926724;34.70038775;31.68159915;28.4147409;28.22675702;17.22475118;0.235873401;28.67357678;36.46601361;13.31324826;36.29823552;1.973026739
-15.93779453;-7.568598971;-17.36375466;11.3126847;-8.462832514;-0.256738396;-4.570413649;23.06415514;32.4988935;32.31223802;23.54855561;27.25183053;15.82337586;-0.139192096;25.53411664;35.72319563;10.43408084;35.09654729;2.140135209
-15.20007813;-6.745175501;-15.76778893;3.266121705;-9.639018169;-0.104299332;-5.458701027;18.88553007;28.93285434;32.1209751;19.61942416;25.64823741;14.45326005;-1.485290636;22.24720808;32.62683968;7.879437758;33.68228089;2.391699278
-14.47080606;-6.516559798;-13.98053294;-0.633376161;-10.77165327;0.118373046;-5.849549063;15.60745912;26.2432962;30.80544412;17.76858121;23.92518114;14.3536016;-3.291112596;20.21635263;28.44914977;6.191632285;31.89843586;2.518624742
-14.40671952;-7.495984961;-13.09507588;-0.083547477;-11.32474679;0.385414807;-5.444366534;13.2759094;25.13513042;27.60100116;17.4460219;22.20883255;16.10547557;-5.055481351;19.80138116;24.44303669;5.025160139;29.10584038;2.340449618
-15.02475235;-9.55721814;-13.5179499;2.198237042;-11.11299808;0.677542657;-4.642911252;11.11530374;24.73320937;22.12055734;17.35594839;20.39849177;19.07785057;-6.473518565;20.23086895;21.35948368;3.489723572;24.87607343;1.838328032
-15.79211092;-11.85011862;-14.80245525;2.958941279;-10.30714032;0.953716565;-4.143836449;8.530102386;23.88851597;15.11034031;16.74549122;18.58334386;21.77080993;-7.321395449;20.3985548;19.4277129;1.070559649;19.68816432;1.185515745
-16.06574754;-13.19943612;-15.97433596;0.893582332;-9.320119251;1.144218236;-4.291561366;5.950019531;22.56036084;8.449126488;15.94933287;17.28349331;22.81315159;-7.258713137;19.8061765;18.61017557;-1.666270325;15.00255277;0.647859962
-15.5389337;-12.69393293;-16.11866451;-2.707175275;-8.633449708;1.187034808;-4.779749352;4.721669148;21.95955884;4.253219762;15.82471284;17.19200241;21.81166605;-5.874267703;18.84892254;18.79892485;-3.267296787;12.54194152;0.420603106
-14.39570518;-10.18027606;-14.88909531;-5.391456578;-8.623040491;1.081141798;-4.974731585;6.011883806;23.27857862;3.630236993;16.69096986;18.53003906;19.37746154;-3.063398994;18.26517887;19.79284684;-2.439351341;13.22708944;0.51464036
-13.12585779;-6.412766281;-12.68715484;-5.69290129;-9.439444428;0.903751676;-4.539110375;9.566425761;26.16744276;5.946325331;17.79365456;20.54411962;16.37192985;0.548234124;18.3119313;21.16410452;0.833150407;16.5038628;0.769449314
-12.19917989;-2.766232701;-10.45382878;-4.225051954;-10.97979308;0.763548109;-3.761712082;13.41788502;28.44896449;9.170327518;17.81468503;21.68477117;13.09286911;3.574230844;18.43489085;22.2265944;5.001009756;20.53506803;0.977266173
-11.85351844;-0.635669859;-9.204579598;-2.971450484;-12.95035948;0.719638905;-3.284572683;14.97766385;27.55782316;11.12266211;15.99465316;20.52248201;9.154356786;4.424796686;17.72465415;22.19976747;7.767721244;23.13312321;1.022762998
-12.10480634;-0.819225185;-9.543982516;-3.515217865;-14.97723995;0.733980866;-3.488000474;12.84274504;22.66433374;10.80912737;12.86234749;16.81436996;4.164709241;2.172647548;15.73589743;20.47570407;7.431968385;22.83492449;0.934894258
-12.88732542;-3.205642227;-11.38992006;-5.719299131;-16.70972756;0.704570155;-4.115990816;7.979283935;15.7217616;8.941940387;9.888181743;11.88067973;-1.448376788;-2.857482582;12.93022294;16.83154799;3.791932453;19.49292361;0.818533345
-14.14968543;-6.926063798;-14.03092688;-7.881965419;-17.88761681;0.560089111;-4.498655998;3.300504939;10.42784833;7.316843223;8.321144828;7.868520496;-6.293090811;-9.21541828;10.34583842;11.51111196;-1.968978485;14.13520664;0.728848026
-15.81613621;-10.86253698;-16.47650148;-8.152289021;-18.38212856;0.339842862;-4.169354713;1.822453529;9.744920689;7.52105159;8.207346284;6.32109771;-8.795911735;-15.09849766;8.776088547;5.199902522;-8.191955238;8.3071184;0.597190602
-17.67651256;-14.19768848;-17.91149883;-6.028070783;-18.22827104;0.187313496;-3.303954729;4.671651194;13.82127463;9.899526494;8.457646515;7.080872829;-8.318870148;-19.22973972;8.153455684;-1.081590342;-13.67430432;3.330586585;0.276482021
-19.34617223;-16.68591339;-18.01377851;-2.780588365;-17.63426962;0.252424091;-2.572178439;10.3683906;19.89429498;13.47395286;7.920423564;8.397181615;-5.668547187;-21.25176308;7.640613086;-6.208364839;-17.97151607;-0.169899287;-0.323697342
-20.3762722;-18.53479324;-16.9811618;-0.53524008;-16.92147418;0.573294106;-2.534400982;15.87761578;24.22961076;16.77660202;6.509111242;8.232185464;-2.523160103;-21.46061501;6.321487012;-9.340219843;-21.04480163;-2.361662637;-1.120935898
-20.45941718;-20.05840362;-15.29698338;-0.732982076;-16.36962003;1.029642599;-3.137318882;18.6205688;24.59758013;18.89545466;5.343736031;5.816993421;-0.206993549;-20.23142698;3.90285903;-10.35516318;-22.77952832;-3.98715619;-1.866598656
-19.59043957;-21.40033097;-13.42511894;-3.073512759;-16.02328215;1.40761015;-3.770390829;17.98040168;21.45337345;19.93199316;5.709617541;2.263354643;1.200110435;-17.68765567;0.879054325;-10.04124126;-22.91048418;-5.964479815;-2.288883174
-18.07659716;-22.52477468;-11.64846972;-5.62255041;-15.59098301;1.531266716;-3.827983291;15.30547788;17.0962542;20.59748912;7.707668085;-0.272632073;2.706718247;-13.87944229;-1.899112865;-9.788293039;-21.40482421;-8.940845717;-2.276592245
-16.40508031;-23.42542782;-10.12771929;-5.960387171;-14.55269936;1.367165894;-3.258141448;12.60540935;13.68618361;21.37794637;9.826513844;-0.259883267;5.375977013;-9.227182392;-3.828150167;-10.82752923;-18.85495391;-12.95994481;-1.965437985
-15.06407667;-24.31017297;-9.063646209;-2.640502298;-12.46245626;1.032314186;-2.595058363;11.0832374;11.78390518;22.01404138;9.948294122;1.985991189;9.311608313;-4.710531478;-4.83735881;-13.45539681;-16.38867962;-17.41275622;-1.652285725
-14.4086249;-25.54442571;-8.754209524;3.86642844;-9.272795107;0.710085449;-2.451090001;10.62560361;10.47688724;21.73360264;7.073565621;4.479448019;13.51528341;-1.493047616;-5.218766088;-16.80180098;-15.04687674;-21.34214941;-1.590138266
-14.59055236;-27.35703097;-9.431899067;11.22307707;-5.450488202;0.541747014;-2.94201976;10.46916212;8.74823295;20.01870381;2.354414583;5.01178153;16.6961635;-0.192040779;-5.276374785;-19.37865207;-15.09537568;-23.95875117;-1.812016526
-15.519311;-29.54380946;-10.98036744;16.24825044;-1.76917863;0.566290549;-3.577675169;10.2723465;6.7469646;17.23933796;-1.51003418;2.761980404;18.29435764;-0.375206173;-5.162112801;-20.06846828;-15.85037923;-25.04406404;-2.11796709
-16.84275891;-31.44538838;-12.78540999;16.46126388;1.111333456;0.732564917;-3.717634447;10.56643538;5.818781433;14.60448861;-2.168696229;-1.139380979;18.82190469;-0.749362797;-4.993663908;-18.84293921;-16.19514791;-24.95268119;-2.240004883
-17.9997739;-32.2809537;-13.92710077;11.44619145;3.003530245;0.952074537;-3.169386174;12.20173172;7.30404748;13.44965324;0.616535458;-4.469231066;19.25173061;0.022071618;-5.017506264;-16.67730965;-15.39831021;-24.2094706;-2.062146831
-18.40932621;-31.63648967;-13.67758079;3.323166091;4.241114574;1.143728245;-2.375418924;15.34349057;11.1831321;14.41101673;4.71540006;-5.47696429;20.03447192;2.44265608;-5.532459371;-14.74701453;-13.60139928;-23.02641094;-1.723782579
-17.77174041;-29.7611381;-12.0071498;-4.076635427;5.384123114;1.248597483;-2.015228782;18.98268961;15.75677014;17.09711741;7.114898998;-3.954219535;20.64545474;5.877296854;-6.570314264;-13.56258382;-11.62543843;-21.14869458;-1.518232815
-16.32260496;-27.44096793;-9.731183911;-7.108590828;6.786777654;1.229448451;-2.387058976;21.46799951;18.66;20.4389627;6.036857209;-1.082261306;20.0805752;9.009190637;-7.647455119;-12.73434235;-10.2999541;-18.17233179;-1.65566897
-14.82811548;-25.51615185;-8.133032286;-4.361895934;8.32223621;1.078998462;-3.136336714;21.65676589;18.41672696;23.36813165;2.113963771;1.669823459;17.86205525;10.67841861;-7.913486209;-11.5158535;-9.871820884;-14.06030047;-2.071429101
-14.23233348;-24.36570197;-8.24976785;2.373886832;9.43211535;0.837501809;-3.578700169;19.72370876;15.34836248;25.28468539;-2.189706142;3.623299723;14.64176763;10.478983;-6.682519125;-9.610441956;-9.930478154;-9.3868747;-2.436528257
-15.11162723;-23.71287266;-10.26108757;8.997039955;9.435095533;0.594129592;-3.320019531;16.94020121;11.2163297;26.05051093;-4.383066916;5.106072241;11.82097121;8.752450718;-3.949278068;-7.512669053;-9.831319773;-5.060474268;-2.379109251
-17.28127452;-22.8838813;-13.38512765;11.49839;7.870448034;0.450326986;-2.605306789;14.60361061;7.965670143;25.69035188;-3.591291016;6.761391112;10.45740417;6.128489381;-0.445731076;-6.084808785;-9.216431172;-1.742811092;-1.762972157
-19.85969483;-21.34150861;-16.36678721;8.451140193;4.676601925;0.458216423;-2.079596938;13.00937004;6.536394727;24.189698;-0.909584953;8.657394854;10.36685451;3.081410997;2.834697007;-5.761998786;-8.224593605;0.521889106;-0.817292082
-21.80977018;-19.12973858;-18.25357798;1.916419943;0.164033416;0.579978411;-2.185050147;11.31347994;6.512586692;21.58765093;1.590892134;10.00996627;10.19601417;-0.147780736;5.248710743;-6.120947236;-7.303014892;2.122435567;-0.013977163
-22.62715257;-16.92674567;-18.95731309;-3.954833565;-5.113293346;0.708870038;-2.751255052;8.37843578;6.664708359;18.19850123;2.294096317;9.75382384;8.45343222;-3.318814261;6.726215292;-6.223696755;-6.862514494;3.308100284;0.228049653
-22.69639554;-15.66224098;-19.23512936;-5.755078679;-10.46734331;0.746549171;-3.15676885;3.877619552;5.838875368;14.63490759;0.860904584;7.46714976;4.700264488;-6.000504161;7.44084866;-5.441839005;-7.075134794;3.791560372;-0.194122825
-23.02932087;-15.93767675;-20.10410015;-3.12997615;-15.1425663;0.681698742;-2.913276786;-1.264019414;3.576968266;11.51020479;-1.931928351;3.882251892;-0.027613376;-7.693353651;7.302028817;-4.013156915;-7.900313826;2.977562007;-1.017926362
-24.52719768;-17.61492634;-22.07753401;1.101390181;-18.40826607;0.606629626;-2.133270171;-5.446358487;0.221559969;9.058600648;-4.905503518;0.5792233;-3.878436373;-8.183980151;5.851999266;-2.80360128;-9.191036157;0.695785562;-1.803998658
-27.26715623;-19.83565647;-24.72919698;3.120558662;-19.73183263;0.653324456;-1.445675084;-7.503191334;-3.345586181;7.05400698;-7.059449719;-0.893543272;-5.397930823;-7.773817013;2.795208269;-2.461407924;-10.70815695;-2.219047257;-2.219038051
-30.32688607;-21.4661314;-26.87512279;0.973849117;-18.98025025;0.893772983;-1.42796336;-7.452370975;-6.07247927;5.159858989;-7.722843368;0.159518783;-4.388201445;-7.107043907;-1.253008912;-2.720148016;-12.05289579;-4.138152538;-2.213306883
-32.29603864;-21.69442465;-27.25463325;-4.016891605;-16.50797883;1.279078556;-2.06876704;-6.328994839;-7.085525114;3.420111211;-6.514747785;3.316353535;-1.84519381;-6.694763206;-4.552576552;-2.507363626;-12.69146866;-3.648515679;-1.986106279
-32.13127285;-20.40554362;-25.26397916;-8.342287771;-13.02177476;1.662617784;-2.755486515;-5.301861517;-6.002587479;2.418439396;-3.47426666;7.366595178;0.856928389;-6.541140453;-4.985642337;-0.812170025;-12.19122569;-0.632153709;-1.795005338
-29.75817474;-18.09745295;-21.26758794;-9.010832268;-9.259904759;1.888586762;-2.812026926;-4.812456801;-3.139691392;2.899887898;0.653562346;10.90487408;2.850411912;-6.215585773;-1.400063477;2.423362064;-10.54929278;3.496486464;-1.769461007
-26.0065262;-15.40463057;-16.30363628;-5.736241191;-5.6671207;1.880848703;-2.114716473;-4.379542523;0.561775973;5.14952294;4.399580203;12.83471922;4.116599596;-5.317990017;5.414495463;6.173906338;-8.318412057;6.702583159;-1.862245008
-21.95821004;-12.57517551;-11.4147807;-0.901244233;-2.263601669;1.673636854;-1.236559573;-3.120777487;3.982516717;8.686853033;6.175559338;12.65168343;5.190500202;-3.910556807;12.93675312;9.093374539;-6.334173627;7.761621362;-1.946438078
-18.22003906;-9.303031588;-7.084451686;2.610169075;1.22392833;1.375054322;-0.981359021;-0.488490812;6.45051756;12.58;5.284062336;10.5535458;6.608824168;-2.497987021;18.28288598;10.51669055;-5.177609772;7.094128461;-1.950259426
-14.67383214;-5.078682805;-3.165172892;3.886705055;5.075219322;1.102089325;-1.703496932;3.356201292;8.097137626;16.10850463;2.566017304;7.402127526;8.555099796;-1.545690792;19.81135925;10.83545133;-4.778349306;6.316468468;-1.908533492
-10.86655697;0.173536814;0.690221319;4.688475903;9.324802207;0.934222203;-2.994633408;7.708881468;9.599206133;19.1407191;-0.001897729;4.451647798;10.85599608;-0.974533112;17.83276209;10.94652532;-4.503324262;6.852911515;-1.899577136
-6.687230127;5.674302384;4.469438301;7.746968964;13.68014231;0.902422368;-3.998123961;11.74431761;11.43273079;21.82551579;-0.671774718;2.795877512;13.15550248;-0.13862898;13.97644685;11.31490024;-3.694869149;8.745780251;-1.944577772
-2.73943493;9.998433042;7.591829705;14.04942127;17.61239604;0.996022846;-4.075209306;14.79713111;13.23309248;23.8669509;0.704117974;2.731221199;15.03614526;1.614815019;9.80563933;11.54594408;-2.233041153;10.66239254;-1.977034799
-0.061270726;11.88784149;9.254515497;21.40093299;20.52928609;1.164775201;-3.264071261;16.37303961;13.86812951;24.15146658;2.418625481;3.462927167;16.05328246;4.246177875;5.824669225;10.88611503;-0.650968767;11.10605239;-1.917832002
0.617759849;11.14204053;9.081685365;25.58963372;21.94122812;1.317437665;-2.176333415;16.09701854;12.28310069;21.30095305;2.110549761;3.494176568;15.82842967;6.811883128;1.628899442;9.177516218;0.302799217;9.80523513;-1.783540059
-0.513466225;8.894852169;7.53966057;23.38074828;21.5872416;1.340392853;-1.466369966;13.84633323;8.484403109;14.90626941;-1.40805206;1.580911382;14.28612026;7.996126718;-3.064271006;7.3;0.282245677;8.061916691;-1.711098244
-2.402954351;6.947462891;5.714326505;15.02981654;19.51597008;1.150438456;-1.349268328;10.02991741;3.804931164;6.435961613;-7.113944234;-2.366950742;11.87672324;7.005707876;-7.543643213;6.536970554;-0.403814068;7.685264125;-1.846878219
-3.879228887;6.513730268;4.533843393;4.303243879;16.09183413;0.758753405;-1.552086762;5.676606186;0.103103663;-1.152145676;-12.40156692;-7.145937157;9.490169056;4.099447006;-10.30597877;7.291479106;-1.146825506;9.341555247;-2.172707369
-4.544246715;7.247153164;3.996754365;-4.079840408;11.87225963;0.294413838;-1.672647054;2.03686692;-1.577137106;-5.130576247;-14.96816452;-11.09117566;7.944191504;0.292794039;-10.29792353;8.286306465;-1.703645852;11.7069419;-2.419591604
-5.113577737;7.327522542;3.041165353;-7.650643002;7.351953278;-0.049392072;-1.573932169;-0.183778546;-1.847362896;-4.936538887;-14.53231516;-13.33405375;7.322449331;-3.533563251;-8.183490008;7.122703496;-2.565265795;12.22273867;-2.1768297
-6.892429794;4.678905292;0.257346567;-7.613684279;2.690169226;-0.127644002;-1.458326665;-1.412293426;-2.6053809;-2.819018361;-13.06258584;-14.53290762;6.687233525;-7.364954526;-6.455637071;1.98586209;-4.632653746;8.972714693;-1.161303657
-10.73667652;-1.455053697;-5.000914044;-7.49075185;-2.376388525;0.057961422;-1.597825451;-3.056826455;-5.686018896;-2.510348538;-13.34711465;-16.4527831;4.514233187;-11.97127198;-8.052925556;-6.744314407;-8.384270246;2.264635694;0.525414588
-16.26637185;-9.698446644;-11.91367141;-10.16853272;-8.294438297;0.349149093;-2.017539946;-6.560211115;-11.55471076;-6.705574604;-17.02269823;-20.6345793;-0.33076793;-18.03763994;-14.3495416;-16.29003906;-13.19318478;-5.324168142;2.346300606
-21.93554703;-17.14619548;-18.47094992;-15.71186367;-15.20416571;0.526848732;-2.447579241;-12.25475908;-19.04124147;-15.11963014;-23.57122144;-27.12849292;-7.720039063;-25.22530425;-23.98237505;-22.97570944;-17.40438307;-10.51489129;3.557368754
-25.92670469;-21.04649482;-22.59771973;-21.56587089;-22.50034665;0.451980666;-2.578288447;-18.86914549;-26.27590122;-24.56416267;-30.98513971;-34.26738658;-16.14199498;-31.99344841;-33.44719734;-24.40765827;-19.22067572;-11.36321836;3.602543613
-27.21754312;-20.42769471;-23.35238053;-24.77534202;-28.79091834;0.154232589;-2.357147745;-24.13334698;-32.03856123;-31.03267917;-37.47526424;-39.68722446;-23.46206053;-36.4213578;-39.11605499;-20.76100249;-17.80373056;-8.294347758;2.440735424
-26.04549823;-16.53801003;-21.34091842;-24.26466533;-32.38449378;-0.192863658;-2.033908993;-26.13709794;-36.45485554;-32.30574081;-42.8194426;-41.85167;-28.06158001;-37.44625877;-39.28418171;-14.28246558;-13.79162342;-3.470597154;0.60053095
-23.46973299;-11.80019859;-18.06055976;-21.32334154;-32.08849312;-0.391141137;-1.91285869;-24.52782962;-40.58421206;-29.23319078;-48.32382297;-40.95464633;-29.58713134;-35.55780654;-34.85621842;-7.489341458;-8.843257994;0.914560067;-1.078910335
-20.42692717;-8.046989043;-14.69023231;-18.07040122;-27.86265557;-0.346720707;-2.056866561;-20.73531548;-45.39362636;-24.88446677;-55.53584696;-38.5622368;-28.86036846;-32.38938159;-28.318563;-1.501186482;-4.534275054;4.094725597;-1.872550128
-17.04634722;-5.308271712;-11.258476;-15.39869359;-20.93046269;-0.12269253;-2.232311532;-17.1062573;-51.07311911;-22.3518083;-64.83436543;-36.32579573;-27.13032061;-29.50728031;-21.90065666;4.26812608;-1.399340904;6.9384681;-1.517074847
-12.74377446;-1.991805071;-6.811549838;-12.26139448;-13.27268377;0.111173786;-2.148606216;-15.58382879;-57.24418126;-22.89611273;-75.04854946;-34.78623325;-25.29011613;-27.32673239;-16.33438785;10.99221631;1.212928852;10.9329575;-0.294366757
-6.960601236;3.737047703;-0.410512567;-6.894977382;-6.790170158;0.187140876;-1.759899899;-16.81219284;-63.73564179;-25.68371154;-84.3611862;-33.16870513;-23.60115588;-24.97260488;-11.02371494;18.9575356;4.42179094;16.85487895;1.173338535
0.110703196;12.43322254;7.866726347;1.184025242;-2.584690874;0.031278587;-1.334300689;-20.14364068;-71.06222002;-29.01556006;-91.70985753;-30.26135345;-21.98277665;-21.14928813;-5.260224615;26.99462777;8.807530814;24.13037027;2.276645851
7.442857848;22.8173241;16.73254643;10.27177618;-0.685288086;-0.311824039;-1.216800474;-24.34265456;-80.03629175;-31.83336325;-97.55324567;-25.63470671;-20.46775603;-15.3010442;0.675695428;33.22771934;13.86284486;31.22160901;2.712571356
13.80459971;32.53413139;24.45632122;17.55606264;-0.265004119;-0.718759143;-1.505599047;-28.36133379;-90.80575474;-34.26969864;-103.4438537;-20.23536684;-19.3658509;-8.151963228;5.488922066;36.42702005;18.27049429;36.57923789;2.56885683
18.56567152;39.59560672;29.96243318;21.29471901;-0.154799761;-1.051991317;-1.948603574;-31.67800628;-102.2418845;-36.99653769;-110.8151392;-15.91197278;-19.02189004;-1.241829651;7.897727993;36.79607027;20.76106471;39.39873899;2.186240114
21.98221509;43.43307347;33.37299834;22.18083704;0.608654384;-1.211022487;-2.163764237;-34.15858234;-112.3882945;-40.19681701;-119.9546749;-14.2535244;-19.46003906;4.128488542;7.774190464;35.58672122;20.91779668;39.75113505;1.912655127
24.71216479;44.86399336;35.58143946;22.64;2.395926288;-1.156924527;-1.98365411;-35.77820285;-119.7651046;-43.21459908;-129.8922231;-15.59874594;-20.30433179;7.701651012;6.364976116;33.97180006;19.39055929;38.22990747;1.90752551
26.98391985;45.14214616;37.25541294;24.6053202;4.85465871;-0.917744421;-1.605954361;-36.53392082;-124.4964022;-45.19640462;-139.1572808;-18.88657925;-21.08676048;10.23183088;5.362523119;32.20744654;17.43858933;35.55349433;2.100165847
28.17262826;44.91751533;38.14387276;27.6960871;7.067812866;-0.582119085;-1.409317569;-36.57109625;-128.2556943;-46.04867613;-146.7195381;-22.37156383;-21.67062851;12.71677892;5.601269964;29.78752305;16.17673664;32.40661487;2.29781901
27.2250781;43.90227255;37.30153503;29.4501899;7.970972867;-0.277050489;-1.603355471;-36.27953061;-132.9468771;-46.71904434;-152.4004116;-24.64737703;-22.38584223;15.54532772;6.498854685;26.36020561;16.03684953;29.44737348;2.347838721
23.65083428;41.40449806;34.05527412;27.50595392;6.890560271;-0.124071313;-2.034738985;-36.15226625;-139.11;-48.44367138;-156.5712831;-25.3102491;-23.71671586;18.20948031;6.736873597;22.4824229;16.72850083;27.23871663;2.239099153
18.25896911;37.19401252;28.87735784;21.8832066;3.940258343;-0.184003695;-2.326835331;-36.48240371;-145.3444789;-51.59831373;-159.5425337;-24.94960734;-25.78545626;19.72973293;5.59166893;19.4410433;17.60825424;26.02303389;2.084601176
12.93875544;31.95148828;23.36157236;15.3090492;-0.000791745;-0.419856537;-2.22292902;-37.19620559;-149.275632;-55.22410373;-161.2232511;-24.63738159;-28.0804347;19.38301223;3.706946882;18.22685696;18.12722724;25.53394809;2.015954351
9.508163575;26.94741972;19.21697595;11.12833183;-3.80622481;-0.70761823;-1.817692739;-38.03706392;-149.3582299;-57.74915847;-161.3135346;-25.3382513;-29.70467062;17.14424494;2.515552591;18.54955862;18.05976242;25.10531285;2.078540493
8.428805445;23.24;17.02357898;10.43625985;-6.851893623;-0.898444109;-1.467849722;-38.98088925;-146.111304;-58.35937308;-159.8008161;-27.56993645;-30.00849918;13.54871956;2.681552498;18.81922001;17.44185352;24.09593302;2.205816383
8.380312915;21.04584333;15.75045042;10.88131107;-9.485884425;-0.900251123;-1.46950782;-40.4940954;-141.8090217;-57.83429149;-157.2803314;-31.37077225;-29.15690121;9.166583334;2.897631568;17.24169967;16.3681492;22.32795197;2.284471467
7.107162946;19.75743022;13.48851594;8.341590662;-12.80531037;-0.729960549;-1.80074125;-43.31998216;-138.8629857;-58.05018561;-154.7751294;-36.42841454;-28.2101969;4.157235412;0.280261417;13.23017655;14.85773366;20.16621308;2.251432119
3.011433007;18.54830721;8.91500218;0.324159069;-17.77955119;-0.503977522;-2.160729189;-47.87031974;-138.1491031;-60.46662893;-153.1271801;-42.20651086;-28.62894362;-1.743016403;-7.585424057;8.016974357;12.89237642;18.14706557;2.142684213
-3.620902777;17.05415179;2.418751338;-11.59804312;-24.2792041;-0.372529747;-2.258347763;-53.67717342;-138.5411235;-64.81036083;-152.3526455;-48.0122634;-31.48699235;-8.812041379;-20.31533109;3.934250458;10.56771993;16.46117613;2.05695102
-10.64649297;15.60485239;-3.960108582;-22.39055223;-30.74585189;-0.43613719;-2.074960279;-59.38039211;-137.9302392;-69.06840385;-151.3925697;-53.04345884;-36.83268603;-16.83551289;-33.97132426;2.853428961;8.206330264;14.74350653;2.068387522
-15.34891565;14.87007813;-7.759072213;-26.93889991;-34.86808246;-0.689361428;-1.858650259;-63.34026459;-134.8510806;-70.85971552;-148.4609481;-56.4703186;-43.51623254;-24.87335163;-42.80568396;4.917717484;6.315236166;12.37480808;2.163552748
-16.10199925;15.24176625;-7.634780172;-23.7111849;-34.92393097;-1.018431404;-1.865002941;-64.47802302;-129.4279637;-69.1308565;-141.8639611;-57.57391534;-49.53950869;-31.46732988;-42.64235546;8.471505592;5.387919938;9.06101531;2.255614469
-13.29463071;16.44932639;-4.171893883;-15.89262293;-30.91594229;-1.251448779;-2.098032308;-62.76288283;-122.9867041;-64.85155102;-130.912817;-55.93224472;-52.76451761;-35.18622324;-33.69639224;11.18793882;5.66210044;5.212439542;2.262087674
-8.957579464;17.68610991;0.520745632;-9.083429516;-24.69084564;-1.238342395;-2.300693853;-59.03806234;-116.7838253;-60.19242368;-116.4763745;-51.62354662;-51.71629178;-35.23413802;-20.80732165;11.53610869;6.978788582;1.806615184;2.17783521
-5.445970894;18.12182303;4.054132715;-7.28825193;-18.90161328;-0.927546504;-2.204244549;-54.38143462;-110.9708472;-56.87698883;-100.8430244;-45.37542753;-46.20067058;-31.83387074;-10.73165789;9.555527311;8.831159812;-0.15854343;2.079342398
-4.121775075;17.4087691;4.973033053;-10.22542103;-15.47378716;-0.405451303;-1.797793588;-49.51423611;-104.6281192;-55.0192329;-86.85681215;-38.5349739;-37.48468522;-26.20015948;-8.166246446;6.498633659;10.58438476;-0.198988558;2.056305814
-4.856119067;15.83998548;3.23938552;-13.93365081;-14.58971348;0.126481889;-1.358084069;-44.6572809;-96.76;-53.30324127;-76.66596808;-32.74190578;-27.88579355;-20.08133963;-13.1;3.758507798;11.75367414;1.505491027;2.130784217
-6.496850951;14.10706161;-0.100846269;-14.09654606;-14.83557684;0.439003004;-1.205175986;-39.81448589;-87.34916892;-50.244816;-70.69530034;-29.32310949;-19.8391102;-15.03526969;-21.21568083;1.959904736;12.19852962;4.372868727;2.236138613
-7.776458161;12.88877229;-3.619103824;-9.45301567;-14.33553525;0.393555712;-1.40986032;-35.11485891;-77.56114266;-45.43454202;-67.43;-28.65240713;-14.81484845;-11.76448897;-26.9801144;0.853851644;12.14003906;7.802003521;2.275907394
-7.957149883;12.5721021;-6.050146994;-2.689272576;-12.03055308;0.029137063;-1.727792845;-30.85900707;-68.93431857;-39.76587616;-64.20910577;-29.86524982;-12.65300405;-9.870959973;-27.24865154;-0.033562904;12.00582616;11.36490806;2.211307285
-6.87993426;13.24583912;-6.493477645;1.769089155;-8.227194386;-0.442646716;-1.825508926;-27.25252322;-62.23610071;-34.56060891;-58.64421599;-31.20957728;-11.75762587;-8.21717495;-22.94781797;-0.629292614;12.19785611;14.7473203;2.098666236
-4.629713958;14.87018221;-4.451476124;1.255258084;-4.136450525;-0.747566177;-1.590004883;-24.1401168;-56.92433886;-30.42341517;-49.87531059;-30.9469181;-10.12448097;-5.732566866;-17.84556239;-0.09749175;12.9109427;17.63361144;2.040945836
-1.28624654;17.40491836;0.048732464;-3.071548541;-0.869923647;-0.707771246;-1.232977279;-21.07101523;-51.64320004;-26.82824437;-38.94141051;-28.31788031;-6.624836268;-2.182154139;-15.49210626;2.618095072;14.08730099;19.74632261;2.094480901
2.970137919;20.7530195;6.252018771;-7.113475788;1.302155744;-0.350750616;-1.090512625;-17.71280281;-45.35295994;-22.76359432;-28.09463805;-23.96615455;-1.73558052;1.626715254;-16.61978057;7.899796677;15.50555507;21.02953292;2.214691829
7.557284075;24.56868946;12.66111712;-6.909253552;2.917453148;0.108103677;-1.303948615;-14.27745799;-38.21569458;-17.84830202;-19.54731942;-19.51989827;2.778405165;4.385434822;-18.80930907;14.89866272;16.92639868;21.75262911;2.292519676
11.40201265;28.12894965;17.46180805;-1.538118519;4.645202211;0.40354819;-1.681390593;-11.56135884;-31.58314779;-12.94540712;-14.45678532;-16.58410793;5.026549167;5.232129744;-18.49756825;21.77;18.19766007;22.34027079;2.252446877
13.31417649;30.45646307;19.30368644;6.250145322;6.579285568;0.387638653;-1.873766874;-10.50340793;-27.13668064;-9.73873336;-12.70287107;-15.80867715;4.203845859;4.432785594;-13.733889;26.59575807;19.26395348;22.99448698;2.124775717
12.65435841;30.71151069;17.99125484;11.99713256;8.074223873;0.111170085;-1.705380567;-11.57750759;-25.8403573;-9.595119075;-13.41074102;-16.64781979;1.017792415;3.268767316;-5.679958044;28.40103913;20.09556557;23.41566665;2.023824394
9.812955573;28.65995595;14.59256399;12.53310363;8.217609894;-0.233812369;-1.349823056;-14.4971644;-27.43960632;-12.59683512;-15.68647169;-17.93605883;-2.932485837;3.166033277;2.105763808;27.59518296;20.60051845;22.9012773;2.04662684
6.09528709;24.9207812;10.82747776;7.866573897;6.523636408;-0.461251933;-1.179282964;-18.47134004;-30.77484065;-17.46355726;-19.01270973;-18.82954646;-6.324893029;4.673046276;5.9260478;25.54712267;20.5862546;20.80166119;2.181054239
3.027204784;20.78446555;8.099934435;0.818360829;3.293372007;-0.514752627;-1.415993141;-22.80495856;-34.58289895;-22.3737333;-23.14792744;-19.42333372;-8.948000262;7.029958441;4.079862094;23.58397162;19.80023677;16.99998908;2.309207747
1.526718555;17.63425355;6.796380869;-5.067258895;-0.606504326;-0.479100182;-1.902793226;-27.3555359;-38.17480941;-26.03746074;-27.80598377;-20.62115889;-11.60284819;8.646643968;-2.496922591;22.09306568;18.03036868;12.04373243;2.309552647
1.488764662;16.25573559;6.28075538;-7.720039063;-4.322979007;-0.48381304;-2.209821809;-32.47193152;-41.56043445;-28.26351476;-32.49733255;-23.38876563;-15.20222339;8.138248851;-11.23618188;20.34511089;15.21347341;6.833174311;2.170256221
2.02770096;16.42455992;5.523145239;-7.428059187;-7.476630046;-0.587198774;-1.993519137;-38.45457877;-45.03541831;-29.71852226;-36.65261949;-27.94531851;-19.79709286;5.171994141;-19.59534321;17.16866932;11.49523905;2.126776701;2.009564773
2.156829617;17.03534441;3.880390385;-6.108740425;-10.16735843;-0.736558919;-1.294520916;-44.95191518;-48.60226784;-31.17979914;-39.82224539;-33.44593354;-24.27999927;0.561146734;-26.13463936;12.01081089;7.206948575;-1.755749744;1.977038671
1.41011526;16.73421083;1.501859968;-5.768408218;-12.58231053;-0.827538227;-0.511540729;-50.75524965;-51.64559085;-32.86988168;-41.68619133;-38.32565999;-26.96700986;-4.358902158;-30.48165493;5.623523685;2.76492572;-4.85839425;2.117113637
0.013755834;14.71647001;-0.841434375;-7.276060857;-14.57454055;-0.798517129;-0.074156858;-54.16122429;-53.05788886;-34.28400773;-41.86446349;-41.02914148;-26.59655282;-8.51312621;-32.61226677;-0.153946358;-1.456655546;-7.298584287;2.317463947
-1.418678442;11.23797821;-2.289756505;-10.08468911;-15.57818949;-0.670806645;-0.10117903;-53.68679932;-51.71974775;-34.50941983;-39.80825752;-40.66182349;-23.02177193;-11.43341299;-32.30792513;-3.421597197;-5.203878778;-9.068106571;2.396943771
-2.363006151;7.544017346;-2.378357906;-12.77558814;-14.93743256;-0.502503461;-0.337396058;-48.73052073;-47.06184781;-32.73659525;-35.04467425;-37.24936354;-17.17853886;-13.02416202;-29.28970868;-3.366203961;-8.316213908;-10.07891594;2.265261997
-2.670322214;5.255425157;-1.186234751;-13.87692031;-12.39686484;-0.309274795;-0.40892519;-39.86674854;-39.42941835;-28.64877897;-27.70181126;-31.59875165;-10.48798466;-13.12639277;-23.79563774;-0.719520993;-10.60825378;-10.32551666;2.016009987
-2.514487447;5.561780695;0.843500121;-12.49161088;-8.381965203;-0.039054225;-0.157244573;-28.69935794;-30.07678674;-22.55303113;-18.87160765;-24.95873392;-4.215110428;-11.40203109;-16.93421483;2.813479911;-11.75771544;-9.917367717;1.863244356
-2.135404996;8.664601837;3.196563314;-8.591770814;-3.859434999;0.363806895;0.245024991;-17.38593549;-20.76753702;-15.27888431;-10.36391358;-18.66512199;0.807281961;-7.709273116;-10.36071107;5.750388321;-11.33077158;-8.902876644;1.96397738
-1.633785034;13.74116322;5.485875506;-3.03562024;0.132847826;0.860582539;0.483902075;-7.993413256;-13.10835044;-7.916710938;-3.847733114;-13.82512326;4.102628316;-2.62308706;-5.443781795;7.772205594;-9.008716001;-7.08603632;2.272431232
-0.968908419;19.38535999;7.500696742;2.66448494;2.980726599;1.287499414;0.408425737;-1.839188224;-7.879118157;-1.456560657;0.080334383;-11.02273266;5.451053864;2.453359977;-2.54962954;9.709199054;-4.930171381;-4.121121328;2.553746739
-0.105678953;24.23174863;9.179805677;6.859306778;4.712706215;1.444741752;0.165456765;0.992015519;-4.683578854;3.578567855;2.204406067;-10.09050051;5.017206119;5.836701729;-0.982665854;12.5983508;0.07410101;0.070141019;2.554742806
0.862580954;27.4269166;10.58222731;8.491903008;5.838022564;1.250679485;0.049944035;1.711289416;-2.157175331;7.33656386;4.100597355;-10.09689633;3.588083797;6.455685882;0.405498533;16.57245791;4.584504105;4.881481335;2.195926546
1.737658117;28.7707433;11.84835776;7.714168586;6.938924678;0.835113071;0.222897573;2.29502602;1.288666799;10.50914622;7.065274529;-9.682172138;2.533289962;4.436781336;2.423648062;20.50183746;7.097045454;9.055060592;1.628009547
2.357791383;28.57251625;13.10658821;5.945783645;8.28604677;0.478431452;0.565603571;4.471184426;6.529707834;13.86954676;11.35490211;-7.684033186;3.23951649;0.931100107;5.117656028;22.7399396;6.729669189;11.31652634;1.108858646
2.725705462;27.4;14.34507134;5.173371028;9.709459272;0.423225301;0.801751724;8.705203328;13.12911287;17.7223604;16.26840855;-3.753187206;6.249070852;-2.685520236;7.909404782;22.44051964;3.746675229;11.24301798;0.807993383
3.021699369;25.88214603;15.36319829;6.808829899;10.79087084;0.694749587;0.763952911;13.82767115;19.48383534;21.64257174;20.90453592;1.421237396;10.72978498;-5.622358809;10.06016707;20.40739531;-0.441671846;9.699370521;0.704543519
3.515588093;24.61174345;15.91309754;10.83142891;11.2454227;1.07178885;0.548827455;17.66132344;23.71156536;24.72944658;24.88624306;6.464319647;14.81221232;-7.896347694;11.07686097;18.73456331;-3.873406958;8.413784375;0.658920433
4.472062565;24.09645755;15.99294779;15.84288809;11.2402431;1.238707272;0.416409726;18.36962527;24.79277031;26.23535285;28.4267282;10.07095702;16.73182866;-9.876045541;10.8701659;19.4012381;-4.942058619;8.898994708;0.582965885
6.114588175;24.68768133;16.07003906;20.05182038;11.41768289;1.008681221;0.535214219;15.68804289;23.25650885;26.12356386;31.74068179;11.70815319;16.04595843;-11.62007813;9.737689617;22.81616249;-3.134218065;11.46175107;0.545835539
8.613528188;26.47665782;16.97483327;22.50051071;12.55381408;0.451222288;0.819938821;11.17257956;20.91866129;25.12616896;34.4201594;11.82234253;14.01763207;-12.63204836;8.306162572;27.40409866;0.799513918;15.02656457;0.712748319
12.00913808;29.21337532;19.40554773;23.61486463;15.01212275;-0.168675807;1.017669413;7.217177347;19.75562958;24.2316198;35.44330813;11.42860412;12.78657426;-12.26772682;7.412794248;30.59175322;5.311363743;17.90938679;1.169313576
16.04423335;32.32339908;23.30354028;24.63451097;18.32015816;-0.586599579;0.958903137;5.460998396;20.57887235;23.96585482;33.91254099;11.3687071;13.83550678;-10.44463033;7.786418485;30.52366939;8.870202404;18.96707349;1.795693526
20.01967836;35.05834279;27.55308221;26.34618564;21.18427195;-0.716597479;0.730355793;5.689497198;22.37485635;23.99860591;29.92985834;11.74423227;16.83779712;-8.014011354;9.528146104;27.29687241;10.65753216;18.28199404;2.31830629
22.86329151;36.74710726;30.33302893;28.13648104;22.0356561;-0.680926201;0.599714997;6.030121659;22.81853582;23.36931805;24.83093552;11.90728674;19.76419237;-6.410222385;11.71297608;22.85522625;10.79095217;16.92536796;2.509485526
23.51306881;37.05614357;30.03954124;28.20188872;19.87524567;-0.684620647;0.75991774;4.3333748;19.74047331;21.16895314;20.50108364;11.00794235;20.2421987;-6.776236831;12.58861543;19.6585573;10.02726939;16.05971574;2.366488447
21.48795469;36.14400968;26.27563069;24.88592972;14.95376156;-0.846925969;1.136900447;-0.230450837;12.67822141;17.19103023;18.26194633;8.714131779;17.24111775;-9.19619459;10.54843595;19.10205444;9.198841192;16.11452887;2.109183937
17.31631798;34.6206257;20.27743475;18.19255233;8.85540368;-1.122375966;1.450289825;-6.492713052;3.509399373;12.11659623;18.18310264;5.595390911;11.89056247;-12.59630203;5.41610569;20.78007813;8.75291838;16.64252879;1.991145005
12.49102529;33.2961684;14.44184454;10.27819627;3.864683233;-1.358209059;1.478545585;-11.99380575;-4.321934645;7.159707235;19.31734364;2.882686134;6.842811061;-15.37191721;-0.890405849;23.01643648;8.646162868;16.87833914;2.087228003
8.866659135;32.80981733;11.16432862;4.399664571;1.914018317;-1.421357579;1.281406774;-14.54233458;-7.602523031;3.474275708;20.59155845;1.739283716;4.62221756;-16.27414453;-5.04727037;24.16;8.592456161;16.47541486;2.248357537
7.768892114;33.31522112;11.63397099;2.934371858;3.674936403;-1.283096032;1.163369259;-13.50338001;-5.110181161;1.730227455;21.57360258;2.521513141;6.108415912;-14.95141452;-4.21443572;23.66274598;8.439142485;15.81777408;2.267640312
9.308405328;34.4024845;15.27140846;5.844003731;8.29067864;-1.002991444;1.399615008;-9.946664251;1.745722469;2.064037865;22.51347413;4.53693908;10.16619645;-11.86460492;1.998481059;22.22396121;8.386174723;15.70506034;2.105533265
12.31235974;35.32314836;20.10729485;10.71571801;13.88273189;-0.649945001;1.971702348;-5.663750336;9.802832075;4.297425544;23.74406735;6.487208647;14.58523888;-7.782656525;10.89228587;21.04033468;8.887862473;16.71974697;1.954213511
14.93477828;35.40194819;23.83927919;14.40756896;18.52191051;-0.248488181;2.561317796;-1.882543153;15.97797325;8.154304078;25.09478286;7.316300499;17.57342642;-3.321317987;18.00741734;20.83176353;10.3010621;18.78678964;2.055785384
15.60213524;34.38553265;24.93321648;15.14332093;21.10745623;0.198217677;2.81893425;1.345713679;18.88058429;13.28968843;25.91256144;6.889048327;18.73;1.15897617;19.72123229;21.3820777;12.52525824;21.21430454;2.418825727
13.75465134;32.50482651;23.17022397;13.54163694;21.68822304;0.641265109;2.66988545;4.710646301;19.20727559;19.16232996;25.66939794;6.02;18.90404369;5.353644342;15.44843406;21.8499281;14.9039923;23.10335157;2.69945276
9.984180958;30.22028167;19.43111027;11.83543764;21.11685861;0.957156824;2.379072422;8.625677487;18.76400311;24.93505771;24.54460549;5.817757295;19.21214303;8.828797895;7.952591023;21.49928662;16.50070381;23.78543678;2.402540164
5.550488105;27.84987447;14.9789705;11.89441781;20.32147891;1.007177005;2.310690476;12.52244857;18.9013358;29.56178038;23.36441513;6.806035214;20.07504875;11.10207184;1.526490312;20.23401989;16.61378879;23.03170445;1.28951683
1.627384449;25.37017677;10.74972925;13.58719727;19.67406084;0.749111108;2.597841581;15.05086294;19.51782648;32.06841587;22.88162505;8.468659419;21.01625593;11.94465227;-0.745649463;18.55116201;15.21234333;21.02617142;-0.32617424
-1.246978178;22.5462002;7.060308128;14.78145595;18.8312384;0.30549043;3.023194462;15.02749503;19.3223834;31.8948051;23.03461307;9.578908958;21.28934286;11.6164024;1.18391735;17.01948633;12.98876837;18.24656941;-1.668974368
-3.227623866;19.27881213;3.80355515;13.02467024;17.10464832;-0.083736259;3.22291937;12.37852431;17.08873383;29.13090159;22.91326191;9.098687199;20.72345901;10.77595243;4.574596788;15.74622555;10.95304819;15.34320184;-1.965899316
-4.789708162;15.87108012;0.869430949;7.618763616;14.08573032;-0.204831989;3.030739392;8.336820345;12.89202654;24.54256068;21.55740981;6.987823817;20.02801246;10.07947363;5.943384273;14.2677153;9.803666166;12.97547099;-0.97176883
-6.254684928;12.96853248;-1.572057764;0.439961156;10.09930437;-0.008711616;2.646521763;4.735944833;8.34420209;19.36953072;18.93751612;4.301224015;20.26927195;9.753976366;3.444854957;11.95111573;9.49071406;11.55483566;0.833377376
-7.56;11.19193004;-3.128893796;-5.216988317;6.1726048;0.359470606;2.468667037;2.920937392;5.61947123;14.94493506;16.22581599;2.472564201;21.92735418;9.469142147;-1.996696617;8.607234456;9.289921168;10.991282;2.533865852
-8.392666268;10.74296068;-3.504753158;-6.956870541;3.510344523;0.661757082;2.734857858;3.048130055;5.992504367;12.23921974;15.02043815;2.307812847;24.30537431;8.606885885;-7.4312925;4.862533685;8.368177669;10.67445274;3.3531682
-8.524256701;11.3006683;-2.801321449;-5.003583968;2.781041188;0.723369236;3.295143284;4.211703009;8.984468599;11.48606174;16.08854749;3.452279885;25.81245902;6.729034225;-9.850717305;2.001862209;6.462614318;9.835329724;3.102462155
-8.053205807;12.29691813;-1.556228698;-1.975066874;3.655524787;0.530517437;3.729201867;5.205962164;12.73945799;12.06958226;18.66200523;4.740750686;24.97964076;3.908806989;-8.015182496;1.338437447;4.180329899;8.13088765;2.198759945
-7.361681478;13.34673079;-0.476926538;-0.863152498;4.905163523;0.209427239;3.712962414;5.301120877;15.30681319;12.77783305;20.9126426;5.148514334;21.50430948;0.712557471;-3.035599175;3.466246963;2.664968472;6.025404946;1.283852899
-6.838314247;14.47657296;-0.058760053;-2.787130126;5.034478755;-0.080481813;3.312919042;4.480536648;15.82631877;12.34569752;21.26719242;4.576989834;16.5783268;-2.120198876;2.469280615;7.83053059;2.823708047;4.596060605;0.768745898
-6.606638435;15.95912456;-0.354880527;-6.291897779;3.090150628;-0.248474868;2.944562725;3.06183877;14.73494231;10.01880781;19.51003906;3.83481911;12.25715073;-4.056637035;5.938906101;12.88221982;4.646361404;4.799970543;0.64945001
-6.488718152;17.89394651;-1.046910801;-8.744645041;-0.830194346;-0.298354448;3.025001873;1.111990437;12.93195598;5.824143272;16.7857946;3.834018798;10.29163064;-4.971549807;6.164575548;16.76340412;7.11592831;6.70181924;0.686256347
-6.237239562;19.89298834;-1.745462733;-8.686944349;-5.663216891;-0.279304419;3.618773197;-1.801329687;10.69277319;0.408882904;14.53087719;4.686356146;11.18933949;-5.092779984;3.666459465;18.17411731;8.807486329;9.270546722;0.731747825
-5.846080692;21.15159446;-2.293544021;-7.185951122;-9.979345743;-0.221800289;4.381815809;-6.277315136;7.317889122;-5.394522977;13.26407881;5.500078125;14.07344451;-4.789032814;0.143163299;16.95589541;8.780302194;10.96460806;0.889838725
-5.676916662;20.87452139;-2.861690595;-6.995048383;-12.70007813;-0.117587786;4.847817753;-12.40302253;1.875930067;-10.92968625;12.27385533;5.115727806;17.34096575;-4.361444517;-2.538608639;14.06867888;7.148869683;10.7155943;1.365881071
-6.276007249;18.74407997;-3.786823446;-10.11409023;-13.49416128;0.049047438;4.805791305;-19.25854343;-5.548993534;-15.74420785;10.46118243;3.21723316;19.61025674;-3.942105517;-3.235016765;10.97511088;4.942876948;8.585392445;2.162599622
-7.994962051;15.09688669;-5.287706706;-15.7153081;-12.67132195;0.261665842;4.446987729;-25.04012891;-13.19146962;-19.33768781;7.585722611;0.874718098;20.33475832;-3.504529923;-1.908324815;8.797184329;3.374882519;5.609626584;2.927730241
-10.6860297;10.72149248;-7.258513704;-20.22877355;-10.75732857;0.469834769;4.169394332;-27.82225928;-18.2243688;-20.96414545;4.789126242;-0.034248883;19.77795725;-2.936486821;0.579888136;7.757041561;3.05164623;2.977190423;3.133373985
-13.69642184;6.47916357;-9.265272732;-19.73295958;-8.132618859;0.62876284;4.226930696;-26.54042422;-18.38073143;-19.8119815;3.861826113;1.809558969;18.52093491;-2.131052111;3.076565424;7.241750761;3.681377055;1.214641445;2.471789911
-16.17564212;3.036412337;-10.72550577;-12.94391757;-5.005507279;0.739662944;4.533688417;-21.60327175;-13.46838501;-15.5543386;5.789718412;6.031501765;16.95868542;-1.074213687;4.794580337;6.427444889;4.439614873;0.012883439;1.143653402
-17.4970508;0.827459368;-11.15298628;-2.520466342;-1.670416901;0.847008122;4.780433854;-14.74396532;-5.65925009;-8.871972552;9.766102319;10.5828734;15.16186203;0.093918732;5.66019516;5.019840529;4.66402362;-1.222999907;-0.221800467
-17.53535778;0.120614985;-10.35183786;6.400135242;1.259217581;0.990136159;4.737942904;-8.166746907;1.724457656;-1.447754751;13.5306186;13.00579985;13.14159135;1.084979556;6.167543445;3.582142962;4.328436605;-2.631679917;-0.984121084
-16.66356021;0.987781231;-8.508624032;9.456644648;2.936456942;1.153124271;4.464953315;-3.462706646;6.138920414;4.742697751;14.85647462;12.08484556;11.23069328;1.568516981;6.868088257;3.205770705;3.955908767;-3.640029297;-0.935705453
-15.52429791;3.142140035;-6.178440664;5.798011516;2.696622312;1.263812183;4.240432498;-0.908809444;7.176337025;8.479737755;13.094712;8.703473335;10.21558757;1.356312641;7.890174101;4.747276139;4.090048828;-3.43255203;-0.426890769
-14.74151515;5.842239923;-4.156754293;-1.586860548;0.509030495;1.251385767;4.297104541;0.45822852;6.492976747;9.991582973;9.63067384;5.284577394;11.05171712;0.569988704;8.885368749;8.173376304;4.785634319;-1.735858708;-0.070635645
-14.70624293;8.103491509;-3.216989723;-8.011142749;-2.895589926;1.117507649;4.608118729;2.059976935;6.463075918;10.76632478;6.938382581;4.214774203;14.30874729;-0.329800157;9.466602099;12.48762181;5.539424281;0.786909416;-0.254043345
-15.46278225;9.220457075;-3.744333293;-10.00917373;-6.344113495;0.957264253;4.918116248;4.778517466;8.558974659;12.55243662;6.956198353;6.359125028;19.69712145;-0.716212213;9.754345522;16.29864045;5.70685238;2.919648359;-0.834075433
-16.66039361;9.271883665;-5.412959925;-6.976604414;-8.763352078;0.90218839;4.979395293;8.367324337;12.54399647;16.19983398;9.945219937;10.65228845;25.9961412;-0.116200753;10.46777718;18.63044125;5.048991804;3.778179014;-1.248988304
-17.57461766;9.170898875;-7.140261578;-0.688958182;-9.563707416;1.020636849;4.769769306;11.63890131;16.89280976;21.12509612;14.5411088;14.93546589;31.47050199;1.481863034;12.32127057;19.40725872;3.951632097;3.475625829;-0.95502959
-17.27326754;10.09358307;-7.481733236;6.445680213;-8.64507287;1.249542495;4.496123575;13.29609258;19.97179148;25.750311;18.7898234;17.34153813;34.58094462;3.512507769;15.12572519;19.29098887;3.12985623;3.007225337;0.145690413
-14.98329397;12.60063926;-5.37755592;12.76613122;-6.145048445;1.413697758;4.392361163;12.8421561;21.06467863;28.57856309;21.30788304;17.24843852;34.63024484;5.006192468;17.41471601;19.02376377;3.053451682;3.430448191;1.602211249
-10.56363476;16.07310855;-0.868431183;17.42139405;-2.259988676;1.326996907;4.507737167;10.93618486;20.57844505;29.13453167;21.77843841;15.26494993;32.02055057;5.004252078;17.16061918;18.78077995;3.558888059;4.999145483;2.700711463
-4.812619897;18.92867717;4.701479548;19.58305542;2.644068105;0.911114681;4.680478404;8.925813136;19.44024475;28.12768593;20.62653327;12.46955265;28.00110732;3.037778648;13.2868159;18.0153317;3.968372225;6.952184122;2.921627012
0.679800816;19.54252585;9.239413005;18.08504871;7.754173823;0.25410614;4.710740184;7.862046049;18.25758862;26.77699151;18.34237135;9.595122597;24.04374739;-0.561394655;6.868619197;15.90638258;3.632808271;8.123096576;2.248110584
4.192496824;17.26517227;10.98541065;12.24096373;11.74177204;-0.428213957;4.560542854;7.689007557;16.88043443;25.8321091;15.0655668;6.738366415;21.16529341;-4.695039461;0.899767506;12.07705494;2.474538514;7.869965266;1.139387067
4.738459396;12.82678125;9.48777996;3.225234091;13.17913448;-0.902512434;4.389763405;7.213427567;14.61050107;25.00965408;10.68694192;3.658643492;19.53231875;-7.90611482;-1.527095198;7.057022401;1.096611223;6.570451534;0.226629689
2.602363842;7.84047313;5.830655461;-5.488434396;11.31073299;-1.032551854;4.398469614;4.92743324;10.80960118;23.22913756;5.246682878;0.276113808;18.52795875;-9.000813233;0.530013428;2.140901524;0.355048402;5.284860116;-0.044140493
-0.84592952;3.756734019;1.92077351;-9.618812302;6.666804366;-0.834637313;4.630712013;0.14306484;5.431726567;19.45271948;-0.786361618;-3.08246263;17.21321007;-7.593129528;4.915167657;-1.290433544;0.703174579;4.859139487;0.390847549
-3.996765532;0.999766811;-0.725831744;-6.859716543;1.001128185;-0.450996408;4.928869469;-6.357611335;-0.853104056;13.52873604;-6.583999359;-5.84384282;14.9083853;-4.286868148;7.688334363;-2.558963069;1.796184262;5.17842483;1.24534651
-5.962714545;-1.13901351;-1.885076079;1.058975013;-3.531528604;-0.065810031;5.081570079;-12.64240014;-6.944483538;6.472568374;-11.277175;-7.558286791;11.56995664;-0.382203403;5.971005604;-2.092340961;2.656537283;5.153195511;2.068150979
-6.992540918;-3.830671518;-2.588289934;8.880019531;-5.481371699;0.185191304;5.022854907;-16.73136614;-11.76298908;0.024121454;-14.25659774;-8.165803836;7.774555617;2.745017725;0.264312066;-1.192279386;2.292357837;3.449749294;2.453010555
-8.04074604;-7.774982774;-4.171005687;10.97318896;-4.773094145;0.266003778;4.891621151;-17.73746078;-14.60464928;-4.209897655;-15.28226094;-7.993638633;4.363907134;4.248377657;-5.647110146;-1.312411472;0.338012527;-0.574334265;2.185946483
-9.817528048;-12.65111252;-7.094197738;5.130201076;-2.510105613;0.234523947;4.893758028;-16.27003906;-15.28057907;-5.49909926;-14.43226802;-7.546616081;2.001140691;4.068070871;-7.376005476;-3.275869537;-2.719219299;-6.387765266;1.305008139
-12.056257;-17.28134813;-10.41637885;-5.71910006;-0.102530121;0.19296882;5.097828534;-13.85186906;-14.07245406;-4.218909819;-12.02118157;-7.257751058;0.915305205;2.735840666;-3.332719007;-6.878604662;-5.859662827;-12.55057371;0.075968892
-13.60026395;-20.33543825;-12.34811023;-15.25407891;1.622521385;0.226972768;5.36;-11.80171744;-11.5855383;-1.51503885;-8.550890331;-7.316530707;0.954809192;0.921713575;3.764561738;-11.07730271;-8.153030745;-17.48990883;-1.111971997
-13.29347898;-21.08200859;-11.53431509;-17.88446068;2.711220899;0.365651273;5.453354945;-10.40047233;-8.554576637;1.330420467;-4.643135984;-7.600497849;1.845838048;-0.929378433;8.615074145;-14.60994876;-9.251770198;-20.24980134;-1.911617669
-11.0111892;-19.7332477;-8.148033377;-12.3933925;3.663101488;0.578484088;5.283162006;-8.917672265;-5.633746364;3.457119552;-0.891575557;-7.709028759;3.420876836;-2.632601886;7.211906297;-16.65258449;-9.451157995;-20.7815084;-2.181467891
-7.99650271;-17.23652265;-3.96483336;-2.553576996;4.746327364;0.802498708;4.986354554;-6.418970533;-3.21833351;4.656099305;2.325247784;-7.119658705;5.637968123;-4.022263087;0.030086975;-17.11860302;-9.331137565;-19.70331365;-2.051825307
-6.143890375;-14.69814293;-1.285053747;5.662613054;5.655883346;0.977874183;4.818016486;-2.693025594;-1.366155201;5.248980676;4.940337559;-5.460019531;8.405168041;-4.72566923;-7.963776765;-16.4515372;-9.270288455;-17.78385783;-1.830970224
-6.667303163;-12.78703461;-1.398549637;8.229786148;5.781118429;1.070406822;4.925915795;1.434579396;0.143595113;5.779090909;7.121480703;-2.779224513;11.4014493;-4.226743157;-10.66782009;-15.09814334;-9.170607194;-15.4931429;-1.791950221
-9.110112261;-11.4242205;-3.651251017;5.621737326;4.809000175;1.073674097;5.219552524;4.648226918;1.654606863;6.7214278;9.090275346;0.385628148;14.10032356;-2.227944017;-5.197891654;-13.06331873;-8.549451542;-12.83808019;-1.980478374
-11.47872272;-9.898643826;-5.798330269;2.059360204;3.107031658;1.000300791;5.454766315;6.130039063;3.479744601;8.331858601;11.0032858;3.274907182;16.03633245;0.977393038;5.969179095;-9.895460949;-6.89759608;-9.508370122;-2.189087213
-11.50286017;-7.353840803;-5.459710567;2.153973523;1.530707522;0.876688396;5.456493353;6.2234747;5.824825173;10.62436035;12.98700836;5.381679869;17.13440996;4.474944011;16.68295994;-5.150384193;-4.052560017;-5.228279448;-2.127660042
-8.198123466;-3.417220669;-1.729127021;7.441572408;0.799257789;0.745022441;5.274659523;6.241860147;8.776566732;13.38787562;15.23348466;6.784480196;17.82786091;7.149434677;21.41224269;0.975748679;-0.371050088;-0.15284988;-1.666148071
-2.644247882;1.361204073;4.138558149;15.24204533;0.951655092;0.66115296;5.130058594;7.527122951;12.27659562;16.17998263;17.96443743;8.018961217;18.81426213;8.296138498;18.97434379;7.321272878;3.360830583;4.881594123;-0.958959354
2.592688714;5.562357425;9.432489;20.52119172;1.326858556;0.674125948;5.201718001;10.42351001;16.03721025;18.32925252;21.19062832;9.514485892;20.56431334;7.984555417;12.9839532;12.05887683;6.196512148;8.441771878;-0.346975538
5.031430252;7.526370153;11.63007813;19.33159276;1.077134733;0.789707505;5.453915117;13.90582344;19.46314524;19.04804932;24.44170937;11.02765188;22.91054948;6.908007148;8.805552821;13.53456095;7.345229051;9.008208262;-0.110386402
3.791167567;6.289894074;9.911972728;11.43878374;-0.206026569;0.94355951;5.665379379;16.14;21.71381381;17.71836545;26.76995281;11.60111339;25.02898583;5.851678452;9.417196711;11.17615882;6.437433466;5.773173534;-0.268712572
0.052168599;2.291850857;5.582218019;0.457972064;-2.243719497;1.015949598;5.635008942;15.59976713;21.97588712;14.26577712;27.16510944;10.2058532;25.87465726;5.207169982;13.33310048;5.905716303;3.68427853;-0.67882981;-0.587189518
-3.800463222;-2.660909467;1.166389952;-8.418657173;-4.359719968;0.895676466;5.374857939;11.98602746;19.84269267;9.387472937;25.15653738;6.636863901;24.81;4.899858528;16.05869401;-0.236767481;-0.117808645;-8.298798709;-0.77817464
-5.723286103;-6.271868375;-1.179161602;-11.50347514;-6.032249732;0.559697576;5.110683988;6.355446783;15.56164771;4.395436198;21.14289356;1.921098498;22.00776618;4.722956299;13.80582751;-5.077638369;-3.79024476;-14.34660488;-0.725125727
-5.208737979;-7.020792351;-0.902944287;-8.567806581;-7.249552577;0.110552077;5.086371431;0.424518258;9.957043446;0.639025792;16.13743377;-2.210594246;18.34459939;4.709557937;6.517202492;-7.354958475;-6.184430751;-16.72954883;-0.543038201
-3.3992194;-5.037167264;0.812769623;-2.632799759;-8.413674722;-0.267214295;5.348543333;-4.428358826;4.060369727;-1.218694997;11.08022236;-4.50251545;14.8503536;5.145156883;-2.102633176;-7.24969633;-6.678706614;-15.16785642;-0.435667012
-2.166795515;-1.991168142;2.018640795;2.041743925;-9.923365101;-0.414498092;5.706367524;-7.776803984;-1.288467021;-1.605021006;6.267266132;-5.121775653;12.09302768;6.167766744;-7.454979745;-6.139539706;-5.512201745;-11.41654585;-0.489303036
-2.865928862;-0.036531792;1.348481263;2.428960019;-11.80294243;-0.299573738;5.902030234;-10.00867343;-5.575992737;-1.77311781;1.403686151;-5.564447424;9.933300842;7.32505083;-7.486908452;-5.751948368;-3.71117628;-8.27946894;-0.596998973
-5.578169579;-0.476974793;-1.139998944;-1.741072907;-13.65229808;-0.040551217;5.836315242;-11.62175092;-8.419414419;-2.930666088;-3.71805007;-7.472388221;7.818610048;7.571159658;-4.031827372;-7.193392902;-2.556160714;-7.919143198;-0.585723281
-9.224072227;-3.015462034;-4.110216206;-8.095531402;-14.89212647;0.172685622;5.645997498;-12.52909015;-9.283829952;-5.274297651;-8.484977565;-11.20052587;5.388075078;5.854015675;-1.114194307;-10.34716801;-2.834335055;-10.48201512;-0.427516162
-12.30343999;-6.038027427;-5.869615111;-13.09754351;-15.05292939;0.204646537;5.567580517;-11.91648843;-7.475807018;-7.59861381;-11.37806825;-15.26260144;2.916193942;1.921187507;-1.667569864;-13.90451234;-4.318760294;-13.93296129;-0.326444406
-13.68942045;-7.677280861;-5.392743507;-13.95411858;-13.89227184;0.059229185;5.717158756;-8.778894207;-2.565103899;-7.844005777;-10.76260243;-17.18404992;1.22711788;-3.291965504;-5.274539981;-15.98119736;-5.838763043;-15.25918705;-0.573168873
-13.02230377;-6.910894373;-2.80106803;-9.934449959;-11.35003906;-0.135090658;5.989477551;-2.766690134;5.017763967;-4.340395233;-6.052132595;-15.2238802;1.104554275;-8.073224904;-8.626098974;-15.02522705;-5.957065268;-12.32690706;-1.2688428
-10.63948349;-4.013719748;0.892059322;-2.512804751;-7.521804614;-0.223037191;6.165212307;5.260418704;13.72163932;3.003005941;1.638669644;-9.718417657;2.624000499;-10.91946037;-8.218807477;-10.61338743;-3.862283482;-5.240058594;-2.156907002
-7.288171656;-0.203640416;4.459185775;5.588265911;-2.769868015;-0.125929934;6.121696052;13.39279561;21.32186506;12.34898439;9.917865605;-3.026224972;4.936486766;-11.40077474;-3.109022413;-3.773341014;0.091121995;3.642355765;-2.736049904
-3.881699358;3.128509208;7.047333797;11.83550685;2.131414493;0.124138342;5.948519067;19.49894269;25.94460049;20.71853114;16.38104162;1.930417298;6.733552895;-10.26858103;4.386178157;3.358088246;4.558868807;11.02556431;-2.601743285
-1.350884737;5.040235484;8.358529183;15.01301999;6.067314064;0.432708808;5.860997187;22.24176179;27.04752501;25.49347189;19.83374319;3.497346297;7.118364298;-8.74665691;10.46208254;8.449201904;7.994279002;14.49999267;-1.762069743
-0.464237255;5.21038542;8.477013682;15.5070577;8.003548378;0.720083008;5.994517555;21.67987248;25.66231718;25.75879777;20.6269226;2.202437189;6.267872127;-7.577340225;12.58153716;10.06718378;9.531098872;13.75578731;-0.670774169
-1.532339686;3.777722055;7.634529923;14.73160707;7.573556377;0.957312052;6.273827419;19.11235076;23.66562512;22.7070442;19.96292501;0.1623274;5.370733782;-6.572862725;11.07348111;8.391845367;9.386349703;10.51506448;0.069047461
-4.122389556;1.155207116;6.142882831;14.15100012;5.414063395;1.137891783;6.480586114;16.29231479;22.53862451;18.90699132;18.82392256;-0.497333808;5.826443532;-4.993961522;8.474144171;5.111396797;8.549115806;7.332434144;0.117928553
-7.055423697;-2.010981511;4.469227747;14.51055313;2.922699064;1.227461788;6.456640594;14.50443284;22.47970588;16.90857887;17.41231931;0.980635283;8.243697549;-2.392647498;7.321250479;2.483049212;8.019591645;6.083901768;-0.380455735
-8.849655118;-4.844799971;3.244728441;15.65882102;1.508882146;1.156617444;6.25309589;14.04556414;22.51063455;17.99176483;15.48973429;3.748724423;11.9637081;0.82150228;8.242790395;2.054285995;8.158194497;7.068724478;-0.936534254
-8.45;-6.416836494;3.057163744;16.92047219;1.811339872;0.879499098;6.085206393;14.35602006;21.49130966;21.69799022;13.19407557;6.27992607;15.48725853;3.588840103;9.802471374;3.80969911;8.588175115;9.173322896;-1.096580993
-5.805386534;-6.124285463;4.119981957;17.6573032;3.422641603;0.450065918;6.13409676;14.62580858;19.26073734;26.27485495;11.49145126;7.626837023;17.52934705;5.017209241;10.07052898;6.2996625;8.665108937;10.84613759;-0.77219832
-1.882073496;-4.02837399;6.094262912;17.63193627;5.307299689;0.035597104;6.37985026;14.42336999;16.9926413;29.6669519;11.74058638;8.039527617;17.94003906;5.12041524;8.518201081;7.6973838;8.111079938;11.16975048;-0.271783605
1.937450792;-0.832870956;8.270272718;17.02127921;6.58538309;-0.170760079;6.6224402;13.93112264;16.42347213;30.47854485;14.63934352;8.562086921;17.79361907;4.840769693;6.649807578;7.105176944;7.316982338;10.35445248;-0.027896426
4.679736092;2.561287883;10.02616934;16.19386672;7.084666055;-0.0891043;6.672406646;13.67599087;18.47488217;28.46674787;19.41218231;10.03974536;18.54258122;5.308760318;6.864019981;5.232904463;7.097411004;9.432010166;-0.247260029
6.261076402;5.617242862;11.22014155;15.46539528;7.262006458;0.164187101;6.533782575;13.99529412;22.30184257;24.44137278;23.97698352;12.36144388;20.83433747;6.929533124;10.46838466;3.972919648;8.108197385;9.461082098;-0.754249309
7.298092922;8.383485936;12.18571715;14.95810239;7.606195453;0.330198291;6.406367644;14.64266256;25.54573187;19.73937743;26.08403112;14.4902557;23.86910563;9.037508255;16.42911475;5.1414936;10.37760798;10.81886084;-1.131437312
8.416727663;11.16903442;13.3082233;14.55467683;8.050738158;0.178553078;6.500712223;14.81972595;25.71804815;15.58237392;24.65225747;15.1842173;25.80820656;10.39916456;21.85007813;9.228220717;13.28709098;13.01486091;-1.028186386
9.600176597;13.93277811;14.519861;13.90147858;7.910574146;-0.320484498;6.834607951;13.61753254;21.80518622;12.60864285;20.35808826;13.81913487;24.97939942;10.15240799;23.84528733;14.98555265;15.97673315;15.06591978;-0.397137682
10.07963794;15.93321119;15.15153694;12.48210354;6.423104728;-0.952697206;7.201708692;10.5813282;14.99016201;10.75364832;15.09070726;10.7343451;21.03426882;8.421917481;21.43514546;20.11021741;17.83733322;16.10976587;0.497287928
8.854961342;16.01986707;14.31440353;9.824950017;3.470644856;-1.387876019;7.348411345;6.048050581;7.987730193;9.492103203;10.72170996;6.946794879;15.23907044;6.129078104;16.1158851;22.53812152;18.7240383;15.84007813;1.26405367
5.457881636;13.4373788;11.55572029;5.825637766;-0.106440214;-1.396178022;7.203891306;1.068409954;3.450984542;8.294306172;8.094135816;3.53758888;9.709335417;4.185676469;10.75779127;21.51102966;18.78699227;14.54177853;1.598581182
0.400292617;8.566584681;7.295539535;1.009663713;-2.893864578;-1.002027507;6.955206409;-3.015979607;2.53086403;7.043346148;6.890143391;1.170919671;6.157093432;2.764303969;7.69547462;17.80520498;18.13705592;12.8128682;1.38146652
-4.998985112;3.018507861;2.708157498;-3.495857008;-3.738579342;-0.467196631;6.894970827;-5.090711647;4.512794048;6.170653997;6.327141907;0.009542198;5.038287214;1.26157363;7.398951699;13.12454671;16.68577089;11.24597888;0.652412131
-9.255869498;-1.052401103;-0.859735009;-6.358000408;-2.441463198;-0.116384253;7.172160749;-4.628037575;7.656417091;6.419718951;6.035686657;-0.039270822;5.639488812;-1.016947216;8.618223579;9.182667412;14.32655231;10.29042387;-0.445398141
-11.37230155;-1.992181301;-2.499856174;-6.602581057;0.18117984;-0.128496987;7.664168394;-1.769737767;10.52859764;8.375859115;6.425855465;0.982956446;6.914894278;-4.029866799;9.78383823;7.073392131;11.30533436;10.30032269;-1.670295637
-11.10474247;0.606397783;-1.974165452;-3.991998647;2.889231802;-0.435053011;8.081318952;2.824320089;12.85117574;12.06077634;8.323482487;3.209129739;8.347871063;-6.742138746;10.53765;7.173469615;8.426570674;11.58956466;-2.662269118
-8.803416839;5.858013257;0.482245446;1.008647051;4.819188711;-0.785040844;8.209997779;8.23477105;15.33915929;16.85874735;12.231547;6.814068074;10.16889661;-7.699238019;12.19355762;9.374386237;6.825380474;14.31818887;-3.000423959
-5.091895647;12.13879618;4.475260388;7.571674381;5.929289824;-0.918615117;8.081067073;13.53071771;18.79463124;21.81782035;17.80311315;11.72550309;12.83609584;-6.036590391;16.71526017;13.26701339;7.35583229;18.22231287;-2.393675588
-0.686429189;17.79208981;9.53243548;14.81050719;6.819590874;-0.725973262;7.921445382;17.94396124;23.23616761;26.10541746;23.88167409;17.36365214;16.29374693;-2.18183979;24.88654107;18.10016593;9.964000982;22.40896048;-0.919519493
3.590585363;21.5816587;14.91356032;21.79639556;8.122282766;-0.293494316;7.941486359;20.95169572;27.72427239;29.29277923;29.02034317;22.59121643;19.67906262;2.265884137;34.99055341;22.67645702;13.49166289;25.47768618;0.879364862
6.811513297;22.81071372;19.47434327;27.39417075;9.942936269;0.172960695;8.152848847;22.27320628;30.94007813;31.28714289;32.0963381;25.98248216;21.74544442;5.396422949;43.06695317;25.50210038;16.12089462;26.03979746;2.182670408
8.182852053;21.30111877;21.94464276;30.30208229;11.75;0.477927181;8.375819958;21.80880308;31.99597369;32.02137498;32.6695469;26.37988414;21.66439834;6.00557567;44.82188585;25.32047211;16.26909422;23.40764035;2.313455523
7.486605461;17.42507818;21.61583977;29.56687779;12.75412235;0.531572017;8.418985545;19.58103417;30.84887344;31.21978239;30.9864436;23.52116139;19.56363577;4.140243981;38.15397897;21.78929338;13.44106496;18.04633581;1.146600433
5.3931378;12.16102018;18.96777039;25.37102437;12.47198934;0.365877774;8.260203347;15.75043452;28.08841071;28.50960794;27.75898137;18.38404539;16.39301727;0.928940659;24.74895171;15.83548556;8.540424447;11.47394584;-0.775078122
3.289038524;6.97324252;15.65070932;19.46156129;11.07482358;0.087969985;8.063897729;10.73028648;24.40685786;23.86219906;23.89885155;12.94507849;13.26599418;-2.069692571;9.64693405;9.359021415;3.445181121;5.622335183;-2.52167229
2.586829972;3.393540515;13.65142226;14.6562464;9.310204711;-0.182375309;8.025067985;5.321859878;20.27273152;18.04050646;20.29797872;9.340254808;10.82681057;-3.553489746;-1.135192166;4.381156268;0.076619551;2.011301718;-3.291568212
3.917496123;2.451171461;14.12584515;13.48384879;8.089484725;-0.355817588;8.18934369;0.707417691;16.06527735;12.64708214;17.65621358;8.813446326;9.115555233;-2.884662504;-3.647525069;2.127255865;-0.522273237;1.202078889;-2.836249507
6.776735248;4.290147366;16.72642737;16.74446232;8.026278617;-0.392472595;8.41594961;-1.83205545;12.44204655;9.595640016;16.35076687;11.06276602;7.935280627;-0.185576822;2.020851127;2.593894445;1.396081505;2.799051721;-1.533513614
9.912504571;8.2207599;19.94696837;22.98933691;9.186475445;-0.308951103;8.514317543;-1.43876323;10.44771034;10.22236779;16.38033273;14.42361015;7.28717478;3.749071201;11.97839286;4.819782366;4.556455436;5.900207872;-0.091414855
12.18954035;13.13285388;22.24153473;29.35579924;11.12792936;-0.177706518;8.423850565;1.807746189;11.073804;14.53351608;17.41283354;16.81199617;7.411618914;7.640592524;20.79674012;7.602286469;7.406399971;9.62191783;0.892370799
13.2815843;17.93440929;23.05363173;33.22637654;13.12521444;-0.107858456;8.268713292;6.719882871;14.48479212;21.04887697;18.90003906;16.83534213;8.370058594;10.04815585;24.41595108;10.12849509;8.872106848;13.33667296;1.222094655
13.65898476;21.71702748;22.94974852;33.56529709;14.41352216;-0.198326236;8.237804955;11.36782425;19.50362627;27.36305107;20.17103788;14.35559118;9.567697436;9.851315366;21.97218508;12.11672158;8.715125888;16.54239089;1.092136882
13.89867042;23.66063978;22.78047449;31.03870104;14.35357583;-0.477387735;8.402827459;13.85952768;23.86050842;31.13136221;20.46039836;10.18771882;9.732549349;6.755780686;15.59425141;13.48194808;7.379501814;18.60627724;0.844760103
13.91069343;22.97967068;22.61425384;26.97538145;12.52848664;-0.866790671;8.644143158;13.13266051;25.19212593;30.96462525;18.94451893;5.256442416;7.519382009;1.527515401;8.551815154;13.91954711;5.549786798;18.73761923;0.711533395
12.77914549;19.1890528;21.41257512;22.11824262;8.83508773;-1.205892688;8.754054755;9.323407656;22.2272534;26.81613442;14.92552061;-0.075932919;2.379538252;-4.2838369;3.142704073;12.84993893;3.77672934;16.34706049;0.717070408
9.438648321;12.62039978;17.81994643;16.22528806;3.593188835;-1.335154724;8.623903534;3.537150991;15.43516594;19.77474825;8.208957584;-5.973213529;-4.924816474;-9.071718107;-0.285560829;9.844535515;2.390954547;11.59085358;0.764670671
3.708471906;4.753553851;11.48922433;8.812532661;-2.386786531;-1.192380115;8.345100036;-2.775432168;6.765174769;11.50575876;-0.493760583;-12.45572427;-12.56126361;-11.95342593;-2.729930095;5.212307704;1.642860143;5.661738062;0.781381769
-3.151693683;-2.088487249;3.84013226;0.326220375;-7.883166689;-0.856557205;8.133294958;-8.409740323;-1.306270719;3.698328543;-9.463113103;-18.7321967;-18.49084558;-13.11909548;-5.070650478;0.221047345;1.815127499;0.482618754;0.783137187
-8.900593407;-5.715484031;-2.480199869;-7.370933593;-11.55213722;-0.502929758;8.145076201;-12.63248173;-6.817390068;-2.257131629;-16.41275008;-23.21087463;-21.40481803;-13.52803692;-7.032414519;-3.356330372;3.110913633;-2.14864158;0.822390945
-11.56978916;-5.198601468;-5.163480165;-11.77188593;-12.37271308;-0.292857837;8.351237556;-15.03497396;-8.911178978;-5.385955765;-19.39612398;-24.33682317;-21.18659898;-14.17321615;-7.39217717;-4.178504736;5.37401902;-1.494328032;0.897727074
-10.66270963;-1.40549413;-3.723738109;-11.28371296;-10.0733896;-0.2705511;8.575779601;-15.30277368;-7.829153287;-5.216421764;-17.74594135;-21.70707829;-18.72793643;-15.42078837;-5.192661864;-2.149167224;7.919841701;1.708866073;0.932802744
-7.442425928;3.476941758;0.200890778;-6.414760704;-5.323852534;-0.33834969;8.658834304;-13.21128284;-4.541831857;-1.951413149;-12.49709771;-16.61198246;-15.34819793;-16.84560862;-0.887595375;1.490341147;9.731910857;5.670514563;0.853672578
-4.095531916;7.176541069;3.958359092;0.333037237;0.446870965;-0.329860781;8.593551398;-8.894590286;-0.335237255;3.37060398;-5.984177357;-11.50100777;-12.21396274;-17.60286667;3.608850998;4.919138691;9.996111912;8.581055433;0.687873279
-2.365403766;8.549679582;5.589783413;5.83298303;5.571714215;-0.131606285;8.517512233;-3.120900298;3.511480158;8.976917156;-0.768538425;-8.629677208;-9.993860184;-17.0051552;6.115931987;6.866634532;8.626140189;9.620615756;0.576341434
-2.603331751;8.024729003;4.914750642;8.021916317;8.79124686;0.231713715;8.575536284;2.772018205;6.020241436;12.90064858;1.556674756;-8.748709729;-8.73899524;-14.89165803;5.754149875;7.33764111;6.363716537;9.30383817;0.663183659
-3.833096936;7.073532938;3.307159389;6.805416258;9.723267863;0.608779106;8.785247957;7.380039063;6.830509194;13.82952861;1.056930479;-10.70044185;-7.898970481;-11.60975255;3.666399617;7.419257191;4.315729357;8.960643342;0.944927787
-4.658735473;7.158404889;2.482640701;3.727161111;8.927207494;0.82220292;9.026666287;9.889372057;6.395624187;11.80760419;-0.712828777;-12.19174912;-6.489942444;-7.751208882;2.271539578;8.314914601;3.223896586;9.731202144;1.215318692
-4.268105805;8.877360254;3.293387193;0.834461229;7.53706187;0.786842005;9.157266212;10.41123013;5.797294984;8.274761079;-1.642310562;-11.24684361;-3.518552396;-3.920819861;3.530039063;10.32570486;3.000569394;11.76673205;1.178854823
-2.819597588;11.77498947;5.37236581;-0.402281614;6.663158509;0.562258333;9.13909878;9.716004898;6.088751796;5.267758332;-0.288191061;-7.432157893;1.364531977;-0.680395106;7.46660813;12.54654131;2.888403804;14.15556623;0.670250724
-1.064129264;14.75893703;7.692358198;0.470558529;6.881300698;0.3039868;9.060058594;8.544149015;7.475789618;4.174781587;3.233574962;-2.133284708;7.304748058;1.429942635;12.04234344;13.50829852;2.125154305;15.56642684;-0.18223173
0.344222833;16.69425108;9.397865253;3.06487603;8.063762704;0.152101459;9.036591053;7.027579107;8.930823922;4.835596508;7.160629935;2.223548768;12.26751529;1.988976541;14.50837232;12.27373958;0.59278301;15.10683564;-0.987841152
1.240134443;16.78394323;10.19822375;6.528312379;9.597271416;0.140260775;9.097170631;4.699064667;8.67973487;5.66056985;8.913424911;3.499140846;13.90089549;0.960403947;13.30939474;9.14458631;-1.062240121;12.79235923;-1.319835449
1.799365349;14.66526881;10.15319206;9.80974349;10.80898154;0.190256798;9.160078125;1.108973391;5.411400059;4.795001844;6.4998826;0.95824483;10.91068744;-1.068538502;9.210523639;5.443227836;-1.925025082;9.368495692;-0.989495568
2.131294372;10.41969051;9.283907133;11.84714041;11.32314006;0.189746667;9.124001727;-3.444691372;-0.557908296;1.58647053;-0.200102683;-4.390276604;4.11022187;-2.965294617;4.863636681;2.562779044;-1.5114547;5.734433997;-0.174682394
2.095891795;4.670230852;7.542248302;11.87521166;11.15471389;0.08635518;8.979809974;-7.713721597;-7.061352977;-2.706124833;-9.020654192;-10.33526498;-3.666973185;-3.548223674;3.107208693;1.052629412;-0.097598006;2.482434409;0.692142569
1.552920719;-1.313205437;5.208734176;9.847204743;10.54463316;-0.079199252;8.831882794;-10.09321461;-11.13782717;-5.581950284;-16.35294071;-14.54560808;-8.937108422;-2.259925637;5.144451845;0.456070495;1.574082919;-0.11091362;1.200565997
0.772673445;-5.772194757;3.240109201;6.647937568;9.712014049;-0.225470897;8.804645524;-9.651130572;-10.79984803;-5.001204657;-18.94908789;-15.62871467;-9.47383611;0.431831279;9.798893341;-0.022100821;2.93407682;-1.757184867;1.210475566
0.519095078;-7.049109828;3.01560686;3.75524284;8.725683878;-0.318451267;8.922234389;-6.838814767;-6.353001922;-0.961946405;-15.74458639;-13.66460423;-5.555162096;3.22810882;14.30426149;-0.640705043;4.003634382;-1.935879097;0.902822609
1.582638056;-4.418657104;5.45261312;2.409354338;7.572941113;-0.41216226;9.077287298;-3.300110639;-0.315791069;4.235189025;-8.592816823;-10.00200644;0.276637258;4.713658081;16.0763973;-0.833798639;5.227904159;-0.131721148;0.610395294
4.069004447;1.336123374;10.12256441;2.840263397;6.330761273;-0.596726063;9.122607036;-0.837744483;4.090620532;7.358182248;-1.344412596;-6.472908569;4.789898598;4.146252848;14.30802485;0.213642267;6.885540106;3.571299337;0.56493578
7.059330274;8.066864785;15.16798427;4.182389415;5.258217883;-0.891631368;9.003836365;-0.230467091;4.91781456;6.396491865;2.295198655;-4.465590677;5.931997229;1.814612616;10.38720783;2.624540991;8.624410054;8.060859881;0.749706028
9.033755686;13.17518151;18.27525615;5.206157638;4.694081061;-1.180058594;8.811391415;-0.733922874;2.619830899;2.009676828;0.863433408;-4.349444434;3.797861286;-1.237911315;6.922386702;5.388747502;9.579548476;11.44899331;0.956648614
8.841197712;14.8423592;18.10514793;5.299652267;4.808810766;-1.259105563;8.703398156;-0.622481914;-0.40459952;-2.790747892;-4.130039063;-5.525170677;0.187631877;-3.890425957;6.039969222;6.903509016;9.024221693;12.03490293;0.986495497
6.507251111;12.87561741;15.14233533;4.87027233;5.396920983;-0.988614944;8.769556626;1.611511073;-1.516582359;-4.570369335;-9.325802193;-6.994584796;-2.767219984;-5.543734033;8.054259881;6.137464748;7.022214437;9.395992548;0.823035187
3.235567154;8.686285493;11.30500825;4.804130356;5.895001586;-0.429348872;8.958631493;6.237322701;0.376183958;-1.713722654;-11.76070775;-8.037583163;-3.868214425;-6.274152731;11.34513979;3.476646668;4.51414428;4.802353573;0.640503161
0.560817231;4.437974338;8.585532683;5.462370001;5.664509921;0.150796915;9.131544894;12.11626871;4.111063647;4.543416502;-10.76285473;-8.557182564;-3.203822062;-6.52953634;13.49812997;0.509248687;2.725559586;0.551996361;0.641553551
-0.720985803;1.882698229;7.730551375;6.162437798;4.386732419;0.433838107;9.186084676;17.41908196;7.013837912;10.94915735;-8.28075104;-8.927874651;-1.576485515;-6.670674681;12.95382682;-1.139535506;2.346802689;-1.407027434;0.8622534
-1.034666357;1.539506954;7.916182742;5.713655601;2.317019706;0.273840922;9.136799997;20.65416496;6.493447127;14.28336327;-7.52244983;-9.553554022;0.336374688;-6.713034103;10.083541;-1.002862079;3.124544917;-0.64586624;1.109725641
-1.571317047;2.613972277;7.579768152;3.617399211;0.213365851;-0.180294674;9.081343646;21.29359924;1.411515594;13.17045704;-10.91585852;-10.52411602;2.36202368;-6.411850643;6.972439651;-0.014320271;4.162777334;1.598028885;1.093486384
-3.285563741;3.609155174;5.686094655;0.838655338;-1.047220758;-0.567155317;9.094378374;19.68144138;-7.55898486;8.49216398;-18.77527665;-11.61886497;4.549311515;-5.555397917;6.036002133;0.416158242;4.654406008;3.387849476;0.654948571
-6.14919737;3.222989313;2.439816047;-0.70307187;-0.950095215;-0.557145818;9.156535245;16.48429452;-18.61172111;2.326052664;-29.44799675;-12.57471469;6.63352671;-4.204388672;8.383264834;-0.27458225;4.444849579;3.459027873;-0.084870168
-9.226615607;1.039726718;-1.016840173;0.304098946;0.363896597;-0.088079007;9.186508657;12.23075268;-29.90569789;-3.624878312;-40.63011712;-13.31417402;7.845443767;-2.707040817;13.03796817;-1.20738596;4.020957456;2.013270668;-0.782686711
-11.45186052;-2.303974088;-3.540684429;3.207329087;2.172845376;0.582407621;9.139319983;7.287930807;-40.35826195;-8.924627477;-50.8058929;-13.91024827;7.301229009;-1.517921004;17.56771273;-0.730220916;4.025745628;0.412211262;-1.102255519
-12.42780489;-5.501949907;-4.729961245;5.529444708;3.576081882;1.051597348;9.066503578;2.156535136;-49.79120133;-14.11588807;-59.86747192;-14.36702783;4.658712071;-0.982228496;19.70067695;2.173751552;4.764224739;0.076290377;-0.947646605
-12.59175034;-7.27255084;-4.921544162;4.773876829;3.990676301;1.049064036;9.071225457;-2.343301418;-58.58681575;-19.72364136;-68.71697178;-14.515019;0.474125858;-1.230153729;18.79857497;6.909471491;6.086881742;1.451188346;-0.52534
-12.65934698;-7.000892967;-4.595415381;0.621332799;3.458322987;0.615338472;9.197982338;-5.308624398;-67.24283673;-25.50334011;-78.38335974;-14.22123815;-4.055680015;-2.210009766;16.13536148;11.55980075;7.633810962;3.779745712;-0.188114582
-12.8771256;-5.01086496;-3.829647146;-4.29490538;2.598537221;0.056164832;9.368045491;-6.302284138;-76.09567001;-30.54756277;-89.35604944;-13.76175579;-7.76814394;-3.790485348;13.78890375;14.22942863;9.102142748;5.749430477;-0.178864099
-12.7587879;-2.33791592;-2.319222312;-5.919906094;2.252827922;-0.283914141;9.434842236;-5.757674169;-85.22339961;-34.06758397;-101.4381127;-13.93714629;-10.10665331;-5.849919267;12.98657401;14.34991282;10.26230682;6.428099388;-0.466836098
-11.5399034;-0.131850259;0.113978449;-1.720668272;3.031025532;-0.253988041;9.318616454;-4.836051294;-94.41137579;-36.10682882;-113.9191259;-15.63692531;-11.19654201;-8.318433689;13.17859302;12.88963928;10.79932234;5.76338363;-0.795167835
-8.948497247;0.975151839;3.073289394;7.097261914;5.000161886;0.031639052;9.095809982;-4.756680708;-103.1390495;-37.55863046;-125.7298126;-19.04165106;-11.47040755;-11.17585275;12.58069255;11.34084682;10.30232097;4.361996908;-0.895209322
-5.606194403;1.168634292;5.690240459;15.89670599;7.648007223;0.315225794;8.950298981;-6.062191744;-110.6745768;-39.49150804;-135.5137644;-23.08923763;-11.23751274;-14.40496685;9.795553359;10.38695195;8.578769054;2.872900761;-0.697446199
-2.687117938;1.241491491;7.231819263;19.45710155;10.09380198;0.394850876;9.018220224;-8.362486796;-116.3502593;-42.35887733;-141.8571048;-25.78550154;-10.56262798;-17.89077186;5.248809497;9.406206269;6.052821797;1.559480079;-0.377166253
-1.097776357;2.010828353;7.666877;15.47177537;11.41329206;0.241526933;9.262114504;-10.73867364;-119.9153921;-45.71496044;-143.8591158;-25.34330367;-9.473897395;-21.29134158;1.261968725;7.227060264;3.765202384;0.379862633;-0.205697189
-0.853103208;3.74682388;7.655331539;6.226555672;10.94287456;-0.03740723;9.493148643;-12.4733105;-121.7038644;-48.59048641;-141.8105064;-21.42185889;-8.197520234;-23.9740953;0.606953864;3.456088995;2.755601313;-0.616749807;-0.329196446
-1.159065282;5.998277877;7.942007782;-2.768499233;8.493630492;-0.323922591;9.530978472;-13.52557767;-122.4140164;-50.14552947;-137.398485;-15.51741133;-7.116648491;-25.13476969;4.574321174;-0.804292904;3.220166247;-1.052760095;-0.649548572
-1.113878042;7.932623704;8.694341883;-6.266394668;4.461910036;-0.574265379;9.363968577;-14.39156411;-122.5852301;-50.06734783;-133.0185264;-10.09383792;-6.458383563;-24.12719319;12.00506798;-3.51050682;4.225613581;-0.432252012;-0.899044114
-0.42131445;8.949154315;9.402675056;-2.484670938;-0.179066201;-0.791347022;9.165622222;-15.49682339;-122.142507;-48.4925066;-130.4311237;-6.981482656;-6.022026479;-20.86;20.03100997;-3.075493808;4.454256286;1.374791037;-0.850766314
0.486382132;9.12827764;9.470665797;6.108227726;-4.055740085;-0.933688297;9.147465829;-16.64602449;-120.3945858;-45.67351909;-129.6345866;-6.17914391;-5.267053672;-15.9952852;25.97413269;0.53740967;3.574786026;3.843439383;-0.506016225
0.998133882;9.193842257;8.986177865;14.77514207;-5.777597549;-0.878657659;9.375060111;-17.00060972;-116.5504981;-41.77687083;-128.8303396;-5.945726958;-3.758552952;-10.74517901;28.98569317;5.900058594;3.102014921;6.018483668;-0.120538496
1.039976847;10.01151185;8.951258879;19.68958597;-4.465239865;-0.507035706;9.709589026;-15.623966;-110.3972596;-36.98207731;-125.6178106;-4.114232528;-1.609919178;-6.312420879;30.24743377;11.24928269;5.761994322;7.10787475;-0.049356234
1.30067633;11.97305594;10.67394171;20.06373115;-0.214825221;0.150080872;9.927660918;-12.18092056;-102.61;-31.70405958;-118.6112546;0.361271547;0.492190686;-3.289880107;31.70753115;15.66221319;13.47708103;6.951130214;-0.51334455
2.729648866;14.68923063;14.73923012;17.94529827;5.779522757;0.844400173;9.913435398;-7.26378117;-94.41705043;-26.6317437;-108.3027813;6.767072327;1.768254915;-1.413788201;34.44986601;19.30986159;25.33462742;5.965112123;-1.434259419
5.704025874;17.18961579;20.372776;16.18202922;11.61429758;1.220365235;9.752584338;-2.114020068;-86.83995509;-22.47224964;-96.55756434;13.29755032;1.976231909;0.144648576;37.99465623;22.69254458;37.23032363;4.637720469;-2.432114462
9.570804997;18.48098836;25.7407272;16.27483166;15.47311484;1.051246524;9.645953055;2.038666956;-80.08249298;-19.59573788;-85.20040724;18.39423361;1.665771132;2.132622264;40.97118992;25.68171987;43.83951525;3.059221148;-2.980957731
12.98609592;18.09729465;29.007158;17.67031764;16.45115959;0.425444952;9.722968383;4.54896429;-73.54745334;-17.88099542;-74.86249678;21.64246915;1.801662676;4.656184232;42.43327553;27.33370201;41.82735044;0.957677585;-2.643770424
14.82663158;16.32;29.38931007;18.75438485;14.94807142;-0.279837289;9.924413559;5.492286956;-66.48254136;-16.87174344;-65.00305577;23.56602467;3.009325183;7.094268662;42.5947331;26.68459831;32.10023624;-1.763984831;-1.285700437
14.97373837;13.99062399;27.47822208;18.48499047;12.38181499;-0.644729151;10.06018218;5.374078631;-58.76017485;-16.07291167;-55.0036634;24.64152762;5.02154421;8.531604165;42.34578858;23.77701647;19.39397217;-4.497588939;0.816641355
14.35937788;12.08291324;24.68257686;17.24986126;10.37371198;-0.501408573;9.988304269;4.709392506;-51.17963415;-15.13085122;-45.30748592;24.51857864;6.772978103;8.381124886;42.04583485;19.89459719;9.345878129;-5.986918919;3.019858047
14.24404018;11.29070598;22.30400031;16.32478362;9.883769135;-0.053578078;9.751604445;3.783059401;-45.03788271;-13.8239587;-37.53218046;22.21249047;7.094390531;6.741991709;40.77463548;16.66644041;5.056109205;-5.084425139;4.522326014
15.29371381;11.80524714;20.94153441;16.51923499;10.8060854;0.277949788;9.547325276;2.682122919;-41.26899986;-12.0252855;-33.37092664;17.13370631;5.496941153;4.257314267;36.85061221;14.75220012;5.56219528;-1.682584698;4.687180046
17.15899059;13.31188214;20.54611151;17.24217052;12.23263678;0.172349842;9.556848085;1.462701144;-39.77362006;-9.811145345;-33.16209989;10.02371883;2.475184672;1.622205176;29.29987603;13.27805774;7.248007759;2.954329596;3.357092525
18.83901567;15.14608082;20.87281706;16.82932301;13.15915947;-0.350833337;9.788867507;0.259121545;-39.4127344;-7.646270997;-35.34226664;2.885254551;-0.863705534;-0.854879515;19.05653217;10.60922476;7.015117614;6.835160162;0.995446803
19.49126656;16.53837714;21.80888229;13.91137792;13.13640724;-0.949590692;10.07575017;-0.73680325;-38.65678433;-6.347374285;-37.30441802;-2.172004203;-3.528541506;-3.307595728;8.797818486;5.885872856;4.737359301;8.477599962;-1.466025305
19.02663923;16.8898489;23.28236271;8.736623315;12.44631494;-1.217622466;10.22310067;-1.357935255;-36.43888705;-6.621980473;-37.0420096;-4.307152456;-5.177596171;-5.982120007;1.401459049;0.023074163;3.115614382;7.833037365;-3.047426737
18.04657624;16.0009512;24.92490628;3.362993245;11.74062044;-0.981505776;10.17510236;-1.514258931;-32.67506902;-8.398829856;-34.3281767;-4.446344941;-6.105156733;-8.833301502;-1.839289362;-4.751352755;5.099124559;6.175800525;-3.208898104
17.23139672;14.14690569;25.92348564;0.478545494;11.45585136;-0.41254623;10.04785119;-1.21067324;-28.20119165;-10.53299366;-30.57865055;-4.493567953;-6.780945489;-11.40473377;-1.868519187;-6.546542379;10.96166241;5.001882057;-2.127489353
16.71742609;11.92373684;25.31911525;1.634902849;11.44683715;0.119900768;10.00699077;-0.592313185;-24.27534178;-11.35200624;-27.61984658;-5.8864148;-7.372803773;-13.1037029;-0.904321793;-5.345212509;17.42878887;4.758965015;-0.580614982
15.97279268;9.912126237;22.57631006;6.117056204;11.0859943;0.326250918;10.10873769;-0.030466108;-22.00536736;-9.868450985;-26.41545112;-8.648144187;-7.64460945;-13.64892596;-0.664962568;-3.156680223;19.70179851;4.399331525;0.510322827
14.25070634;8.351211522;17.96637293;11.22515599;9.720721392;0.187443735;10.25344106;-0.144527566;-21.9823042;-6.803129746;-26.7156342;-11.64698325;-7.276260885;-13.32233871;-1.211988725;-2.603625048;14.99301317;2.155923697;0.600444684
11.23484246;7.050701717;12.44070685;13.76886662;7.135316166;-0.075525184;10.29212125;-1.619665222;-24.17313418;-4.484141317;-27.71345103;-13.75280114;-6.299116852;-12.81044243;-1.284106016;-5.015898297;4.964532998;-2.97756512;-0.216657513
7.363600857;5.626887916;7.095061414;11.78799034;3.69609652;-0.205593626;10.18152061;-4.816911672;-27.97206973;-5.426274631;-28.92617286;-14.84775151;-5.257755888;-12.74526036;0.256141953;-9.49571666;-4.833051744;-10.1406617;-1.355261638
3.602551864;3.904730851;2.657416122;5.446516923;0.118803182;-0.11003479;10.03751282;-9.394727244;-32.32499643;-10.45865884;-30.42073645;-15.8168973;-4.940320024;-13.28690454;3.140847422;-13.63510762;-8.313128316;-16.73105758;-2.166126344
0.870588992;2.172524136;-0.622825435;-3.316177863;-2.929635696;0.098308993;10.03279531;-14.25745741;-35.93750442;-17.78765672;-32.21843611;-17.55846825;-5.861443476;-14.04929054;5.672463755;-15.26888003;-2.802798419;-19.77415993;-2.341028028
-0.43969538;1.05494283;-2.688995541;-11.96159453;-5.101611137;0.231512262;10.23278666;-17.97698956;-37.59890041;-23.83417288;-33.55903805;-19.92040666;-7.866315365;-14.40107163;5.966720283;-13.89393816;9.055905631;-17.68979875;-2.030906712
-0.534674629;1.052310894;-3.356685707;-18.50579887;-6.366111836;0.201879565;10.52478286;-19.48808114;-36.55460078;-25.39621574;-32.88955952;-21.54709556;-10.13062908;-13.89699601;3.423410804;-10.74963158;20.73503854;-11.32846806;-1.642481939
0.078676754;2.069614139;-2.329887429;-22.00714996;-6.820426247;0.091933243;10.7111679;-18.60953015;-32.74579701;-21.64312545;-28.7880924;-20.84434464;-11.55531593;-12.52472737;-0.76418616;-7.670504485;25.66205009;-3.622031952;-1.509570942
0.95795492;3.301225188;0.418102398;-22.34847674;-6.526748978;0.070881102;10.68477518;-16.02495941;-26.7569836;-14.50998391;-21.1293375;-17.30484545;-11.30820263;-10.62568511;-4.421680013;-5.744717926;21.01854145;1.926927647;-1.696508811
1.867313649;3.592706976;4.251990346;-19.77331138;-5.510989386;0.242271768;10.52533035;-12.7406276;-19.4936882;-7.235019904;-11.47647754;-12.09927151;-9.203445144;-8.608192096;-5.820906249;-4.822437668;9.145219998;2.997798424;-2.049728143
2.653425294;2.048072263;7.893023076;-14.67301227;-3.877721034;0.558818625;10.42567571;-9.430361363;-11.81058596;-2.166973671;-2.265005537;-7.41178217;-5.738782525;-6.705686894;-4.606124859;-4.104147864;-4.200885138;-0.558900475;-2.399778632
3.05837674;-1.533425215;9.956872091;-7.741839218;-1.875511459;0.873492106;10.51291781;-6.154929058;-4.338510471;0.532422324;4.656096342;-5.000999427;-1.81627163;-4.950916963;-1.637144443;-3.147928445;-13.4913068;-6.976144062;-2.709584603
2.708966312;-6.672245217;9.683424516;-0.194000757;0.200771512;1.075184857;10.72874506;-2.629532863;2.4268408;2.440507501;9.009961355;-5.072666021;1.674083103;-3.331853737;1.887923435;-2.398497218;-16.6028589;-13.78691923;-3.044444126
1.336422019;-12.60881193;7.344311048;6.355134912;2.209761402;1.187151769;10.88165667;1.238467246;7.955005132;5.228771275;11.87298631;-6.282527843;4.18932326;-1.950869789;5.155483519;-2.867139497;-15.56762933;-19.20030547;-3.421525862
-0.951087437;-18.74258317;4.033513894;10.43616718;4.272339985;1.342510077;10.8264638;5.032258713;11.68572163;9.245980115;14.51306079;-6.799296739;5.634917048;-1.039110498;7.750973451;-5.342374016;-14.56911794;-22.83956122;-3.713003872
-3.595087357;-24.77579122;0.991701707;11.37526688;6.640205405;1.657372783;10.60678116;8.01424209;13.28930003;13.4236672;17.29439845;-5.58458269;6.208004351;-0.835009387;9.195801083;-9.830507777;-16.65283463;-25.51872071;-3.723095942
-5.819812676;-30.51190837;-1.068303342;9.569763943;9.378047585;2.107400222;10.42583045;9.660582696;12.98666776;16.40034252;19.53111709;-2.98137337;6.096243439;-1.463757825;8.717999303;-15.61242534;-21.4393825;-28.35033228;-3.385714197
-7.03642494;-35.56515434;-2.209396844;6.175782075;12.11;2.50976994;10.46582337;10.08036102;11.6158883;17.74831606;20.30754664;-0.322285277;5.237135252;-2.934996014;5.694254273;-21.7275118;-25.43804037;-31.85028039;-2.896280747
-7.139155481;-39.29952806;-2.99947865;2.450795722;14.09092961;2.628266963;10.71684893;9.95981792;10.30349808;18.20922138;19.45462356;0.991295774;3.326824227;-5.234885395;0.448101332;-27.39921044;-24.77424655;-35.62313817;-2.62593581
-6.480978442;-41.08293833;-3.977194075;-0.751464431;14.6435479;2.325739016;10.97326405;10.08235707;9.92673627;18.82253102;17.79484425;0.218918131;0.120342109;-8.370152072;-5.406344506;-32.10863458;-18.4160056;-38.75395948;-2.84871746
-5.542714969;-40.62720308;-5.2252378;-3.010960855;13.70089985;1.657253798;11.00841161;10.82900488;10.74577274;19.85403162;16.47599164;-2.571238678;-4.152174878;-12.25337564;-9.612767128;-35.4348155;-9.504535045;-40.52166325;-3.48789993
-4.528469552;-38.08189782;-6.279343354;-4.026116991;12.04617921;0.845252961;10.77751133;12.05175094;12.4565411;20.57707188;16.04563456;-6.783862028;-8.573111554;-16.48850789;-10.60692913;-36.97931746;-3.598239435;-40.84237607;-4.099629091
-3.177637793;-33.77012039;-6.362841971;-3.405384833;10.9920343;0.160561974;10.46875142;13.35572439;14.56481781;20.11765105;16.12550465;-11.59743938;-11.78146062;-20.2709535;-8.559730525;-36.51528219;-4.816524833;-40.09705995;-4.138162159
-0.942621561;-27.81153119;-4.783439746;-0.900221223;11.61600861;-0.211982095;10.3527353;14.46;16.7231335;18.53505585;15.96149475;-16.06667929;-12.63799382;-22.59465272;-5.279454766;-34.18450996;-12.53379779;-38.51622006;-3.323805942
2.562785536;-20.03832892;-1.310517342;3.061756022;14.01309514;-0.24836273;10.55643453;15.27269644;18.74810407;17.04434974;15.30404235;-19.16706906;-10.93877039;-22.73758239;-2.986677243;-30.47424594;-21.14640486;-35.68526594;-1.845006283
7.13;-10.38640789;3.604581122;7.092404866;17.08098895;-0.072391196;10.95434734;15.64417936;20.38581143;17.06293947;14.77303042;-20.03593718;-7.674992085;-20.73601682;-2.860821555;-25.93903635;-23.42311133;-30.66925159;-0.246152499
11.84065166;0.511850722;8.867316864;9.286042658;19.04791817;0.123594469;11.26847869;15.13667473;21.18537406;18.8878367;15.35233585;-18.40813778;-4.564528204;-17.4805787;-4.419129216;-20.92940849;-15.36113598;-22.75207466;0.912484335
15.40118248;11.1011576;13.09361453;8.305500386;18.47173867;0.178167206;11.28994633;13.18830729;20.77020185;21.24311369;17.48339912;-14.89974955;-3.057424951;-14.27635573;-6.097493405;-15.60522825;0.81415751;-12.23007813;1.373844875
16.78962439;19.43409129;15.21116054;4.410189314;15.10593815;0.03635502;11.03515421;9.679004964;19.38371408;22.23451123;20.61944028;-10.76298462;-3.421586765;-12.08371043;-6.453884373;-10.20045657;17.76869445;-0.569133425;1.26780621
15.86161991;24.26629545;15.05164535;-0.398705145;10.0822671;-0.227399295;10.71266651;5.442569939;18.19900487;20.99014005;23.69184751;-7.130434324;-4.530740539;-10.92323492;-5.004606702;-5.190884752;27.71357324;10.30636254;0.938248856
13.53797214;25.97200503;13.56152123;-3.389793588;5.281882728;-0.448482636;10.54247138;2.16568995;18.92408277;18.56990591;26.0943134;-4.26275085;-4.547141967;-9.86759874;-2.137401446;-1.067579784;27.42818393;19.10045572;0.680927668
11.39925001;26.50134808;12.38240518;-2.696276546;2.283527339;-0.460269377;10.58956542;1.536276576;22.7623478;17.25827761;28.28240368;-1.430871606;-2.089496988;-7.666704236;1.606342882;2.152996837;20.12429361;25.73412028;0.595827543
10.85360543;28.20519813;12.92432216;1.560494918;1.543465632;-0.192452131;10.74721574;4.145166906;29.40368115;18.71399046;31.39433967;2.380128181;2.873185717;-3.614094366;6.087379791;5.160341173;12.84957863;30.89976776;0.629082429
12.32890943;32.20428321;15.45141862;7.379896617;2.299248211;0.274166642;10.86419389;8.959451591;36.87381154;22.48150531;36.16497117;7.43997942;8.993932904;1.92086711;11.42963463;8.904042282;11.3587746;34.90686015;0.71083716
14.98013991;37.42998988;18.80064109;12.11885537;3.21065701;0.736545359;10.88618716;13.85167735;42.53592488;26.1561954;42.05982333;12.7482955;14.39651388;7.654614752;17.38926287;13.66266648;16.20451017;36.83199607;0.833790544
17.13666742;41.10980541;21.00906617;13.97994165;3.282300693;0.976765076;10.8832249;16.89774011;44.66941694;27.16999435;47.40771786;16.51289078;17.81976921;12.13288283;22.94459727;18.41011391;22.82718385;34.86685254;1.004664011
17.27418263;40.4962212;20.52214562;12.78526757;2.464987935;0.889743638;10.9519734;17.54943491;43.53310053;24.81910553;50.47734445;17.34736551;19.29295684;14.5502834;26.63341596;21.21030415;25.38891806;27.81631144;1.144317746
14.94995289;34.72711501;17.21728861;9.693845879;1.589541824;0.551236241;11.09990647;16.84941501;41.12;20.92132589;50.65096771;15.30526657;19.9230843;15.10363311;27.46041054;20.57449983;21.32304758;16.64410093;1.072712318
11.12513328;25.54457409;12.55064298;6.308711787;1.749972262;0.177705831;11.22844595;16.56256215;39.75507623;18.57172675;48.78315018;11.95525504;20.99389927;14.67806026;25.63024891;16.79007813;13.16539717;4.699099521;0.634434933
7.652250756;16.34888363;8.703170851;3.928848905;3.595085581;-0.001505968;11.23013811;17.89792139;40.55535372;19.96525809;46.53263769;9.422392462;23.02783917;14.13194703;22.4560801;12.03366873;6.442477116;-3.874693486;-0.126388938
6.22135028;10.21091161;7.27486423;3.340329645;6.987065452;0.119493316;11.10167939;20.75842992;42.87131953;24.94202151;45.28978136;9.099866412;25.44476482;13.70348696;19.47345686;8.935399822;5.42909494;-6.620223487;-0.907286197
7.403579282;8.183890889;8.374141447;4.923999545;11.17770292;0.463346553;10.95855823;23.9902178;45.05187784;31.25990852;45.56462824;10.95166116;27.00742845;12.93631725;17.45392197;8.563699303;10.08347212;-4.36382376;-1.294358655
10.37391759;9.021314596;10.66607205;8.603029367;15.28728215;0.819680162;10.93230376;26.31084083;45.84464727;36.2087029;47.18219904;13.82680141;26.70706001;11.12665177;16.0813687;9.450577591;16.3522336;-0.632128923;-1.034480345
