Channel 1 - P4;Channel 2 - O2;Channel 3 - P8;Channel 4 - T8;Channel 5 - C4;Channel 6 - Cz;Channel 7 - Fz;Channel 8 - F4;Channel 9 - Fp2;Channel 10 - F8;Channel 11 - Fp1;Channel 12 - F7;Channel 13 - F3;Channel 14 - C3;Channel 15 - T7;Channel 16 - P7;Channel 17 - P3;Channel 18 - O1;Channel 19 - Pz
-54.65872135;-14.58797796;-51.24965179;-57.48020276;-29.21546152;-0.851122121;-40.19393809;-19.51903033;1.595255422;-72.37889064;-65.21769678;6.777399847;5.787691778;9.705591489;5.693442881;-9.816981936;23.08966591;-39.24772158;5.463985145
-31.35407872;-19.29105373;-62.99714101;-51.60637809;-34.63793633;-3.819679844;-69.91621027;-26.27916231;-10.3647145;-78.00391599;-62.29472062;1.648628695;-3.451339463;6.010783452;9.075970893;-1.899608922;21.47;-38.16582252;0.488036165
-0.141322689;-19.34018528;-48.36290313;-31.23983044;-29.12482883;-5.563157847;-73.35083139;-25.30220805;-16.05345769;-50.89488964;-38.61048321;-2.966809049;-11.33677764;2.007101246;8.948191588;7.59381967;16.66533007;-26.42519977;-3.817077489
20.92384757;-14.08254264;-17.66768672;-6.570301726;-17.26163667;-4.68472699;-50.79733853;-19.74237104;-15.96863918;-10.75161582;-7.165191613;-3.558505221;-14.97330405;-0.111937639;6.743912224;14.71104564;12.414969;-9.052881873;-4.219147403
23.12820061;-6.757604587;9.168417474;10.36778219;-6.784325071;-1.607359912;-19.14506443;-14.60739107;-13.72611924;16.92501893;15.67528243;0.297964132;-14.03013812;0.278651033;4.679089372;16.38672935;10.8837116;5.252895023;-0.499073306
12.36241047;-2.071567711;16.99874704;12.86995626;-3.296837006;1.73171612;0.859946059;-13.16711715;-12.6082659;18.37079403;20.12124469;5.670225486;-10.55140511;1.874922081;4.324188413;12.26405488;11.15176766;9.613110774;4.471284068
2.872232629;-2.665594464;5.588502763;2.906868356;-6.90811687;3.307988695;-0.497998012;-15.02819631;-13.09647919;-0.647484637;8.2662836;8.644709039;-7.333563899;2.579413155;5.774305637;4.915330191;10.34547543;3.192403387;7.005245702
5.073920685;-7.251011405;-11.97786238;-11.27517385;-13.02494322;2.451972964;-16.29475334;-17.14923325;-13.16377683;-21.70418328;-8.63698798;7.415467746;-6.116482843;1.182879368;7.853070631;-1.596893336;6.340533239;-8.707985871;5.387230936
17.46434953;-11.82112681;-20.62784321;-21.13689274;-16.31236215;0.216894366;-30.30346183;-16.73136092;-10.66859249;-28.80276346;-18.55369764;3.591475503;-6.805035861;-1.764302925;9.066149245;-3.904226151;-0.266623292;-18.53814069;1.005551639
28.84918119;-12.88388232;-14.8688753;-23.00805545;-14.57307484;-1.54918222;-30.58830836;-13.53218017;-5.570871614;-19.5650072;-16.49083259;0.726645271;-8.051280439;-4.537270887;8.577830424;-1.032803833;-6.533414439;-21.44550492;-2.937786531
28.43178481;-10.1002902;-1.580681813;-19.09518053;-9.690781428;-1.639001354;-18.19341542;-9.797591437;-0.114846115;-4.547715132;-6.453684037;1.364092008;-8.534515167;-5.714730316;6.576059595;5.207039427;-9.515695939;-17.85146046;-3.983961238
15.03601742;-6.29043919;7.279341627;-14.32745558;-5.336210513;-0.297734037;-4.530194355;-8.078070377;2.977480814;3.283014909;3.089901841;5.045544186;-7.918682768;-5.293161825;3.889327001;11.21502346;-8.595017861;-12.2155568;-2.178009437
-2.081316161;-4.947863281;5.153944745;-11.99111142;-3.677280279;1.158171044;-0.686572215;-8.932213146;2.609589143;-0.600968042;6.118910853;8.835421797;-6.904499455;-4.555181115;1.244662356;13.40056242;-5.882588251;-9.366923831;0.256508932
-11.04635351;-7.373110676;-4.310165577;-11.57068907;-3.855617485;1.508677602;-8.18473973;-10.497185;-0.039069508;-9.841285787;2.979131214;9.768089141;-6.559794934;-4.891578598;-1.241773357;9.91478546;-4.440351068;-11.29392566;0.885685086
-6.906212629;-11.72731571;-11.49767248;-10.10712288;-3.249219182;0.592677117;-18.7051652;-10.21643948;-2.661462569;-14.11906201;-1.165507239;7.08588799;-7.567914188;-6.628143852;-3.974277751;1.5279784;-5.853686604;-16.51241531;-1.016458711
5.039289935;-14.65137869;-9.634555806;-5.528076762;-0.141032912;-0.678791249;-22.18175295;-7.148770065;-3.598963685;-8.639060645;-1.393803104;2.46350583;-9.905307747;-8.830246757;-7.287651244;-8.754045127;-9.145424319;-21.92836042;-4.099017943
14.42156729;-14.02094697;-0.279081976;0.982305595;4.627855928;-1.177961789;-15.65724655;-2.828385205;-2.737973504;2.08903611;2.801780913;-1.756187504;-12.99149506;-10.16877544;-10.840192;-17.17972691;-11.81931404;-25.31568243;-6.245572502
14.59879921;-10.59645475;8.864882989;5.517808273;8.378477509;-0.509701159;-5.228037852;0.055146665;-1.00642372;8.875187575;7.418716444;-4.59601621;-16.01431872;-10.02967906;-13.50948002;-21.12829494;-12.03335032;-26.45193449;-6.3464216
7.492339276;-7.347260354;11.21294348;4.41538028;8.927847712;0.728661604;0.086218986;-0.005178571;0.762646124;6.235190469;7.56069084;-6.928038482;-18.16750083;-8.90367088;-13.97173813;-20.36509924;-10.03943807;-26.39713687;-5.063547622
0.769927012;-7.138227284;6.890179853;-2.728290362;6.45180345;1.528181559;-3.375355306;-1.997030712;2.417053101;-2.93792578;1.541555847;-10.09633136;-18.79520559;-7.783660313;-11.64667526;-16.91669326;-7.755696005;-25.99065091;-4.075908507
0.447439051;-10.67952757;1.919557051;-12.36066794;3.312290493;1.335754337;-10.91751936;-3.191021451;4.066246328;-10.17869418;-7.774330443;-14.09465549;-17.58404101;-7.182480561;-7.366909474;-13.58817558;-6.967822295;-25.06647287;-4.570039063
5.698868964;-16.25355697;2.270478024;-19.17075054;2.084104008;0.463988203;-14.14286107;-1.396936092;5.282754064;-8.867655845;-15.15045471;-17.10943696;-14.81730877;-6.683861308;-3.229125538;-12.04572639;-7.774020801;-22.96630314;-6.274724219
10.29661764;-21.20330162;8.450912832;-19.59669779;3.499631649;-0.257321847;-8.741588695;3.208449944;4.928212536;0.307399402;-16.67114842;-16.96916539;-11.47710526;-5.420910728;-1.583551283;-11.77172846;-8.583874331;-19.63531575;-7.767458882
8.999333258;-23.82412242;15.40026696;-14.14335528;5.983090355;-0.23000061;1.666581706;8.154557722;1.953970407;10.29158266;-12.10274058;-13.26353058;-8.949523983;-3.028093706;-3.715977564;-10.68105878;-7.589740767;-16.10192129;-7.680152081
2.850195624;-24.19023264;17.36055267;-6.926559276;7.024583068;0.427945694;8.913004838;10.5193074;-3.49779766;13.7367929;-4.519639253;-8.209609838;-8.363156983;-0.191970836;-9.059590691;-7.015692344;-4.384654568;-13.82513502;-5.751200413
-1.502226534;-23.5056846;12.9835663;-2.856949928;5.140682147;1.04946535;7.610039063;9.003528332;-9.764495783;8.764524885;1.976197351;-5.369621753;-9.947746736;1.712684504;-15.50010792;-1.127640533;-0.347833107;-13.52590521;-2.918436001
2.122986556;-22.79407304;6.09477984;-4.479765219;0.833251603;1.04165991;-0.221865257;4.641871111;-14.55590716;-0.261747569;4.479711713;-7.165812051;-12.88581364;1.612052878;-20.63685318;4.273580377;2.46470351;-14.62528939;-0.511706053
13.42106569;-22.11496628;1.835018829;-10.59928925;-4.047328105;0.396868535;-7.222427151;-0.212692989;-16.44181676;-7.007392751;2.119465116;-13.17956461;-15.81060913;-0.474321273;-23.19322416;5.759615725;2.915683955;-15.84;0.696147243
25.07628223;-20.83338618;2.154773998;-17.45225701;-7.773751774;-0.337516924;-7.343635993;-3.602558837;-15.75415271;-8.330839781;-4.347345794;-20.56397316;-17.61687501;-3.474024135;-23.62262262;1.617614742;1.522310489;-16.38838584;0.836156872
28.36834276;-18.47717186;4.916597529;-21.39833667;-9.745540875;-0.564597805;-0.989005283;-4.96893794;-14.19642167;-5.954728787;-13.17626599;-26.13622185;-18.01112259;-6.058292534;-23.48718341;-6.713441469;-0.189260148;-16.66503006;0.55956572
20.21970618;-15.29024693;7.100597626;-21.1497532;-10.34811973;-0.150455735;5.848287429;-4.86835268;-13.52600884;-3.790058594;-21.89498921;-28.39021424;-17.45119336;-7.512348965;-24.0615701;-15.3541812;-1.026768057;-17.71230783;0.407635184
5.757125776;-12.02007813;8.527344989;-18.07512981;-10.0943787;0.49669012;7.375572312;-4.006622013;-14.39895607;-3.915852696;-27.52388776;-27.89867956;-16.62194886;-8.005258707;-25.20670925;-20.42312465;-0.963425031;-19.93529777;0.510499502
-5.699036601;-9.266182899;12.04736521;-14.62612182;-9.027129277;0.816744646;3.262948832;-2.645398518;-16.23177292;-4.992737602;-27.45856583;-26.07996616;-15.93380809;-8.152196873;-25.40094181;-20.46473895;-0.812870856;-22.26184475;0.765675282
-7.79;-7.096690384;19.74325526;-12.29591943;-6.931132466;0.587315334;-1.3759919;-0.84124651;-17.99834172;-4.214463939;-21.00400846;-23.69976784;-15.42788717;-8.356656738;-22.97370257;-17.10525415;-1.187255972;-22.63233057;1.16523472
-1.529407103;-5.29427596;28.89998054;-10.73370187;-3.998799447;0.084307908;-1.046602624;0.98356416;-19.1042535;-0.514068942;-10.48835657;-20.53007813;-15.04442484;-8.528151684;-17.65392678;-13.49713369;-1.791611448;-19.55583912;1.855622137
6.370617598;-3.906562625;32.21372061;-8.599884894;-1.119899452;-0.199285107;4.880613353;1.98640056;-19.54031174;4.214400088;-0.669466912;-16.32271787;-14.87101009;-8.346525792;-11.22999396;-11.78177812;-1.725234154;-13.48010554;2.861207931
9.414640497;-3.440667627;23.03348568;-5.295975796;0.636532768;0.000817902;11.63896606;1.613359289;-19.30417004;6.964431774;3.747909396;-11.90542872;-15.05373456;-7.717950928;-6.703494329;-11.52389041;-0.473049697;-6.773684084;3.804147457
6.313844494;-4.38892524;1.59801422;-1.989946221;0.924491417;0.508544926;13.66584373;0.39416748;-17.83262348;6.588262192;1.046428838;-9.066306178;-15.4551282;-6.929191882;-6.416141248;-10.28864621;1.399870269;-2.210835212;4.001058538
1.097050966;-6.474923429;-23.28544226;-0.953890555;0.520294902;0.895314527;9.947577882;-0.136474242;-14.19957834;4.931002932;-6.254158087;-9.107319639;-15.47622399;-6.354806305;-10.43404405;-5.860243112;2.576918132;-1.086077544;2.960443484
-1.185910686;-8.388174507;-39.25320515;-3.667697897;0.731506164;0.872578977;5.044565785;1.379968332;-8.090207218;5.029285853;-12.962689;-11.37682844;-14.37337085;-6.044602194;-16.36324805;1.657365385;2.119560621;-2.42693239;0.885812366
0.962067804;-8.437500887;-38.65377828;-9.258021718;2.240263722;0.530366155;4.786833784;4.727929045;-0.738128064;8.127757037;-14.66912746;-13.33814015;-11.93386964;-5.649488895;-20.78863914;9.497936365;0.405468227;-3.918062501;-1.286550899
4.597070346;-5.756950655;-23.72499937;-14.69152529;4.382919226;0.224730573;10.64737248;7.813737961;5.131598398;12.37235665;-10.66128781;-12.45402562;-8.949107714;-4.805110753;-21.37823793;13.9216989;-1.004258295;-3.790078125;-2.429143387
5.529395775;-1.13704689;-4.655651006;-16.77977373;5.552419669;0.239646992;18.11210127;7.987580019;6.604635986;14.40554013;-4.205008614;-8.44981301;-6.967286197;-3.613241377;-18.22402835;12.6802221;-0.537260674;-2.170629086;-1.97317365
2.378495492;3.254204419;7.84587133;-14.5412649;4.453696507;0.538033304;20.70880292;4.122213293;2.378741119;12.33672388;-0.035371964;-3.942423889;-7.350573999;-2.714039477;-13.55;6.4782121;2.121593287;-0.85037197;-0.304679282
-2.247007198;5.168966283;9.623919612;-10.051507;1.186483225;0.815264143;16.06664976;-2.223480348;-6.16299404;7.320318885;-0.970691832;-2.638115394;-10.27442383;-2.795480744;-10.09081865;-1.530397477;5.719731746;-1.696569761;1.489785764
-4.337334034;3.702801126;4.576190895;-7.006153677;-2.750594359;0.786357512;8.354599657;-7.645530663;-15.41429607;2.373255423;-6.132725572;-6.36957092;-14.45377427;-3.932066373;-9.356788083;-7.721964901;8.348376285;-5.009842388;2.330477748
-2.266338823;-0.173952524;0.128106493;-8.011124858;-5.542016567;0.43681059;4.656088638;-9.25152764;-21.348996;-0.297566037;-11.93192293;-13.38558664;-17.88814518;-5.372262033;-10.99010005;-10.0086828;8.828824145;-9.128136274;1.791679635
1.757344759;-4.338097343;0.952168928;-12.6665357;-6.332005068;0.019136814;8.439051971;-6.760313271;-21.61721588;-0.858063739;-14.85486607;-19.44382582;-19.14684955;-6.057871288;-13.52458432;-8.604736983;7.456848343;-11.5691485;0.270691043
3.82358329;-6.93301088;6.031689968;-17.93651779;-5.675410538;-0.18161771;16.14228101;-2.689462987;-16.73823849;-0.923097017;-13.84689214;-20.99966015;-18.27964009;-5.519910124;-15.79824717;-5.332296636;5.558281552;-10.80734461;-1.353141154
1.969399812;-7.458899261;10.78273785;-20.50735532;-4.870760236;-0.087706284;20.26416457;-0.450579278;-9.767873103;-1.302474105;-10.60910986;-17.98614372;-16.6956091;-4.40961138;-17.84303324;-2.255853747;4.308281541;-7.34121712;-2.25817223
-2.047978416;-6.813978947;11.60147587;-19.25917919;-4.815542855;0.13763224;16.42505866;-1.817920516;-4.67452145;-0.900732841;-7.87466555;-13.8920305;-16.11003906;-4.154203344;-20.58307225;-0.670629907;3.838509884;-3.310463796;-2.056431448
-4.443187334;-6.372300348;8.653397662;-15.90279264;-5.358493718;0.271706773;7.994099979;-5.706670334;-4.286783981;1.968486252;-7.234653478;-12.97382156;-17.32863695;-5.917841862;-24.67245055;-0.914807823;3.339255226;-1.032539218;-0.855031412
-2.949176378;-6.857189591;4.939976996;-13.33897253;-5.613577586;0.243312588;3.690112908;-9.121462647;-8.818277946;7.19318129;-8.209331777;-16.77524685;-19.71932463;-9.637367674;-29.49408075;-2.731805462;1.971172026;-1.563378043;0.904083591
1.059852179;-7.833800357;3.253235229;-13.15188986;-4.841811529;0.176048554;9.715247679;-9.419932717;-15.67080572;12.10242148;-9.062915029;-22.74658131;-21.68717326;-13.89432502;-33.19334397;-5.618139262;-0.277272311;-4.240602645;2.654735134
3.80871381;-8.117626845;4.202616908;-14.31972454;-3.068327138;0.237518509;23.11615959;-6.087488903;-20.64732838;13.63739444;-8.437023488;-26.11706218;-21.75680252;-16.7668285;-33.78114571;-8.886655437;-2.546765207;-7.356753511;3.881159193
2.586991469;-6.720230693;6.879359635;-14.16422076;-0.933608228;0.452218239;32.52937091;-0.762034939;-20.07;11.74137568;-6.381410057;-23.58551577;-19.50532049;-17.06220938;-30.49317692;-11.64150339;-3.881829933;-9.323379079;4.266222061
-1.713695552;-3.621042066;10.80285986;-10.671041;0.975270228;0.662570414;26.44724952;4.256666836;-12.81028481;10.52568459;-4.064166865;-15.94375866;-15.78324688;-15.04657453;-24.39626788;-12.99315743;-4.101523248;-9.491397601;3.811900292
-5.304227606;0.151087351;16.55827399;-4.194492189;2.610987822;0.674347763;2.659811165;7.623062362;-1.146434704;15.27909395;-2.61748272;-7.590521205;-12.18596753;-12.17071651;-17.81128039;-12.52726127;-3.978050076;-8.217598678;2.854070955
-4.846899108;3.126459719;24.15581948;2.851590538;4.303391041;0.445285309;-28.83747035;9.40771961;10.1573421;27.14934706;-2.199484429;-3.329690894;-10.17930018;-10.02813145;-12.99040449;-10.64320125;-4.559391695;-6.369693558;1.888944993
-0.484310309;4.244221989;30.90130463;7.952253588;6.154725623;0.136128133;-52.12292018;10.29326861;16.22164612;40.04205144;-1.994917612;-4.920743912;-10.38053357;-9.303484875;-10.96763364;-8.354518209;-6.222578178;-4.760727638;1.259160217
4.150532694;3.392704485;31.57978776;10.33677103;7.654760871;-0.025319703;-56.13167295;10.51763077;14.63597664;43.21995354;-0.981924211;-9.95399856;-12.29906768;-9.41440811;-11.2685506;-6.580148121;-8.271128877;-3.862290125;0.909187803
5.006796845;1.346376986;21.80689291;11.12560434;7.97710942;0.058556353;-41.72223143;9.669856036;6.758800727;28.66474428;1.302314316;-13.76394071;-14.57439304;-9.012966491;-12.47535088;-5.463729461;-9.418033237;-3.808025391;0.431551331
1.158805901;-0.791796574;2.196939689;11.76744924;6.746479908;0.277125725;-19.92672059;7.487828109;-3.082900361;-2.01415964;4.593428883;-12.80612742;-15.57800532;-6.930569197;-13.08100825;-4.330430967;-8.751059473;-4.497606466;-0.577635716
-4.198909506;-2.247028994;-20.39019788;12.31209993;4.55936615;0.419678143;-3.339194799;4.739530158;-10.03533268;-36.73852098;8.262425717;-6.97690922;-14.16534337;-2.927911753;-12.04574369;-2.391705089;-6.396562989;-5.663683964;-2.106469726
-6.161215781;-2.916817781;-36.27731587;11.2031035;2.693738544;0.364633456;2.300857458;3.110214322;-11.30686198;-59.603396;11.67307647;0.645500552;-10.29853947;2.165165161;-8.906270804;0.36221646;-3.378498059;-6.921281826;-3.604201963
-1.953885247;-3.228098741;-38.98942506;6.854668129;2.149715893;0.174751945;0.137857486;3.941320512;-7.35393105;-60.73259892;14.15417849;6.15245825;-5.222349036;6.904339083;-3.720904207;2.881595682;-0.839526565;-7.872293073;-4.291994027
6.875775463;-3.664528067;-29.4106835;-0.429387243;2.797971693;0.017567703;-2.645999471;6.839785178;-1.092800129;-42.41982217;14.77546854;7.35484495;-0.982325307;9.946796262;2.843613215;3.732332756;0.724193045;-8.245677544;-3.700285579
15.55986949;-4.337584276;-14.88369094;-8.065756085;3.3910717;-0.003783242;-1.55982397;9.49919417;4.124725566;-17.21219617;12.47330655;4.793864466;0.604053362;10.64556445;9.345758605;2.262780404;1.640986129;-7.961029181;-2.020284828
19.47952191;-4.932020376;-3.979204537;-12.90193394;2.500384552;0.056417869;2.335068438;9.171726366;6.336833106;0.529395071;6.797008401;0.848011414;-0.985703619;9.288675864;13.72787013;-0.68079872;2.604152702;-7.053377326;0.011252201
17.13345709;-5.067622836;-0.974469407;-13.67839491;-0.341326272;0.056862783;5.058713827;4.814007603;5.531078104;3.446136683;-1.156449655;-2.054476872;-4.549888295;6.937968874;14.10269288;-3.14219858;4.023744347;-5.555398704;1.603299446
10.62588377;-4.775652922;-4.049302679;-12.08162404;-4.210222289;-0.070186034;4.475872454;-1.787658254;2.925068926;-5.638511797;-8.513586137;-2.746657416;-7.755612483;4.955603618;9.919136742;-3.337340816;5.715659666;-3.51197582;2.388149149
3.708903889;-4.652147748;-8.008833431;-11.32911486;-7.428493386;-0.230130593;2.397892601;-6.952858081;-0.169207219;-17.64084429;-11.68896659;-1.489960212;-8.495380063;4.393366369;2.717845074;-0.885460629;7.105160945;-1.170931069;2.525287353
-0.804850021;-5.466228401;-8.79162469;-13.36500664;-8.764530302;-0.243427003;2.304350922;-7.57751384;-2.977490785;-24.49254734;-8.379855508;0.681494389;-6.184770371;5.486861058;-4.291852205;2.948843255;7.691719207;0.848436449;2.40141538
-2.343505354;-7.451428853;-6.055298259;-17.06092091;-8.255893845;-0.022609861;5.369682344;-3.373722187;-5.14296549;-24.1391623;0.738603881;2.676737479;-2.141639496;7.506447768;-7.881371826;6.178738051;7.371684802;1.697303404;2.23495245
-2.048080453;-9.85052736;-2.275374224;-19.08774742;-7.047533136;0.319248862;9.025720182;2.793789511;-6.328645143;-20.16915287;11.88058275;3.661626218;1.235547591;9.096275421;-6.772427749;7.455032499;6.416306822;0.811921398;1.944665342
-1.351770311;-11.19897264;0.111342591;-16.87665347;-6.439216484;0.540928105;9.63385521;6.76996612;-6.156806634;-17.48211508;19.90875457;3.074774864;1.965809435;8.982069095;-2.58703514;6.821838979;5.219714052;-1.534164354;1.370532308
-0.983757065;-10.30231463;0.689117054;-11.21080573;-6.932677202;0.473326555;6.623669398;5.862129985;-4.606047357;-18.13329862;21.04463145;0.689685617;-0.317001184;6.681627306;1.032717805;5.351665393;4.073373832;-4.168592566;0.595383041
-0.943778105;-7.254931329;0.712886867;-6.137930042;-7.992696757;0.171761233;3.770487704;0.560940391;-2.397716492;-20.5502798;14.90404792;-3.171807367;-4.213823729;2.799931546;0.728417178;4.060369876;3.108569983;-5.698957754;0.02116492
-1.008364051;-3.667177168;1.397040977;-6.03911948;-8.60283209;-0.120544635;5.83944541;-5.894014122;-0.816864447;-21.98353832;4.63723387;-7.530058594;-7.473330508;-1.284557565;-4.312748062;3.052462111;2.344221736;-5.567804689;0.089752032
-1.050405677;-1.751062376;2.904444508;-12.08578098;-8.070078125;-0.173576817;13.32996957;-9.67646949;-0.925942217;-21.38883696;-4.844313688;-11.03896034;-8.302625095;-4.160471474;-11.69535145;1.591952113;1.704897067;-4.669664841;0.885620346
-0.95057835;-2.774738771;4.957607608;-20.94813108;-6.422710827;0.035678535;20.29942948;-8.706539602;-2.756764755;-20.06766048;-9.423302801;-12.62958916;-6.249375206;-5.102400043;-17.29228113;-1.026571386;0.984322695;-4.887951024;1.992371479
-0.45903442;-5.984318552;7.992023631;-26.90678739;-4.182568218;0.30552323;17.95428293;-3.655382003;-5.196970762;-19.8252574;-7.646928896;-12.08061383;-2.233340726;-4.353672825;-17.94325137;-4.613439158;-0.130023193;-7.686980077;2.765561727
0.621240934;-8.887872237;13.07260965;-25.83356644;-1.847596808;0.383970625;1.684720642;2.808244587;-6.757290607;-20.74342897;-1.044666522;-10.07751602;2.099252646;-2.8616547;-13.58388747;-8.006113986;-1.868460734;-12.71632113;2.814468469
2.056399576;-8.860380208;20.17790319;-18.03370295;0.397268826;0.18432969;-24.13846473;7.761685619;-6.660078125;-20.84780846;6.966792728;-7.717489506;5.187499219;-1.696213295;-7.358787516;-9.864440095;-4.102878547;-17.55664163;2.289544861
3.110384299;-5.019328896;26.52417359;-7.861158788;2.524678302;-0.143000547;-47.90494536;9.518769273;-5.387440819;-18.0086153;12.75661194;-5.856734705;6.10703927;-1.524189216;-3.616834781;-9.668712264;-6.223301752;-19.01439545;1.731526475
3.044761696;0.977100745;27.1397584;-0.545142395;4.31487249;-0.340339128;-58.20097879;8.065594003;-4.251340429;-12.25912707;13.87130103;-4.780778914;4.744133198;-2.392979892;-5.108085549;-8.077807695;-7.361835891;-15.22728037;1.614599044
1.815082048;5.856042281;18.09485535;1.264966443;5.246145656;-0.258065463;-51.44993869;4.505290767;-4.348686396;-6.308673556;9.735217665;-4.34784947;1.697125277;-3.835405787;-11.22539879;-6.355954766;-6.895781248;-7.140923825;1.975878829
0.248427053;6.80193265;0.150063782;-1.272881082;4.807335392;0.028628259;-34.00865565;0.165765422;-5.761050276;-3.654215394;1.694615458;-4.341496184;-1.988137089;-5.144540726;-18.41844271;-5.37203444;-4.895256557;1.752283979;2.437546766
-0.609351938;3.253541111;-20.37469814;-4.77740141;2.975755021;0.292898049;-17.31282145;-3.999540377;-7.636431905;-5.832668588;-7.434712223;-4.658696634;-5.225406207;-5.664716443;-22.46244557;-5.029350827;-2.159616148;7.34481331;2.577353991
-0.463507143;-2.811589581;-34.82924162;-6.449603728;0.399204072;0.344789605;-9.998353598;-7.529736008;-9.046032337;-11.11628997;-14.25729042;-5.220995749;-7.381163275;-5.0275647;-21.07302356;-4.592484306;0.235485773;7.277535071;2.303627578
-0.122207339;-8.260590699;-37.56181559;-5.830630496;-1.952880891;0.169380205;-12.93405978;-10.30636833;-9.872707845;-15.73792517;-16.06660494;-5.826794423;-8.633221522;-3.304856033;-15.1950849;-3.578979619;1.589295415;2.199985916;1.906306314
-0.779470315;-10.83864753;-29.43382598;-4.427703792;-3.442646589;-0.093364383;-20.36933753;-12.41284212;-10.97665764;-16.65752887;-12.15779594;-6.209404;-9.888643688;-1.021103508;-8.216207426;-2.370964524;1.972515414;-4.818575603;1.76170684
-2.793570167;-10.43481765;-16.85256024;-3.98270823;-4.206974407;-0.288844706;-25.44435089;-14.07882326;-13.48079248;-13.70462265;-4.50596305;-6.287419403;-12.15524923;1.044337541;-3.710068359;-1.933141853;2.098409369;-10.20379321;1.980751816
-5.109546752;-8.795469751;-7.12058253;-5.075951486;-5.018797941;-0.370918766;-25.26257929;-15.60102047;-17.7190778;-9.534713424;2.84654997;-6.306383731;-15.68725064;2.241248084;-3.211745431;-2.822326682;2.780751287;-11.78245434;2.326051505
-5.992302509;-8.042490996;-3.711467985;-7.105219386;-6.652989513;-0.402753259;-21.81512431;-17.15992363;-22.64804294;-7.58551144;5.732685196;-6.617349434;-19.53117604;2.425204565;-5.423323186;-4.362915752;4.374442653;-9.53629478;2.459592208
-4.543986686;-9.137844821;-4.917303096;-9.253771033;-9.23630223;-0.454334271;-18.91261983;-18.62709044;-26.17825512;-9.642066557;2.242848906;-7.218885473;-21.94028142;2.050371371;-7.273491409;-4.827271359;6.570644711;-5.004987493;2.271892977
-1.663169112;-11.33231183;-6.414457888;-11.24239169;-12.07092355;-0.510702972;-18.43312342;-19.55665846;-26.24595134;-14.69645289;-5.90210503;-7.52592774;-21.51564314;1.840655312;-6.070240736;-2.67306613;8.632704063;-0.05862902;1.975433754
0.51407702;-12.82263761;-5.196859212;-13.12452398;-14.05282905;-0.484583721;-19.13876063;-19.44074863;-21.98486182;-19.67763954;-14.05998514;-6.727121529;-18.30650674;2.21228042;-1.339620924;2.037097835;9.853377953;4.014842345;1.878897751
0.327254581;-11.99720585;-1.599512779;-14.53846392;-14.36462427;-0.31695597;-18.54841808;-18.0706636;-14.33626716;-21.33994279;-17.28897224;-4.561247528;-13.99999673;2.865481024;4.799254073;7.203779298;9.912604647;6.672968987;2.069503161
-1.997910388;-8.380334511;1.831236979;-14.46192748;-12.94871113;-0.058986807;-15.61579551;-15.71294639;-5.775032391;-18.046477;-13.37568477;-1.848960071;-10.92363055;2.904294122;8.919011287;9.778072793;8.952097642;7.80396333;2.321683166
-4.521006127;-2.770145785;3.067050976;-11.97960259;-10.46554602;0.15405652;-11.61864099;-12.92794653;0.728329955;-10.52228658;-4.30978159;-0.174392554;-10.476857;1.471244789;8.393005228;7.76413569;7.406202275;7.490556362;2.332225337
-5.256702704;3.313480201;2.291288987;-7.417558166;-7.826288845;0.219250705;-8.689775715;-10.14841821;3.055697212;-1.385920282;4.877772373;-0.777538387;-12.10804201;-1.53501164;3.016464555;1.759738154;5.756060695;6.110646224;2.059183129
-3.900407967;8.393946588;1.295027714;-2.614330351;-5.659058471;0.162582835;-7.684892998;-7.353791944;0.998928661;6.152838817;9.280627115;-3.464329201;-13.62707888;-5.21;-4.82649361;-5.129966861;4.34738693;4.525369432;1.823865337
-2.064675442;11.60579102;1.613608248;0.237684765;-4.052298431;0.118301279;-7.491515288;-4.127171009;-3.511678601;9.798218755;7.259104309;-6.481178199;-12.69306294;-8.100039063;-11.49471218;-9.079105944;3.312189822;3.917911361;2.045171739
-1.784459299;12.92872745;3.437718192;0.373926041;-2.680386391;0.202600129;-6.276091491;-0.090370569;-7.245369262;9.225590378;1.467262638;-7.616734302;-8.449458809;-9.077556113;-14.0606939;-7.904785498;2.572899331;5.167399131;2.827782799
-3.619708519;13.12138145;6.211171619;-0.72875536;-1.160774738;0.396091691;-3.269386305;4.596137412;-7.299102349;6.169866695;-2.946582078;-5.791409398;-2.160083008;-8.018236303;-11.73465265;-2.449273964;1.912565827;8.158824255;3.79027416
-6.090110128;13.37654962;9.879549022;-0.446061586;0.613185985;0.547634081;0.666494594;9.061160111;-2.722094173;3.393534567;-1.777641154;-1.918340694;3.579157446;-5.802356549;-5.986313047;3.932297129;1.108124297;11.63099578;4.327329639
-7.003291869;14.70953506;15.0322906;2.691000596;2.351102653;0.503443851;4.068502899;12.05359504;4.819310924;3.000619924;5.447351868;1.676353756;6.466728803;-3.666535496;0.524729032;7.42521858;0.089156263;13.81850355;4.109745363
-5.506295787;17.2583993;21.45450793;7.384317945;3.494339339;0.248672819;6.266565643;12.59537122;11.84937291;5.107267618;15.151851;2.864597537;5.828532635;-2.406165111;5.391611566;5.99969739;-0.972359141;13.51792747;3.388745463
-2.974037616;19.92441835;26.58576086;10.16490534;3.507435914;-0.067505594;7.679941888;10.54342131;14.98480947;7.835510025;21.98918936;1.125299354;2.817245839;-1.99919707;7.36955674;0.441574972;-1.73195109;10.8368471;2.815635936
-1.84710347;20.78956355;25.97350399;7.947931419;2.186269627;-0.250138844;8.853249532;6.704290663;12.78953575;8.768124726;22.1357995;-2.310019531;-0.511382181;-1.851417895;6.382526436;-6.364479607;-1.889099487;7.095476551;2.903204673
-3.394995098;18.30894186;16.18300123;0.598467384;-0.162519903;-0.217890766;9.475566105;2.443656113;6.413587602;6.880498204;15.45690779;-5.597570261;-2.490324469;-1.370376848;2.970670233;-11.28524954;-1.404782081;3.979638901;3.579001937
-6.431464611;12.60776096;-1.855722658;-8.591264846;-2.769706044;-0.063089239;8.643267024;-0.943047943;-1.332334108;3.466646083;5.309661575;-7.693488288;-2.626799245;-0.364308909;-2.147898714;-12.67062642;-0.543610112;2.575832658;4.21842424
-8.24265009;5.877823191;-22.0502193;-15.00646416;-4.68616896;0.039680728;6.216939879;-2.708322907;-7.715729297;1.25482986;-3.622752423;-8.862488741;-1.506537523;1.015449288;-8.014893076;-10.95260514;0.308356937;2.935398192;4.139524912
-7.020368712;1.304833192;-36.18173133;-15.81748474;-5.187770201;-0.007276729;3.763040679;-2.737526733;-11.35988311;2.342396669;-7.903670625;-9.947734381;-0.101284183;2.634200067;-13.1078927;-7.947809948;0.90582516;4.34180179;3.142301333
-3.658900701;1.006340508;-38.94633359;-11.69620689;-4.103506995;-0.14188989;3.764628688;-1.300939812;-12.27361008;6.597215587;-6.782634639;-11.17226045;0.915621963;4.62098578;-15.38212477;-5.521705483;1.260155382;5.919377496;1.635768069
-1.204475092;4.363517948;-31.31351597;-5.877977216;-1.886655187;-0.209711444;7.488588567;1.240878195;-10.94719364;11.83675111;-1.971063943;-11.64736379;1.414236289;7.223064968;-13.06872661;-4.537031943;1.507137698;7.063583527;0.256485157
-2.251548365;8.089010708;-19.62760526;-1.448968238;0.612408303;-0.118671342;13.45753119;4.507184194;-7.594925826;15.60360015;3.661188191;-10.11168082;1.605535983;10.38414448;-5.904476411;-4.643402662;1.661946305;7.46875622;-0.671937791
-6.445822191;8.246422848;-11.14443415;0.882776425;2.534132201;0.061497436;18.21757064;7.911818147;-2.368566906;16.97712646;7.458118863;-6.284436958;1.683848546;13.45848856;4.124295302;-4.829130536;1.527818001;6.954931067;-1.35203908
-10.31965089;2.972830988;-9.413393264;2.779838421;3.330819651;0.148314985;19.04413153;10.46674342;3.702948827;16.85127358;7.790814479;-1.59265859;1.60320867;15.39731486;13.33280716;-4.217894312;0.90491511;5.442868508;-2.209078432
-9.810922473;-6.015412219;-12.83505805;6.202774119;2.863316201;0.003271261;16.25278762;10.8972558;8.193708652;16.5377201;4.331843149;1.50581576;1.077211554;15.35245636;18.14213665;-2.584955282;-0.046080072;3.180686302;-3.352565881
-3.547941478;-14.31462336;-17.00315726;11.15556453;1.291173542;-0.342153744;12.88358707;8.181475393;8.155269677;16.14611939;-1.908254198;1.202394513;-0.275340775;13.26760777;17.09701372;-0.380065918;-0.636281401;0.95658866;-4.310366135
5.752421013;-17.61223473;-18.46;15.22353637;-1.08884321;-0.703161756;11.84990556;2.260811322;2.13569792;14.43633103;-8.71298281;-2.277196797;-2.736374097;9.992510869;11.71866294;1.615720673;0.06861537;-0.069647458;-4.316430683
12.97334321;-14.44238857;-16.74135844;15.32631873;-3.911717723;-0.887095573;13.1370207;-5.571819577;-8.158222709;10.40805257;-13.21657621;-6.718064126;-6.286685046;6.799633067;5.500594482;2.724182404;2.62;1.017964136;-2.944783682
14.11955932;-6.992650941;-13.49133522;10.24918842;-6.712963123;-0.841460924;13.85405857;-12.98996191;-18.14869634;5.069495663;-13.04988732;-9.415623298;-10.4335545;4.632010175;1.64362957;2.67651034;6.653093764;4.213426206;-0.558443418
8.984424064;0.549194762;-10.10546274;1.886450436;-8.917325538;-0.678919042;11.40217347;-17.60760977;-22.8717505;1.396717093;-7.683989521;-9.003666411;-14.17424906;3.608423221;1.073106325;1.704310718;10.897517;8.406045766;1.828162868
1.01146583;4.835395977;-6.393553624;-5.805232393;-9.961873371;-0.564304795;6.886130806;-18.08812067;-20.11017811;2.065162847;0.921146515;-6.237944842;-16.22737618;3.110415621;2.134108174;0.41690412;13.81136254;11.94568701;3.194270926
-5.358312201;5.317415887;-1.392826127;-9.32282761;-9.530648932;-0.568823771;5.170682197;-14.71582659;-11.88318989;6.803689852;9.089627284;-3.205475747;-15.53725071;2.345130455;2.167656545;-0.489502849;14.44379298;13.63655003;3.164346283
-7.681627033;4.031646005;4.819780545;-7.695058271;-7.738470867;-0.619886018;10.71281143;-9.075673635;-3.060584053;12.01748999;13.44102858;-1.657619994;-11.82799032;0.954565338;-0.211853952;-0.591658919;12.93390059;13.4672341;2.162344043
-6.636546195;3.616149105;10.4339458;-2.673972844;-5.098314535;-0.584409479;22.34897065;-3.072391976;1.992200579;13.60792726;12.94469351;-1.783713021;-5.852775987;-0.74558526;-3.854006264;0.002653672;10.30746489;12.53505595;0.981114449
-4.744567628;5.232731515;13.2327156;2.883571518;-2.257791023;-0.403437053;31.91682614;2.047352607;2.294780401;10.93468474;9.581596804;-2.29478371;0.886044977;-2.00998186;-5.806005238;0.680581013;7.748164977;12.20017644;0.155749386
-4.06611935;7.95374697;12.70505333;7.05277257;0.328712356;-0.154124276;29.00054125;6.055408357;0.552673422;8.288273892;7.047455053;-1.600458983;6.828915068;-2.161235812;-3.544932357;0.686597479;5.890386868;13.06844852;-0.338666951
-4.81832552;9.859875705;10.78827131;9.78518853;2.571470338;0.014597893;8.97117466;9.365074229;0.763570353;11.82996928;8.332480828;0.951611172;11.04922353;-0.979484719;2.921654851;-0.361215214;4.619967058;14.52191213;-0.858224213
-5.799268797;9.719170819;10.31976541;12.27401733;4.660571735;0.01141195;-21.89021225;12.34935065;5.077926905;23.78356448;13.86113666;4.723898873;13.52545721;1.242831679;10.66431473;-2.151366452;3.443597848;15.11434713;-1.597618637
-5.88038757;7.797300752;12.50742717;15.49395069;6.81762368;-0.1196402;-48.86417212;14.96218305;12.3450186;38.58851433;21.4601301;8.454547789;14.8868644;3.948902988;15.52591544;-3.830784221;2.054575286;13.54248372;-2.318461659
-5.072803443;5.264010433;15.79098944;19.16056734;9.080660856;-0.23919784;-57.88226744;16.937374;19.31895533;44.95098615;28.03874117;11.25144721;15.89468687;6.654238925;14.80041785;-4.583459606;0.625546873;9.534295389;-2.559955193
-4.307510858;2.943838035;17.27253858;21.84956381;11.25910976;-0.230357195;-44.88840743;18.29148683;23.33782541;33.36053129;31.60992685;13.0746999;17.05363587;9.155136609;9.093234194;-4.247932715;-0.355769725;4.093551636;-2.136526434
-4.358654749;0.673183439;15.49977314;22.05896557;13.04373392;-0.089555233;-18.51269554;19.57059596;24.20845816;3.942897223;32.15764851;14.42805654;18.55334145;11.52203356;2.104543841;-3.507835486;-0.496212751;-1.018372395;-1.447234597
-5.061157353;-2.147303522;12.03595673;19.36315588;14.15443873;0.082589907;6.015946833;21.51325486;23.86743907;-31.55714655;30.92857642;15.69598412;20.41611443;13.93421624;-1.545296212;-3.482250863;0.225368937;-4.227911409;-1.271505842
-5.547761795;-5.427159053;10.27116046;14.87035098;14.43304316;0.171079362;17.17175205;24.35935757;24.35442777;-56.00969166;29.05448851;16.80347703;22.57862484;16.4815234;0.926317181;-5.002774918;1.512658493;-4.990228804;-2.177478394
-5.174614686;-7.928123726;12.44214324;10.74517778;13.88403876;0.131302844;14.01751663;27.42319387;26.01430002;-57.57068982;26.85336319;17.48134945;24.78709533;19.0450092;8.821517633;-8.118895611;3.012037157;-4.103587091;-4.027340029
-4.165998416;-8.138908631;17.52379155;9.117434614;12.71447603;4.56886E-05;4.934652075;29.39823283;27.48894122;-37.35780337;24.35926271;17.80088896;26.46984568;21.31136409;18.38455331;-12.189757;4.487339964;-3.356901748;-6.010378063
-3.356348635;-5.858283206;21.9312953;10.95297549;11.36952162;-0.159613679;-0.083795749;29.2596093;27.35174602;-8.562513719;22.34574878;18.37639514;26.86355633;22.91022351;24.964612;-16.42850855;5.753879439;-4.662966815;-7.205923627
-3.337199392;-3.02399046;22.45146584;15.41481887;10.4740588;-0.313100317;2.911403797;27.07677831;25.73046838;12.41143415;22.53710008;19.94915647;25.46427492;23.60381427;25.60021661;-20.37984348;6.501148289;-9.045143289;-7.236395179
-3.893953405;-2.769458061;18.80966013;20.03727033;10.59791814;-0.455602643;10.06323188;24.03940332;24.30171207;16.40086596;26.42320828;22.65877687;22.51754046;23.41991074;20.54407762;-23.88732754;6.27694218;-15.94557066;-6.490984957
-4.294043683;-7.147898691;13.63723112;21.74462258;11.90327346;-0.572360867;14.43708913;21.59198991;24.57978148;6.170996901;33.50748041;25.6381308;19.09744995;22.63122998;12.92945763;-26.61198779;4.755577299;-23.25752646;-5.752042942
-4.110964983;-15.23296952;10.00499173;18.36618598;13.8983302;-0.617983829;12.54408412;20.3073722;26.07602507;-7.478769105;40.63017683;27.34305287;16.55801454;21.5656488;6.857700153;-27.66302153;2.103003906;-28.20285907;-5.543697422
-3.717907876;-23.24768387;8.894502045;9.929073983;15.53844391;-0.553340722;6.971089972;19.39339706;26.16466983;-14.56622971;43.37442878;26.44227773;15.63025462;20.34970945;5.051970776;-25.91051195;-0.918150239;-28.72907875;-5.738963567
-3.90999631;-26.90580516;8.926253709;-1.077562739;15.71431695;-0.409444833;3.276602928;17.27046674;22.06483922;-12.77095548;38.87907617;22.64171617;15.78965558;18.75992394;7.423551041;-20.97463377;-3.302190634;-24.71173864;-5.732627816
-5.001979428;-24.38468798;8.410857521;-10.83456754;13.87263922;-0.303874753;4.431486126;12.82063561;13.43710163;-7.478870363;28.03798535;16.86288546;15.41058196;16.30945685;11.34266228;-14.16596814;-4.43224609;-18.2140817;-5.011894662
-6.32440624;-17.7221987;7.49665907;-16.23495567;10.36545504;-0.368568768;8.017668701;6.360858621;3.36750086;-5.899660248;15.27788488;10.67858867;12.69581091;12.5429586;13.39840609;-8.439219298;-4.532668817;-12.51602979;-3.634338801
-6.714889561;-11.52046358;8.093979539;-16.62635908;6.27;-0.634182783;8.642620121;-0.415465217;-3.330549248;-10.631543;5.846824432;5.428835245;6.807176754;7.356710902;11.53548153;-7.023419821;-4.565921361;-10.37286478;-2.214926515
-5.645498481;-9.849299053;11.52218443;-14.07189748;2.777726318;-0.973535603;3.210741444;-5.497139061;-3.422724866;-17.92147368;2.479235253;1.60640812;-1.542282065;1.130275255;6.215127993;-11.43660065;-5.599847743;-12.51789778;-1.44171094
-3.942496815;-13.605961;16.29244375;-11.87003906;0.553200553;-1.171988155;-5.856764226;-7.824786327;2.280978723;-21.56081084;3.855446749;-1.16003418;-10.41393637;-5.415214265;-0.135219112;-20.25966079;-8.079140513;-17.35089406;-1.528167577
-3.325102511;-20.22159265;18.61675033;-12.30798561;-0.524250771;-1.086240782;-12.44521447;-7.850213398;9.213376007;-18.64655379;5.941872197;-3.631915817;-17.65081851;-11.52375871;-4.980445114;-29.70383469;-11.51878447;-22.02788553;-2.050557856
-5.024793126;-25.79109338;15.7189867;-15.22862913;-1.111784066;-0.766926113;-12.02007813;-7.041317548;11.95785044;-12.18162118;5.110754615;-6.37487256;-21.9099697;-16.66369393;-7.518995724;-35.78646776;-14.82676965;-24.24757762;-2.290809394
-8.625043076;-27.87628477;9.054408099;-18.42803219;-1.880699719;-0.436885405;-5.630944037;-6.790753894;7.712607703;-8.468870393;0.635845434;-9.405903004;-23.11639231;-20.59248051;-9.153469968;-36.7032983;-17.0040172;-23.56072297;-1.791997515
-12.16323402;-26.82814295;4.04564537;-19.52910106;-3.107627737;-0.3309674;0.968382964;-7.575307454;-2.086427515;-11.73167452;-5.230420944;-12.18913266;-22.17497695;-23.25176212;-12.20507247;-33.7298661;-17.71731856;-21.36567683;-0.675613061
-13.5016314;-24.77588308;5.758664424;-17.85272749;-4.617628631;-0.520422188;2.358119034;-8.91739684;-12.93854238;-20.57376184;-9.403815913;-13.88759759;-20.25406288;-24.64216992;-17.80871303;-29.99038415;-17.37395366;-19.67219489;0.515579752
-11.88995697;-23.35010383;13.80864643;-14.83466287;-6.018733986;-0.862702096;-1.789244051;-10.01620543;-20.18493381;-29.11985892;-10.41883032;-13.71179566;-18.1453169;-24.80078258;-24.61601593;-28.00366173;-16.71416681;-19.56139779;1.290523163
-8.460241297;-22.17672019;21.15986761;-12.71701517;-6.974671688;-1.116364012;-6.464828361;-10.42706098;-21.54475307;-31.67654373;-9.184628707;-11.24172481;-16.03968899;-23.86455802;-29.40058992;-27.85532611;-16.26737233;-20.43833163;1.594842851
-5.282565442;-19.42926724;18.72799675;-12.63218981;-7.312917717;-1.125134526;-5.864724845;-10.24506311;-17.76166613;-26.96849586;-7.608749805;-6.635957941;-13.72454464;-22.09468229;-29.22801209;-27.38490015;-16.0558298;-20.56065883;1.799534239
-3.799327118;-13.90867038;2.785571158;-13.66511183;-6.971225493;-0.921068322;1.261625229;-9.761234785;-11.39701998;-18.64062314;-6.486012847;-0.644388106;-10.95826207;-19.77199098;-23.59631706;-24.21888824;-15.69178453;-18.39901817;2.326058593
-3.922946292;-6.758435437;-20.74224824;-13.64875356;-5.935105582;-0.67003418;10.23280487;-9.024503179;-5.026589148;-11.98609572;-4.613300331;5.632044565;-7.745816322;-17.02191702;-14.89033183;-18.01723432;-14.72027492;-13.81865917;3.237732958
-4.450750749;-1.166936561;-39.13222281;-11.011988;-4.278894385;-0.518528293;14.40293404;-7.765713132;-0.143529433;-9.865199249;0.049620387;11.1841252;-4.374502377;-13.7388792;-6.747645836;-11.09538221;-12.93166104;-8.251350225;4.142362782
-4.306048683;-0.079804107;-41.39567601;-6.145135173;-2.258762374;-0.4802828;11.15608711;-5.744946002;2.841758894;-11.08475533;8.181882605;15.54142247;-1.239326315;-9.727349516;-1.561227536;-6.841911386;-10.45834968;-3.777413508;4.485876417
-3.463736465;-3.67892656;-26.2425151;-1.16723091;-0.304041908;-0.457012779;4.676301818;-3.160597977;4.0517289;-12.13360449;17.82040457;18.96201862;1.406637339;-4.985605606;0.959484122;-7.113857896;-7.657756752;-1.791690263;3.997667227
-2.796245187;-8.735471308;-3.245955072;1.703158196;1.168010188;-0.362274644;2.80379834;-0.694812202;3.789386937;-10.36129632;25.22154828;22.21677951;3.622202071;0.101861398;3.082335737;-10.66379591;-4.908419743;-2.160354761;2.93180602
-3.091563155;-10.56980888;13.95578199;1.857104868;2.00037031;-0.224918738;10.25858613;0.893891862;2.612335066;-5.820975734;27.31978259;26.06514728;5.761120327;4.862459785;6.841899478;-13.9080627;-2.446496576;-3.377036272;1.915332804
-4.217987664;-6.30677012;17.3860011;0.752210436;2.389258182;-0.171075137;23.74310824;1.304646302;1.470180548;-0.556551808;23.91098243;30.72887263;8.256536866;8.695285027;12.18115907;-13.52960785;-0.301048606;-3.534137499;1.519630789
-5.214325567;2.977424793;9.996131688;0.824649688;2.708635375;-0.299079313;33.19046084;0.91151881;1.472716952;3.53637048;17.88516465;35.68604053;11.31396603;11.42725717;16.9862825;-8.939686132;1.668282327;-1.435934759;1.871609306
-5.192470369;12.86476065;2.527817503;3.758869679;3.189903094;-0.56427721;28.64739809;0.494885033;3.309284006;6.134568573;13.34944022;39.9125194;14.70377499;13.3701465;18.94923932;-2.679317578;3.646752556;2.813289082;2.575188468
-4.188627829;18.56019765;4.557213939;9.405475723;3.730830937;-0.786480119;7.792255936;0.724476987;6.793648285;8.091712005;13.0557446;42.42774419;17.81722749;15.00917647;17.63616417;1.583411103;5.691017477;7.992386299;2.9765971
-3.165708931;18.04289986;16.74604741;15.99427015;4.014064295;-0.784617706;-21.54992555;1.809353943;10.97690491;10.00599064;16.94874175;42.83543378;19.9911123;16.56095151;14.95981947;1.925587241;7.59332593;12.47120111;2.57115831
-3.165046942;13.11494546;30.21513869;21.25275293;3.841872054;-0.527384282;-45.85599283;3.542380152;14.77879848;11.42312948;22.66880999;41.57536583;20.90518806;17.76474658;13.62783223;-0.325929371;8.90055732;14.95741498;1.281971037
-4.385389929;7.673250384;33.31387456;23.49663115;3.38305228;-0.169199263;-54.19020619;5.610251503;17.62380813;11.49215598;27.37746321;39.7720206;20.77438563;18.0948158;14.90262406;-1.64843198;9.144911798;14.9069415;-0.536293168
-6.022513221;4.62878061;20.43121994;22.06407163;3.084985602;0.063894738;-44.57080508;7.844969224;19.58626343;10.265557;29.48624955;38.76135907;20.19;17.23601443;17.63418597;0.867392367;8.188661345;12.5284951;-2.320521219
-7.000920028;3.868951312;-3.778620112;17.19502119;3.298354814;0.0465671;-24.30249408;10.21474199;21.02318936;9.11027394;29.23904027;39.5061071;19.73283253;15.43682237;19.43820617;7.140274937;6.446424958;8.564355956;-3.581053025
-6.922787322;2.781990544;-27.5807346;9.867844853;3.938525592;-0.155791804;-4.586392343;12.64282483;22.1349241;9.60095252;28.11718829;42.14720994;19.66741633;13.44048433;19.00276424;14.02326596;4.769663663;4.067867592;-4.089374774
-6.37876614;-1.156864563;-39.95536599;1.851525529;4.506795801;-0.349377658;6.474495297;14.90760046;22.89615289;11.8954045;27.79071095;45.89534545;19.95885456;12.03276482;17.46424306;17.61962226;3.996242258;0.251011716;-3.918035932
-6.357998495;-7.830400057;-37.16137323;-4.33493217;4.493925505;-0.369598641;7.796567962;16.76400229;23.35973047;14.29176678;29.33014752;49.34840288;20.56277422;11.55637957;17.55214723;16.21924882;4.44120544;-1.692395717;-3.366425203
-7.309199157;-14.00564921;-23.78205712;-6.067818523;3.839209751;-0.202862425;4.179103843;18.16489057;23.91089445;14.65442337;32.88648776;51.13982224;21.68100485;11.76837855;21.15676457;11.59649636;5.704522094;-0.905269445;-2.828408715
-8.705194413;-15.37636399;-8.430189555;-1.906185239;3.035628152;0.02030082;1.768257848;19.32711338;25.08498235;12.55907311;37.66846584;50.63634161;23.69019239;12.13597693;27.4321973;7.670600633;6.976785582;2.713375955;-2.638083381
-9.494666972;-9.62863451;2.049019892;7.206213753;2.751314537;0.141823391;3.725166198;20.52683971;27.03982212;10.11228607;42.11480096;48.32242664;26.75472529;12.31281983;33.18873425;7.55719231;7.651875099;8.240349871;-2.922500023
-9.026037565;1.739570917;5.767377434;17.84895612;3.256365556;0.097175516;8.89241827;21.79079995;29.21438047;10.42191407;44.40449209;45.62511036;30.46515274;12.40323677;35.38620476;11.26290551;7.793992234;13.92107951;-3.514206166
-7.619328761;14.18156828;4.998748691;25.5762684;4.139789862;-0.054968702;13.71287614;22.78960902;30.62779147;14.82664336;43.38465005;44.22387035;33.88199941;12.81117957;33.66140331;15.76122182;8.084430713;17.91434176;-3.993338525
-6.293272374;22.88595461;3.13822035;27.22522587;4.587222315;-0.202742296;15.41541269;23.07809537;30.68572496;21.30504339;39.52313841;45.19238227;36.03857397;13.81758345;30.67405991;17.35308971;9.258377397;19.27582983;-3.886677537
-5.909570212;25.59334226;2.22109408;22.63448514;4.027698262;-0.276003521;13.99859958;22.49910326;29.79708569;25.67;35.09062003;48.43;36.53315997;15.24515438;29.85250377;14.48537145;11.4442276;18.56424191;-2.949401066
-6.494020465;23.53279497;2.48744275;14.60124794;2.632473858;-0.283664887;11.81611008;21.38297285;29.14199217;24.79081294;33.03910012;52.67629478;35.71319164;16.48455967;32.37515505;8.891726625;13.91496939;17.54562979;-1.365402643
-7.30735193;20.01103396;3.408805272;7.077989108;1.244241991;-0.275755176;11.43193958;20.32969635;29.63128353;19.21305028;35.00483882;56.06972076;34.27716692;16.85705454;35.98280012;4.236584623;15.46351357;18.00948798;0.286904269
-7.558942782;17.86918778;4.654651085;2.817605489;0.76619678;-0.282733794;13.53606654;19.73483825;30.88301109;12.88865215;39.79488286;56.93923972;32.63799306;16.03090201;36.75019827;3.343278289;15.14660863;20.3843029;1.321361118
-7.101147601;17.69798268;6.151798911;2.008264135;1.480263952;-0.295261705;16.46927962;19.47312588;31.17998362;10.1037598;43.69807757;54.45623622;30.63448226;14.19427095;32.43454907;6.117802053;12.868628;23.14305183;1.323798782
-6.492576249;17.95572605;7.630312568;2.672729096;2.828608401;-0.295894651;17.63224022;19.03514615;28.64373832;12.10146371;42.75850643;48.9160022;27.88523261;11.90138057;24.59538544;9.690766046;9.406122162;23.58883237;0.379548027
-6.405630621;16.62920481;8.521094219;2.357235309;3.827102835;-0.297031356;15.67489156;18.00761024;22.81142449;16.22264468;35.57906761;41.60604978;24.47042192;9.752792855;17.61236732;10.59244988;5.895107028;19.67223869;-1.008667358
-6.941101988;12.99204823;8.45858041;-0.160851286;3.783224054;-0.335260162;11.78689246;16.45791376;15.32794586;18.28313945;24.58147631;34.33501523;21.2482341;8.146839405;15.29265769;7.274518088;3.180515756;11.65107464;-2.25732267
-7.486258453;8.11686397;7.790499829;-4.242160693;2.766119305;-0.423442681;9.016416513;14.84565284;9.044678849;16.14540488;14.61366904;28.74702972;19.35894703;7.217212502;17.81450026;1.11278446;1.477685469;2.338613119;-3.054852512
-7.26409747;3.898554792;7.399677986;-8.03564511;1.494544766;-0.513978878;9.967828548;13.50885883;6.057621141;11.41888352;9.75;25.61825292;19.19586356;6.895120902;21.53972038;-4.757410159;0.509681067;-4.426872985;-3.482468035
-6.107648569;1.517827693;7.893900853;-9.74942908;0.775055445;-0.523371084;14.52997066;12.19091428;6.135480078;7.850181858;10.5638141;24.43848524;19.7128858;6.970970713;21.88521637;-7.784646187;-0.084913183;-6.177766615;-3.834287329
-4.781611267;0.612937169;8.968424429;-8.641900698;0.952244324;-0.408351854;19.4912229;10.09371426;6.798294119;7.850375183;13.87418004;23.59298674;18.82090684;7.115320985;16.92103005;-7.722168164;-0.437885586;-3.434409618;-4.30175981
-4.533251822;-0.251000217;9.64122598;-5.245494077;1.772540004;-0.224955794;20.6755104;6.509605977;5.094594815;10.24084082;15.13096742;21.22480269;14.79863025;6.933565856;8.778072322;-6.499631596;-0.448339509;0.65617678;-4.790236448
-6.176540703;-2.302193237;9.173718509;-0.942971313;2.693845408;-0.105349426;16.28856481;1.554738137;-0.18853299;11.23951527;11.62805687;16.41078531;7.745378981;6.130286978;1.789340182;-6.478294329;-0.015329062;2.480946528;-5.020607002
-9.392745168;-5.554001855;7.752392507;2.667651205;3.321482963;-0.15718553;8.918381448;-3.630087891;-7.526095931;7.862920266;4.185659456;9.925418451;-0.089944556;4.729486292;-1.005289496;-8.523608407;0.750957788;0.418049831;-4.824540713
-12.78138513;-8.836894127;6.236308489;4.2818572;3.601414379;-0.365548406;4.243127038;-7.45801975;-13.63143398;0.769607357;-3.776345935;3.963299625;-5.511702245;3.168300622;-0.066871029;-11.38461523;1.535213705;-4.162095037;-4.36799097
-14.6541267;-10.74494074;5.279793431;3.200464532;3.663836129;-0.586331768;6.834975397;-8.868557562;-15.69852842;-5.98639077;-8.815863314;0.827913637;-6.35376351;2.110326799;1.468433685;-12.79555499;2.018252641;-8.046268866;-4.085139061
-14.04544583;-10.66167096;4.858231016;-0.495148554;3.530895837;-0.647527285;15.9223974;-7.959205213;-13.25968521;-8.150941719;-9.601070159;1.38818829;-2.823597895;2.029192505;0.791968066;-11.37606153;2.083565631;-8.584385061;-4.34596743
-11.27803384;-9.058684193;4.810690264;-5.916035396;3.000218889;-0.48143044;24.57118387;-5.785569353;-8.315939381;-4.69435816;-7.113606798;4.423041399;2.765930081;2.835045592;-2.051773503;-7.825086094;1.857067666;-5.552126946;-5.120774962
-7.730019531;-6.935818282;5.786573991;-11.59096644;1.824241375;-0.179292348;23.63309962;-3.493743891;-3.708019791;1.47783984;-3.16726726;7.447831267;7.660111477;3.848841704;-4.262915472;-4.487505477;1.570173916;-1.141495718;-5.936882942
-4.970815129;-4.979621746;9.23553145;-15.97176582;0.014059233;0.078468169;8.251679971;-1.479358453;-1.003328857;6.125744148;1.188908516;8.526814522;10.47031756;4.204680239;-2.840139212;-3.635553521;1.383298722;1.788536239;-6.201590923
-3.824336739;-3.166757813;15.8080707;-18.02810334;-2.028631277;0.159780708;-17.64143368;0.764587873;0.504004423;7.309247088;5.979019714;7.736034362;11.81769214;3.432094901;2.672517976;-5.773607744;1.314761584;1.779470196;-5.658948144
-3.95418895;-1.058309743;23.30169025;-17.60061066;-3.701048431;0.073366091;-42.50366186;4.018787612;2.966107889;6.886563508;11.3039786;7.083323812;13.44954113;1.800748223;9.606777333;-9.2288253;1.304541803;-0.384547186;-4.610563454
-4.234544686;1.606276884;26.40683835;-15.29716162;-4.578383012;-0.056493908;-53.84500872;8.472220012;8.013140993;8.591549145;16.30830033;8.824611404;16.63848184;0.155218729;14.20156474;-11.30167975;1.324629876;-2.527550846;-3.694504172
-3.665892991;4.623015334;19.5575763;-12.02830565;-4.683414621;-0.104524534;-46.09494871;13.34726199;15.19003906;14.42003906;19.37903736;13.41704242;21.14376639;-0.663513077;14.46422819;-10.09288422;1.430706457;-2.755408089;-3.369324002
-2.213360999;7.581404511;1.53912382;-8.524488384;-4.435039618;-0.046716012;-24.2054702;17.32954757;22.03427922;22.55700504;19.58463943;18.76292387;25.45487799;-0.398732442;11.46671901;-5.668025841;1.727543235;-0.576821741;-3.51133388
-0.943714906;10.32582924;-21.68540477;-5.145234375;-4.322946564;0.0344358;-0.362609385;19.45848304;25.79355805;28.73162693;18.02390099;21.49694543;27.97;0.462706563;8.133303605;0.219157978;2.301142283;3.240589074;-3.475196118
-1.274126513;13.06366676;-38.97039356;-2.01503693;-4.56402547;0.037267811;13.92339513;19.77030728;25.53617731;29.86176111;17.61575898;19.47513439;28.08183228;1.06812206;6.748231502;5.512686977;3.178080251;7.631023751;-2.612050586
-3.79112005;15.93275245;-40.48357299;0.74460282;-4.988918533;-0.063866044;14.77796172;19.19838797;23.0634083;26.79488894;21.12574279;13.58374856;26.36036467;0.831867661;7.391761497;9.218418817;4.318943128;11.95419365;-0.856703211
-7.512663168;18.45289343;-24.55072932;2.94248823;-5.209590416;-0.20126162;7.219959619;18.83047242;21.84894906;23.69397971;28.82501057;7.384993064;23.86485626;-0.145173604;8.513703986;11.72511191;5.613093662;15.86740011;1.099734392
-10.27872613;19.53162811;0.359086546;4.449851739;-4.907853423;-0.284408161;0.277853397;19.10878946;24.63287868;24.52952353;37.69612268;4.723417856;21.31520801;-1.174857053;8.862941115;13.95796144;6.864583157;18.72443452;2.241819248
-10.18280831;18.26519216;20.65732251;5.360755226;-4.026881331;-0.287493069;0.002497866;19.5617593;31.29924231;29.68474706;43.01690982;7.00910589;18.83354076;-1.519468404;8.833152894;16.19241257;7.810105778;19.42854842;1.983745429
-7.098514831;14.99119869;26.61699727;5.985698338;-2.762778983;-0.270470127;5.646238252;19.21098485;38.5542955;35.61797435;41.31788682;12.20492883;16.32908036;-0.969379927;9.963867358;17.60262822;8.212688779;17.20763004;0.679839024
-3.096858584;11.62314904;18.91645282;6.667951392;-1.418233896;-0.3154345;11.45784715;17.28958248;41.75012775;37.88581516;32.61928288;16.29117125;13.98036168;-0.042556293;13.15839;16.96887092;8.001609446;12.73084361;-0.528264203
-1.224257504;10.71017037;7.744757944;7.595889058;-0.253992677;-0.44061923;12.05773358;13.73422361;37.75062349;34.9098727;20.39124398;16.11714265;12.23669944;0.330377603;17.42468543;13.95395206;7.346208626;8.384238345;-0.464072987
-3.33623118;13.68904239;4.868528444;8.775165527;0.579669732;-0.575240009;6.799292888;9.162776998;26.99690841;29.22878903;9.380945816;11.52539985;11.30637088;-0.595729255;20.4532539;9.817273822;6.560802722;7.055994966;1.254533916
-8.54298833;19.60582028;14.45541989;10.13982452;1.047841395;-0.620936284;-0.223354376;4.466774904;13.4109785;25.1898571;2.932333246;5.236865787;10.67073975;-2.91791178;20.58160552;6.835026254;5.866400535;10.09387136;3.910347276
-13.55451318;25.42820113;29.59481316;11.62908446;1.226913048;-0.543803373;-4.055598283;0.38151573;2.169166539;25.1634858;1.568539627;0.713678738;9.199660186;-6.062029313;18.31387716;6.745613354;5.184092158;16.03210745;6.134595295
-14.87231226;27.94029226;37.28155845;13.11292675;1.300848028;-0.411214662;-3.071629225;-2.701155739;-3.247118347;27.64959415;3.451623617;-0.300285313;5.898274778;-9.185173062;15.88719143;9.398366156;4.156920891;21.30251707;6.790019531
-11.31946936;25.93919351;28.22525426;14.26337717;1.509748531;-0.33753825;0.043189867;-4.690406515;-2.874604542;28.93710042;5.943122205;1.24654236;0.698700829;-11.70132081;15.15844703;12.72433306;2.436559313;22.61847802;5.664783364
-5.001221492;21.08116303;4.136979793;14.59839617;2.01740951;-0.386360226;1.067268741;-5.716141652;0.110980251;26.77430397;6.972024672;2.766202563;-5.390357826;-13.56638873;15.70938849;14.16117313;0.040041962;19.28397767;3.510954515
0.126572343;16.64717114;-22.97614572;13.79030236;2.753935828;-0.516885712;-1.883432362;-6.13697131;1.611636171;22.66198766;5.502454105;2.090862391;-10.9321665;-15.15060744;15.00468386;12.50334949;-2.519026668;13.6017842;1.454566887
1.085907787;15.07257784;-38.94697208;12.02390138;3.364926414;-0.62199081;-6.788397551;-6.558283263;-0.832113384;20.58040734;1.351020628;-1.101195274;-14.97352236;-16.82352127;10.65800838;8.753170224;-4.477212236;9.010180047;0.248023385
-2.026834571;16.09300749;-36.92647241;10.02490859;3.365237782;-0.622152305;-9.671772772;-7.676852289;-6.719526287;23.19577932;-4.987682136;-5.422511781;-17.46121324;-18.57012343;2.91227599;5.282892906;-5.302562809;7.418151166;-0.097133033
-6.29712577;16.96200232;-21.31084377;8.589702782;2.450626608;-0.529826777;-8.17320538;-9.895634991;-13.16163815;28.98918821;-12.24511833;-9.069858532;-18.85917229;-19.91910828;-4.910039063;3.943829147;-5.057418395;7.889830888;-0.096175929
-8.401496911;14.6437896;-3.630058594;7.915246134;0.772276004;-0.428051084;-3.537608264;-12.91156816;-16.76518063;33.09699399;-18.38274522;-11.04937629;-19.38481771;-20.23219876;-8.586862678;4.62514718;-4.35395447;7.731895409;-0.249355874
-7.258948454;8.354853049;6.021255479;7.332118839;-1.040937811;-0.387347886;0.653102002;-15.62265619;-15.55072286;31.4008246;-21.18;-11.40727254;-18.61774472;-19.14378875;-6.145233629;5.445731174;-3.918805386;5.042460058;-0.639857066
-4.805868584;0.515808452;5.406350268;5.827000967;-2.179486379;-0.401572291;1.765799012;-16.55820827;-9.843557242;24.37583282;-19.32265958;-10.56033944;-15.87414261;-16.83353934;0.593829688;4.464670931;-4.088130849;0.556586202;-0.967023235
-4.279354124;-4.658428403;-0.007918354;3.082739388;-2.115394257;-0.403571984;0.451323841;-14.67665444;-1.890345749;17.15669032;-13.24686745;-8.596585169;-11.01311113;-13.93377781;7.37532359;1.537461636;-4.607851826;-2.782885486;-0.921054599
-7.415823351;-3.946028789;-2.828185197;0.191883867;-0.942892263;-0.344068922;-0.020850472;-10.06504252;5.303291252;15.43865571;-4.985007792;-5.29153146;-4.912925813;-11.13451728;10.67968253;-1.242531502;-4.868658145;-2.178200106;-0.529395821
-12.86439713;2.706369829;0.02690511;-0.727306952;0.630028076;-0.254823173;3.204045073;-4.066371076;9.213238045;20.56099065;2.985422954;-0.764112768;0.874880198;-8.767544214;10.12958998;-0.993602466;-4.364391561;2.723131794;-0.159208784
-17.13118268;12.12480912;5.605268354;2.009803324;1.650928632;-0.229491904;9.865579589;1.308405822;8.683017953;28.11762586;9.027550692;4.000076294;5.054432254;-6.669529849;8.260637066;3.663129437;-3.007275109;9.505708081;-0.178789107
-17.30306389;19.91454835;8.571247715;8.092502587;1.438572444;-0.333118811;16.59929799;4.373078964;4.347467245;31.62410409;12.78045202;7.439501887;7.327574673;-4.423673735;8.032178793;11.26390697;-1.084507498;14.88761143;-0.583589214
-13.34255001;23.063451;6.585284094;14.83149932;-0.057316174;-0.522725653;19.66097631;4.585998723;-1.448088781;28.36580644;14.54541985;8.42047783;8.336215216;-1.799554186;10.30657847;18.23698185;1.044175087;17.22607521;-0.925454452
-8.097953825;21.41830251;2.576068444;18.52605478;-2.253596347;-0.658997567;18.02511547;2.720492757;-5.372440419;22.33428697;14.41034954;7.124294521;8.901260333;0.94428274;13.40961976;21.24605659;3.206139671;17.54325602;-0.626393877
-5.041629613;17.28218967;1.97519081;16.85695618;-4.274222829;-0.610850538;14.21942861;0.308846115;-4.519092354;21.24632212;12.12463961;5.00264634;9.274052472;3.139568057;14.96878841;19.41858816;5.409102731;18.29770839;0.567950647
-5.589082768;13.72223538;7.405933439;10.66761744;-5.425486518;-0.368947285;12.20642917;-1.281826341;1.918115356;29.55912701;7.925066252;3.754687429;9.078862766;4.133800061;14.23223678;14.81302102;7.617030131;21.0568291;2.362333457
-8.15477;12.86610695;15.52292633;3.737701586;-5.535030646;-0.068829821;14.11574376;-1.584688875;11.64705064;43.1261831;3.402858264;4.117722639;7.95884763;3.759397503;12.74058086;10.83589027;9.567928329;25.10746974;4.100531049
-9.642941794;15.13324269;18.90846344;0.484662502;-4.975644643;0.103560084;18.55570731;-1.168522664;19.8939384;50.3985421;1.210285778;5.428064621;6.251929772;2.492854586;12.78977532;9.87262164;10.8474478;28.14497536;5.223834085
-8.083686992;19.47162373;11.70716604;3.031214151;-4.379555693;0.051982767;21.86411161;-1.144372518;21.74282634;40.13895281;3.359443184;6.258230176;4.960399633;1.163674075;15.14195191;11.91377343;11.17706398;28.33065086;5.641471618
-4.244570093;24.05600856;-5.454638629;9.640825781;-4.222537726;-0.157012668;21.20550751;-2.388283321;15.06647578;10.27033828;9.305831509;5.552034197;4.924920005;0.400752847;18.10358384;15.06412423;10.65218573;25.84187948;5.7288571
-0.960843109;26.94778261;-25.21760721;15.68212875;-4.527845875;-0.346932352;16.94278825;-4.968914178;2.199729941;-28.93643147;15.58360031;3.327720948;5.901093228;0.204023092;18.83417707;17.28950085;9.689138151;22.56199431;5.965537254
-0.822339357;26.63833592;-38.19172466;16.58414495;-4.869667449;-0.366420742;12.37222213;-8.112301621;-10.96455211;-60.26194175;17.753544;0.469175216;6.436157844;-0.051044265;15.73310177;17.85532577;8.699120672;20.26664992;6.504679274
-4.146898997;22.61499459;-39.07320593;10.86695844;-4.678916693;-0.198241699;11.08648945;-10.69042038;-18.17085184;-70.12188911;13.51717741;-2.071346663;4.823490752;-1.173690538;9.793990345;17.34554521;7.768524;19.01546496;7.012593643
-8.834910718;15.84861979;-29.6850857;1.240193706;-3.66689227;0.040088501;14.10976457;-11.90368944;-16.39358367;-56.98784335;4.644820028;-3.907316472;0.471647695;-3.587136495;3.756933929;16.48388233;6.642144193;17.24527215;6.902265748
-12.09643097;8.740923083;-16.98936859;-6.980298775;-2.097420346;0.194988866;19.06496482;-11.73074136;-7.537644517;-31.79542967;-3.971667656;-5.222254632;-5.421607722;-7.016313912;-0.142275168;15.02815336;5.046792372;13.48554111;5.782804712
-12.55018626;4.146556729;-7.972119707;-9.138998596;-0.718783831;0.188546559;21.99461753;-10.889517;2.841273442;-10.29007813;-7.665039272;-6.337273175;-10.52541757;-10.63245309;-1.807813473;11.86912155;3.07836264;8.101044005;3.788487543
-11.01842856;3.752483153;-5.391273781;-4.120583245;-0.375817677;0.056595404;20.42089182;-10.37079023;8.903281147;-2.945670272;-5.299798187;-7.406076217;-12.95260588;-13.53461248;-2.897160076;6.290600107;1.289507288;3.385822204;1.547287695
-9.530426775;6.839348248;-7.231824818;4.945345985;-1.531209423;-0.103479138;15.34322387;-10.85918466;7.753152594;-9.443492393;-0.005779985;-8.543652342;-12.58310632;-15.23502927;-4.865969468;-0.795929445;0.351272195;1.783500279;-0.185219926
-9.524773029;10.49708388;-9.541805462;12.5427763;-3.991242363;-0.216782871;10.69442312;-12.38987505;0.569113421;-20.93491281;3.249388672;-10.11258501;-11.1153847;-15.84576987;-7.313118846;-6.899729073;0.531628616;3.718450673;-0.967545389
-10.77716216;11.44674349;-9.834842598;13.99511604;-7.001956511;-0.272427788;10.59319044;-14.40040119;-8.748109942;-27.53589416;1.373301575;-12.62649336;-10.79303568;-15.89019222;-8.189159551;-9.445028672;1.420867105;6.967112518;-0.893282496
-11.82390137;8.338026723;-8.336040082;8.088088483;-9.641289673;-0.298216008;16.22661024;-16.07605041;-16.12848506;-25.12951864;-4.707697203;-16.11443385;-12.76077657;-15.90485749;-5.699759503;-7.565641047;2.166152175;8.25154631;-0.463605794
-11.34955841;2.820128276;-6.617360516;-2.417699418;-11.24951885;-0.308478926;24.43217393;-16.73893572;-19.28357666;-16.8508737;-11.02526323;-19.47974498;-16.2593585;-16.09355255;-0.161221282;-2.703669154;2.079196107;5.84976941;-0.222952185
-9.288522289;-1.555136075;-5.455022078;-12.54881894;-11.64266814;-0.283781009;28.99714689;-16.07648343;-18.07911728;-9.144548666;-13.71481876;-20.65831595;-19.19803223;-16.2142179;5.919793078;2.525319326;1.173110111;1.108133924;-0.411302186
-6.784474322;-1.905159742;-4.094751469;-17.96292162;-11.03023831;-0.201331592;24.07465544;-14.16970411;-13.69045646;-6.269845239;-11.74174199;-17.83422683;-19.60698345;-15.71769035;9.680058594;6.272341734;0.218760968;-2.406754772;-0.847873491
-5.201143178;1.859368199;-1.444208763;-17.13065258;-9.766988833;-0.0791805;7.85356992;-11.41052871;-7.619888884;-7.637148772;-7.149947067;-10.98108411;-16.88307935;-14.03572365;10.06270154;8.576670723;0.262532961;-1.483810594;-1.090175428
-5.124196389;7.038117327;2.26560841;-11.6532992;-8.149350083;0.01880701;-15.64492542;-8.395190918;-1.305563482;-9.454071804;-2.936693059;-2.456391462;-12.00630479;-10.88438333;8.430915476;10.75527234;1.939539211;4.415736163;-0.736977384
-6.148855601;10.31942838;5.229113293;-4.755161668;-6.373481759;0.031133827;-37.89217605;-5.790936327;3.830039063;-8.552810928;-0.572126908;4.101726716;-6.734564643;-6.473683726;7.15222601;13.67070248;5.050048828;12.81123614;0.324941832
-7.457376756;10.41758369;5.638829439;0.879770835;-4.603594116;-0.041823404;-49.89513354;-4.126783767;6.522994452;-4.89595327;0.738439277;6.026296603;-2.491932775;-1.544228912;7.489762252;16.49848544;8.658131217;19.93377077;1.866624506
-8.529090025;9.01669042;3.598133997;4.455232244;-3.010835143;-0.126239697;-46.9238771;-3.534729796;6.271916757;-0.913295727;2.659517391;3.432927719;0.258525076;2.817190001;8.721489143;17.19766731;11.60141181;23.08953917;3.456602062
-9.353754533;9.191221502;1.411027708;6.817554415;-1.707194713;-0.130388998;-31.22587025;-3.600508024;3.918830882;1.239867103;5.720058594;-0.838479369;1.874196263;5.562499885;9.229428639;14.36766107;13.05312994;21.9349456;4.683268881
-10.10672494;12.5427107;1.738318682;9.034088683;-0.642307531;-0.024393091;-10.92924787;-3.513265685;1.435003138;1.781721522;8.648791148;-3.227253723;2.945230845;6.132465195;8.439939826;8.866830035;12.80812164;18.02259575;5.322245254
-10.76567071;17.4260828;5.17091262;11.05503835;0.395500034;0.125382156;4.476693377;-2.536262189;0.726601898;2.927217969;9.636948376;-1.956515055;3.804301189;4.741819984;7.669508394;3.651089203;11.2032401;13.36731504;5.370173006
-11.11306558;19.85768001;9.485575278;11.59911638;1.613201997;0.201584999;9.466856311;-0.547179444;2.24757538;6.58095948;8.261624626;1.846997734;4.436850593;2.296971755;8.927520735;1.757856358;8.820537193;9.311125367;4.960193422
-11.07476618;16.56401817;11.44751553;9.394717252;2.990430511;0.127479148;5.272770238;1.750332856;4.609501334;12.3278292;6.168136407;5.2528079;4.691009125;-0.067839027;12.67192021;3.984496167;6.197152528;6.352119619;4.240463882
-10.94056353;7.840039063;9.696537353;4.758945186;4.203673883;-0.069163553;-1.679021915;3.184680151;5.697150322;17.54840191;5.767713012;5.942780674;4.488717165;-1.597231607;16.63045349;8.176805567;3.676797547;4.589016779;3.300679478
-11.12859042;-2.095991424;6.127126283;0.106970573;4.81187354;-0.271950246;-4.582498874;2.883167049;4.517016991;19.5157688;8.080702876;4.009436496;3.858345981;-2.292327198;17.01334923;10.78192809;1.403052228;4.007221752;2.18139118
-11.67480857;-7.700744582;4.379763065;-1.28050055;4.598487383;-0.358127037;-0.922400794;0.934532906;2.243704849;17.60753636;11.71214124;1.722289335;2.851773376;-2.803198909;11.37280632;9.460341784;-0.613952262;4.289305898;0.937223608
-12.00558838;-5.841481311;6.632763385;2.458453066;3.800039063;-0.281300881;6.298533053;-1.563988834;1.45095961;13.75427948;13.97152869;1.500630565;1.512239976;-3.895730249;0.815311222;4.667124953;-2.413889376;4.569304692;-0.309246107
-11.35866572;2.039256615;11.53016786;10.07232552;3.000263883;-0.092608746;11.50060489;-3.178185878;3.990284538;10.83334813;13.20124154;3.773730379;-0.051806397;-5.85249195;-10.35116291;-1.026494053;-4.010660312;3.728068651;-1.372740497
-9.588966505;10.87339751;15.22374027;17.47767957;2.718524065;0.108085037;11.19567317;-3.096178309;9.193874666;10.44076612;10.22787303;6.476804275;-1.600805663;-8.224630051;-17.40578702;-5.208821296;-5.347957732;1.234453497;-2.07303213
-7.625719061;15.27955537;14.77301735;20.04198581;2.979914192;0.244437942;6.653680267;-1.698463247;13.95157418;11.87110142;7.578913519;6.58979147;-2.845189144;-10.10974729;-18.31234749;-7.522261751;-6.319536488;-2.197869833;-2.323706078
-7.033308141;12.83814796;10.92533583;15.40674417;3.20422828;0.302062163;2.510232459;-0.317887343;14.76424074;12.98565842;7.106486631;2.485926722;-3.658901776;-10.75876786;-14.75183807;-9.582023985;-6.861978773;-4.915983915;-2.186217153
-8.87583522;5.134881326;7.660420069;4.918922681;2.533634302;0.312970708;2.60342877;-0.35301843;10.26563186;12.05491602;8.148276258;-4.756967419;-4.240136148;-10.08498239;-10.42498164;-13.07400472;-7.060347443;-5.563478365;-1.854862531
-12.75341803;-3.842642803;8.67637364;-7.311242502;0.392854018;0.313067469;6.624545022;-2.367955046;2.271927198;8.992104675;7.9621661;-12.06138187;-5.034119879;-8.72707744;-8.158000268;-17.7885441;-7.161136279;-4.26569849;-1.576800882
-16.84443044;-10.47541416;13.83282051;-17.01934747;-3.104795322;0.315109902;10.47216878;-5.8038898;-5.454204965;5.104034379;4.184155297;-16.45243917;-6.424138514;-7.638652385;-8.178502842;-21.4078553;-7.432503462;-2.651562489;-1.542437674
-19.02389966;-13.38335446;18.86216321;-22.19792042;-7.183608614;0.314786849;10.02833535;-9.453620378;-9.761523074;1.817376766;-2.789303997;-16.91351971;-8.409197845;-7.49764328;-8.755462775;-21.32404727;-7.939423891;-2.532737538;-1.792594687
-18.25550884;-13.33377607;18.94694467;-23.68841398;-10.82897352;0.311740203;5.072777321;-12.2868585;-10.0458043;-0.399193849;-9.642939928;-14.67032047;-10.52186224;-8.323678944;-8.312941123;-16.95476198;-8.406877703;-4.288820812;-2.18247633
-15.21427709;-11.75574796;13.2640383;-23.76394183;-13.29894262;0.316279848;-0.18124465;-13.99908208;-8.199274391;-2.068051976;-12.50136457;-11.8922039;-12.06041089;-9.516546474;-6.96575057;-10.52402557;-8.315951719;-6.391347036;-2.425830142
-11.70153901;-9.346783485;6.410451975;-24.00028635;-14.38459946;0.333974331;-0.595639144;-14.93520511;-6.818024206;-3.871764576;-9.916146701;-9.991500387;-12.47102291;-10.23894022;-6.14220489;-5.54161512;-7.210890876;-6.595369917;-2.217267931
-9.358272714;-5.860139356;5.007918302;-24.13341653;-14.29968548;0.348751367;5.253379277;-15.55805332;-7.202825039;-5.849137798;-3.98714799;-8.845987428;-11.61875397;-9.874924272;-6.82335883;-4.171096791;-5.017114586;-3.861041242;-1.394989236
-8.6831809;-0.966858832;11.91066157;-22.66487515;-13.36156097;0.329351462;13.42278219;-15.96110102;-8.660250508;-7.331757811;1.344976701;-7.365512701;-9.795145763;-8.308634294;-8.218123264;-5.643432132;-2.138620393;0.657034637;-0.06965223
-9.03051756;4.813762128;22.8178974;-18.5185132;-11.74814254;0.25901395;17.68287733;-15.81854276;-9.410846349;-7.560311198;3.422536791;-4.711810209;-7.510120237;-5.926868607;-8.253180486;-7.013816586;0.739319993;4.486002863;1.365411401
-9.424283644;10.03017029;28.51340474;-12.26503621;-9.502614318;0.160393201;14.98802571;-14.75096383;-8.131665171;-6.327334941;2.813770373;-1.078050416;-5.234454892;-3.410423013;-5.517025825;-5.607550418;2.993487486;5.898262905;2.384799868
-9.408407334;13.11343857;21.495195;-5.904314623;-6.725951235;0.087431349;8.657263617;-12.73341618;-4.846241562;-4.085293518;2.50074526;2.526008305;-3.22808974;-1.444004961;-0.866514723;-1.123536196;4.304481035;5.392400831;2.592513574
-9.245956819;13.34917256;2.02267261;-1.462997837;-3.745067555;0.086299528;6.159569009;-10.17377525;-0.646327608;-1.54074537;5.083236662;5.127774109;-1.485406826;-0.453072198;2.892398304;4.27963208;4.658971446;5.253111879;1.953627214
-9.432417205;11.20822623;-21.23705656;0.365210087;-1.084837725;0.159495179;12.80928331;-7.61150218;3.225411801;0.7947615;10.42241251;6.458244435;0.230271849;-0.438532997;3.151813703;7.843614758;4.190420277;7.488424964;0.839272226
-10.08379844;7.868014941;-36.70980467;0.423392101;0.749015023;0.267589763;26.3447631;-5.327353137;6.022501321;2.713768612;15.70946918;6.90922445;2.273800424;-0.966227446;-0.294286834;8.337419149;3.058369022;11.8816086;-0.176101372
-10.79142962;4.433726959;-37.54126227;0.065661155;1.511747282;0.368490667;37.12134838;-3.216581878;7.467053911;4.144850725;17.82978459;6.967738736;4.91995138;-1.348012072;-4.914419346;6.674489945;1.482693325;15.86459646;-0.662132055
-11.03532729;1.499412907;-25.71325959;-0.132458715;1.309654343;0.456471967;34.43977526;-1.026645544;7.412638109;5.05395435;15.94753523;6.748251422;8.128194219;-0.978263334;-7.356736194;4.676386726;-0.153730598;16.40922242;-0.601271689
-10.71729399;-0.755171803;-9.825898655;-0.799770053;0.488013395;0.560627339;14.59460488;1.265553192;5.801362058;5.585837353;12.11743247;6.048717055;11.41342777;0.321686217;-6.088941744;3.287590278;-1.3331267;12.42510961;-0.3820039
-10.29527041;-2.259410623;1.369184399;-3.009775826;-0.584531426;0.700929956;-15.45167309;3.274962851;3.036314306;6.213483875;9.485476372;4.786142048;13.97571624;2.158465732;-2.59912824;1.937693754;-1.651552358;5.713763514;-0.499164606
-10.40360761;-2.965264614;4.571693926;-7.054105234;-1.68137548;0.844986611;-41.80605315;4.383811373;0.255592778;7.532723068;9.702667737;3.296234556;15.09265067;3.749813;-0.191992644;-0.42976423;-1.132843699;-0.27428577;-1.161156422
-11.31974528;-3.045744726;2.717682362;-11.84544026;-2.743294307;0.914979988;-52.32751194;4.126998375;-1.066285476;9.694132612;11.76241684;2.150782369;14.55493751;4.363817519;-1.406879342;-3.774843967;-0.311463047;-2.840263586;-2.095143424
-12.74535259;-3.048815388;1.13135645;-15.47610676;-3.787515482;0.850704314;-44.10268936;2.489383215;-0.118221167;11.9666726;13.137013;1.660140907;12.82935123;3.753240499;-6.172705982;-6.500199372;0.076799681;-1.6958968;-2.719467837
-14.04622523;-3.679820843;2.783839305;-16.47371956;-4.796061726;0.677679396;-24.53329946;-0.079668236;2.445075257;13.0046299;12.06713113;1.5681872;10.79216724;2.302210954;-12.10904623;-6.731820968;-0.375793815;1.273907835;-2.587152645
-14.68243972;-5.291269713;6.539133958;-14.74824477;-5.669634772;0.513337031;-5.651123577;-2.890434006;4.727317654;11.83685884;8.93945623;1.277747136;9.198525247;0.787256995;-16.54446188;-4.240400369;-1.414691486;3.67753946;-1.785463537
-14.45089547;-7.540378848;9.220745532;-11.53994173;-6.271631126;0.490671457;3.870349378;-5.279408606;4.860484754;8.858472342;5.627902221;0.429094325;8.27444883;-0.081050986;-18.45296144;-1.124089694;-2.303146588;4.189519678;-0.977214634
-13.42049083;-9.605836108;8.994185439;-8.519039081;-6.526692364;0.652227784;3.291764601;-6.766880023;2.380231191;5.905999498;3.563729416;-0.708183695;7.73;-0.025925519;-18.74007813;-0.34551577;-2.43255529;2.863675643;-1.008752138
-11.76423551;-10.85145934;6.825961546;-6.805791161;-6.510722489;0.903011921;-1.691097485;-7.108413261;-1.42918287;5.143816042;2.415187041;-1.421869676;7.14700093;0.740869166;-18.85215643;-3.161290911;-1.889472799;0.325739983;-2.325022536
-9.740217486;-11.35670588;5.019943812;-6.590618958;-6.473365494;1.071536511;-4.484628149;-6.329471726;-4.532180861;7.503884595;0.615197294;-1.182204829;6.384231926;1.755722385;-19.13353254;-7.669956585;-1.481296066;-3.043255907;-4.593006023
-7.814499758;-11.78584041;4.729324645;-7.416804961;-6.759282857;1.040642061;-2.502875036;-4.770078125;-5.642561089;11.90738921;-2.801039966;-0.143224586;5.647270828;2.607720681;-18.46623324;-9.972274237;-2.129682896;-7.057376407;-6.813895011
-6.662168099;-12.65125008;5.139251663;-8.659204619;-7.639417865;0.846300927;2.01782573;-3.049046869;-4.95694957;15.95381454;-6.853154046;0.951577114;5.191969043;3.083636348;-15.47167552;-7.276814589;-4.071671116;-11.04525187;-7.878199111
-6.84696939;-13.62866305;5.073139876;-9.745991371;-9.122576147;0.660396431;5.087185305;-1.846748197;-3.5617766;17.58967482;-9.155865835;1.396933805;4.981506879;3.104253753;-10.11128578;-0.497172627;-6.51746055;-13.57658804;-7.214895983
-8.343773098;-13.61820091;5.104495836;-10.11402064;-10.86098091;0.663220101;4.746299115;-1.552515416;-2.179464847;16.46388085;-7.99204635;1.129802769;4.665005843;2.594685251;-4.177807432;5.928961468;-8.094925819;-13.26744233;-5.119662671
-10.35901855;-11.61737896;7.560928172;-9.239673189;-12.24381596;0.901815372;2.393367951;-1.997215226;-0.519484707;13.95567138;-4.08061726;0.756262199;3.933737842;1.467388787;-0.186960286;7.132037597;-7.793754325;-10.12624484;-2.561805594
-11.76282981;-7.706115932;13.88425271;-6.959705462;-12.67127781;1.246084908;1.014989535;-2.502344834;2.115555771;11.99050684;-0.341783469;0.961135838;2.923411395;-0.244313177;0.393466817;1.551766828;-5.702818016;-6.078919513;-0.610384394
-11.91725197;-3.246423579;21.72694972;-3.836100459;-11.86866265;1.480211217;2.359117762;-2.267079506;5.60135677;11.73882586;0.33360916;1.827924665;2.24368701;-2.241657674;-1.916610512;-7.599239114;-2.968260061;-3.818766669;0.148192402
-11.23484268;-0.012267154;25.02024932;-1.058441869;-10.03775436;1.461038752;5.653965626;-0.842104707;8.498252706;13.25488587;-2.490874862;2.702851679;2.539363317;-3.986341128;-5.219803924;-14.39356842;-0.995717174;-4.647202333;-0.147084901
-10.90567255;1.098719766;17.92972943;0.312210776;-7.725141405;1.222724678;8.744665797;1.65216392;9.049642211;16.12773291;-6.267494073;2.770009766;3.940382087;-4.940068359;-7.75376604;-14.29344083;-0.503143457;-7.120858933;-0.834119807
-11.89443823;0.686708201;-0.013150717;0.284037833;-5.480263887;0.949709599;10.26958743;4.71158435;6.967973932;20.2384281;-7.391808205;1.864886094;5.908509406;-4.864530554;-8.939646946;-7.242607767;-1.130234121;-7.903673967;-1.19791955
-13.9941921;0.226650493;-21.95521432;0.206795162;-3.541063962;0.842314146;10.75720404;7.857790143;4.327917984;25.69624392;-4.078148161;0.804023721;7.660428058;-3.953398558;-9.143854971;2.504303805;-1.851262246;-4.413932502;-0.89380952
-15.7906987;0.692304951;-37.194647;1.912842896;-1.780427605;0.978862772;11.77570015;10.90961087;4.416890619;31.98955311;2.170815347;0.881603705;8.810717852;-2.687942401;-8.591197796;9.54293682;-1.802926738;2.825362967;-0.08211691
-15.69538152;1.633660257;-38.01134711;6.212872118;0.046616719;1.274228561;14.1721751;13.88831331;9.12482919;37.37673602;7.728564019;2.873624207;9.631872322;-1.523490598;-6.661419561;10.9913021;-0.846926036;10.21296183;0.759980387
-13.28369415;1.600569788;-24.8435918;11.93775125;1.956870924;1.555316954;17.19093757;16.66636072;16.91959803;39.5092103;9.702928492;6.31946462;10.64075043;-0.641139856;-2.393695695;8.001608662;0.538990392;13.68346905;1.189558582
-9.828732691;-0.348331884;-5.850540097;16.46905992;3.589154069;1.686157457;19.25960745;18.7142179;23.27337964;37.12568285;8.149733528;9.659612847;11.85213293;0.068586504;4.203399759;4.285750369;1.860571199;11.89723119;1.082231976
-7.506115081;-3.354413943;8.792864201;17.56345429;4.399822667;1.647176099;19.54747909;19.22999252;23.55685598;31.42668743;5.84050068;11.15722751;12.42065307;0.821272701;11.33670087;3.122924533;3.119690149;7.356757247;0.690524756
-7.827084312;-4.978408582;13.48313325;15.13587103;4.072825;1.520087891;18.68393345;17.60769366;16.36237856;25.69248081;5.797395336;9.948841486;11.12828828;1.737818752;16.10643752;5.241718825;4.780150069;4.412983558;0.463726344
-10.53003906;-3.052368882;9.819823612;11.52639362;2.825301562;1.406717968;17.93190477;13.89788601;4.703544691;23.09481443;8.625978703;6.504955202;7.434954524;2.792708286;16.38392806;8.949637811;7.234787222;5.712459077;0.749935969
-13.82748999;2.159223012;3.848575937;9.873045189;1.354497386;1.353805074;17.71373888;8.901957606;-5.910714681;24.33974558;11.81510078;2.245919508;2.225426282;3.915458644;12.44086622;11.95292957;10.26922127;10.00987937;1.558368685
-15.81;7.324408005;0.776227956;11.73620145;0.445255076;1.337644294;17.08672926;3.82367817;-11.12387568;27.17930859;11.56020764;-1.346635361;-2.48694284;5.101503347;6.922204954;13.11879172;13.02092313;13.20266718;2.523312419
-15.86081636;7.806598258;1.609968831;15.82200359;0.51944924;1.306265188;14.83848798;-0.2710782;-10.39525456;28.38312271;5.651868088;-3.508254284;-4.832659547;6.390622157;3.032642887;12.83414007;14.50189636;11.77482983;3.101579813
-14.94081424;0.884463585;3.950939896;18.88581218;1.445474875;1.23324607;11.18194792;-2.837889213;-6.827187253;26.59177635;-4.821774809;-4.433369235;-4.424780636;7.716250327;2.281752179;12.04390496;14.27071246;5.804237264;2.902685508
-14.56853763;-11.80437395;5.359763577;18.20571282;2.71133037;1.138230481;8.238536841;-3.916028048;-4.569976636;23.52672872;-16.2082326;-4.974027011;-2.704723691;8.777159279;3.554157613;11.15224386;12.71804619;-0.97263286;1.961331496
-15.42198095;-24.53352069;5.757279363;13.74115147;3.783476411;1.06536954;8.488677426;-3.968504087;-6.000552749;22.3316257;-24.79308249;-6.091097641;-1.961166148;9.090481374;4.246876008;9.842174056;10.75901269;-4.097956881;0.773081105
-16.78550178;-30.61835158;6.787925718;8.286908855;4.361013377;1.046040654;12.34251958;-3.69371137;-10.75055394;24.40415254;-29.12046874;-8.370315116;-3.728303954;8.237433085;2.560226454;7.801289521;9.208235182;-1.898809688;0.039257779
-17.30050968;-26.50714938;9.313411597;5.479975832;4.373211809;1.078156763;17.1074493;-3.876032144;-16.8860158;27.6678552;-30.47187102;-11.75500506;-7.771856889;6.139039945;-0.90696648;5.433214757;8.337286043;3.310019531;0.248050862
-16.31894558;-14.12621152;12.02065003;7.19280287;3.818595749;1.133202386;18.69734923;-5.180925343;-22.74965769;28.21124478;-31.3588674;-15.51822891;-12.40628184;3.154475671;-3.553380968;3.728565795;7.910692444;7.23932865;1.344424508
-14.61676345;0.156700237;12.80458979;12.3067021;2.672905906;1.178161999;15.05420843;-7.823588087;-27.71030996;24.21212482;-33.36355853;-18.47958999;-15.8268009;-0.077541613;-2.859193992;3.39563821;7.572983206;7.096527315;2.714993557
-13.78235169;9.344563608;11.49956185;17.73879543;0.987348936;1.193416259;8.461490603;-11.25794571;-31.41871246;18.62845574;-35.99097824;-19.46544494;-17.35698038;-2.940758367;1.501123484;4.152401867;7.195708143;3.631463262;3.529783127
-14.775836;9.936506871;10.82252137;20.8104439;-0.933511769;1.178777659;4.436940719;-14.20521682;-32.7684133;17.64535984;-37.25910804;-17.89502846;-17.64598141;-5.076440309;7.2094014;4.958373313;6.900992423;0.189626571;3.248772195
-16.92918066;3.722227709;13.92782941;21.03987267;-2.5113847;1.151731899;7.535458916;-15.21315487;-30.05715172;25.30781104;-35.38940424;-14.193897;-17.76658012;-6.414855103;10.90818169;5.03696288;6.823082079;-0.235384022;1.976554594
-18.33040445;-3.797486214;20.46019206;20.00784436;-3.151795713;1.142462632;17.10937171;-13.52353401;-22.55604615;38.44967382;-30.22973729;-9.695859079;-18.07909004;-7.037657018;10.65338313;4.715670681;6.913575023;2.634846707;0.43076922
-17.36064278;-7.154801782;25.05723023;19.58118133;-2.632057669;1.183585623;26.54656779;-9.66178221;-12.06765389;46.66295836;-23.3936043;-5.949279275;-17.87137821;-7.02459244;7.363553624;5.215070881;7.016403105;6.496326606;-0.464754775
-14.12656257;-4.264170898;20.60461944;20.11944813;-1.30127944;1.291940331;27.12265276;-5.228558022;-2.70898976;38.59493885;-17.13689175;-3.784593255;-16.06531832;-6.412919339;4.189616528;7.489250377;7.12877846;8.752690976;-0.106860971
-10.54623555;2.749153857;4.300048828;20.23855253;0.120187238;1.450043945;14.0731454;-1.919567556;1.440160956;10.70428698;-12.88866832;-2.780957112;-12.33696097;-5.269686466;4.293100154;11.15954572;7.538705742;8.805120271;1.469290128
-8.92614563;9.531801512;-18.50402224;18.32930461;1.035233918;1.604658717;-9.436264595;-0.433236053;-0.792238421;-28.10187848;-10.50366557;-1.590745658;-7.645717257;-3.771443466;8.669825857;14.58465422;8.622524035;8.341021111;3.664077479
-10.12848058;12.6784235;-36.55835615;14.489088;1.386226005;1.693618026;-33.49068154;-0.099507522;-6.636296058;-60.22774043;-8.708464663;1.011876043;-3.692402165;-2.194227844;15.55574637;16.12129934;10.42502488;9.510225363;5.699802741
-12.81807874;11.81952657;-40.11652211;11.10703695;1.651550961;1.688915645;-47.19347577;0.441956712;-11.24153575;-69.83633989;-6.357252925;5.075115065;-1.752449769;-0.815913449;21.74110014;15.52761619;12.4102656;12.76055524;7.049448016
-14.45342746;9.304302787;-27.97081105;11.40536764;2.40602915;1.623151515;-45.18066472;2.01742291;-11.15555421;-53.04683876;-3.571251025;9.212343255;-1.852735096;0.182362321;24.74646007;14.26301027;13.68979776;16.32490759;7.64243824
-13.3;7.978740943;-8.426392882;16.92766411;3.787687228;1.571489966;-30.53543388;4.132011082;-6.742965145;-20.63760944;-1.916207109;11.41152632;-2.943313547;0.740481342;24.28446393;14.36222523;13.64142671;17.78809043;7.761808384
-9.911417646;8.886035169;6.826279745;25.91415956;5.302885425;1.59468928;-12.33994231;5.292901765;-1.654687776;8.856552262;-3.396429113;10.38589245;-3.85867573;0.881431693;22.0668954;16.80620866;12.45689886;16.27361627;7.759374106
-6.908164051;10.6250029;11.20246578;33.93827764;6.136845506;1.685247164;0.193499277;4.220318042;0.174258921;20.91;-8.841547114;6.501710713;-4.219450733;0.688678833;20.27431247;20.76573269;11.1445093;13.27047229;7.809984233
-7.177899133;10.73361073;7.335145737;36.51947883;5.730559196;1.764194321;2.941093972;0.96626575;-2.456506218;13.46548491;-16.76478049;1.597138697;-4.536330163;0.345590439;19.93111808;24.33831132;10.90958965;11.38415452;7.855049026
-11.80289927;7.892515534;3.663529231;31.94503304;4.173093507;1.739611801;-1.799226376;-3.007755944;-7.364542038;-3.501520232;-23.63120028;-2.191539479;-5.513805984;0.184352011;20.3776221;26.1003859;12.33433942;12.16086129;7.726566228
-19.20003906;3.158424915;6.612544014;22.34694015;2.113933523;1.585781118;-8.144038775;-5.909921434;-11.06810083;-16.32550371;-25.67060218;-3.762144763;-7.248293127;0.630708621;20.10933425;26.11260505;14.96617919;14.92;7.323813711
-26.04250155;-0.744942818;15.10291666;12.31044136;0.288551716;1.378359151;-11.12485253;-7.00514789;-11.71974189;-17.36938099;-21.30768156;-3.614661689;-9.069980194;1.989995478;18.19701311;25.55316051;17.63199551;17.57401869;6.711377868
-29.26389685;-1.492052312;22.0052449;6.006942618;-0.953560429;1.250362014;-9.636086721;-7.174461644;-10.43199117;-9.154835154;-12.64958861;-3.323337974;-10.16826183;4.168605744;15.10391511;25.41731422;19.24676533;18.62202188;6.094453665
-27.77153028;1.081998352;21.07207293;4.802823151;-1.763386019;1.296241305;-6.192283695;-8.166100594;-10.03871031;-0.655976958;-4.821478753;-4.377532171;-10.42357829;6.535099057;12.25190701;25.55793818;19.51305273;18.49664006;5.718144573
-22.8313773;4.926767062;13.08040922;6.862765381;-2.511423398;1.496523988;-4.291912361;-11.12860595;-12.54523332;0.525247638;-3.230684209;-7.25058247;-10.67515394;8.081563931;10.72100728;24.98738049;19.00355149;19.0832013;5.763774527
-17.07802573;7.457637875;5.570851974;8.830955828;-3.392312119;1.723990392;-5.654267283;-15.61359506;-17.52167132;-6.233787639;-10.30073442;-11.2883626;-12.14084412;7.855605576;10.18935891;23.13909534;18.59774527;21.89295168;6.28
-12.96424915;7.598597728;6.169846819;8.291983681;-4.252666525;1.830528673;-9.246355254;-19.85509865;-22.69988379;-15.09100828;-23.78957614;-15.34634606;-15.43648113;5.432362864;9.058356676;20.82621203;18.72475396;26.54231226;7.145901486
-11.63710169;6.515020448;15.22003906;5.314343317;-4.750618097;1.750489513;-12.41925847;-22.08656593;-26.02530632;-19.14104505;-37.92875308;-18.58908014;-19.98781584;1.142642315;5.762197828;19.84363802;18.98315797;30.8580883;8.062888414
-12.73812754;6.429918715;24.32392778;2.140516025;-4.663327761;1.543082881;-12.96971791;-21.81914689;-27.20885406;-15.8711131;-46.76392151;-20.86657848;-24.30973079;-4.082327993;0.255700184;21.39268018;18.40018306;32.45783848;8.602642622
-14.96179208;8.500501972;22.5560166;1.395213944;-4.061318279;1.344118966;-10.55011496;-20.07071814;-27.44419723;-8.435216064;-47.53107381;-22.518685;-26.93525588;-9.148427973;-5.578752449;24.66533752;16.11892702;30.40177046;8.345445549
-16.85602371;11.54519121;5.56393361;4.129748823;-3.229099293;1.267271043;-6.607140717;-18.43206649;-27.75055668;-2.37260798;-41.84831376;-23.91949409;-27.29308259;-13.25319858;-9.098410478;26.93657928;12.02202954;25.5679364;7.09190416
-17.43521382;12.7614762;-19.90105232;9.028867092;-2.455821116;1.33077065;-3.17400502;-17.81182544;-27.68398365;-1.069957418;-34.05781152;-25.18964725;-25.92616174;-16.11276192;-8.88407152;25.30224709;6.888379654;19.62806403;5.046264314
-16.46240551;9.951946696;-39.98138126;13.25807983;-1.911350784;1.460229009;-1.519511621;-17.9083257;-25.75799199;-3.795689847;-28.08854726;-26.24486497;-23.98595984;-17.8883686;-6.022662074;18.78682982;2.022622395;13.71917006;2.828864529
-14.44409528;3.488495108;-43.36969637;14.33336879;-1.689280337;1.555859085;-1.533324731;-17.76526189;-21.22309284;-7.442670963;-25.17940287;-27.00483691;-22.45431842;-18.92673725;-3.569178569;9.160886898;-1.377107859;8.02047769;1.240811156
-12.38487834;-3.629939811;-29.22617919;11.75518879;-1.892539798;1.565188415;-2.076102275;-16.80622069;-15.45961847;-9.814591385;-23.96468606;-27.47836849;-21.64694181;-19.50496136;-4.417554398;-0.18833511;-2.744412258;2.438404417;0.859068139
-11.31855855;-7.784557151;-7.39159459;7.334409964;-2.58334773;1.506619661;-1.88405917;-15.35906555;-11.46146923;-11.26;-22.4767415;-27.63403208;-21.23698501;-19.71269301;-9.105542688;-6.436526845;-2.32057046;-2.503309264;1.684743444
-11.72718236;-7.296086386;8.960169884;3.998100366;-3.585507682;1.435984802;-0.370543076;-14.20040015;-11.58045738;-13.36928504;-20.15508841;-27.23805004;-20.63095544;-19.48570819;-15.26512803;-8.864839884;-0.955296904;-5.613924445;3.084738653
-13.14152547;-3.532475927;12.34638526;3.848253826;-4.349034548;1.394402476;2.144421994;-13.59276755;-15.36143882;-16.35593677;-18.14879578;-25.91070376;-19.36126088;-18.72059243;-19.25828937;-8.694570636;0.329685575;-5.953157429;4.115353675
-14.26748448;0.316169743;4.95675091;6.741705485;-4.119658314;1.383179067;4.82611434;-12.79402148;-19.41375336;-17.95109322;-17.83359375;-23.44487788;-17.28662348;-17.38926699;-18.84426046;-7.597302425;0.812012772;-3.794876195;4.074424413
-13.73376021;1.81891118;-4.70966222;10.34493821;-2.417914016;1.379207707;7.002242576;-10.61496647;-19.66254443;-15.11769924;-19.09042662;-20.14239224;-14.60881732;-15.60601577;-14.83929989;-6.28880254;0.380385614;-0.591076833;2.953827661
-11.10309604;1.172531177;-9.064699991;11.66941683;0.488738664;1.365896747;8.63387895;-6.627340779;-14.34175178;-7.12217783;-20.07756174;-16.83628969;-11.80089333;-13.63102522;-10.42653571;-4.364793487;-0.453067118;2.162233876;1.488593736
-7.471773011;0.860142908;-6.551672433;9.102384773;3.536645069;1.345460805;10.24168998;-1.946719383;-5.41534462;2.940464385;-18.8108418;-14.48469017;-9.475361668;-11.80736492;-8.588735919;-1.308881341;-0.867140074;4.142188607;0.730885955
-5.116657602;3.390165788;-1.178947108;3.573110102;5.390369191;1.323531962;12.33639221;1.230043945;2.678085051;9.843426937;-15.11769029;-13.57486394;-8.157250389;-10.44235051;-9.663736495;2.461941291;-0.234407213;6.309076128;1.382346232
-6.236436005;8.964874634;2.126588757;-1.971159546;5.240293188;1.288840304;14.79651581;1.132690446;5.9822283;9.998080555;-11.05795739;-13.76819951;-7.996490679;-9.675824863;-11.00515591;5.604896221;1.467769131;9.716174434;3.298267697
-11.49977602;14.99337637;1.845630898;-4.472529364;3.308536228;1.216648436;16.74549656;-2.164872961;3.464551423;4.236669038;-9.216188934;-14.07859368;-8.5977875;-9.408617266;-9.109131066;6.937479121;3.613527451;14.09744797;5.499186922
-19.36107432;17.88484324;0.373038911;-2.773552959;0.672243555;1.098676824;17.15091939;-6.587498287;-2.727512707;-2.743277962;-10.26197174;-13.5068405;-9.172794055;-9.35414837;-2.590278326;6.555378671;5.318840294;17.6386462;6.719357583
-26.69445523;15.73418004;0.95815883;1.655329079;-1.480507302;0.970439138;15.77135171;-9.390197156;-9.090418714;-5.882127116;-12.04547161;-11.73068634;-9.022832815;-9.209190407;6.349944421;5.86017833;6.025606745;18.33272532;6.172862602
-30.45751831;9.809043637;4.347550635;5.776428329;-2.607591047;0.902192168;13.66506785;-9.03336127;-13.07066532;-3.396912596;-11.33352747;-9.406313017;-8.067337636;-8.854107881;13.18324157;6.371414875;5.861551443;15.83646898;4.056108337
-29.39057781;3.702997427;8.207371518;7.062909668;-3.021444606;0.950009766;12.66675216;-6.209310557;-14.18442457;2.302802019;-6.964080792;-7.88598156;-7.013906993;-8.456368322;14.12781098;8.349061964;5.483604669;12.14029622;1.45129163
-24.68714002;0.833153708;9.547002323;5.087432003;-3.432126982;1.102806712;14.01797751;-3.272890017;-13.49240531;6.962367959;-1.70015129;-8.509340411;-6.977331747;-8.40226208;8.696599222;10.48754989;5.490610831;10.26492317;-0.328566217
-19.21226825;2.17747039;7.628247988;1.491024949;-4.241970384;1.272432501;17.15189337;-2.545547855;-12.2981856;7.969854316;-0.832519955;-11.85422769;-8.764407361;-9.090358804;-0.175797613;11.01660044;5.84658759;11.89052763;-0.545032372
-15.77737343;5.852928187;4.621306832;-1.56076646;-5.192110029;1.343541248;19.75680565;-4.777042579;-11.28738572;6.096068421;-8.17324299;-17.32950606;-12.31569325;-10.70759436;-8.384078424;9.273757798;5.791456686;15.83875834;0.528638753
-15.57406112;8.660702709;3.522295224;-3.162868743;-5.642149415;1.251080596;19.39616442;-8.839702581;-10.59530978;4.274396745;-22.43007813;-23.30674643;-16.69185293;-13.11248276;-13.39655232;6.347910628;4.366754541;18.73681464;1.82465175
-17.72669223;8.299058492;5.365476686;-4.250110396;-5.214923156;1.027612537;15.66329633;-12.71916081;-10.32594797;4.770078125;-37.02444921;-27.74231372;-20.58507644;-15.8742094;-15.36527815;4.177870653;1.198509967;17.44627028;2.20629577
-20.15220182;4.649949628;8.293119769;-6.506621538;-4.225675455;0.783373599;11.13161892;-14.90130997;-10.75843024;7.309131067;-43.95490312;-29.03639775;-22.96216155;-18.42439421;-15.97646786;3.853337266;-3.057136362;11.39765393;1.214904994
-21.05475736;-0.53844525;9.270237044;-10.52463503;-3.503980558;0.633394888;9.971896521;-15.09092114;-12.01193478;9.664584543;-39.15276909;-26.76175307;-23.40893058;-20.23440314;-16.34255149;4.603635989;-6.978747265;3.045360787;-0.661936877
-20.01965686;-5.004073562;6.875887847;-14.80304085;-3.74373743;0.626194563;14.80542528;-13.88381946;-13.63362326;9.917470735;-25.4349661;-21.90753957;-22.04829726;-20.94884839;-15.93653654;4.403687742;-9.200745161;-3.833463214;-2.369572536
-18.03116435;-7.225161779;2.747317552;-16.55044557;-4.928841781;0.725006226;23.94222071;-11.90741336;-14.68382406;8.19869392;-10.78427303;-16.45563347;-19.25456994;-20.44847128;-13.47713063;1.741934434;-9.210299831;-6.60766215;-3.032581724
-16.53590696;-6.859337636;0.497952646;-13.78876028;-6.32564448;0.849338044;31.29962287;-9.287323421;-14.33896061;6.370745948;-3.095320497;-12.42012235;-15.47376768;-18.84159345;-8.797775655;-2.921423621;-7.552399864;-5.177581023;-2.537684832
-16.32385409;-4.482267135;3.03355056;-7.113748368;-7.056099203;0.938345104;29.64955331;-5.862075984;-12.43852722;6.118991733;-5.109136355;-10.80745625;-11.24045648;-16.38843179;-3.769473366;-7.243925034;-5.322016934;-1.452067331;-1.550321547
-17.04910542;-1.178668669;10.3409044;0.377932371;-6.775844128;0.985368076;15.4255942;-1.806951958;-9.424103169;7.390390257;-13.05090709;-11.08406656;-7.208034177;-13.37413355;-1.182642639;-8.594300474;-3.351985662;2.359853149;-0.97622846
-17.66378992;1.704660139;19.2442197;5.090874512;-5.896945779;1.022184591;-8.10406803;2.056355276;-5.756910936;8.704035492;-19.69967861;-11.51785233;-3.974823251;-9.980039063;-2.404039619;-5.876759222;-1.706245552;5.159052308;-1.279429231
-17.33196827;2.827581618;25.06642287;5.399044947;-5.18496364;1.074754818;-31.72997523;4.668426759;-1.487568051;8.991435236;-19.4395966;-10.25375711;-1.735079986;-6.232079589;-5.891184115;-0.171256535;0.182430777;7.126654676;-2.161846391
-16.06635386;1.432048794;23.97229984;2.663864712;-5.088275667;1.132747087;-45.09536891;5.555123279;3.468822512;9.081645048;-11.65852252;-6.492220952;-0.056566214;-2.082163994;-8.068298762;6.199528631;2.900175766;8.911085487;-2.830234404
-14.61473676;-1.944238103;14.72536054;-0.032954319;-5.37351498;1.158060683;-42.54172501;5.318832286;8.572936603;11.20568483;-0.404594033;-1.01782545;1.919961798;2.407118094;-6.060708959;11.28871525;6.474787141;10.81746716;-2.633336758
-13.76067984;-5.286918922;-0.722858941;-0.470480086;-5.365725641;1.120865242;-26.30730778;5.284639637;12.29725122;16.76442355;8.904588065;4.288474022;4.894093722;6.900772569;-0.074410045;14.49996974;10.26463399;12.69119775;-1.577683767
-13.6693584;-6.014907103;-17.79736582;0.880436375;-4.56836281;1.028397762;-5.035714372;6.502785572;12.8393679;24.3730185;12.98508612;7.651237605;8.838415938;10.79575508;6.65545141;16.29641147;13.34760517;14.32452035;-0.32889404
-13.83203725;-2.704299079;-30.83538877;1.297604416;-3.117915382;0.920762798;11.39555756;8.886538376;9.59368644;30.17893741;12.00233859;8.522012677;12.91245506;13.4364772;10.44966195;17.18102457;15.06942349;15.71326956;0.299855444
-13.62210237;3.543593531;-35.30966798;-1.764126051;-1.681322;0.838885632;17.37273657;11.20057221;4.157768033;30.54682644;8.34428085;7.873753151;15.96791665;14.43080884;10.22737361;17.04902769;15.34682877;16.81628435;-0.020891304
-12.93687946;9.323829154;-30.02823915;-8.189863196;-0.892127711;0.794051595;13.97092033;11.94988923;-0.222787972;25.04200636;4.428516502;7.49192826;17.27869307;13.86434294;8.434785505;15.52026402;14.57462964;17.19168554;-0.871058345
-12.32535419;10.9405242;-18.09983464;-14.74591795;-0.819508141;0.765388817;7.108922261;10.49956646;-0.655744482;17.17151063;1.448904462;8.774429676;16.94337704;12.26576187;8.983473171;12.82506481;13.30615531;16.15583677;-1.390182012
-12.46125758;6.991116488;-5.649049379;-17.18435033;-0.931736067;0.725635391;3.075527118;7.568686817;3.372769127;12.07713792;-0.304019332;11.86286312;15.6832065;10.3443513;13.83647404;10.22769929;11.99418503;13.56778809;-0.936417339
-13.42185197;-0.341178228;1.470655809;-13.40182583;-0.585224462;0.670609928;4.587683112;4.731132765;9.577917266;12.89800141;-0.464664058;15.64740424;14.25602423;8.672238934;21.09094052;9.379888752;10.93471723;10.51533835;0.39612496
-14.4468937;-6.379263507;1.105003822;-5.21770222;0.384585654;0.625564695;9.822036321;3.317642758;14.4883576;18.66871441;1.684554671;18.54528571;12.9902629;7.500360089;26.23866626;11.02514436;10.32612599;8.991222912;1.793052809
-14.46858261;-6.828688289;-4.034116744;2.685334319;1.483503605;0.622774132;14.5971051;3.543606449;15.86148951;25.37462833;6.357905831;19.4373002;11.77403618;6.773908336;25.6645708;14.16957913;10.26999601;10.46196402;2.269313144
-13.0263245;-0.509509617;-8.51261186;5.951628786;1.953161572;0.66994915;15.76446924;4.47214981;13.98691659;29.18497027;12.16654614;18.12439361;10.39018623;6.262938166;19.5486927;16.53790775;10.66235732;14.39007813;1.363037055
-10.79055516;9.908310718;-8.211790795;3.503845997;1.414623631;0.736777263;13.31594869;4.768572592;10.89529884;29.14534726;16.09881281;15.10849399;8.792391594;5.675041523;11.77657863;16.07749354;11.108257;18.13269133;-0.521680402
-9.18329241;19.58715344;-3.232719411;-1.955471457;0.222708097;0.771585794;9.925437977;3.637520576;8.277779987;27.20873752;15.04219033;11.0279422;7.040938642;4.697176432;6.900941071;12.3747842;11.03313193;18.67247832;-2.36689253
-9.318812005;24.36739967;2.597895643;-6.220650511;-0.769474837;0.73572479;8.584712099;1.271389675;6.015815522;25.86467464;7.914257446;6.274750402;5.021014417;3.027439279;6.61850939;6.891357862;10.0015351;15.03122334;-3.210652261
-11.09269147;22.85733649;5.17047628;-6.827818285;-0.852427383;0.629937628;10.2504555;-1.430537146;2.641050798;25.68743576;-3.216119508;1.069121971;2.336680453;0.480807308;8.618053165;1.874248524;8.035108589;9.383618326;-2.770125073
-13.19129502;16.59688721;3.568109382;-4.743899292;0.000481312;0.494192525;13.2160473;-3.565313121;-2.726074065;25.0598485;-13.99395972;-4.1839865;-1.378503551;-2.843869405;8.696348621;-1.165316648;5.664452357;5.715810748;-1.597652258
-14.07930384;8.579325475;0.60868186;-3.247370217;1.111994601;0.382611777;14.55793741;-4.797421323;-8.809479851;22.22648828;-20.14848609;-8.688039581;-5.939460362;-6.466426757;4.361274023;-2.245099859;3.6322884;6.832509004;-0.682023471
-13.21327198;1.414142752;0.021411197;-4.993748973;1.593385449;0.33180755;12.52236118;-5.430806074;-12.58546177;17.60219489;-19.7901151;-11.48534993;-10.38264449;-9.633879782;-3.04060229;-2.498916588;2.444863337;12.00477144;-0.785914633
-11.49917027;-3.689868545;2.814675835;-9.691200487;0.952407175;0.342780296;8.108859254;-6.030569072;-11.53769596;13.9576153;-14.16136172;-12.00679373;-13.36446867;-11.63033503;-9.372171075;-3.073570207;2.10177921;17.2289375;-1.972955079
-10.58359047;-6.837241204;6.183018167;-14.29203257;-0.635135009;0.384969724;4.690773111;-6.946155971;-5.914970514;14.06181149;-6.525575439;-10.51032336;-13.97447218;-12.10855184;-11.00751151;-4.306698034;2.196939702;18.06774683;-3.624500028
-11.50499626;-8.785518644;6.084522092;-15.55240318;-2.540123418;0.416541884;5.827674331;-8.081468617;1.017374545;17.8534335;-0.136091047;-8.024724542;-12.33115434;-11.21694234;-7.662351217;-5.752253697;2.285808493;12.95140636;-4.899039308
-13.7763505;-10.36790378;1.265766582;-12.87030596;-4.14508751;0.407345187;12.61530798;-9.009342199;5.141856614;21.92733438;3.336195715;-5.783116952;-9.443779783;-9.437955872;-2.494426471;-6.805449285;2.209397519;4.37322702;-5.293582385
-15.66354933;-12.21143797;-4.980491602;-9.042267662;-5.169897312;0.352633217;22.28023571;-9.269206337;4.448380395;22.24447054;4.113001175;-4.518730272;-6.420497326;-7.273173936;0.505132992;-7.216296523;2.126172794;-2.959322799;-4.922701409
-15.48924997;-14.55770558;-7.202241781;-8.213631488;-5.645839712;0.272619493;29.06892271;-8.605982432;0.448923761;18.00376949;3.54257342;-4.094828989;-3.670706951;-5.016287133;-0.363712053;-7.041848773;2.269939362;-5.560134169;-4.351822711
-12.96825284;-17.04710586;-2.506932411;-12.54864333;-5.65064608;0.200030518;27.1741404;-7.02;-3.063251116;13.18176433;3.056593062;-3.684916471;-0.768967464;-2.752227261;-3.369904323;-6.24410882;2.686522683;-3.511919291;-4.139772603
-9.530019531;-18.67319106;6.501306527;-20.22778401;-5.102989142;0.162490448;14.19518171;-4.671421922;-2.872262653;13.8278935;3.543124864;-2.325254333;2.925495399;-0.504949795;-4.97900784;-4.516404756;3.19962992;0.010031853;-4.436185505
-7.354861925;-18.22754586;13.41463319;-26.41908312;-3.82011613;0.168369352;-6.855925272;-1.773286955;1.477345424;22.73138985;5.285292583;0.561276739;7.469379408;1.667256468;-2.783536613;-1.647731625;3.626116438;1.486826791;-4.916059235
-7.8388005;-15.17;13.26750792;-26.60011082;-1.775924266;0.203311358;-28.36685875;1.430661453;7.799177042;35.66926663;8.178531959;4.97416201;12.09392056;3.740316637;2.667262581;1.902357009;4.016487795;-0.215857358;-5.073132472
-10.63626376;-10.30404486;7.004779115;-19.78809704;0.69535198;0.239450812;-41.62199613;4.61632997;13.34297107;42.76233091;11.90989907;10.48238978;15.75366482;5.85254363;8.498932213;4.89051184;4.662978424;-3.251598962;-4.630097656
-13.98123029;-5.544528594;1.179364832;-9.275701259;2.960836504;0.25194989;-41.24908807;7.349167543;16.92844801;34.74020241;16.02822513;16.478755;17.97070855;8.271719749;11.91559388;5.973817813;5.829374889;-4.58734266;-3.748274398
-16.01889541;-2.702952179;2.730048828;-0.334479383;4.399872654;0.23237967;-28.13551327;9.15872864;19.37307718;9.936553193;20.01812868;22.3168705;19.19509591;11.11028539;12.34439336;4.776049027;7.425356205;-2.530196018;-2.883280205
-16.14105741;-2.119742928;12.89426005;3.397670828;4.741321061;0.190293245;-9.021491417;9.72240696;22.0776975;-23.19962832;23.44094713;27.30822273;20.3339127;13.98202056;11.66587816;2.44846363;8.928659122;2.089784904;-2.410458296
-15.35410629;-2.301734281;25.29568913;2.194830046;4.188612069;0.143006777;7.155524936;9.067098563;25.25476409;-50.35777944;26.04713533;30.73896218;21.8688621;15.95814007;12.5199695;1.127751817;9.66775377;6.859055131;-2.323190853
-15.45416504;-1.040087891;30.06183083;-0.403484743;3.264834059;0.102750101;14.10849402;7.650670662;27.48579391;-59.82861335;27.73303783;32.04944571;23.37986267;16.01743209;16.16605354;2.55554262;9.271633607;9.818545616;-2.250140603
-17.65191266;2.741804876;21.0133201;-0.548603109;2.51215553;0.071934797;11.36399025;6.224376081;26.97584208;-49.49761482;28.37445697;31.12222111;23.93561769;13.77194733;21.55422541;6.837871624;7.934224128;10.80353647;-1.784866629
-21.64442802;7.884933286;0.460056152;2.938265125;2.252113441;0.049142704;3.845805085;5.494753138;23.28502373;-27.65868134;27.74100039;28.44361685;23.00665849;9.927137707;26.14751522;12.26899579;6.271778067;11.0866707;-0.867836094
-25.76028906;11.62362904;-22.02797534;7.76980341;2.523541322;0.037463391;-1.763069346;5.741327105;17.90390829;-7.286955875;25.65836828;24.93442409;21.04059764;6.026917069;27.66177883;16.34987012;4.871564507;11.86828935;0.091980469
-28.02976368;11.55496777;-35.86522958;10.08311217;3.166471927;0.043661518;-1.444754074;6.616327027;13.13790497;2.093684401;22.33343757;21.49242261;19.11412872;3.541075045;25.36299509;17.25118365;3.878087773;13.06890169;0.471807785
-27.42372246;7.425849233;-36.01086777;7.522119492;3.942317257;0.065723497;3.858762518;7.28598392;10.33216143;-0.567066478;18.52922981;18.55097239;17.92638672;2.901696116;20.14949739;14.71343838;2.936164569;13.44953397;-0.115730015
-24.45221809;1.327328676;-25.24850069;1.19513309;4.613145785;0.080291468;9.502019232;6.880374886;9.055694083;-8.876535245;15.32837834;15.99091082;17.05758335;3.220449683;13.68894712;9.901893673;1.530855678;11.82478946;-1.522890613
-20.78691782;-3.81370061;-11.14128903;-4.917684134;4.980352632;0.046616389;10.89576316;5.009562785;7.944381529;-14.60798257;13.55521959;13.4836355;15.25265642;2.959288812;7.471558953;4.545878275;-0.542467803;8.212808446;-3.151642459
-18.20723403;-6.168810031;-0.567615948;-6.658736192;4.916844439;-0.067627508;7.001554402;2.028197484;6.340526843;-13.46736853;13.25504401;10.98365099;11.59653495;1.102042637;2.41744595;0.105305003;-2.938423924;3.9427934;-4.358245926
-17.55847873;-5.820429712;3.996900427;-2.571165628;4.39642773;-0.253831765;1.049486451;-1.131645149;5.11528273;-7.096531393;13.6420257;8.933985901;6.599810953;-2.044351473;-0.980920693;-2.547385387;-4.929876011;0.736884546;-4.861405699
-18.3522284;-3.975454964;4.334251389;5.02018632;3.486511107;-0.450393642;-1.975519763;-3.460833851;5.827008338;-0.603578017;13.58461145;7.958828163;2.191602186;-5.04044427;-2.426992984;-3.02358757;-5.855524475;-0.36459733;-4.841739489
-19.21772881;-1.543051971;3.626955643;11.41291043;2.286865274;-0.56836971;0.839541135;-4.381477661;8.961140227;1.815070488;12.28489504;8.254695854;0.495753089;-6.365649134;-1.829859822;-1.3119362;-5.525520758;0.617128776;-4.679912446
-18.89585214;1.465818306;3.75357336;12.42986689;0.859231851;-0.544552013;8.073622025;-3.938337203;12.94523922;-0.337363577;9.683737637;9.201247484;2.315013055;-5.529567484;0.519728558;2.109421065;-4.316468024;3.014829354;-4.581803903
-17.14267857;5.167823653;4.682894149;6.920946128;-0.773705006;-0.387165687;14.99007813;-2.58755293;15.0269568;-4.380711896;6.38360509;9.608814464;6.547662606;-3.394614826;3.903683674;6.157086047;-2.922450794;6.122895739;-4.42638877
-14.95464272;8.579406746;5.64851636;-2.661714637;-2.533299764;-0.179171648;17.11406962;-0.795861002;13.43788739;-7.235084406;3.273726963;8.534681026;11.02096788;-1.482551077;7.395466663;9.398938286;-1.958282666;9.38155652;-3.966672691
-13.92998801;9.454336171;6.3784668;-11.84016557;-4.172501531;-0.03171642;13.71974531;1.214025819;9.023327777;-7.869208577;1.205490302;6.095327662;14.05956767;-0.832940469;10.16747939;10.72589845;-1.676593118;12.1172628;-3.188836448
-15.1330684;5.79424961;7.160133051;-16.74302443;-5.27916517;-0.016494878;8.583158754;3.391005822;4.845689107;-7.550398256;0.875673518;3.600826376;15.51381255;-1.312805499;11.6262129;9.976691235;-1.943996914;13.35697106;-2.475032334
-18.20045313;-2.049516745;8.068546614;-16.16555953;-5.455920531;-0.122918931;7.307826015;5.579608972;3.943283034;-8.100464512;2.763184378;2.779642643;16.46538682;-1.88453876;11.3491388;7.92877546;-2.434761718;12.15884998;-2.373683486
-21.34741061;-10.66186127;8.560720441;-11.91650722;-4.578249127;-0.269695442;13.02931487;7.35770688;7.01805488;-9.960894618;6.888136799;4.555337602;17.97407131;-1.555151362;9.068297424;5.547861161;-2.879481646;8.308207555;-3.135035623
-22.38246723;-15.34375731;8.035844011;-7.417844544;-2.92555131;-0.361985523;23.55379633;8.212641312;11.94408159;-11.77371558;12.43507489;8.250795064;20.02827806;-0.199452357;4.90873593;3.091276448;-3.212404359;2.741340553;-4.412764819
-20.13311383;-13.42135651;6.692625015;-5.541408979;-1.042276458;-0.353401134;32.08279672;7.967188799;15.50068348;-11.68591879;17.63375896;11.86851801;21.62101575;1.403429514;-0.265256533;-0.088308369;-3.557540548;-2.80011962;-5.434581872
-15.31912125;-6.587641267;5.555465377;-7.017636318;0.606549125;-0.27041843;31.24583187;7.097104803;15.89357382;-9.083342376;20.30427914;13.34150267;21.82157485;2.299731428;-4.842988879;-4.725988769;-4.098268976;-6.723723539;-5.562204618
-10.20437338;-0.21750375;5.44487052;-10.29494918;1.934118751;-0.185718398;17.88897429;6.602288585;13.99532628;-5.200621567;19.00539864;11.91023694;20.79844708;2.200671269;-7.101492267;-10.43694624;-4.92741401;-8.438738561;-4.807813152
-7.180509917;0.168614039;5.971181375;-12.79027698;3.239257143;-0.163763641;-4.49804261;7.418090594;12.33808104;-2.131185192;14.10870203;8.631790349;19.79284757;1.710131614;-6.221532817;-15.24968875;-5.964431737;-8.480278508;-3.86420519
-7.224352569;-7.174366488;5.84638144;-12.63370073;4.895930667;-0.219078274;-27.33230406;9.736664461;12.77711991;-1.156014965;7.925014216;5.621819688;20.00743234;1.75922944;-2.937952893;-16.54901955;-6.977180724;-7.910732936;-3.577754635
-9.320583963;-18.82856536;4.513360355;-9.772840193;6.963727812;-0.314213188;-41.54712016;12.73684745;14.81884463;-1.832192185;3.533030508;4.555245489;21.39442012;2.744158701;0.815237718;-12.93926705;-7.687619529;-7.576864167;-4.256668427
-11.28144411;-28.43689446;3.493304299;-5.791579102;9.043632867;-0.393026528;-42.44904595;14.96953069;15.99506444;-2.563906123;2.905700097;5.513675194;22.47595869;4.10895926;3.170320938;-5.627584137;-7.89744965;-7.790402845;-5.372647981
-11.37599835;-30.90875181;5.683050959;-2.681810305;10.51912789;-0.420621488;-31.94502752;15.18713134;13.92963542;-2.102961074;5.575549819;7.023836559;21.45220814;4.735622477;3.616624924;1.901576767;-7.560124945;-8.478243936;-5.922884425
-9.568696746;-25.54940752;12.58598014;-1.492783491;11.00585495;-0.401079492;-16.97682232;13.0821847;8.362934345;-0.680699265;8.849582634;7.244671921;17.71153301;3.832192368;3.294800187;5.917604772;-6.759358957;-9.392595145;-5.191556616
-7.452015538;-16.00458226;21.69114782;-1.801775723;10.64560969;-0.364984727;-5.328171032;9.454575791;1.496134062;0.167100399;9.552429495;5.396965714;12.46219075;1.607057648;3.996169785;4.817651687;-5.617377482;-10.05943708;-3.315896607
-6.946767762;-7.402602879;26.73849853;-2.295209176;9.990262563;-0.342154446;-1.438861156;5.717132973;-3.563602539;-1.082250518;6.16904527;2.352120573;7.918837185;-0.797717162;6.612016456;0.108951169;-4.207360405;-9.646301826;-1.205495679
-8.77972059;-3.068564706;21.56;-1.907625016;9.551877443;-0.342988324;-4.631513947;3.086313395;-4.96666002;-4.559157724;-0.08572455;-0.051526229;5.690617571;-2.04601256;10.27294682;-4.751314817;-2.539988233;-7.232003763;0.122396705
-11.90096536;-3.153978818;5.051654368;-0.577630347;9.378379712;-0.360672904;-10.49920889;1.980223893;-3.226604574;-8.658799918;-6.03055725;-0.416525128;5.682032363;-1.446324383;12.91127937;-6.798599771;-0.6286782;-2.615092211;0.263046431
-14.25629952;-5.691916395;-16.67128235;0.951214997;9.009061723;-0.387593673;-14.2373686;1.961056033;-0.563450459;-10.99779524;-8.603198753;1.177448838;6.365160488;0.70686396;12.84758842;-5.454274357;1.437375923;2.93710217;-0.362072407
-14.28038403;-8.630181829;-33.16808043;2.026146934;7.863702822;-0.428534133;-13.65714962;2.176882456;0.816621812;-9.948536732;-6.849386194;3.295377427;6.117810513;3.450365945;10.16578823;-2.488813553;3.49778098;6.92681125;-0.935383665
-11.95543098;-10.94517273;-36.04201141;2.814032848;5.763509739;-0.497988993;-10.06098931;1.95879496;0.121920974;-5.646402354;-2.496646168;4.296821065;4.460598571;5.788751268;6.792502038;-0.200517582;5.416927211;7.157726065;-0.928794772
-8.678786446;-12.1949301;-24.34058312;4.146192507;3.164674926;-0.603656719;-6.702835061;1.196000318;-1.850811756;0.186159587;1.202449753;3.588315576;2.19484771;7.147744619;5.214167243;0.65338352;7.183957926;3.651420064;-0.469120711
-6.144848632;-11.52102153;-5.056797834;6.565698127;0.907928688;-0.730372012;-6.141182102;0.316395351;-3.596724382;5.382150482;1.515861156;2.003541325;0.455571557;7.399760544;6.815259953;1.482492062;8.897803756;-0.678723594;-0.108055499
-5.179551411;-7.587079662;11.59344343;9.446753891;-0.327770767;-0.839159378;-8.399093423;-0.035734469;-3.946293657;8.594467866;-2.177345875;1.059039801;-0.366524883;6.619286574;11.06164418;4.547609176;10.6071165;-1.580323769;-0.243096314
-5.401894802;0.151841063;18.5976956;11.10631503;-0.445250211;-0.885122401;-11.13271249;0.614139119;-2.528099964;9.863254789;-8.162685674;1.733975935;-0.83506101;4.910700656;16.03336141;10.78118228;12.12352072;3.505335998;-0.727180646
-5.838789334;10.02127462;15.72165941;10.02644016;0.092775454;-0.844008124;-11.52506369;2.334789059;0.395485555;10.24049747;-13.47765378;3.773254892;-1.665916218;2.487826668;19.76671705;18.52656658;12.99915681;13.13135885;-1.018392792
-5.849886419;18.19538724;8.154102908;6.284807509;0.685930556;-0.730251022;-8.41699412;4.786341226;4.252509576;10.8773671;-15.47788571;6.042882685;-2.728004982;-0.13422821;21.34978645;24.26900905;12.76261016;22.26554591;-0.726682465
-5.55977069;20.75269234;1.965556001;1.944820091;1.063194029;-0.593634827;-3.096596117;7.401571704;8.274542003;12.25910161;-12.94360099;7.577708757;-2.854138644;-2.131628115;21.07849453;24.88445727;11.29057039;25.51482332;-0.05009491
-5.519922336;16.3825004;0.167533216;-0.125708492;1.422249154;-0.494542905;1.773374931;9.633762394;11.49808339;14.05461087;-6.293328756;8.395832775;-0.727684843;-2.693198399;19.8182812;19.76461227;9.031088194;20.9582759;0.317912429
-6.023456813;7.575530329;1.998032412;1.734049589;2.154560389;-0.471223013;4.199934824;11.1531551;13.01121121;15.56073733;2.888504308;9.376930446;3.889636118;-1.498366365;18.27934974;11.27372291;6.84911228;11.67994781;-0.239263948
-6.754070752;-0.848689608;5.039768141;6.661363132;3.415703486;-0.51839407;4.278416857;11.9193248;12.53483475;16.32992372;12.50310283;11.31911614;9.679310973;1.007996143;16.77856433;3.238563821;5.531801736;3.681813532;-1.695361804
-7.079970573;-4.922859168;7.651263091;11.75111987;4.920803409;-0.590860089;3.914380028;12.12444136;10.91579903;16.51495049;20.41953833;14.00897615;14.51498407;3.787054024;15.46416922;-1.413188248;5.27601691;1.619384863;-3.324881344
-6.681784444;-4.040744507;9.619303884;14.06686724;6.145807882;-0.631141511;5.130461195;12.0671886;9.935709841;16.7275032;24.797565;16.15052044;16.8732569;5.741290426;14.53797361;-2.221768361;5.543150286;5.551083536;-4.233756245
-5.905014082;-0.902117998;11.13632521;12.67643595;6.767737995;-0.604849508;8.359093758;12.04395745;11.28943231;17.56842753;24.45120651;16.28240529;16.77872623;6.266451919;14.12370959;-1.008118156;5.424452541;11.16405408;-4.049140153
-5.502322215;0.960887518;11.86214909;9.141025343;6.96996947;-0.521471195;12.11486665;12.30629278;15.32678174;19.19528069;19.31709415;13.9633307;15.5551497;5.477239597;13.92659076;-0.268256525;4.278597204;13.24910325;-3.194413952
-5.999574891;0.023936287;11.38581596;6.100511591;7.340171704;-0.426519585;14.29817427;13.05082355;20.50729566;21.22734509;10.78961222;10.23828368;14.65268944;4.013560155;13.16173863;-1.415315975;2.180618523;9.67834637;-2.519996862
-7.252784483;-2.282064251;10.49182974;5.130117327;8.413324884;-0.369571834;14.02078822;14.35335045;24.1035014;23.02195472;1.537267438;6.952159268;14.55037938;2.615534184;11.02736074;-4.068433603;-0.151295144;2.812021753;-2.602482608
-8.571637317;-3.145072441;11.37699666;5.629962925;10.19810496;-0.369615179;12.3894601;16.00539642;23.78262635;24.08958529;-5.379953816;5.409751724;14.59033357;1.758941785;7.435129154;-6.691180232;-1.891115425;-2.63022445;-3.299237748
-9.269357114;-1.017591791;15.82368648;5.639325001;12.04825593;-0.402051923;11.54454682;17.3497551;19.02614699;24.3371229;-7.810958028;5.428475059;13.75777745;1.529994885;3.342511168;-7.90124699;-2.687975634;-3.38775657;-3.918845843
-9.141519712;2.920622918;22.60343938;3.842392339;12.99020442;-0.417314776;12.74256268;17.32358763;11.45478483;23.98604601;-5.564100686;5.536484722;11.63969397;1.722662237;0.266543049;-7.418371311;-2.851835912;-0.08172315;-3.838738785
-8.4894664;5.655945934;26.77562473;1.006257895;12.29219498;-0.378599376;15.14146815;14.86056965;3.910191287;23.27770633;-0.550652622;4.163527595;8.733846452;2.025799661;-0.755544638;-6.051177447;-3.018227194;3.57186354;-3.028069524
-7.750078125;4.76636994;22.39786325;-0.455968524;9.900482787;-0.291872884;16.4130592;9.551345815;-1.036360939;22.24208373;4.166178901;0.883954498;5.930374947;2.183045355;0.043452369;-4.914562687;-3.58423398;3.919410832;-2.034733644
-7.136996253;0.328031656;7.178069482;1.475613551;6.475117898;-0.206131071;14.7563901;2.175738326;-2.232305009;20.73705755;5.941941816;-3.265106947;3.724332921;2.083667973;1.29772655;-4.590087891;-4.381781774;0.227587445;-1.474019982
-6.625251254;-5.232094298;-14.60174622;6.455793433;3.031264296;-0.182885818;10.61469726;-5.343928027;-0.239311662;18.7168122;3.848865914;-6.62735514;1.88806946;1.783633834;1.520528947;-4.855775676;-4.847846776;-5.003701714;-1.489320288
-6.221701848;-9.123121422;-33.75087482;11.57177004;0.428403951;-0.255721491;6.540304633;-10.72583379;3.121488214;16.4677848;-1.05511381;-8.250860499;-0.161722413;1.44823508;0.205011193;-5.077194035;-4.537779005;-8.318750655;-1.665019919
-6.158771027;-10.31790464;-41.79420772;13.22147129;-0.997318548;-0.407344707;5.180404339;-12.4979104;5.559792138;14.55421931;-6.601779462;-8.642800346;-2.723167959;1.211317646;-1.874652694;-4.835743432;-3.548432098;-8.141214464;-1.456396321
-6.737167428;-10.10035852;-36.56209145;9.696641874;-1.490780778;-0.578496094;7.023902115;-10.84516821;5.126343468;13.45760458;-10.91174226;-9.36810222;-5.522404531;1.005667495;-3.408936536;-4.25616809;-2.498030448;-5.852053035;-0.733898622
-7.935437799;-10.68613536;-23.46236496;2.490613096;-1.651197938;-0.700946184;9.892523611;-7.53598352;0.934608004;13.1805911;-13.37233954;-11.81020558;-8.011940378;0.490706543;-3.729209217;-3.814944936;-2.076226223;-4.399314695;0.063636666
-9.202207445;-13.14611062;-11.39186555;-4.678813558;-2.07857455;-0.732228896;10.76926;-4.898166415;-6.323116891;13.16484634;-14.58451561;-16.04387583;-9.900586665;-0.809841513;-3.431518615;-3.860660241;-2.524781863;-5.763927965;0.318265777
-9.731190343;-16.35992277;-6.44685709;-8.388595278;-3.07362871;-0.672208135;8.522564779;-4.470264009;-14.36846428;12.65109345;-15.44333428;-20.65563027;-11.35731452;-3.185574146;-3.904096645;-4.29130769;-3.45633947;-9.388747902;-0.180146864
-9.070125808;-17.82161863;-8.271922558;-7.69875139;-4.514324129;-0.556540202;5.154235755;-6.204997136;-20.14511027;11.24985659;-16.16705751;-23.61592198;-12.6882273;-6.431477663;-6.104882273;-4.664583107;-4.140068359;-12.70266222;-0.988466528
-7.552739464;-15.6237086;-11.6294119;-4.484817473;-5.946402732;-0.436407407;4.296156579;-8.731700278;-21.31525063;9.289181475;-16.10979017;-23.55041815;-13.83791914;-9.804993258;-9.557691239;-4.630312191;-4.018160186;-13.1145096;-1.356563769
-6.133477701;-10.0668129;-11.47888906;-1.857021517;-6.840322794;-0.357578007;8.020692094;-10.4412333;-17.67525485;7.645306169;-14.53451418;-20.53740028;-14.26498372;-12.34527868;-12.39815426;-4.295155572;-3.061418439;-9.814643646;-0.889884695
-5.701978672;-3.698696876;-7.139487868;-1.980029297;-6.89394802;-0.345848288;14.65844455;-10.58724862;-11.47071716;7.151869122;-11.67843572;-15.97721947;-13.38421163;-13.38558311;-12.520261;-4.184772055;-1.732980469;-4.130695298;0.047845667
-6.42192358;0.204776162;-2.193486686;-4.848002841;-6.221791872;-0.399179455;19.72437224;-9.629614915;-6.149533724;8.017833129;-9.098487977;-11.75092661;-11.19403472;-12.92053424;-9.055851859;-4.810429203;-0.648306157;1.518029594;0.569532293
-7.644609207;-0.382622065;-0.624881245;-8.642266972;-5.305745493;-0.486269068;19.53257136;-8.647543746;-4.200792769;9.692952687;-8.783541002;-9.288329607;-8.475190212;-11.5711029;-3.163318313;-6.195422317;-0.227516171;5.033987856;-0.024740987
-8.466953817;-5.108356474;-2.897695811;-11.08784053;-4.703866975;-0.554858841;14.63864227;-8.350361589;-5.540688138;11.28907624;-11.53852019;-9.065942519;-6.300325825;-10.17457612;2.438936316;-7.779197763;-0.579771246;5.439191038;-1.644572421
-8.455771648;-11.57702587;-5.523251536;-10.70641563;-4.672018394;-0.55277068;10.02306901;-8.474950419;-7.668624436;12.25116566;-15.88945359;-10.64044378;-5.225439456;-9.294537981;4.941589351;-8.82410646;-1.622369242;2.871244016;-3.43103447
-7.931880892;-16.78184954;-4.397285319;-7.286774031;-4.941817743;-0.456258318;11.35391227;-8.002321855;-7.569308243;12.78867624;-18.56525474;-12.98151834;-4.859184395;-8.983389504;3.045016298;-9.022552356;-3.244075147;-1.748962866;-4.411848884
-7.609122645;-18.66723838;1.228664445;-1.681253749;-4.831495139;-0.289677667;19.94975899;-5.964959534;-3.995366821;13.75224855;-16.51347043;-14.83490094;-4.208533158;-8.913312221;-2.239583256;-8.792175135;-5.333258873;-6.950658397;-4.268505029
-7.946792203;-16.94339413;7.815520046;4.580048828;-3.660510662;-0.119447888;30.51445257;-2.188033165;1.580965012;16.02776933;-9.178515448;-15.03625455;-2.529641497;-8.706707746;-8.045217773;-8.95549046;-7.669395456;-10.9281367;-3.589380797
-8.792171534;-12.84658465;10.5509046;9.61525305;-1.224673366;-0.019556774;33.93857218;2.571011677;6.067641345;19.83934614;0.622541018;-12.84027908;0.032475907;-8.178442939;-11.12150473;-9.997853897;-9.837446431;-12.0838868;-3.396136514
-9.582723709;-8.173765728;7.648055794;11.64136561;1.976341491;-0.027293833;23.62421891;7.096200853;7.044969883;24.40704402;8.052306088;-8.261862837;2.551514752;-7.331145703;-9.543259532;-11.49437354;-11.31517122;-9.898562073;-4.321710295
-9.852069212;-4.267042571;2.086303201;9.742181928;4.921406222;-0.119106358;0.834972321;10.34909487;4.484001863;28.1958252;9.120039063;-2.243226256;4.063976273;-6.186768671;-3.739035592;-12.24128178;-11.71808615;-5.531916363;-6.100168578
