Channel 1 - P4;Channel 2 - O2;Channel 3 - P8;Channel 4 - T8;Channel 5 - C4;Channel 6 - Cz;Channel 7 - Fz;Channel 8 - F4;Channel 9 - Fp2;Channel 10 - F8;Channel 11 - Fp1;Channel 12 - F7;Channel 13 - F3;Channel 14 - C3;Channel 15 - T7;Channel 16 - P7;Channel 17 - P3;Channel 18 - O1;Channel 19 - Pz
-101.613923;-73.80195044;-116.3232008;-145.1638034;-98.09434865;-26.76360216;-124.54;-84.53886577;-60.63310827;-137.8515953;-170.9628816;-16.11904787;-24.49821679;-19.1924763;-36.85046621;-54.38252056;1.839503891;-97.46071705;-24.06027633
-37.37160806;-68.22899609;-77.13023611;-107.778046;-77.44;-35.58377696;-89.24118695;-67.17420412;-64.94296686;-88.2765786;-101.0607847;-35.23381445;-39.97857562;-38.24053891;-48.87439936;-63.19144253;-25.35366781;-80.7859045;-40.19243468
18.04317676;-42.89851987;-9.938814437;-35.25518454;-30.90849678;-28.16365455;-37.10762801;-29.56861538;-43.42675983;-24.59234225;-0.295660042;-37.51355881;-35.11191174;-37.20718078;-41.21716674;-49.08694313;-37.7718615;-41.18709417;-37.37137087
36.11390403;-10.26362274;44.81631991;30.0827702;14.69582763;-9.734182386;0.928658876;7.046245283;-9.860692793;13.40275775;73.17944612;-24.45315848;-14.6140954;-18.38566215;-20.97144491;-20.26040329;-29.75070936;-0.440462622;-18.1042417
16.21375309;14.03153617;58.32864554;55.96396875;35.97429399;7.82574084;7.457589562;24.32232191;15.53542458;9.093206059;84.28093565;-7.21742388;7.01700556;4.436480732;-2.536202429;6.887554703;-9.749481221;21.61649909;4.828718742
-17.58740164;20.98764139;31.23454998;40.23084468;28.04100097;14.49431785;-11.19479966;18.6314315;19.77646537;-21.7766187;42.76768778;2.219584803;16.23666723;16.33423909;3.008699306;19.00951267;6.776607628;19.24502797;17.66875068
-36.87637286;13.19574186;-10.63003906;7.793968284;5.515814851;8.753173772;-32.75429962;1.661436085;4.853536618;-46.52066295;-8.431850487;-0.164705146;9.860134402;11.84491381;-4.566650466;14.29120386;9.082525549;2.357403199;15.04413648
-29.73783236;1.589415944;-37.43421311;-11.08509117;-10.27971165;-2.392258374;-37.4057388;-9.920354499;-15.4942652;-42.12825911;-27.63148464;-8.539558021;-3.889829777;-2.166241132;-15.67303724;2.079943234;-1.689404016;-12.59032001;2.589086044
-6.525376994;-3.24636444;-36.22822752;-3.150957959;-7.342419087;-9.521527856;-21.95162818;-7.235356194;-26.67763447;-11.80013301;-4.285980388;-13.17182999;-12.92447836;-13.02732825;-19.15381287;-5.493263271;-14.92786141;-14.80475828;-8.538181654
11.9513401;1.445888524;-16.25442215;21.48917811;9.91127513;-7.94716395;0.471378535;5.362965854;-23.25444001;20.57125458;37.59251368;-8.908271234;-10.95375899;-12.49031939;-10.98703904;-3.000104112;-19.86975724;-5.508647294;-10.42660954
12.48397734;9.761368907;2.929644314;41.53960108;26.73638705;-0.441135199;13.07412518;15.59120633;-10.99609898;31.68620918;62.55260984;0.853655425;-1.575377085;-2.502138563;3.202593437;5.047361499;-13.97007813;5.227227886;-3.611745894
-1.20061578;13.04646641;8.682927804;43.15543135;31.09938378;6.038029904;9.030576376;14.14254876;-0.604979286;17.52750908;52.96620459;7.663991766;5.936789656;7.568721541;13.2037875;9.244845327;-3.872737563;7.5020203;4.774430215
-14.15833325;7.464596797;3.454377854;29.53041908;22.70407624;6.404053521;-4.742346107;2.1252928;1.118889363;-5.359608159;21.05572154;5.643254714;5.018030713;9.293076489;12.30679085;3.988694715;1.062776613;-0.932348755;7.612352289
-14.44565854;-2.890495316;-1.201819647;15.22057568;11.39110794;1.22879665;-15.16950703;-10.54080322;-4.288003997;-15.48122762;-4.065353127;-3.363357933;-2.822470966;1.976521686;1.974503094;-7.495906083;-3.222579324;-13.89941785;3.437230864
-3.027871965;-9.594617438;2.534235514;12.15178519;7.498989878;-4.473417217;-14.15435127;-13.70409284;-9.627635379;-4.583460633;-1.604968404;-11.35059708;-9.847464662;-7.430489097;-10.07486986;-15.78624935;-12.56197642;-22.23631258;-3.200930725
8.497494882;-6.985587736;11.24844042;20.09558954;13.00884608;-5.904017325;-3.726231655;-5.077900069;-8.754642044;16.87657794;24.80095634;-10.92764252;-9.084877077;-10.65003906;-16.14630126;-13.15313481;-18.66799669;-20.52980179;-6.284963241
9.176011956;3.154271601;14.30563184;28.9208406;20.75342358;-2.406085326;7.906707797;8.591618837;-1.554120751;30.44504156;52.22321099;-1.519248624;-0.260815056;-4.970048828;-13.91862023;-0.107897929;-16.31131931;-10.17282437;-3.508806986
-1.604668389;13.05631944;4.742620923;29.01226651;21.57360979;2.482198783;14.3396372;17.61468073;6.51204149;26.16019803;58.74338667;10.11991188;10.25319689;4.956666143;-7.009738517;14.71156809;-7.424591213;2.655824246;2.224299692
-14.3130892;15.19594474;-13.43692831;19.74320757;12.64720032;4.474122337;15.29398214;17.15130848;9.311903719;10.31416864;41.13450387;15.34890471;15.08028835;11.46429832;-1.148982227;21.11202566;0.986045146;11.60831518;5.803624028
-18.44187678;8.130518602;-28.18980809;8.870263086;-0.223596105;2.237467006;14.15483597;10.27337745;5.088234502;-1.472024749;15.86401888;10.46205467;11.99224772;10.31244855;0.333947362;15.02482997;2.886265648;13.68328851;4.423732616
-11.92928778;-2.690374772;-29.68232789;4.562301723;-7.909564145;-1.788638792;12.44897422;4.299508294;-2.278160081;1.259247229;4.188420521;-0.594657977;5.369746867;3.764417631;-1.856595694;1.277095672;-2.088490705;9.711123223;-0.324122782
-2.447170203;-9.532478121;-18.51138255;8.114085747;-5.823740073;-3.874373516;7.558914177;4.103139594;-6.37745097;14.94421503;14.92588732;-9.53602733;2.025529948;-1.925017805;-4.806378711;-10.44225677;-9.006519506;2.572082684;-4.276505733
0.155818475;-8.440647795;-4.712469216;13.86167691;2.497565393;-2.35075934;-3.852684026;8.253089053;-3.017845764;26.19690895;38.98677564;-10.12980955;5.263303717;-2.043257364;-6.348893266;-12.93575575;-12.26979606;-4.795583801;-4.476278445
-6.935695144;-1.875419107;1.202050875;15.54274052;8.8664876;1.12553115;-20.39963499;10.96377686;6.949682975;24.53788808;58.673135;-2.537800296;12.30602208;2.869794569;-6.42621483;-6.369301373;-10.22355834;-10.27345574;-1.484549789
-17.00340648;3.889340379;-3.004025161;12.44229313;7.572968025;3.308882844;-34.57874748;7.704229928;18.40957282;11.80197151;62.39835868;7.480887359;17.06231804;8.036253607;-6.15220369;2.77128462;-5.90263843;-12.53705071;1.593399357
-20.07206897;4.088570302;-10.31503882;9.440158522;-0.082556216;2.351075228;-37.72977355;-0.604209097;25.31155412;-0.077591402;52.20936809;13.31909151;15.54559852;8.880924459;-6.138288365;7.237489063;-3.711981878;-11.05641473;2.16928618
-12.12052176;-0.986126256;-11.59226372;11.33336005;-7.467280201;-0.664263586;-27.34509838;-8.307948098;24.04352188;-0.402677889;39.09060286;12.15407388;9.162702319;4.847686799;-6.017564239;4.382100033;-5.328895299;-6.490577595;0.414238883
1.095659538;-6.869052259;-3.996584285;17.34973368;-8.605429096;-2.87806972;-9.975624264;-9.770203269;14.89011339;10.50239448;31.93;6.043194184;3.194467468;-0.562810156;-5.488644233;-2.697147676;-8.482300521;-0.901246074;-1.238962826
8.965763523;-9.030377304;6.827294334;21.39880622;-3.083995196;-2.304518241;3.407060551;-3.936313853;1.279676767;21.99658929;30.60158849;-0.689430537;2.06412625;-3.20034997;-5.416845841;-8.52;-9.437454265;2.942403104;-0.649243865
5.233036586;-6.485097639;12.33816557;17.89691567;4.16659436;0.454017677;5.941691388;5.042397613;-12.16036004;23.47374519;28.60243453;-5.039279708;5.648950075;-1.877831666;-7.435361995;-9.843247213;-6.680719157;3.053340016;1.917295469
-6.664977791;-1.987028632;8.964248265;7.535736946;7.568025886;2.878262903;-0.046038784;11.32793382;-21.49546758;14.63558408;21.43992995;-6.885559092;9.741739415;0.938774865;-12.15949592;-7.735565279;-2.398451896;-0.538594824;4.056375018
-16.72634546;0.909433705;1.037780211;-2.661109436;5.65321189;2.857484711;-5.841624826;11.83699289;-24.63984572;6.018282807;12.08905957;-7.764471365;10.00898759;1.697158192;-17.82231049;-5.835853493;-0.505453042;-5.848194483;3.546800687
-17.08592747;0.981745807;-3.547034412;-5.266412227;1.801362549;0.526941191;-4.429921207;7.952486033;-21.68408431;8.996982545;8.333694744;-8.578397827;5.805987434;-0.944489419;-21.04152516;-6.748734158;-3.117133915;-10.29468791;0.51507956
-8.609090393;-0.127664339;-0.569048805;1.026969658;0.686676776;-1.97134156;3.435847864;3.506158681;-14.52468351;24.19686139;14.87132602;-8.571307917;0.536830533;-5.059354622;-19.46312826;-9.776339149;-8.659470017;-12.2534768;-2.567297136
0.262668618;-0.155634961;7.166768638;10.29188569;3.928959088;-2.476694077;10.58600967;1.240361288;-5.947035968;39.02599362;28.01487562;-6.349484976;-1.566060856;-7.412557616;-14.02310503;-11.68507138;-13.22774774;-11.58121305;-3.046825455
1.168339891;1.176168558;13.18512987;14.6856649;8.852267897;-0.700426537;10.76210358;0.941154061;1.55188018;37.23416944;38.24353955;-1.673049535;0.767392591;-6.492392148;-8.550359418;-9.520759895;-13.88158654;-8.896357163;-0.441862691
-6.86031834;1.831588275;13.82703936;11.32535471;11.21580599;1.636838945;4.940048828;0.573111954;6.685298988;12.80984706;38.4013008;3.895141967;4.853737941;-3.825619204;-6.653586932;-2.952067173;-10.93669703;-4.552749614;3.127893481
-16.7636743;-0.227359391;11.46233603;4.504768507;9.190352218;2.440872786;0.562246695;-1.070056152;9.537216704;-23.57195769;30.03670915;8.166679621;6.631568277;-2.466241031;-8.398082416;5.660078125;-7.34417494;1.558824591;4.799151489
-19.83580414;-4.329363616;11.34941215;1.438744038;4.917930965;1.110928386;4.179024202;-2.894652897;10.90539033;-51.33483983;22.05701033;10.20273516;4.404225652;-4.121546911;-9.791564036;13.19454386;-5.893214443;9.194320482;3.434866881
-13.36143346;-6.74565;15.33012497;5.690640535;2.375542819;-1.019680431;14.28798189;-2.575563629;11.38330163;-54.83151921;22.8723719;11.09418532;0.401172576;-7.536846897;-5.882293258;17.89213132;-6.82649321;16.89805135;0.526991605
-2.831362453;-3.383158224;18.79321326;14.41228953;3.654777733;-1.976047132;21.31893252;0.966206919;10.95435568;-34.42772375;33.07241355;12.90316445;-1.183764406;-9.552544147;4.887449338;20.03484163;-7.93314012;22.2734643;-1.212231879
3.042775085;6.620964915;14.4089073;21.7370633;7.094634044;-0.927333506;15.41883943;6.12116315;9.413661506;-5.279526587;45.12013752;16.74428653;2.087614752;-7.847220269;18.75994972;21.01459922;-6.869887504;23.51812282;-0.26468306
0.005295031;19.54306063;-0.355504005;24.76498549;8.89050385;1.140019531;-4.480800803;9.627367533;7.152033212;14.63947038;50.18813898;21.76189134;8.663839524;-2.943575444;29.04576803;21.9337763;-3.491891456;21.01933253;2.418046688
-8.088228199;29.32324839;-18.95370313;26.16644582;6.61799241;2.393864702;-28.38;9.217610899;5.447603074;17.31173402;45.91804369;25.90481538;14.14489589;2.215845708;31.12217465;22.95754401;-0.074991111;17.46902743;4.349876016
-12.70554303;31.75576015;-29.35880941;30.79090851;1.454743684;1.820258736;-42.14518303;5.529898588;5.818652373;8.42641217;38.22238328;27.73964255;14.77749575;4.663100201;26.04130087;23.66261459;0.707509733;16.06875168;3.751801748
-8.067374414;27.28937912;-23.28519247;39.6062433;-2.841829754;0.067763548;-38.15061998;1.593296869;8.868449107;0.29525225;35.71525582;27.61294281;10.36090042;3.668221979;19.7176319;23.68168348;-1.827911947;18.0720416;1.084505367
3.83861734;20.25920252;-3.431394757;47.12810686;-3.200947868;-1.228768491;-20.84;0.349884498;13.5988634;0.895939354;41.92435118;27.10210071;4.251507555;1.018668681;18.21436423;22.89853293;-5.767795434;21.66656492;-1.442388271
14.82086804;15.33129369;17.72319072;45.40307758;0.183309504;-0.957733463;-2.714782558;2.360721558;17.85023102;8.287395091;52.23627493;27.28091183;0.65487991;-0.737866933;22.85411856;21.17584056;-8.266964597;23.26633473;-1.868799376
17.11180954;14.16040772;27.12801273;31.34749788;4.163431771;0.514763435;5.649894178;5.603579874;19.59297087;14.13736999;58.10895334;27.42150816;1.551539945;-0.437250845;29.0690559;18.21252021;-7.955563582;20.34796818;-0.169045715
9.403115323;14.88140262;21.09815942;10.68357044;5.424686423;1.762119711;3.127652987;7.393796576;18.08285877;12.12202846;54.57351261;25.382448;5.66;0.981282519;29.91099091;13.94845074;-5.966654636;13.62422244;1.84763231
-2.576536892;14.50737131;7.853757235;-5.622051672;3.223009894;1.63539707;-2.80795375;6.656831635;14.04196868;3.418049017;44.29785778;19.44240028;9.944710909;1.602266867;21.4343218;9.175889046;-4.764086954;6.767924218;2.254139001
-11.02138167;11.8708779;0.530572352;-9.824867791;-0.237875949;0.275737858;-3.779633649;4.609538017;8.893728914;-5.059702284;34.80946222;10.05329531;12.09556914;0.323573974;5.762616185;5.547863569;-5.910563336;3.800739167;0.743389266
-12.10243652;8.506137282;6.35886675;-3.519897729;-1.906872576;-1.085095545;2.163243162;3.4159317;3.85499437;-7.259790187;31.69730364;0.015103097;11.88481753;-2.299613968;-10.39103855;4.60405649;-8.777506397;6.125490488;-1.171736554
-8.165403041;6.910419169;20.80765443;4.082867715;-0.453377477;-1.288875255;9.852692693;4.155279907;-0.338821361;-3.085454283;34.07089802;-7.138972265;10.58280412;-4.753811569;-20.37483509;6.443476879;-11.25591959;11.497936;-1.628760305
-4.749505835;8.019221887;31.32852633;4.3944534;2.913180879;-0.281844045;12.8340518;5.920339963;-3.063554413;2.346926402;36.24165556;-9.330709034;9.371843913;-5.987482568;-21.75572044;9.263956962;-11.70359405;15.74073346;-0.182708741
-5.493687267;10.32634247;27.47743729;-2.98450101;5.84748385;0.905679617;9.758946277;6.729691822;-3.500695226;3.97226234;33.77253572;-7.088548934;8.363122086;-6.193997595;-17.06098655;10.45234884;-10.31750776;15.885064;1.746355613
-9.40400215;11.41717023;9.184940262;-10.09619949;6.984566216;1.153850373;5.315880949;5.303819949;-1.040541581;1.336317904;28.0747966;-2.937049123;6.968748369;-6.334273247;-11.09852151;8.580058594;-8.741213785;12.34604528;2.152954845
-12.46910092;10.36224523;-13.24425764;-8.102313871;6.811309606;0.271428521;5.181267537;2.091230949;3.787248479;-1.636701966;25.17530735;0.352359959;4.979953684;-7.000228817;-7.404482656;4.702950652;-8.370907124;8.509407131;0.303098038
-11.69970593;8.605349404;-26.97743462;4.186867407;6.696993635;-0.883534478;10.21603482;-1.257971201;8.812631469;-1.004407071;29.73351475;1.313020795;3.106849864;-7.774989949;-6.566072579;1.742479806;-8.983405346;8.088855996;-2.499719279
-7.799542008;8.426166823;-25.8319737;18.39178621;7.258473865;-1.240938786;15.7063327;-3.33167605;10.99848106;3.145203071;39.84967138;0.182914275;2.413503695;-7.676673074;-7.163927655;2.259073901;-8.953858313;12.26926172;-3.94338389
-4.258199598;10.41568815;-13.75374387;23.17742943;7.745883628;-0.50249908;16.39634593;-3.938646557;8.295282211;6.817262905;47.62734277;-1.799006566;3.265035105;-6.192200206;-7.832442124;6.354389152;-6.837269387;18.75894824;-2.656476433
-4.003256877;12.46167618;-0.589804856;13.80398886;6.991707305;0.63076651;12.26199006;-3.843740726;1.292844962;6.135460757;45.35762797;-3.413338022;4.901392729;-3.861011493;-8.366773568;11.47896621;-2.839520336;23.4229558;0.600165634
-6.794841619;11.45140242;5.759865884;-3.650211592;4.855443056;1.155317924;9.036500836;-3.713179501;-6.730078125;1.317015646;32.14250348;-4.040989289;6.108735224;-1.840774812;-9.146608443;14.42474887;1.182067582;23.28358284;3.521307973
-9.622437965;6.361027653;4.483895879;-17.09303672;2.598723981;0.700046387;12.46607274;-3.431522645;-11.65829066;-3.211876666;15.2518738;-3.625421943;6.346672414;-0.883529776;-9.919287455;13.94418096;3.209290889;18.72196616;4.123198645
-9.534494229;-0.082255536;0.89453536;-18.15651648;1.708290012;-0.173492593;21.55039534;-2.478076059;-11.11494604;-2.690791065;4.947487166;-2.34870021;6.217326816;-0.706464833;-9.487260682;11.82202233;2.729291876;13.31723358;2.319470998
-6.236170773;-2.965823912;1.09871487;-8.582818724;2.279374396;-0.554420397;27.58458884;-0.911745454;-5.943737755;3.680009766;6.99041551;-0.401934211;6.793846719;-0.345156964;-6.727635811;11.42279946;1.117773063;11.42601193;-0.079019473
-2.20532267;0.968741574;7.059965513;2.001641418;2.614623177;-0.06861638;20.86566548;0.155104305;0.448146684;11.9305601;18.84466866;2.061268784;8.444724514;0.867580387;-1.86288144;14.81183398;0.426393594;15.15599823;-0.881556672
-0.427065951;10.301763;15.65380846;4.684872214;0.615860734;0.775418061;-0.256494196;-0.753076943;4.35895062;16.68624469;32.29774335;4.927035588;10.30616494;2.638211257;3.448763967;20.78777292;1.651227371;22.79294192;0.743828859
-1.906836709;19.40773727;21.61;-1.362709462;-4.173062354;1.094275994;-26.10256008;-4.13323213;4.023291615;15.6604078;39.86723653;8.157794206;10.95701395;3.984645527;7.464115631;25.50721583;3.968623815;29.77118622;3.712383557
-5.109592795;22.36066475;21.3592771;-8.978607314;-9.75389946;0.495610835;-41.80028075;-8.766003377;0.333156541;11.34439278;39.59226863;11.75593359;9.699071135;4.162163046;9.879854143;25.32248912;5.5345955;31.59377246;6.001120202
-7.586302484;17.36212627;14.85906154;-10.06281038;-12.98565638;-0.522891913;-38.36641246;-12.40822001;-4.185161218;8.588445691;34.77135552;15.54377605;7.239353081;3.344191804;11.93629241;19.65312597;5.082211603;26.80277749;6.260983991
-8.122057512;8.216990169;4.762320401;-3.064451463;-12.03801556;-1.020639985;-19.65829106;-13.47881122;-7.137852703;10.38882672;29.83539232;18.894305;5.103552592;2.409351516;14.80629411;11.63266694;2.918968157;18.01880187;4.737568912
-7.477516176;1.622809028;-5.582341338;5.733715962;-7.924339423;-0.491045452;0.727726021;-12.34241939;-7.483856887;15.5705759;26.6050789;20.76016313;4.298126041;2.055495659;17.73447903;5.982011168;0.529342562;10.29088762;2.862454979
-7.267188827;2.295547346;-13.54772807;8.049080765;-3.768342368;0.650009766;10.1432435;-11.0414789;-5.628558943;20.13654854;24.14238787;20.20424527;4.465802363;2.114746466;17.89095977;5.690874417;-0.76705676;7.773291733;2.00553503
-8.239475166;9.61;-17.57832956;1.149481525;-2.372665268;1.422467911;6.291605558;-11.61379944;-2.758046513;20.78033315;21.57537319;17.16062765;4.343132145;1.753476661;12.50660941;9.965695237;-0.880393309;10.92270858;2.478755904
-9.621170571;18.20124733;-17.14812823;-9.626424935;-4.098850275;1.162891704;-2.332979989;-14.35401079;-0.149732038;17.40692613;20.40535376;12.7816145;3.1105587;0.383065246;1.696986951;14.88803271;-0.855180237;16.1570616;3.522963372
-10.02822505;21.90853469;-12.93138482;-15.48981701;-6.781914176;0.12262058;-4.884935153;-17.46398735;1.163067507;12.74377737;23.54530934;8.899361789;1.354027805;-1.603896605;-10.57227706;16.18223905;-1.806027729;18.30988045;4.107574913
-8.928894687;18.00791527;-6.911595213;-11.74728223;-7.657660666;-0.76193821;2.169436495;-18.40082952;0.536868614;9.841648331;31.84254883;6.826515704;0.666313012;-3.032918322;-18.64281037;12.02029718;-3.898171394;14.27651615;3.748514787
-7.203482391;8.707522042;-1.735538997;-1.652332226;-5.611099437;-0.715571145;12.59567608;-15.83915666;-2.045269105;9.88703143;41.65719039;6.37770124;2.159720081;-2.974869237;-19.11225591;3.949672173;-6.256742529;5.329457487;2.686898818
-6.302584113;-0.843911814;0.71081357;6.588698377;-1.887484618;0.182352925;16.95958127;-10.69129392;-5.727543562;11.99592336;46.42;5.974861621;5.215585005;-1.680631829;-13.52223186;-4.450823192;-7.794688824;-3.588548229;1.440087891
-6.868711755;-6.199390964;0.493406464;6.761700572;1.17995742;1.081125518;11.9503688;-5.44050776;-8.937348133;14.58069897;41.47356498;3.899807212;7.675302659;-0.517914296;-7.470458463;-9.966087704;-8.13940591;-7.191996785;0.27799905
-8.152635065;-6.162096246;-0.558712808;-0.573536451;2.173403427;1.134111815;3.802274353;-2.410141477;-10.1644123;16.61734291;28.23487114;-0.217153174;7.444852304;-0.871879193;-6.579721574;-11.44764503;-7.825145629;-3.503744584;-0.870152864
-8.744623113;-2.726009813;-0.436145782;-9.314865227;1.566767084;0.260226971;2.557344276;-2.358558233;-8.968226216;17.75795523;13.89988727;-4.888351373;4.215796079;-2.923092348;-12.31904285;-9.872864463;-7.653000901;4.757823726;-2.083395788
-7.88596319;0.982720736;1.425181324;-13.46652017;0.963003932;-0.790012207;12.26174533;-4.375614965;-6.405624866;17.79083448;6.54288445;-7.750550002;-0.16417741;-5.383487659;-20.9111203;-7.123931476;-7.885859725;12.04954392;-3.132218962
-6.124595056;2.892597383;3.980220611;-11.95408296;1.460009766;-1.109030356;26.0368404;-6.912257465;-4.385510479;16.62488855;9.402805714;-7.350648999;-3.032530728;-6.473656328;-26.20268267;-4.637397731;-8.045243013;13.78041554;-3.568200245
-4.753129625;2.81853419;5.999816187;-8.579240368;2.698900968;-0.429844291;30.85007813;-8.924250597;-4.335960175;15.03780674;18.91225215;-4.34316407;-2.893642462;-5.349200126;-24.28518307;-2.86503009;-7.462710208;9.284487807;-3.159085554
-4.619606405;1.839647182;7.573642827;-7.753528695;3.393042877;0.663737819;18.30857311;-10.22746036;-6.231260035;15.02253438;27.90881556;-1.117450474;-0.446834066;-2.778239143;-16.31386379;-1.647991589;-6.018211149;1.929951216;-2.223527693
-5.431862255;1.185476327;9.975261492;-10.33883922;2.713457223;1.280123457;-7.634043211;-11.01832991;-8.798764781;18.48636693;31.18090439;-0.103431373;2.109574589;-0.501611866;-7.443100151;-0.906098785;-4.344253084;-3.541635167;-1.48619149
-6.136861961;1.565009249;13.78701723;-13.38477246;1.148240504;1.005885383;-32.75439126;-11.26214398;-10.72628621;24.74876544;28.74755235;-2.060029297;2.83188232;0.173018167;-2.857227063;-0.974615006;-3.305403972;-4.350676408;-1.527579439
-5.927209838;3.094350821;17.14498408;-13.58618132;0.021761835;0.227841996;-42.92762782;-10.63391;-11.79416621;29.15986209;24.48448248;-5.660103913;1.367826264;-0.644849608;-4.061014397;-2.377000731;-3.255530137;-1.253352281;-2.304837053
-4.90501113;5.383385495;16.25450678;-10.781507;0.169001611;-0.272053206;-34.38090386;-9.018494446;-12.90928643;25.04505936;21.82640484;-8.63962195;-1.124463414;-1.664823506;-8.212967345;-5.319486199;-3.776111643;2.582542018;-3.181456297
-3.862364968;7.479253321;8.377633423;-8.019595476;1.066261148;-0.049387644;-15.65613973;-6.951880358;-15.02271129;8.581778555;20.64064512;-9.539611207;-3.203010994;-1.610813938;-10.76143342;-9.34530405;-4.132070748;4.251469703;-3.454360557
-3.524463764;7.915465678;-5.055081667;-8.255470971;1.279657197;0.619561273;-0.132005275;-5.428705807;-17.96639982;-16.83443291;17.99160983;-8.647073436;-4.316180651;-0.313268179;-9.084905218;-13.38412406;-3.998740965;3.158382064;-2.921441164
-4.05077602;5.314391808;-18.22925097;-11.08499356;-0.161375374;1.036264021;4.341562894;-5.151777864;-20.3505056;-40.74108623;11.79010505;-7.453287339;-4.925779952;1.225129676;-4.258354967;-16.13997322;-3.760058594;1.00088721;-2.001195619
-5.202081963;-0.518285938;-24.48526702;-12.86917776;-2.746907698;0.758482439;0.24213724;-5.903582285;-20.67932891;-51.28188747;3.68;-7.174166046;-5.642633136;1.790489069;0.22116299;-16.60950277;-4.088865638;0.001414508;-1.323953879
-6.819043073;-7.815290498;-21.13951539;-10.23928701;-4.802750459;0.020299937;-3.646357719;-6.672450448;-18.66767534;-42.9350072;-1.691139948;-7.602620758;-6.348346927;1.064098872;1.44518582;-14.52745297;-5.207262327;0.997780829;-1.18418017
-8.944311577;-13.32551493;-11.61435715;-3.59521767;-4.901900177;-0.488217305;-0.795927889;-6.491184378;-15.49930257;-20.63374719;-0.455053703;-7.227440094;-6.213668523;-0.089326896;-0.6794216;-10.58;-6.543682609;2.865707519;-1.348603445
-11.38524911;-14.14917883;-2.835404317;2.896708436;-3.124516218;-0.264768991;7.620305601;-5.274193345;-12.74836471;3.131225603;7.06682567;-4.487321409;-4.59519952;-0.364397966;-3.624381091;-6.254651649;-7.149685244;3.48520265;-1.369699587
-13.25336496;-9.817396023;0.197755714;4.983186179;-1.039226045;0.53942471;14.71250756;-3.909664959;-10.99351948;16.42647133;16.44674658;0.869724122;-1.902321656;0.893131892;-4.417500646;-3.279484666;-6.533020322;1.257856818;-1.08443957
-13.20389683;-3.004230728;-1.804031878;2.264328761;-0.413384131;1.2575393;14.84859174;-3.518428991;-9.519141344;15.35515;22.68376661;7.38388457;0.480875252;3.187551731;-1.87571846;-2.81638845;-5.152162874;-3.99717734;-0.815761439
-10.44945844;1.92355982;-3.527815515;-1.419788862;-1.779870129;1.312980498;9.036877045;-4.532825161;-7.479386873;5.514744692;24.03370636;12.71392507;1.252949813;5.347350281;2.82083543;-4.811487695;-4.088250824;-11.14698915;-1.080595292
-5.731838497;1.694974731;-0.150677832;-1.693066052;-4.091290701;0.732517885;3.979780377;-6.395167757;-5.392300412;-3.270806906;22.77408169;15.05541601;0.322995583;6.50289945;7.385818277;-7.945611178;-4.134107981;-18.35652913;-2.072924269
-1.234067039;-3.698831524;8.031189903;1.957108094;-5.708067142;0.102656575;5.892717295;-8.096425725;-5.302020939;-4.527197063;22.40529779;14.15435951;-1.020690484;6.712100209;10.2252367;-10.32169832;-5.075286381;-23.58088876;-3.405350005
0.770095215;-11.08182191;15.60970205;5.32770311;-5.798442973;0.022778132;14.70182308;-9.01410374;-9.057842869;0.851120704;24.07457237;11.3216573;-1.104579286;6.754157613;11.28174211;-10.52790822;-5.803168266;-24.87163765;-4.364070068
-0.432727459;-16.39720061;16.86289712;3.272083594;-4.918952316;0.564888378;23.64270365;-9.271609983;-16.02927448;6.761685628;25.67351815;8.580754873;0.797895938;7.363955374;11.47120218;-8.404408927;-5.201419897;-20.91309776;-4.470818496
-3.425127637;-17.53842543;11.16484074;-5.177500524;-4.336212901;1.229983882;24.45068982;-9.340078125;-22.46742169;7.779275063;24.46856657;7.562337686;3.919930009;8.623618529;11.50370439;-5.01268277;-3.084778404;-11.95749841;-3.868189
-5.737947371;-15.61163389;4.053819634;-15.10376311;-4.793608834;1.424909695;13.69470189;-9.353505954;-23.61187175;3.615071708;20.66241721;8.743056963;6.671355852;10.00422492;11.24870091;-1.87250614;-0.411887187;-0.552535506;-3.196590588
-5.74824016;-13.7479034;2.655081163;-19.30096117;-5.880428506;1.007932247;-4.75177353;-8.884488442;-17.27976313;-1.298190774;18.20853935;11.29256557;7.903120284;10.91998213;10.10468258;-0.053364987;1.411606141;8.945068675;-3.070437673
-3.825411246;-14.45371562;9.180759765;-14.29476463;-6.545008413;0.401223258;-22.5430519;-7.455665821;-6.083840916;-2.19029375;21.63488119;13.48273164;7.676915701;11.22165378;7.833267663;0.247349772;1.582828188;12.41823594;-3.597172406
-1.784105145;-17.55835282;18.22003906;-3.556984428;-6.207750825;0.179571195;-32.20054814;-5.283180541;3.830444748;1.788153564;31.46148841;13.47599142;6.961841056;11.19094444;4.957882051;-0.529779333;0.476347225;8.576875686;-4.328343426
-1.182399003;-20.29181681;20.56990619;5.031442314;-5.383141913;0.529170792;-30.84211255;-3.428845868;6.942196939;7.018976274;42.49425552;10.24624476;6.667053525;11.12538566;2.365289809;-1.809293684;-0.680439983;0.188720601;-4.651768723
-2.013497782;-19.37101715;10.80612505;5.439673096;-5.201202864;1.081559508;-20.36877778;-3.032237088;2.33487363;8.73149883;47.09606902;4.273558158;6.964487254;10.99401395;0.584090674;-3.11833533;-0.734554682;-7.308681386;-4.270958366
-2.949675968;-13.49162349;-7.615683247;-1.830457214;-6.265163959;1.270790937;-5.332907928;-4.191497186;-5.673406788;5.117120189;41.19547101;-2.423019739;7.479607388;10.53144877;-0.487215077;-3.908388252;0.601157747;-9.184375136;-3.380078125
-2.84599558;-4.411254491;-24.17996721;-10.57436822;-7.920880118;0.874053034;9.105784042;-5.524414466;-10.87107788;-1.165779803;28.08589024;-7.160350734;8.025626426;9.657971622;-1.138357888;-3.341554306;2.663314681;-4.465545219;-2.436243616
-2.026082167;4.072365856;-28.89910113;-14.35866934;-8.658031546;0.229156162;18.1076196;-4.974023467;-9.890119489;-5.040320917;16.5441009;-8.088800571;9.013186433;8.755765594;-1.211570636;-0.547899139;4.438553658;3.619241445;-1.775535798
-2.064550864;8.428213484;-19.72152145;-11.77996664;-7.340353717;-0.073802572;17.8608547;-1.362665974;-4.579992859;-2.680117619;14.41537794;-5.457276765;11.01703444;8.458407325;-0.048659171;4.602857817;5.317778704;10.1787961;-1.41442823
-4.203733424;7.37789758;-3.863250563;-6.987779589;-4.202116384;0.259562493;7.14769436;4.538177149;-0.150929155;6.016748797;22.70671556;-1.696699419;13.89146205;9.104035444;2.76725744;10.8258807;5.433231449;12.22368825;-1.167034898
-7.889784689;2.365224444;7.942628626;-5.259945789;-0.734893326;0.947849713;-10.86358737;10.37191844;-0.673353067;17.5141583;34.99331783;-0.020868975;16.40015731;10.37654658;6.534026194;15.63925595;5.409114842;10.485648;-0.910339452
-10.90302395;-3.537589717;9.605270961;-7.815257342;1.450371383;1.381715911;-28.7240036;13.81052716;-5.672017937;26.56781307;42.63347109;-2.298525668;16.95015668;11.52831407;9.391905785;16.68724052;5.823240361;8.170078125;-0.719427913
-11.13300099;-7.360870735;3.775697765;-10.62030204;1.824291455;1.174146236;-38.02605612;14.18145793;-10.59560106;28.44103223;41.48192545;-7.627491801;14.97373479;12.03732098;9.468358172;13.41670227;6.834281582;7.868271576;-0.754497676
-8.480390113;-7.510292345;-1.116839729;-8.245826944;1.213514391;0.51114513;-34.44876605;12.81114665;-10.67928273;20.53606676;34.58488075;-12.71515036;11.74711522;12.10426894;6.456157127;7.836156305;8.205479373;9.354849359;-1.038499921
-5.12185523;-4.056309979;1.840487756;0.777113229;0.977796573;-0.015459434;-20.82898761;11.81044091;-4.901845218;3.504326997;28.80542059;-13.94899091;9.742567626;12.48598083;2.294860171;3.56621819;9.596993865;10.14950661;-1.368898588
-3.757238969;1.751421982;12.41644435;12.02587333;1.84246742;0.060775234;-5.432999841;12.29783996;3.265079504;-18.15177984;28.53117594;-9.787441051;10.81862281;13.74764277;0.168055375;3.61657958;10.81924752;8.241384137;-1.467664915
-5.282630144;8.191381098;23.56490215;18.54968776;3.36982275;0.667514837;3.722500792;13.51265963;8.845313508;-36.76015146;32.07549046;-1.793971879;14.6437827;15.58149539;2.348670475;8.369624199;11.85106162;4.421643724;-1.233463068
-7.945426562;13.60706574;27.00987332;16.67502498;4.437187963;1.267605353;4.239242626;13.52618325;9.456335507;-44.31183894;33.93094944;6.423516473;18.71978183;16.85142046;8.455886621;15.23986754;12.67982886;1.981934098;-0.852314317
-8.817607598;16.74143272;19.36478293;9.216193273;4.216813294;1.345391933;0.161888699;10.93838553;7.033266874;-36.83763628;30.74681232;11.59260226;20.14437612;16.4272347;15.52266619;20.33246432;13.17367378;3.889040078;-0.649669295
-6.389893799;17.01220949;4.151807238;3.306554177;2.793449352;0.861350391;-2.2551663;6.154806024;5.819021022;-17.67418478;25.3928922;12.76139963;17.8081174;14.1674639;19.95492236;20.9769854;13.13224842;9.889541129;-0.807230301
-2.037783215;14.74513859;-11.20175124;4.708727518;0.970560662;0.26956473;-0.065555377;1.2191755;8.487183746;3.430699106;24.9349102;11.52970074;13.2832306;11.21930596;20;17.37356626;12.47305658;16.22597653;-1.197165071
0.981314783;11.16385888;-20.37848316;13.40341329;-0.435145315;0.095494318;4.374433003;-1.616758224;13.80658686;15.9537068;33.71698276;10.52419253;9.656141294;9.325053795;16.90879287;12.25539561;11.37869318;18.4634571;-1.485438203
0.215489272;7.92550393;-21.23803852;24.00590988;-1.124367372;0.466461105;6.505830615;-1.402131842;17.83222989;15.65791363;47.47;11.404164;9.197191229;9.634108501;13.94742939;8.926304127;10.26392066;15.17449136;-1.417812625
-3.889722047;6.284677131;-15.35409756;30.3575698;-1.263700862;1.017557935;4.663227255;1.08909879;17.51030244;7.760407839;54.20392128;13.91614302;11.70178801;11.93471888;14.04738537;9.155491046;9.571309131;9.329547931;-1.041430965
-8.309105993;6.349790543;-5.620743191;30.23007813;-1.056632628;1.243297849;2.196846976;4.213576305;13.51904401;3.093358962;42.35698808;16.57036988;14.79195559;14.88393101;17.88305801;12.37622205;9.533537646;6.069363306;-0.67175698
-9.92540954;7.009137464;5.368093409;26.33294837;-0.472893791;0.959925703;4.365240194;6.738798112;9.884049319;9.455879257;10.43234736;18.20066533;15.88324946;17.01039307;23.76068891;16.54611742;10.05330115;8.600512928;-0.63309598
-8.078176596;6.755956612;15.0890294;23.26345547;0.574729887;0.454523402;12.67450285;8.453938973;10.71907929;24.63220441;-29.6211898;19.04749493;14.20510356;17.66958219;29.23091338;19.79161566;10.76074904;15.62806091;-0.987760386
-5.009693402;4.996820271;20.33549255;23.477787;1.854903421;0.197074501;22;9.731149203;16.88019537;36.94436323;-58.76359498;20.51273615;11.28110804;17.23245705;32.99951629;21.52733013;11.19834348;22.51659165;-1.469455395
-3.854559761;2.938047985;17.92;25.81831015;2.752667169;0.396195687;23.65641673;10.63602704;25.30803067;33.62975618;-63.03621032;23.88124982;9.575058123;16.47174044;35.57343913;22.35169826;11.0265341;25.22584119;-1.663887846
-5.923665717;3.241019133;7.072433587;27.47164274;2.723813098;0.815008794;12.34510308;10.54561242;31.47037109;10.98206099;-42.89253084;29.11990207;10.48340906;15.77138614;38.21997315;23.07358486;10.15363233;23.66922763;-1.288913229
-9.610115982;8.38433082;-8.548071479;27.08218876;1.903896102;1.011931061;-8.775706865;8.681771048;32.72011329;-21.68461299;-12.80399435;34.72158011;13.29813118;14.86471057;41.27065062;23.83744238;8.741098965;21.58649224;-0.369636554
-11.81329484;18.64257819;-21.72883668;25.96555614;1.242717594;0.77188389;-29.4156748;5.046863051;29.78128205;-47.72209962;8.661973567;38.65834236;15.87271533;13.27046542;43.35605987;24.05975942;7.092933725;22.99372863;0.795242341
-10.60358501;31.09632959;-25.76494342;26.45723573;1.890451073;0.318358156;-39.15017515;0.81971711;25.37697687;-54.47567657;11.10755577;39.64071561;16.31023801;10.94579057;42.3513928;23.09368385;5.491193294;28.26906422;1.824223579
-6.822812095;40.64338991;-19.01826323;29.24303991;4.251590349;0.105416102;-34.61343473;-2.266996188;21.52715977;-41.73586235;-1.825331018;37.74090054;14.25021385;8.493036772;37.31308013;20.93169698;4.072214925;33.36007813;2.462740482
-3.293966524;42.72803401;-6.304896201;32.38322412;7.508771233;0.383937029;-21.24255552;-3.112615653;18.04525317;-20.99855547;-16.74430104;34.05389926;10.81675206;6.692549244;29.74894447;18.31912939;2.822130253;33.01370582;2.695807097
-2.40206858;36.22324287;4.37467641;32.97207137;10.09943232;0.949968275;-8.475555692;-1.992924804;13.46246706;-6.416883704;-21.14814252;29.84808173;7.493324905;5.779729236;23.00067937;16.24023523;1.693999831;25.4605379;2.726679602
-4.172161628;24.53661864;7.539022532;29.78796918;10.83563075;1.316648666;-2.619130551;-0.209083237;7.288969431;-4.70595004;-12.24628313;25.93945402;5.031786712;5.151948132;20.02099635;15.27833057;0.75182315;14.57826914;2.850288749
-6.455646809;13.97819246;4.018802443;24.38525145;9.77540557;1.158487959;-3.160439428;1.059310893;1.311817058;-11.69516506;2.256617046;22.65444942;3.299667843;3.831655489;21.1978917;15.38079623;0.209027404;7.479711098;3.280243209
-6.952462948;10.20434459;-0.138549428;19.65227176;8.115306651;0.620519388;-4.961848679;1.689664737;-1.418828318;-17.53062163;11.17782125;20.1459196;1.994910046;1.338896118;23.97895677;16.12206485;0.303754756;9.208804025;4.003413237
-5.225746985;14.93457046;1.208160873;17.31125744;7.171301166;0.202514338;-3.67527676;2.514609432;0.917949015;-15.55578708;8.668416939;18.56640376;1.348004146;-1.765846181;24.73264388;17.10855097;1.098699462;18.7066771;4.745099587
-2.959754456;25.0781124;9.196233149;16.77528827;7.278599425;0.314362383;0.659843664;4.284039631;7.173923262;-7.379862748;-1.971566159;17.87709103;2.020029297;-4.165591436;21.54080948;18.12284749;2.385383342;29.34264386;5.100116683
-2.325132503;34.83514253;18.87949693;16.33869762;7.515142324;0.901003914;4.660994551;6.648309913;13.83389139;-0.405670231;-11.85263068;17.55513623;4.268548319;-4.715106063;15.81431608;18.95553473;3.808968828;33.7342987;4.793277787
-3.981840755;39.31403241;22.92904104;15.31913129;6.471409395;1.477611933;5.629982938;8.135919301;17.4810803;-0.65507905;-13.97954906;16.64953639;7.251259489;-3.289091277;11.4291184;19.23554066;5.138216277;29.17125998;3.915819336
-6.509256103;37.20161426;17.13797538;14.83441944;3.429630123;1.54894996;4.345350269;7.23757469;17.03450503;-7.446491795;-8.536744401;14.32746366;9.29544556;-0.879773381;11.92122821;18.56980413;6.447151724;19.45671176;2.946291528
-7.728992946;30.80094805;3.495247474;16.32234158;-1.000652198;1.042142119;3.978773705;3.712001104;13.94016671;-14.38574865;-2.104994792;10.5413811;9.085877667;1.125064463;17.76542496;16.94170715;8.012848401;11.78901099;2.482554848
-6.695738995;23.73347467;-11.31723869;19.30293229;-5.271528581;0.369895267;6.487635068;-1.023005003;10.35993071;-15.36012506;-1.945553725;6.235568895;6.806898297;1.907509836;25.75430086;14.96654832;9.971005046;11.17024919;2.834339131
-4.570778806;18.26989676;-20.55978934;20.85071303;-7.954574497;0.070959437;10.33327844;-4.813783075;7.140511984;-9.945348737;-10.15567305;2.834704136;4.180515778;1.690292509;30.98081289;13.63853479;12.01788016;16.68969103;3.777929665
-3.617093167;14.32506061;-21.57444905;17.72718372;-8.617429881;0.348655937;11.99438566;-6.298916442;3.410176859;-3.471416383;-22.15283412;1.354839848;3.219766847;1.405307369;30.038625;13.6383903;13.46809316;22.47323353;4.695870029
-5.217597191;10.61972332;-16.5843903;9.479416097;-7.894312823;0.912555306;9.861843648;-5.805271028;-1.953938051;-1.953267852;-30.25653099;1.817654111;4.635539425;1.894719145;23.19491834;14.7199685;13.70910333;22.42305459;5.033646989
-8.649070028;6.670212514;-10.13943823;-0.412362608;-6.823425053;1.252441911;6.517437698;-4.89329626;-8.50800502;-6.631729085;-29.26726567;3.413039566;7.210620603;3.302772096;14.07361943;15.72614475;12.7323957;15.00552731;4.724289147
-11.65084958;3.656379046;-5.643835773;-6.739600053;-6.076315796;1.089855273;6.721192188;-4.964794681;-13.90255868;-13.01017517;-19.83331748;5.231604269;8.713892296;5.087060041;7.189979056;15.32216889;11.28468226;4.453983178;4.217378336
-12.26474916;3.336105951;-3.631815521;-6.517462072;-5.675946186;0.604323109;12.55396342;-6.127630882;-15.45923211;-15.07255789;-7.527442149;6.916157434;7.659490145;6.533748501;5.144577832;12.94651255;10.43065416;-2.385777901;4.056713514
-10.36829077;6.034671323;-2.615519227;-1.329425611;-5.292461385;0.244707169;20.21931392;-7.273482629;-12.31412829;-10.72151396;1.112985548;8.67514043;4.48814338;7.279409391;7.371754856;9.265128815;10.78948221;-1.046434707;4.34875667
-7.653366051;9.689839813;-1.186527937;4.065617579;-4.714668956;0.311147781;21.96660948;-7.269453308;-6.238501496;-3.527722195;2.448052912;10.68410018;1.196410914;7.421474857;11.07760342;5.770605874;12.01910585;7.467744409;4.602650452
-6.16322956;11.08711972;0.64710297;5.766941849;-4.039708733;0.690849238;12.15068843;-6.195446416;-0.422095664;0.651556971;-2.935334728;12.46621699;-0.288204242;7.221205609;13.42058986;3.811264936;12.98826172;17.58761714;4.140898869
-6.681258766;8.452895469;1.84755058;3.942935448;-3.484582309;0.979808098;-7.484136178;-5.507972929;2.707409416;-1.013889597;-11.60166859;12.89150949;0.350419636;6.765007782;13.2639985;3.749025676;12.56431002;23.14349581;2.779044435
-8.285227066;3.202945709;1.76220392;2.422992737;-3.109140645;0.867885544;-27.9773448;-6.92579528;2.785043889;-5.908889992;-19.7102707;10.91105385;1.625115475;5.935205239;11.3980883;4.813064429;10.45097421;21.35848528;1.17990609
-9.31213821;-0.845807495;1.083377698;5.043982197;-2.782632664;0.430221968;-39.06769373;-10.9373879;0.990530217;-8.527776736;-24.7397652;6.485343744;1.54613972;4.692442046;9.412093282;5.676637145;7.442663589;14.14867285;0.495329398
-8.804700468;-0.412940998;1.460168185;11.98978849;-2.421856028;0.061176789;-36.30778943;-16.18545245;-1.540562155;-5.547706532;-25.8799357;0.934290439;-0.686845072;3.33429295;8.336318545;5.285926577;4.896127818;6.220696978;1.492444846
-7.218039763;4.470029297;4.132211573;19.35418353;-2.213780903;0.115515027;-23.77645632;-20.28467506;-4.743113375;1.226835415;-23.64016652;-3.661336312;-4.023331493;2.394234802;8.105700343;3.38102616;3.818568391;1.736675375;3.846580027
-5.906998263;10.22346306;8.748283192;22.28124379;-2.536657638;0.584355081;-10.43384119;-21.4596727;-9.155988312;6.637764347;-19.42427542;-5.655848587;-6.481248974;2.19134606;8.025373261;0.469036771;4.253852328;2.002434069;6.228597727
-5.960078125;12.41647425;13.29580884;18.88187317;-3.608691266;1.096255447;-3.351281352;-19.72551926;-14.59731398;6.914171531;-15.22457503;-4.813124;-6.862941776;2.417690199;7.569487194;-2.582208337;5.390495468;5.46770815;7.209646134
-7.393921355;9.334440478;15.16598572;11.51898466;-5.200165753;1.237761816;-3.329444445;-16.71719536;-19.50816565;2.987675871;-13.08543063;-2.389061793;-5.805058924;2.197617733;6.718653768;-4.989517968;6.236748135;9.458990089;6.320721205
-9.28175261;3.496617261;12.61595399;4.501197464;-6.72410646;0.904483656;-5.98582623;-14.371667;-21.83517794;-0.595527507;-14.18820456;-0.287880456;-5.24848399;0.692331578;5.643194962;-6.321418814;6.288654399;11.99685756;4.419688112
-10.55555605;-0.241861337;5.762484413;0.457007067;-7.673682014;0.375538281;-6.588110986;-13.55946743;-20.74413267;-0.04387606;-18.04638353;0.109414235;-6.739772083;-2.161283444;4.234054278;-6.58209889;5.689537871;12.43453581;3.031533796
-10.74267973;1.401413116;-3.357547731;-1.276046608;-8.029100963;0.058455326;-4.019524224;-13.72858985;-17.50243794;4.146814303;-22.57491493;-1.328118944;-9.976998195;-5.380506731;2.104878403;-6.18590248;4.853614518;10.91957979;3.152532439
-10.10709061;7.340147509;-11.61874991;-2.949446639;-8.253408767;0.142413113;-0.649424395;-13.72898402;-14.53071845;7.779023805;-25.26543697;-3.60853396;-12.85274344;-7.442753566;-0.855059099;-5.822261797;3.977093658;7.649749476;4.469763026
-9.250628453;12.76064886;-16.15473773;-5.286663419;-8.857757573;0.465245601;1.028239956;-13.00705099;-13.35447121;7.079315691;-24.76574466;-5.418417936;-13.0423348;-7.293299037;-3.956653378;-6.157557635;2.902520866;2.811081411;5.639271976
-8.621609354;12.80024692;-15.67226838;-6.193369953;-9.915083404;0.693956889;1.243630427;-12.11142456;-13.35470435;2.473794769;-21.71265979;-6.02621454;-9.912805671;-5.160097656;-5.895832044;-7.429184301;1.42490145;-2.821212878;5.414133426
-8.296121724;6.406915104;-11.11048169;-2.750214968;-10.96227572;0.635847949;2.442584692;-12.10714714;-12.62406102;-1.584197964;-18.19297616;-5.736221842;-5.224277757;-2.56322681;-5.710308903;-9.181896353;-0.307566277;-7.453723916;3.709553791
-8.048189276;-2.660506569;-5.165290165;5.316569144;-11.38712662;0.394205435;6.180478944;-13.46479198;-10.29884921;-0.687486745;-16.29358017;-5.681408261;-2.015258239;-1.452191454;-3.76833444;-10.43830522;-1.73650349;-8.806800257;1.72698737
-7.509416127;-8.488764856;-0.720151056;14.1380577;-10.95715693;0.241916921;10.87966667;-15.44225305;-8.200495792;5.256943761;-16.89204541;-7.133258623;-2.477512084;-3.019743397;-1.831093891;-10.33845594;-2.284399758;-5.521349039;1.021012435
-6.299437357;-7.263605343;1.006249953;18.01646145;-10.01674875;0.35042469;13.05418751;-16.54258133;-9.992039287;11.57012553;-19.52653293;-10.72965778;-6.414874649;-6.975688648;-1.898041912;-8.874921232;-1.85215807;1.570632032;2.260834708
-4.185947736;0.124297525;1.318495836;13.8875046;-9.18;0.634607558;11.01701466;-15.70140182;-18.17660101;12.76221753;-23.18543033;-16.02096706;-11.43012969;-11.75045802;-4.60670266;-7.148854109;-0.945908187;9.447894221;4.692938168
-1.324701525;8.985653835;3.048047914;4.085892486;-8.80457795;0.850757989;7.300301435;-13.22755124;-31.33454466;7.473717723;-27.11188365;-21.57013889;-14.66419934;-15.46721905;-8.500128892;-6.829402492;-0.272729655;14.44443268;6.736955071
1.577898359;14.35714115;8.11673445;-5.189192592;-8.725369552;0.840181681;6.90184518;-10.7127488;-44.11630142;-0.057636129;-30.89559944;-25.5942826;-14.76105978;-17.02348143;-10.93861331;-9.085113126;-0.137878323;14.39999551;7.218324073
3.458511367;14.343741;15.36036626;-8.619005715;-8.480019531;0.677724541;12.40991087;-9.962811571;-50.40433494;-3.455342005;-33.99120808;-26.87007813;-12.625883;-16.59488343;-10.1469665;-13.7174636;-0.190866171;9.910703881;6.230039063
3.509123476;10.85903067;20.48233139;-5.751315191;-7.800307319;0.583828434;20.40534078;-11.77927221;-47.42160153;0.346636656;-35.45947939;-25.43867763;-10.51944038;-15.3055266;-6.86847972;-19.15291502;0.215571589;3.754951894;4.942734023
1.833469781;7.543234161;18.64272831;-0.826815802;-6.901405645;0.690614747;22.96274798;-15.50738232;-37.64669071;8.441801162;-34.49190503;-22.66809059;-10.29208802;-14.37435943;-4.229677472;-23.3467674;1.342491903;-1.093834141;4.564395284
-0.4443393;6.785581534;8.129879514;1.348248281;-6.29904092;0.894429037;13.75308;-19.62587789;-27.05;14.459073;-31.36792566;-20.53765135;-12.13170797;-14.3531033;-5.70664575;-24.97596566;2.677741489;-3.389533012;5.346065101
-1.882618644;8.202626306;-7.589071024;-0.207142405;-6.334796197;0.944736729;-6.083455616;-22.83997575;-21.05694104;14.0707139;-27.83689288;-20.49022152;-14.69299728;-14.93613376;-12.57176419;-24.09227835;3.252920478;-4.053283686;6.458129741
-1.806423633;9.484455714;-21.28437605;-1.928123921;-6.870638996;0.691116166;-27.4719646;-24.81299981;-21.3599963;8.654511711;-26.25307486;-22.55104652;-16.35396752;-15.38157853;-22.70818967;-21.84129302;2.466662136;-4.890448827;6.803075057
-0.894351737;8.570443752;-26.24988971;0.681799413;-7.455574004;0.253107282;-39.28155191;-26.05483906;-25.83438933;3.871981591;-27.91104062;-25.33066408;-16.51423107;-15.16530342;-31.7492822;-19.56729733;0.731598066;-6.725640693;6.035513214
-0.678099258;5.258882647;-20.61343982;8.348090115;-7.814626676;-0.057584886;-36.15790907;-27.2067173;-31.14714723;4.4310978;-31.90476753;-26.97529714;-15.92482703;-14.37586811;-35.79690624;-18.03212605;-0.659418961;-8.56643125;4.902426513
-2.252239231;1.114564698;-8.571964441;16.54791533;-8.187013997;-0.003841271;-22.12167171;-28.40586814;-35.51632313;9.729403254;-35.57203656;-26.44385899;-15.88962307;-13.59454384;-33.79373288;-17.26465766;-0.435195786;-8.543445091;4.615176197
-5.237272822;-1.936758574;2.455623467;18.79789328;-9.158932616;0.360782432;-7.12576237;-29.2454836;-39.26134735;14.35495447;-36.30718271;-24.1950821;-17.07957642;-13.39379447;-27.88600847;-16.95327812;1.65619438;-5.840927564;5.797068607
-7.93231519;-2.996467063;6.810753326;12.03855649;-11.10157204;0.728273991;0.50422127;-29.26642309;-43.02291477;13.13073876;-33.33113717;-21.75081822;-18.94481816;-13.84922232;-21.62;-16.85196638;4.565855441;-1.889806285;7.906083115
-8.631938321;-2.531940649;4.178382629;-0.489393989;-13.71260936;0.800226873;-0.384534528;-28.45649682;-45.74466925;6.267177744;-28.00168228;-20.43823467;-20.15710249;-14.42609109;-17.4076489;-16.77540113;6.659480128;0.406665836;9.620782204
-7.051717509;-1.690787275;-0.745745575;-11.41776649;-16.10314877;0.546624414;-4.390780736;-27.27667893;-44.68935559;-0.109018519;-22.49456067;-20.27940162;-19.66515129;-14.31944778;-15.1562096;-16.27699351;6.917916763;-0.983911977;9.863750706
-4.63318335;-1.395458859;-2.142583288;-14.72783056;-17.40452922;0.227075358;-5.166544089;-26.20609105;-37.76059249;1.104796762;-18.09568753;-19.93699654;-17.49267527;-13.00708187;-12.96564125;-14.51292054;5.7;-5.168430794;8.616527589
-3.403448201;-1.930818489;2.423040845;-10.00439106;-17.40262828;0.154277921;-0.835763602;-25.25560366;-26.06431916;11.51475946;-14.6310684;-17.82573887;-14.6795528;-10.63566166;-9.158452301;-10.66981435;4.464189594;-8.433465359;6.879912894
-4.310541213;-3.069036413;10.16877431;-2.055372567;-16.66382632;0.4113554;5.277806998;-23.93400198;-14.15386365;24.72655968;-11.43908211;-13.55308404;-12.48675005;-7.983303336;-3.918801635;-4.75590855;4.653992873;-6.783557842;5.859169391
-6.45132411;-4.300039063;15.1671693;3.519954606;-16.0451838;0.776118066;8.621145615;-21.7383558;-7.301034407;30.24517169;-8.784280085;-8.520667606;-11.54497347;-6.028212194;0.780324859;1.935953685;6.606760061;0.840533336;6.075537076
-7.877068384;-4.879691821;12.68569187;4.859121391;-16.00675645;0.918731481;7.946467685;-18.75187737;-7.795800669;21.02534815;-8.148461086;-5.113628671;-11.5943902;-5.404780648;2.850858913;7.277502777;9.322138796;11.21015572;7.11
-7.301391585;-3.877306638;2.611080743;4.646770564;-16.30233881;0.693919691;6.149415245;-15.80084269;-13.31786722;-1.098641536;-10.90888689;-5.004321529;-11.9194275;-6.085162075;1.953182247;9.547799481;11.24634514;18.64363132;8.105918106
-5.231739798;-0.566078057;-10.40036478;6.813275471;-16.28;0.266373296;6.933260938;-13.96925394;-18.83003906;-26.26126406;-16.56991486;-7.840531907;-12.01742748;-7.463704317;-0.007192646;8.618786036;11.43700108;18.92174483;8.520039063
-3.528619679;4.898737716;-19.96406366;12.34364817;-15.48881743;-0.038741553;10.84756311;-13.80842998;-20.51421955;-42.98033076;-22.37164993;-11.36011363;-11.91798166;-8.762158958;-0.209599894;6.131595538;10.19789747;12.43109109;8.46204321
-3.769341929;11.10330394;-21.92538614;18.06112206;-14.04088492;-0.020382565;14.73885823;-14.85915104;-18.52534293;-45.28201142;-25.01692491;-12.91407084;-11.94977508;-9.486039256;2.916430032;4.408772788;8.718648393;4.079607082;8.39184776
-5.853698572;15.89167932;-16.54273014;19.44614884;-12.43138816;0.235918964;15.19948878;-15.89007813;-16.32630682;-35.48782256;-23.3024341;-11.29997677;-12.26480438;-9.6567268;8.346961538;4.829098706;8.049569444;-0.110453131;8.538470334
-8.088199338;17.66137895;-7.678078093;14.87528218;-11.02809815;0.457945111;12.53110955;-15.71419739;-17.27534268;-21.26289589;-19.38744159;-7.555596845;-12.61867008;-9.705824809;12.97887975;6.860656681;8.25028289;2.721085272;8.625301169
-8.682799923;16.50372726;0.084038642;7.397197401;-9.737620074;0.447755084;10.99721193;-14.00096089;-21.47848003;-9.854929983;-17.37112912;-4.144258538;-12.62230265;-10.13184809;13.64761386;8.489663433;8.382142109;10.30409957;8.16
-7.337027607;14.16303937;4.218971045;2.385897252;-8.168876978;0.258547939;14.58619049;-11.49775725;-25.65830662;-4.034678209;-20.10737928;-3.17099254;-12.20254011;-11.15018215;9.198833878;7.731781641;7.32672143;17.03162647;6.994209905
-5.504045307;12.6751485;5.161947696;3.097944792;-6.127183132;0.126029331;22.02837396;-9.504997563;-26.13929032;-2.177812567;-26.82370109;-4.96376751;-11.78361313;-12.54692438;1.180883108;4.09627391;4.763659561;18.10827798;5.595630841
-5.091594075;12.71878179;5.086264594;8.027483961;-3.944280859;0.224633007;26.10371941;-8.98378442;-22.29841512;-1.327224014;-33.60622322;-8.016487112;-11.94547962;-13.80592324;-7.222708176;-1.063223512;1.534981457;12.88911176;4.740384851
-6.750999726;13.09463424;5.810240838;12.37353496;-2.294131587;0.483461937;18.82785514;-9.921269989;-17.37704325;-0.046976142;-36.46949375;-10.22040934;-12.81814272;-14.41299078;-13.14994474;-5.49985265;-0.882024833;4.9648408;4.876174129
-9.275109161;11.87312616;7.498038635;12.33510116;-1.633867321;0.64156688;-1.263955315;-11.37615394;-15.81954574;1.168334815;-34.51212758;-10.36798008;-13.77592287;-14.14910208;-15.51231203;-7.538722121;-1.384608468;-0.854551247;5.725772417
-10.63833523;8.290309096;8.999179049;8.498917267;-1.788036384;0.497528359;-26.00843682;-12.14361656;-19.35721238;1.51319095;-30.517311;-8.813736018;-13.79900641;-13.2075922;-15.06781748;-6.962151359;0.016488214;-2.127947684;6.499919291
-9.74966665;3.710480062;9.324093333;5.390947773;-2.095689364;0.121642638;-42.06;-11.56549493;-25.24580592;1.327683347;-28.48912945;-6.932022455;-12.30244634;-12.08175323;-13.32263604;-4.781000677;2.245494887;-0.135518084;6.548261611
-7.364278572;0.678830618;8.886650222;7.571677932;-2.032062008;-0.175251611;-40.12682595;-9.940609358;-28.31854035;1.781507588;-30.22563172;-5.958735222;-9.770160334;-11.29835934;-11.26376288;-2.272011715;3.912546885;1.844362787;5.884641172
-5.369997064;0.744533588;9.36615915;15.58157779;-1.754349171;-0.103383293;-21.95953965;-8.282053778;-25.27611567;3.291128029;-33.85380824;-6.183451359;-7.597159547;-11.14924206;-8.884704554;-0.164338443;4.19030324;1.638789427;5.133292932
-5.129353362;2.918455127;12.16943125;25.11813967;-2.03978671;0.341467886;0.586687245;-7.605630785;-17.65043209;4.625998757;-35.54790196;-7.030981147;-7.137274851;-11.56223543;-5.720275439;1.420707244;3.209056086;-0.043908995;4.956092269
-6.386885022;4.2321987;16.67813823;30.08921814;-3.598642562;0.851419403;14.00747839;-8.227635662;-10.86871213;4.000942034;-32.88838781;-7.775038655;-8.622099265;-12.16778654;-1.793975827;2.426716654;1.770303545;-0.597151516;5.47594847
-7.695679501;2.121156352;19.83092261;27.04016544;-6.317260604;1.053335166;12.75680694;-9.527361152;-10.03097406;1.328983662;-26.91269235;-8.158252878;-10.80539626;-12.50861334;1.882684835;2.406685614;0.679361118;1.730817038;6.201195144
-7.894699174;-3.281941046;17.74946992;17.5049982;-9.104229243;0.821349873;2.681194076;-10.32278097;-15.75967741;-0.680297646;-21.10033275;-8.404187555;-11.69840265;-12.26738159;3.699941262;0.710376702;0.218051676;5.801723971;6.495355965
-7.19605521;-8.934263355;8.574030895;6.699174274;-10.5444642;0.383917586;-4.225956071;-9.616499286;-23.49753069;1.8226897;-18.27119841;-8.735894039;-9.939213648;-11.39013186;2.454394754;-2.790545212;0.096507083;8.106053434;6.146614894
-6.82814375;-11.0982963;-5.471932044;-0.097508158;-9.891129067;0.129796888;0.466308813;-7.233420597;-26.88478902;10.27394457;-18.22215563;-8.960950291;-5.817368269;-10.05605976;-1.757838676;-7.120904744;-0.173144701;5.47364346;5.515423051
-7.579722728;-8.296192903;-18.55698402;-0.583991416;-7.616676593;0.278669181;14.96892372;-3.935522257;-22.58036722;21.15259527;-18.22912911;-8.558857981;-1.178734808;-8.539809585;-7.379214814;-10.41146135;-0.830342408;-2.248969017;5.141180353
-8.697252289;-2.609937333;-24.39767722;4.066128322;-5.074897658;0.699186504;28.59988058;-0.929214784;-12.75147501;27.03900802;-15.91594761;-7.172916195;1.762853179;-7.069120349;-12.05999418;-10.91564363;-1.688077784;-11.75974418;5.19681747
-8.333886614;1.792082181;-20.22643812;10.95642654;-3.530048828;1.027704233;29.81113065;0.920447265;-3.334235308;21.19370775;-11.80034283;-4.996136618;1.878830276;-5.763588096;-13.73791429;-8.15263537;-2.310510925;-18.47132303;5.323183851
-5.306837857;1.786933556;-8.812778201;17.58879365;-3.306001102;0.979885434;14.71821904;1.641623864;0.493388596;2.624455505;-9.074908354;-2.645585382;-0.180100694;-4.666943854;-11.52542626;-3.323424163;-2.358851247;-19.57804822;5.016655026
-0.593290089;-2.379882755;3.133427429;22.74926206;-3.693186418;0.58416164;-10.05720364;2.076734878;-1.931151816;-22.17075125;-10.69156729;-0.634641023;-2.515976037;-3.813892493;-6.000823326;1.348809111;-1.8263842;-15.68172043;4.209657129
2.948839851;-7.396944487;9.351243115;26.07123175;-3.632909532;0.141076153;-31.89180062;3.192403574;-6.594330175;-42.42;-16.35172856;1.027535546;-3.322358992;-3.258050079;1.133669052;3.921893493;-1.009676924;-9.894749504;3.471677355
2.657264992;-9.520870264;8.231454945;27.36030785;-2.594144994;-0.044849881;-40.36191092;5.239469927;-8.180039063;-49.33025519;-22.23789177;2.679808634;-2.059180182;-3.036981329;7.783184476;3.802969469;-0.276844228;-5.347363933;3.580941602
-1.693440476;-7.416628816;3.746805893;26.59078866;-0.953082898;0.080407959;-33.31857992;7.379014628;-4.218837536;-41.21163855;-23.95581219;4.417591923;0.332298962;-3.116540901;12.25051191;1.912957195;0.174988832;-3.126787336;4.799331295
-7.433561623;-2.999987795;2.256943625;24.39828168;0.36819836;0.298895639;-17.12805931;8.114531689;3.172423904;-24.08461783;-20.24331274;5.671832023;2.235800622;-3.378263549;13.80840063;-0.057274488;0.410083008;-2.08548196;6.498511577
-10.87170165;0.251311253;7.397274815;22.17195703;0.647905083;0.339269314;-1.695887953;6.316444105;9.113292278;-7.552823646;-14.1651506;5.487430815;2.527930635;-3.670137832;12.87516345;-0.709147902;0.665293264;-0.329161803;7.527386225
-10.07684156;0.050993938;16.85096206;21.26502204;-0.121241953;0.131834259;5.864679081;2.167333124;9.731042537;1.075767223;-10.59608364;3.399355396;1.264695038;-3.874658751;10.72931294;0.383140467;1.178462223;3.046752807;7.080403374
-6.305512991;-3.062176618;23.58491402;21.90900245;-1.313424354;-0.12804752;4.852454258;-2.661594916;4.927806345;0.506825869;-12.04388596;0.165407322;-0.518014874;-3.926499535;8.856337825;2.697449917;2.058180604;7.329691385;5.367806583
-2.878939823;-6.35193124;20.86627555;22.94273842;-2.202141229;-0.159339502;0.173188389;-5.816404247;-1.818952864;-5.067295828;-16.42065548;-2.415289898;-1.620048828;-3.764106901;8.206629483;5.304678946;3.25703788;10.90902323;3.516075386
-2.428123897;-7.076943874;7.469753978;22.80340394;-2.473171483;0.147302744;-1.703549337;-5.596330158;-6.214407621;-9.764024223;-18.78762191;-2.67069563;-1.449389279;-3.27985566;8.748270082;7.469843224;4.627866828;12.50121161;2.750580452
-4.791716013;-4.438280483;-10.8132767;20.97098668;-2.340972318;0.622944453;2.781905472;-1.97530527;-6.207661812;-10.07653779;-15.67195417;-0.398043742;-0.235808941;-2.357756846;9.590373615;8.957199635;6.003688568;11.87384772;3.507697741
-7.294969418;0.123984698;-24.62373981;18.4859;-2.266134461;0.954713691;11.96708804;3.361548895;-3.101775903;-6.506471034;-8.250039063;2.73146517;1.336884911;-1.012924631;9.625902689;9.976857208;7.258470225;9.742224753;5.180694715
-7.123124551;4.26579501;-27.07;16.94579973;-2.577465217;0.939266568;19.93734123;8.000945584;-0.112869012;-2.164264064;-1.568672217;4.18986308;2.685022373;0.474816723;8.286743448;10.93393108;8.341067434;7.250386967;6.672602146
-3.746717179;6.482650418;-18.07457302;16.86828985;-3.300952879;0.636476036;20.11362017;10.17554407;0.307062162;0.083549554;-0.349307198;2.400974675;3.630756792;1.593092204;5.893532548;12.17029972;9.288760664;5.566508348;7.265133474
0.648113609;6.949705884;-4.015648211;17.04839106;-4.250713829;0.301250555;9.45031918;9.668049646;-1.684519392;-0.36633137;-4.905656646;-1.997152583;4.322564372;1.858682543;3.351949715;13.79396005;10.21386797;5.679917815;7.080820163
3.040341036;7.049281043;6.908454874;15.71731416;-5.207528627;0.167363763;-9.166017784;7.729912545;-3.566377845;-1.921466043;-10.69686966;-6.450987481;4.967469557;1.175013777;1.435751566;15.61207228;11.24555841;8.117032191;6.801255304
2.115638901;8.190902579;10.14150215;12.57412759;-5.999070657;0.275873244;-27.90833151;6.161912451;-2.446113154;-2.454031036;-11.98964021;-8.210119577;5.661321994;0.011778902;0.233291947;17.17707558;12.42822342;12.47021621;6.957086618
-0.703106782;10.86343569;7.220058594;9.730283383;-6.465377896;0.484112186;-38.1212085;6.214465808;2.723011356;-0.988475649;-6.598178687;-6.226148082;6.422760171;-0.801552484;-0.777593582;17.96204293;13.62309249;17.14511072;7.451889822
-2.570546286;14.43737612;3.772156549;10.37073842;-6.437161454;0.622179045;-35.27167543;7.993203654;10.23217602;1.862959408;2.281642442;-1.831914022;7.300642426;-0.609314621;-2.075435217;17.6284541;14.49108011;19.90215782;7.730911227
-1.698872319;17.60069093;4.876565504;15.96703889;-5.820645778;0.640498316;-21.63410753;10.63409237;16.54307378;4.785599596;8.69348846;2.275091338;8.367898622;0.55307261;-3.430650991;16.25474966;14.61;19.20861536;7.398349396
1.133533574;19.01409484;11.28072239;24.39279631;-4.722682543;0.620303638;-4.826109559;12.98443618;18.36109022;6.975890701;8.791436468;3.934500331;9.573578181;1.863625043;-3.875547544;14.35955035;13.69638025;15.53421941;6.67583606
3.294785621;17.88576116;19.02097498;30.81924333;-3.454769136;0.660014648;6.967248482;14.26494097;14.52586096;8.594829614;3.874687258;2.862700546;10.61990471;2.189560059;-2.464329753;12.6541029;11.81136936;11.41490882;6.248670746
2.564205174;14.36181955;22.36188249;31.03658008;-2.347382624;0.765136059;9.885555271;14.32542643;6.622482554;10.1993694;-0.917876961;0.484535309;11.05108278;0.863877275;0.721525608;11.64604793;9.407228929;9.884677213;6.622055258
-1.006095338;9.635089253;17.73012665;24.6982751;-1.506273648;0.852033091;6.073679953;13.47003906;-1.944879687;11.85223369;-1.081563687;-1.47455939;10.54994471;-1.777381144;4.194366105;11.34483474;7.148320791;12.24311335;7.582045443
-5.172147993;5.58845713;5.971438442;15.82163497;-0.740816574;0.851968037;1.187286263;12.1128799;-7.788207754;12.86925241;3.423031999;-2.423598594;9.214667678;-4.521423605;5.794618833;11.27239592;5.586573925;16.90168246;8.289378396
-7.365448205;3.915644912;-8.265039497;9.97096593;0.233406672;0.797620495;-0.130683373;10.54488771;-9.203204174;12.51689272;8.187293175;-3.219186867;7.554702167;-6.037239012;4.155206581;10.78455462;4.884135253;20.40407985;7.975227292
-6.708421561;5.076288198;-19.24075216;10.22720649;1.470625449;0.79334195;2.729601195;8.90263911;-6.775678681;11.0099334;8.14560289;-5.183298303;6.158820512;-5.761061623;-0.168950487;9.505506633;4.767020533;20.01227121;6.649620113
-4.514170653;7.795613967;-23.08957826;15.07470649;2.642016252;0.893063102;6.901267404;7.235128399;-2.697629502;9.760363838;1.921761762;-8.71676881;5.274020417;-4.276060339;-4.864359634;7.61384211;4.750609085;15.87059162;5.181061581
-2.97956926;9.648598796;-19.43942893;19.82115462;3.217732702;1.013084593;9.199942366;5.533153892;0.679991846;10.41287693;-6.870480486;-12.69256922;4.636327627;-2.894537443;-7.36145029;5.820743468;4.490663402;10.95077897;4.626283204
-3.307388398;8.526510527;-11.15136737;20.3444738;2.848224729;0.984144307;8.886654317;3.703227272;2.119602077;13.3317234;-12.36386731;-15.13421062;3.707425237;-2.72595264;-6.657392268;5.055984502;4.017361529;8.714777994;5.342014275
-4.86970541;4.019103958;-2.617688041;16.15584751;1.613291043;0.713186917;7.729898011;1.583571032;1.838978538;16.89342387;-10.87574156;-14.62762029;2.141012871;-3.896636314;-4.075377878;6.010238795;3.685341717;10.32869181;6.628125502
-6.00929859;-2.326797394;2.454813578;10.43587931;-0.088272015;0.306836728;7.738657085;-0.92031722;0.835634589;18.4726232;-3.451729858;-11.34856295;0.108045886;-5.482971734;-2.283040867;8.728722759;3.876429942;13.70712517;7.232207056
-5.632831112;-8.101641869;2.793488154;7.2216201;-1.908210601;0.025269833;9.07757856;-3.644784259;-0.181212965;16.60994755;5.341553915;-6.938486859;-1.780392616;-6.199805546;-3.208295051;12.43667986;4.676800956;15.21439369;6.334473593
-4.146485375;-11.62816804;0.045920686;8.169623902;-3.824964874;0.08283773;10.287025;-6.102536988;-1.374483063;12.62873769;11.09864823;-3.392012319;-2.888783215;-5.337681927;-6.415856282;15.72397398;5.773248183;12.66051795;4.226820927
-2.97812632;-12.7902725;-2.341265991;11.48133669;-6.044998689;0.459451225;10.42748528;-7.675922718;-3.415171705;10.06718971;12.60023108;-1.847990564;-2.979058694;-3.274728548;-9.267737355;17.1011121;6.648415965;7.136293886;2.141267479
-3.223903069;-12.49768724;-1.418072651;13.64588666;-8.599933259;0.894241436;10.63031632;-7.999250156;-6.494072414;11.88810678;11.90491655;-2.14290019;-2.315574236;-1.217448438;-8.881644806;15.74521712;6.924413625;2.17617327;1.36655395
-4.682976155;-11.39474078;3.072516963;12.34782409;-11.02795257;1.082868871;12.98259994;-7.264790391;-9.589469744;17.40318797;11.87170718;-3.292197897;-1.400009766;-0.388948294;-4.480607682;12.05865664;6.589461871;0.947863286;2.34827951
-6.109988929;-9.090286848;8.130787833;8.116697495;-12.50217044;0.920029297;17.45707341;-6.183106229;-10.73216493;21.5479681;13.54696659;-4.341102292;-0.578960367;-1.256795206;1.686936878;7.636405555;5.938997004;3.791162858;4.448990525
-6.383665029;-4.680664817;9.275544953;3.565086484;-12.38818924;0.581135952;20.06412549;-5.556383449;-8.240535494;17.71857185;15.65877126;-4.863156221;0.156558442;-3.31516799;5.688914428;4.507553172;5.296980276;8.10448859;6.492068084
-5.502266951;1.916060785;3.741214816;1.142370575;-10.79907351;0.370421885;14.90716506;-5.727120458;-2.082137026;2.654084492;16.3722925;-4.844326613;1.049973188;-5.501418902;4.642686972;3.992711737;4.76316095;10.59462781;7.604075292
-4.539568988;9.146974919;-7.101774023;1.420456607;-8.649243081;0.463804041;-0.635866209;-6.302536653;5.687911099;-20.12128836;15.43413196;-4.294713669;2.282106144;-6.887491109;-1.155691547;5.880899453;4.203539383;9.949403148;7.698027309
-4.662138578;14.47763167;-18.06902921;3.213721385;-7.084383259;0.766540444;-21.835743;-6.394056785;11.8564494;-41.24536305;14.63226975;-3.118684408;3.766330645;-7.160759478;-8.338406032;8.540058594;3.482026421;7.703457634;7.304176364
-6.120078125;16.12190441;-23.32793123;5.106683963;-6.685618507;1.005347768;-37.89768111;-5.245517346;13.8147916;-50.82964822;16.1698041;-1.407342959;5.187826505;-6.64167565;-12.80274714;9.990633562;2.706407929;6.649453695;7.005393971
-8.081796144;14.38340235;-20.2945833;6.802331076;-7.066713702;0.969633264;-38.82691801;-2.81938839;11.00721452;-44.76937328;20.49717294;0.217275961;6.213237513;-5.945704644;-12.57579101;9.260166966;2.232984758;8.226521524;6.999810218
-9.390591016;11.3695106;-11.38143158;9.062671331;-7.195505722;0.688335134;-23.09490062;0.092014902;5.13539294;-27.58717945;25.62076523;0.733916282;6.673856393;-5.59472872;-9.064035423;7.053296352;2.383017245;11.13956348;7.109282055
-9.528069131;9.24468604;-2.195873373;12.43766735;-6.198663029;0.390752462;0.19545684;2.338801524;-0.943891799;-9.571763656;28.54924464;-0.554934775;6.599428062;-5.809552566;-5.740959043;5.207255139;3.101109887;12.37935204;7.112297149
-8.959318647;8.531810852;2.499321281;16.11652444;-4.025653708;0.294828103;17.15497173;3.151269002;-4.83365768;-0.054500487;27.62907459;-3.221673316;6.149941242;-6.501550237;-5.277378485;5.298846813;3.883254168;9.789392801;7.016372088
-8.638246674;7.985656892;1.967803055;18.08682281;-1.472974763;0.418638423;19.06226515;2.614069141;-5.693520345;-1.557560526;23.76579924;-5.594786234;5.574078275;-7.346275993;-7.333782995;7.44711204;4.108410451;4.067311019;7.010866469
-9.173198542;6.155311472;-0.600393882;16.55899027;0.406533205;0.583950487;8.770320505;1.523696035;-4.268573145;-8.954666691;19.54760141;-5.649961307;5.235192845;-7.861201046;-8.752730151;10.24854954;3.560058594;-1.410988915;7.196812191
-10.36548995;3.159191006;-1.225267121;11.45465633;1.005626543;0.601097175;-1.74873085;0.726124273;-2.062626845;-14.05224309;17.12077416;-2.415840835;5.596166695;-7.525644573;-6.051616694;11.9163049;2.714527624;-2.797996507;7.417010585
-11.42513737;0.908482384;1.421793531;4.685893444;0.431911925;0.457212368;-1.124312326;0.427855876;-0.339231462;-11.95108072;16.68255068;3.135674786;7.029668456;-6.003577542;1.678162921;11.72898995;2.504645535;1.666182379;7.393760962
-11.57935718;1.394544834;5.193672384;-1.024873702;-0.792848214;0.328461555;11.99196085;0.013362287;0.442030189;-4.330087891;16.80985843;8.492127603;9.488017769;-3.40614384;11.7184153;10.61516412;3.668317816;10.54814388;7.048724388
-10.54831254;4.51998234;6.867518638;-3.854206436;-2.258370536;0.402720119;27.39209424;-1.461783016;0.577510294;2.645129494;16.17328936;11.1546331;12.28445297;-0.390007324;19.39294502;10.37049156;6.14884486;20.15408713;6.664893528
-8.601709946;7.57512825;5.512425687;-3.844344456;-3.929307979;0.679516882;31.08484799;-4.441913147;0.677244464;3.794850414;14.9940821;10.30120479;14.26914987;2.084364086;21.26019764;12.11431844;9.021317728;26.62361471;6.675859859
-6.311076898;7.145788549;3.655498014;-2.54774623;-5.954052749;0.941224559;16.34593044;-8.320870045;1.166177641;-0.800719734;14.9051193;7.354861634;14.43021622;3.272518432;17.45481175;15.23961063;11.04019177;27.73278536;7.226793195
-4.279930363;2.041268772;4.989453104;-1.808305052;-8.265217469;0.934907327;-10.6535171;-11.60792399;1.968222563;-6.137741557;17.34879995;5.00125815;12.57910622;3.113004046;11.43540305;17.74170702;11.4224111;23.50774049;7.906744651
-2.986476091;-5.28757312;10.51416917;-2.642441598;-10.39702004;0.607055993;-35.0269276;-12.7383262;2.484065048;-6.741440834;21.95978849;5.325155661;9.611258292;2.268593701;7.360621634;17.70109033;10.28650488;15.73831199;7.947379776
-2.66902974;-10.28946601;16.63449591;-4.860318185;-11.71576166;0.175382626;-43.77968173;-10.98948353;1.897518084;-1.345820204;26.40352314;8.389969029;7.06254101;1.648093586;7.106243023;14.74489204;8.431802608;7.038598158;6.789246365
-3.189516607;-9.777628259;17.29948832;-7.372450343;-11.85474954;-0.038988753;-34.55872203;-6.888519854;-0.255915738;6.173632049;27.89320584;12.267297;6.183370193;1.725749407;9.177698079;10.31352931;6.661890643;-0.036130316;4.575905037
-3.991421746;-4.515310893;8.841724534;-8.733945137;-10.95056643;0.119325026;-16.08671353;-1.868566938;-3.517452736;10.33369522;25.19380559;14.46551388;7.144536653;2.176009665;10.2837601;6.527706042;5.211471724;-3.70986741;2.159064435
-4.341266355;1.314607715;-6.358049518;-7.624742538;-9.471551801;0.504595092;-0.65597005;2.537471118;-6.355961008;8.93497817;19.53712571;13.69863293;8.940392642;2.131075402;8.270783417;4.593961059;3.730656662;-3.558426608;0.580676605
-3.823533295;3.451318101;-20.6351686;-3.300870954;-7.819114717;0.791308687;4.844610189;5.391816532;-6.763450978;5.043037019;13.78903795;10.72355955;10.07072778;0.883715239;4.068772431;4.05361991;1.79910796;-0.724589276;0.419805309
-2.724963055;1.00523922;-26.05507002;3.904496241;-6.090774061;0.750284628;2.404724419;6.52663176;-3.451470623;4.289066646;10.60192284;7.692563684;9.521799747;-1.51382467;1.078271611;3.459342541;-0.512708585;2.568098529;1.49428736
-1.889339603;-2.861981785;-20.00454606;12.26557347;-4.218187637;0.439993257;-0.974488335;6.244975862;3.055654499;9.766948222;10.98682018;6.558544034;7.362618411;-4.240914723;2.429726571;1.854518679;-2.558233079;4.207413718;3.107137541
-2.026804598;-3.627685591;-7.041713952;19.01100816;-2.302248346;0.147201959;-0.228396929;4.948739711;10.29587236;18.95518577;14.23931433;7.718063688;4.578960677;-6.307498607;8.231253325;-0.250786753;-3.612291607;3.457395888;4.588240565
-3.016510241;0.761995969;4.491844423;21.53158115;-0.74526392;0.132006664;3.959205663;3.056189498;15.05024466;25.47663558;18.96964789;9.83014428;2.334041545;-7.282135146;14.98830193;-1.286925949;-3.535559581;1.365008975;5.677498986
-3.885245974;8.127951418;8.528540687;18.92472983;0.037487053;0.404016099;7.218723528;1.196388146;15.21892972;24.42655419;24.15976959;10.84165751;1.22537529;-7.562244723;17.76845883;-0.107357217;-3.013273142;-0.125724184;6.484707828
-3.618916301;13.83018641;5.383700006;12.81708291;0.108314692;0.725860303;6.696882068;0.315089853;11.13314868;16.86237474;29.35077613;9.39217271;1.028787906;-7.979573797;13.61300266;2.714749726;-3.110941666;0.231002597;7.155813077
-2.159743695;14.56883578;0.882692996;6.674696884;0.205039346;0.835293647;4.123171875;1.347790136;5.304732489;9.532771179;34.00372202;5.588020766;0.994621941;-9.086694554;3.726082036;4.948636514;-4.466397599;1.936665256;7.617049056
-0.624757456;11.02003906;1.37566698;3.842948964;1.332225557;0.682176937;3.905791742;4.531150952;0.712776567;9.718630242;36.8971334;0.7038711;0.365721894;-10.72651961;-7.17130581;4.218274191;-6.76641507;3.161304648;7.651800413
-0.37141242;7.13994031;8.602709814;5.578986833;3.956121459;0.466374862;8.346470118;8.878093178;-1.140124162;19.09873379;36.40095565;-3.803110551;-1.271611348;-12.22587212;-13.8956965;-0.142206783;-8.946301138;2.340438446;7.214092429
-1.617329543;6.802171284;18.28646492;10.46245906;7.431034141;0.44513963;14.83994598;12.39238962;-0.935662542;31.5347552;31.63373704;-7.143852822;-3.932291299;-13.00270457;-14.12421581;-6.33533091;-9.965541026;-0.358261138;6.631539465
-2.907955702;10.63585689;23.30537709;15.59585667;10.19710734;0.688123794;18.01558493;13.11325006;-0.484476398;36.75859465;23.60382225;-9.333890345;-7.316569152;-13.01920569;-9.699282817;-11.09231032;-9.54060359;-2.97103654;6.437545164
-2.147371825;15.65202911;18.85160534;18.66529226;10.71807107;1.005143205;14.99610978;10.39528451;-0.80345398;27.43598631;15.25740671;-10.69794578;-10.84275351;-12.66993272;-5.108846175;-11.74582062;-8.258782896;-3.201224004;6.923662481
1.47955463;17.80657521;5.749931235;19.31047586;8.52257746;1.114118051;8.757784316;5.508757952;-0.976335289;4.510170976;10.10458741;-11.33010023;-13.64740166;-12.23118092;-4.32617332;-7.928588911;-7.021231018;-0.240860179;7.797973699
6.358039264;15.20094317;-10.19456693;18.86534284;4.581605786;0.89761261;6.027164546;1.017024298;1.137695683;-22.96708254;10.20293605;-11.0451029;-14.75797037;-11.43206742;-8.254559122;-1.754013181;-6.322482943;4.532483888;8.29437487
9.310536017;9.250710085;-21.94043698;18.86724639;0.7265212;0.514837862;11.08160918;-0.762185389;6.801840285;-43.26315607;14.86977011;-9.833677692;-13.55387041;-9.62948984;-14.45507826;3.544142293;-5.987608356;8.521895186;7.714397633
8.056290815;3.066506412;-25.21832628;19.67786792;-1.479964445;0.265897712;20.8430668;0.794077127;14.60167827;-48.76837719;21.07374908;-8.321598502;-10.30486092;-6.517041908;-19.14253517;5.492901969;-5.559348212;9.701774372;6.000312215
3.294933273;-1.282230662;-20.31502987;20.344889;-1.62474576;0.328754366;26.0325044;4.251123856;20.56177528;-39.70331886;25.2998858;-7.686579689;-6.331701247;-2.750181355;-19.88538991;3.547633324;-4.932715895;7.786618566;3.869362784
-1.522895552;-4.14508219;-11.07080368;19.69044875;-0.510651568;0.604346802;18.16911109;7.090724774;20.38442561;-22.82535286;25.63567409;-8.955864876;-3.479911595;0.161455682;-17.11242622;-1.024301625;-4.602254004;3.987130129;2.360978621
-2.87068312;-7.256275202;-2.323431532;17.55346294;0.531652883;0.807841744;-2.979751365;7.334745388;12.35474735;-6.735603042;22.67253227;-12.18881883;-3.104083553;0.773193722;-13.53664311;-6.181398695;-5.235444481;-0.167114813;2.111208577
-0.224751804;-11.49214708;2.489397867;15.04347436;0.515339558;0.722932629;-27.75934448;4.702854949;-1.150686696;2.77382544;18.68504456;-16.23206112;-5.229584972;-1.207587946;-12.12257776;-10.2181494;-6.920058594;-3.752280826;2.898491795
3.126436976;-15.64938536;2.552295225;13.60168405;-0.738082389;0.391492018;-42.66687932;0.578142892;-14.67855596;4.691812756;15.80586102;-19.33492401;-8.546909621;-4.556604913;-14.13846569;-12.30934384;-8.790236094;-6.398937405;3.812520848
2.549690409;-17.39753781;-0.402756847;13.74957005;-2.719939308;0.072205524;-39.77528778;-3.062413975;-22.60124932;1.752777059;14.61792938;-20.23679817;-11.32290971;-7.286397759;-18.58122945;-12.43173425;-9.472480546;-7.651725443;3.92961759
-3.930097656;-15.45641115;-3.184263423;14.67382716;-4.672099341;0.011145277;-22.36969675;-4.90316895;-22.01733755;-2.075765857;14.198139;-18.93741986;-12.59449768;-8.034455555;-23.15843984;-11.02003906;-8.100920825;-6.74704794;2.995635768
-13.36572578;-10.894926;-2.89906127;15.02986354;-5.949945126;0.233472581;-2.437928123;-4.874269555;-13.90330679;-3.782782091;13.45477012;-16.57755907;-12.73856927;-7.045044183;-25.93322978;-8.69382329;-5.111231431;-3.304802955;1.611336209
-19.49758667;-6.291458423;1.187754977;14.24536278;-6.143794019;0.539324859;8.066050007;-3.817687291;-2.088556945;-2.318011331;12.53318699;-14.53236177;-12.96014818;-5.956953434;-26.42871425;-6.108629778;-2.120218416;1.706425666;0.783902219
-17.30291363;-3.515415689;6.693814117;13.15292304;-5.074755803;0.69643046;5.529745449;-2.675870752;8.957025192;1.473363238;12.98975577;-13.41706213;-14.09369598;-6.512090196;-25.5484204;-3.801919257;-0.891491649;5.940678224;1.171322002
-7.013995661;-2.185370554;9.076168284;13.3702197;-2.83440725;0.644544804;-3.595952855;-1.879471258;16.03821787;5.576607306;16.46257189;-12.74871292;-15.68985158;-9.151836032;-24.57692626;-1.993681393;-2.127334466;7.084116478;2.565451742
5.678550463;-0.224295474;4.526036288;15.94795828;0.146522566;0.52468555;-8.616314013;-1.290117341;17.97388935;7.942129836;22.90342012;-11.4715017;-16.16984669;-12.58507981;-24.10051089;-0.500864013;-4.999821729;4.762451458;3.986820849
13.60145638;4.03114211;-6.79419735;20.44938496;3.182308246;0.517147211;-3.198579466;-0.538944999;15.30199136;7.748423471;29.96116392;-8.87908761;-13.99360884;-14.68351845;-23.59861354;1.055692527;-7.780232474;1.214725904;4.334598654
13.26037073;10.16142478;-19.662669;25.25480049;5.667504949;0.653417182;9.816582932;0.645298554;9.649695975;6.154662488;34.29140007;-5.197039806;-8.964051907;-14.04746708;-21.88904205;2.819215608;-9.080233039;-0.204826824;3.152886675
7.166094231;16.00468825;-26.33847589;28.83339672;7.476774293;0.787667215;20.75404602;2.351172556;3.252874045;5.784320771;33.97431845;-1.416796996;-2.646263717;-11.07586181;-18.034875;4.389863885;-8.758798596;2.240683863;0.995054318
1.522741639;19.66524136;-21.59162038;30.90444681;9.05921781;0.755063178;20.43839156;4.536435832;-1.454630807;8.868704207;30.14434923;1.402620008;2.458386512;-7.754056823;-12.10661709;4.988897671;-7.838350309;6.96441131;-0.866696936
1.179272892;21.24158423;-6.777027734;32.51194284;11.02724578;0.558389456;6.861683756;6.984702362;-2.503678962;15.19525759;26.36187752;2.757781938;4.400714471;-6.331838645;-5.376977287;4.074327495;-7.565734595;10.06447823;-1.211607276
5.910058594;22.55360305;10.37637618;34.9518468;13.48123906;0.390852052;-13.54512028;9.139777758;0.706892121;21.63242371;25.99181104;2.788075043;2.873267378;-7.857527662;0.114559085;1.947748683;-8.403885344;8.528672755;0.366463447
10.93681631;25.04291236;20.67624171;38.43476795;15.63564364;0.458158838;-30.49107538;10.07636058;6.806363844;24.11558306;29.55144226;1.880087891;-0.817728186;-11.57977883;2.397841438;-0.207282142;-9.739653714;3.077030488;3.18905421
11.10139979;27.83437379;19.79943407;41.56891218;16.17090142;0.762754482;-36.54056449;8.874073029;12.79599313;20.94814839;34.19696176;0.247529194;-4.758806885;-15.54558012;0.448393817;-1.019528302;-10.47714098;-1.921563993;5.890176537
5.158457181;27.95203106;11.29766453;42.08779566;14.17101453;1.064662886;-31.18563638;5.306336759;15.44089341;14.75377265;35.91504089;-2.109689767;-7.59887252;-17.87381154;-5.262060346;0.083809655;-9.979798047;-1.758584869;7.227718509
-3.308698731;22.7830401;3.76287837;38.30218617;9.967721353;1.078235007;-19.91979044;0.344810762;13.00158892;10.9996488;32.77603305;-5.09468259;-9.076179375;-17.79972652;-12.82410249;2.347054707;-8.593980872;4.554097367;6.789252793
-8.937255066;12.75606592;4.095462542;30.27131595;5.186109665;0.739395307;-9.698001246;-4.053699127;6.21801828;13.6407839;26.61698467;-8.256134848;-9.707312577;-15.88061035;-19.64275481;4.075552912;-7.376853544;12.86307243;5.144268578
-8.902297009;1.803421694;12.01010189;19.96508697;1.855439412;0.294895006;-4.408639238;-5.935731418;-2.120456192;21.12109742;21.68612693;-10.94007813;-10.09718385;-13.41157718;-23.63972513;3.724975888;-7.300078125;16.58249435;3.368115451
-4.893138458;-5.042453538;20.14403485;10.40842399;1.17993384;0.112064999;-3.374314114;-4.531588639;-8.750154565;26.29007813;21.25131888;-12.77126557;-10.49878324;-11.59101667;-24.32696471;0.926939711;-8.571913731;11.7064585;2.290853396
-1.276925039;-5.119517816;19.81722064;4.377786254;2.854137089;0.36080424;-3.295880811;-0.789486523;-11.6394126;21.05768831;24.92861125;-13.98780174;-10.87511806;-10.98678714;-23.08316603;-3.276894947;-10.55396106;0.251922289;2.006350283
-1.247372204;0.089149711;7.996932135;3.317117892;5.399791331;0.848700458;-1.576390422;3.169922171;-10.79854552;2.734105037;28.98747617;-15.21227032;-11.20422407;-11.49516632;-22.31303001;-7.130889474;-12.2453013;-10.73723209;1.972662993
-4.34311232;6.251186481;-10.01318034;6.861351971;7.220658947;1.168260536;1.679287433;5.328193028;-7.840959237;-22.83309603;29.45082766;-16.75679066;-11.5991019;-12.61490732;-23.85537485;-9.256102253;-12.90540485;-14.11518229;1.583319483
-7.341399567;9.388857205;-24.29513959;13.03041895;7.556975946;1.041239882;4.30979776;4.885080845;-4.763443059;-44.19956808;25.43450823;-18.07320943;-12.09962289;-13.75134913;-27.60463783;-9.361464347;-12.38359983;-7.871797331;0.728403208
-7.496280666;8.350620426;-27.51616478;18.9801793;6.680716341;0.562414469;4.534111856;2.478831931;-2.80449607;-51.64645255;19.90696745;-17.95649303;-12.40582927;-14.4057968;-31.33394654;-8.150168072;-11.03653096;3.27573476;-0.118155429
-5.092325215;4.737263884;-19.96996061;22.10057549;5.338780533;0.123753653;2.990216905;-0.51599211;-2.022461161;-43.62037133;17.20044209;-15.5047764;-11.93070736;-14.27667767;-32.00784033;-6.615744545;-9.4248977;11.17147071;-0.352011773
-3.034400413;0.787208793;-8.660418766;21.1009017;4.037332769;0.078074163;2.578417982;-2.963960628;-1.679376612;-27.45558653;19.38552738;-11.11209202;-10.23841927;-13.32866903;-27.84305939;-5.31691829;-8.038618963;9.965704392;0.165311745
-3.945689217;-2.581037643;-1.457186472;16.57349732;2.782333484;0.434141536;6.069071616;-4.472286674;-1.04131925;-13.82756688;24.62876646;-6.582267513;-7.507670059;-11.80064613;-19.74223722;-4.125403302;-7.139765754;0.135989135;0.908612151
-7.508453494;-5.790271145;-1.199013679;10.62402895;1.384098237;0.852206257;13.2613743;-5.189866946;-0.053102569;-9.20316629;28.95503689;-4.061369853;-4.55317837;-10.07976484;-11.02069282;-2.506984588;-6.666627575;-11.97953711;1.108798655
-10.54348154;-8.963383673;-4.38601393;5.637570747;-0.102971133;0.945438351;20.03557537;-5.296031751;0.509871098;-12.0263677;29.85394676;-4.461431282;-2.291310439;-8.458722054;-5.462006274;-0.013031857;-6.173266189;-18.53990217;0.467856034
-9.824504082;-10.59860954;-5.112742601;2.879032974;-1.307176624;0.621036795;20.44003906;-4.755177293;-0.485742732;-15.29298837;28.50923514;-6.583557672;-1.047134187;-6.933301779;-4.928503587;3.394874696;-4.911459663;-15.18580334;-0.456406477
-5.116887092;-8.259672083;-0.566119158;1.885814874;-1.907732097;0.158439735;10.74256476;-3.532945966;-3.660691504;-13.03227683;28.61046641;-7.733637454;-0.294444181;-5.219504783;-8.145634727;7.331402311;-2.177192462;-3.311675397;-0.596023028
0.33245723;-0.948310275;6.659511323;1.148331691;-2.032987947;-0.044044937;-7.297265461;-1.939220403;-8.353820064;-5.228691465;32.75711965;-5.513602785;0.909120561;-3.010048828;-11.5316845;11.17374415;2.162019574;11.43450858;0.75628227
2.39560008;9.037503386;11.22400824;-0.385711681;-2.220300633;0.173315473;-26.4858541;-0.6200354;-12.53015649;2.71261753;39.70047671;0.473744179;3.116134931;-0.277229904;-11.54187693;14.27330293;7.308333581;22.82110441;3.246345125
-0.456453492;16.81793439;10.12125702;-2.171986252;-2.907638277;0.590401945;-38.00446405;-0.106468413;-13.66446029;5.13080751;45.03500441;8.269500038;5.967334386;2.630671263;-6.933556604;16.12828544;11.72146783;27.2005911;5.557214009
-5.833613706;18.11101519;5.595163601;-2.30702823;-3.934036096;0.80759997;-36.69712614;-0.348962405;-10.28003906;1.223051306;44.90744187;14.83151223;8.383466313;5.182062079;0.584041869;16.5493755;13.89401058;24.48628728;6.319078234
-9.455639792;12.46263415;3.273422812;0.902670365;-4.585811681;0.605800137;-24.29156887;-0.769144466;-3.208908318;-4.337241804;39.52257166;17.99948609;9.310187332;6.9734104;7.702295765;15.80488773;13.26884438;17.11427745;5.156829883
-8.800691602;3.790704254;7.092186382;7.227328903;-4.237094428;0.141082261;-8.248503382;-0.889186381;4.442759732;-5.685798021;33.23999157;17.72539357;8.410754111;7.891173439;11.84195327;14.61474053;10.63763067;8.329723779;3.02911479
-5.216464459;-2.399558662;15.39508433;14.10380835;-3.034131615;-0.200262461;3.046891203;-0.975765023;8.915451061;-1.066385768;30.99152162;15.74942124;6.182016625;8.014383925;12.78091902;13.86200096;7.663693365;0.946143527;1.537513143
-2.661544381;-2.998486523;21.64960535;18.04427376;-1.947058177;-0.152916471;5.422614593;-1.993662726;8.130728678;5.586622842;34.06779403;14.10293412;3.48368585;7.411309155;12.47420763;14.08950913;5.814939087;-3.203268082;1.709013955
-4.174365671;0.703613606;19.36924964;16.9358443;-2.034083883;0.189583631;0.855609901;-4.729128366;3.127241287;8.197021856;39.02179824;13.65449685;0.948364695;6.087195794;13.30849042;15.09921737;5.46657361;-3.507038619;3.204980368
-9.148364697;4.531615372;7.323670631;11.51774363;-3.495706399;0.465553834;-4.900312629;-8.763018502;-2.592576647;4.091046103;40.76096732;13.75529325;-1.236176964;4.165540117;16.1563326;16.00978884;5.827163001;-0.723618439;4.59414058
-13.79547405;5.063316559;-9.139247726;4.884713588;-5.364466121;0.380365857;-6.900411233;-12.28022355;-5.532845942;-3.393431287;37.13685603;13.08530828;-3.096323966;2.095178055;19.67839563;15.83725157;5.708488034;3.22353536;4.481884036
-14.40859938;2.278660857;-21.70463331;0.372733466;-6.183886145;-0.019967793;-4.240181764;-13.11583681;-4.755248138;-7.615345983;30.88393583;10.87201763;-4.553427669;0.573693514;21.3422169;14.23160944;4.503595642;6.095469549;2.599453709
-10.59384521;-0.91784658;-24.79585926;-0.570292987;-5.169299085;-0.385833373;0.268607621;-10.37713764;-2.535053761;-4.361156327;27.05186312;7.483862346;-5.412615586;0.110992884;19.3435664;11.79793041;2.59956633;6.552220837;-0.005751345
-5.652171549;-1.664930157;-19.03359087;1.040832159;-2.873932443;-0.377280271;3.176421756;-5.355777222;-2.494931062;4.40781195;28.19152026;4.044105689;-5.672706796;0.542134871;13.98510197;9.683561252;0.945568832;4.889147984;-1.802433469
-3.742670266;0.164732218;-10.05642227;2.996130797;-0.758689984;0.031553059;3.329231644;-0.873379055;-6.581264658;12.13187556;31.78103826;1.548066642;-5.765802929;0.961834465;7.522853607;8.678994097;0.202585109;2.617120288;-1.931305728
-6.241273997;1.957766052;-3.963164371;3.824310498;0.004493053;0.53149576;2.259783381;0.58130455;-13.28102349;13.26160327;32.52974811;0.283023236;-6.341509222;0.278723199;2.65055657;8.516498528;0.220978147;1.121571256;-0.755586271
-10.42751481;0.964341025;-3.031057176;3.782616298;-0.515845741;0.755188732;2.150039063;-1.449847732;-18.60087148;8.0391663;27.72803544;-0.052172361;-7.662014176;-1.943880699;0.771500345;7.971743717;0.266169087;0.498621261;0.584565198
-11.67301193;-2.922939701;-4.775368676;4.212619331;-1.12920045;0.595617732;3.652079039;-5.169519046;-19.13106538;2.243289443;20.70693037;0.19032803;-9.145792018;-5.02226509;1.298456097;5.788005524;-0.257430925;-0.393835589;1.169188856
-7.341549485;-6.79750534;-4.606545934;6.017432875;-0.616545103;0.277530809;5.7217108;-7.936865688;-14.75409233;2.055427447;18.75367189;0.960929339;-9.594127877;-7.50965035;2.403698582;1.781527674;-1.25493918;-2.675559033;0.980971866
0.845255406;-7.178744938;0.301197426;8.725472174;1.153859667;0.125646347;7.389132795;-8.183545459;-8.746190798;8.516423312;26.6965969;2.366700216;-8.077591756;-8.184869586;2.561227461;-2.72323903;-2.044098399;-6.104946335;0.736569987
7.957110349;-3.127620318;8.841405104;10.98419531;3.072508448;0.254370015;9.281567921;-6.333197098;-5.108909981;16.50618078;41.63913725;4.268082861;-4.810874855;-6.932079112;1.688128513;-5.541018752;-1.985321978;-8.936921456;1.096789314
9.599069304;2.733129145;16.7716982;11.96028134;3.740892513;0.471833389;12.87852146;-4.09046729;-5.284272686;19.29696208;53.97893306;6.125627371;-1.218834247;-4.803244037;1.06558423;-4.985586205;-1.040400467;-9.210058594;2.008309417
5.224439126;6.238976723;19.50693444;12.25607557;2.694730015;0.484315432;17.90609183;-2.824768435;-6.995851646;14.80062398;54.72951801;7.328898514;1.008476081;-3.187889191;2.179887258;-1.02720788;0.246745244;-6.375963467;2.763806694
-1.606658984;5.029409839;14.83594001;13.38345377;0.814853382;0.200292967;20.64130928;-2.468564109;-6.246595881;7.945448931;43.42266122;7.715547054;1.209415285;-2.74394781;5.43199102;4.562196681;1.296222271;-1.815975066;2.687331359
-6.133659936;0.361705203;4.006674447;16.19474389;-0.442006291;-0.162910114;15.67278014;-1.810303336;-0.860353196;6.759258324;29.61013776;7.750541911;0.344542755;-2.951689467;9.728021088;9.202265558;2.015314845;2.233913741;1.7825636
-6.063682496;-4.108249936;-9.050578349;19.72841057;-0.308442922;-0.279680699;0.614598318;0.203889095;7.404787596;15.14100609;25.78058312;8.135988734;0.326799884;-2.643710311;13.26292114;10.99309149;2.77801907;4.373472668;0.733484929
-3.105248084;-5.448189912;-19.59947805;21.68526548;0.665422279;-0.037243937;-20.01920508;3.408414108;14.01988557;28.38878476;36.73424494;9.179831942;2.534751293;-1.053165462;14.88899689;9.743579825;3.875572463;4.793882302;0.260501016
-1.293529758;-3.758475885;-24.10856346;20.34710869;1.187716537;0.333797138;-35.84870231;6.556403341;15.25307655;35.59699783;54.06494979;10.51879137;6.661717048;1.504427229;15.0104687;6.919981991;4.992633864;4.44427749;0.441219932
-3.593815541;-1.759651567;-21.67944693;16.38172819;0.485500292;0.459121476;-37.03794214;8.471784545;11.22225172;27.52865855;60.98369951;11.4831552;10.83743128;3.876814899;15.2925462;4.617150116;5.286803631;3.523567231;0.644798893
-9.505455077;-2.173044692;-14.39828951;12.88080686;-0.902360311;0.176749557;-21.7598039;9.086924864;5.886544886;4.00970467;44.62777662;11.77805107;12.96073674;5.012361639;17.35638885;4.25699936;4.102087535;0.954542013;0.161615674
-15.43043597;-5.280495946;-6.311835947;13.3311928;-1.551961201;-0.28536263;1.363311854;9.365205571;3.946917479;-24.95219362;6.66994705;11.82181768;12.20999319;4.771436989;21.39900566;5.823180281;1.714600935;-4.390348444;-1.046780024
-17.34096697;-8.762711008;-1.232197902;18.9484248;-0.456896263;-0.493685741;18.59943209;10.18541571;7.184511541;-45.34456341;-36.20959362;12.37252567;9.557713981;3.927550049;25.76762561;8.034314014;-0.613507639;-11.73643808;-2.191949934
-13.60742625;-9.816602655;-0.408562196;27.4537959;1.954360371;-0.204903675;20.82495937;11.28928823;13.21551941;-48.09237028;-62.88898311;13.74751833;6.926350636;3.397300041;27.86138373;9.252096072;-1.449971924;-17.766526;-2.290654865
-5.945764578;-7.563503611;-1.635388379;34.35678477;4.041088686;0.386571955;10.23715225;11.39074533;17.61307756;-34.3086546;-61.82493547;15.370843;5.709351862;3.410058594;25.79667551;8.508046015;-0.289488441;-18.44709154;-1.055910313
1.966291886;-3.625028191;-0.801942712;35.89543658;4.295072261;0.790829844;-1.490839433;9.473423668;17.56451855;-13.45904268;-38.24804292;16.13675596;5.848039542;3.357874872;19.72213495;6.033278866;1.967759697;-12.27048823;0.75145746
6.948228951;-0.488292656;4.786638867;31.51245503;2.683625258;0.64631723;-2.568765099;6.120890009;14.03595959;3.553977048;-9.498271289;15.34055441;6.136842594;2.435989384;11.8929332;3.033802631;3.604952958;-2.249708467;1.866234802
8.043930489;0.735895061;13.62913952;24.11243636;0.819894716;0.05182602;9.245338424;3.543079585;10.76448617;10.97407213;7.534534517;13.36545485;5.393732766;0.466158225;5.449063276;0.918087876;3.333099497;5.41498825;1.533741798
6.528639751;1.118212416;20.19292822;18.03012632;0.76070491;-0.49913138;24.44206406;4.028698069;11.07915456;10.04453088;7.252182898;11.4685289;3.461759746;-1.866236273;2.697912505;0.479562282;1.231106219;5.51634799;0.143499058
4.56030718;2.653990684;18.47469753;16.28203525;3.390116264;-0.537013685;29.01173629;7.980397145;15.26834531;5.893661496;-3.167596276;10.78399025;1.240163764;-3.588824476;3.98712783;1.517289968;-1.344324226;-2.1279992;-1.064417138
3.658047375;6.225028639;6.675592185;19.02151805;7.695652819;-0.023075249;15.56043092;13.209184;20.57323631;2.87754214;-11.60149445;11.37980452;-0.170406554;-4.308176137;7.799195264;3.082927119;-2.779889221;-12.05330975;-0.983339533
4.014505766;10.70238491;-10.5815824;24.0234407;11.49405201;0.617725052;-10.49630137;16.24851736;23.56905117;2.16711867;-11.0362243;12.20261846;-0.378562521;-4.560757293;11.86172353;4.157426876;-2.333672581;-16.76132846;0.502936058
4.839567694;13.96185517;-24.57810323;28.4829998;12.97406312;0.869413139;-34.56969995;14.80923406;22.76633664;2.667164842;-3.839477118;11.99302387;0.133351995;-5.298419689;14.45296189;4.313373754;-0.51422532;-12.07931396;2.484602276
5.211467006;14.77500962;-28.0666959;30.65707807;11.81294468;0.572044923;-43.43867203;9.505075923;19.331765;3.342351889;2.293789283;10.39856293;0.661433937;-6.943954471;15.09269883;3.950671758;1.488406704;-0.258182708;3.798048943
4.740636427;13.7716881;-20.10718927;30.35443248;9.074598791;0.04552839;-34.38318058;3.492472251;15.66233524;4.330432126;2.282406354;8.320312764;1.067730056;-8.863472142;14.36115275;3.979602034;2.756204503;11.58763002;3.921926522
3.676968057;12.62416931;-6.51476221;28.3846131;6.160843602;-0.214677209;-16.00591914;0.286255969;13.38832405;6.078383096;-1.675821298;7.187452479;1.924396607;-9.760262834;13.21265025;5.182462019;3.186970249;16.55705737;3.255722084
2.544855882;12.33147254;4.474626652;25.78603248;3.813067016;0.012015623;-0.722865733;1.410610778;12.59762221;8.023547651;-2.468027737;7.788640768;3.862097937;-8.692565229;12.37992989;7.681427237;3.280902267;12.7389646;2.617251127
1.656668543;12.3265143;8.020942;23.46921013;1.956662171;0.485288811;4.544572642;5.5974629;12.63454071;8.744833486;5.051465786;9.668816329;6.738092759;-5.862462147;12.19904369;10.84921201;3.503555612;4.180039063;2.475043737
0.853807336;11.28844626;5.542778991;22.21553052;0.313478429;0.74549171;2.074284041;9.965517731;13.24021767;7.722019006;18.88460638;11.58604256;9.446634466;-2.506741852;12.73617938;13.69;3.864632131;-2.457158119;2.61285391
-0.358050858;8.827735528;2.598479328;22.56222701;-0.982210097;0.550560145;-0.731456439;12.10139013;14.63112447;6.777544789;30.88663866;12.5793491;10.64542614;0.017545163;13.88960538;15.41094427;4.05337324;-2.780585984;2.474657505
-2.362824192;6.281811343;3.77876652;24.37945412;-1.423055776;0.097544023;1.223084014;11.4383054;16.46360095;9.160760401;33.0003821;12.6768018;9.847217693;1.187329377;15.32564548;15.80881934;3.897844353;2.620078125;1.797208105
-4.978010596;5.653736375;8.934749501;26.53826371;-0.741880753;-0.177569887;6.68586299;9.104438712;17.06651584;16.40494235;23.47015009;12.6392923;7.952737017;1.537905972;16.44376459;15.26218306;3.622048531;9.380513509;0.896603574
-7.357180078;7.550971468;13.78587424;27.25643766;0.602627526;-0.029881066;10.49032704;6.711009259;14.27631215;25.57146197;8.049954879;13.04365818;6.716511309;2.035094268;16.65540134;14.39871729;3.619568017;13.07881646;0.340133644
-8.432900923;10.11521632;14.1613405;25.18;1.655877155;0.346504151;9.471838039;5.244336577;7.57426461;29.80712907;-4.454078592;13.61621031;7.498488737;3.18751211;15.95053539;13.69565978;3.980493191;12.314259;0.344190376
-7.684655948;10.22214234;10.0379618;20.46986418;1.769750611;0.497041656;5.910181871;4.838507846;-0.433105615;22.6477015;-8.435420623;13.47136418;10.24299439;4.654579495;15.28884495;13.25238335;4.281399969;8.927412406;0.511755123
-5.672689151;6.198432835;5.761891736;14.92634286;1.2129217;0.152489187;5.215624717;5.251970675;-5.049533475;3.172487059;-4.631319754;12.03043487;13.46165001;5.611635677;16.26609143;12.81124704;3.904641472;5.725450809;0.200049438
-3.824182639;-0.244652509;6.176326697;10.8604283;0.94811452;-0.480238036;10.24145347;6.298396755;-2.821362178;-22.1076422;1.761165487;9.720650018;15.22726996;5.460213147;19.99362363;11.94823746;2.626650179;4.028840645;-0.80598604
-3.479925562;-4.749676988;11.97041061;9.491688908;1.719811655;-0.872783406;17.92703715;7.761440357;5.360395442;-42.56323829;5.757257449;7.731542895;14.43918788;4.226768257;25.87683656;10.3104126;0.918689505;3.123873524;-1.962674629
-4.860963752;-3.453664579;18.34488478;10.15438335;3.297595678;-0.652884043;21.82510227;9.055306643;14.22295407;-49.90764774;5.976047028;6.989329794;11.46827057;2.360048828;31.33121016;7.817921318;-0.361644325;1.725336714;-2.34172441
-6.821618383;3.849486277;18.3775602;10.98950923;4.63631149;0.031874702;18.40167905;9.259975867;17.67494628;-43.20560586;4.390754836;7.279068844;7.797455247;0.229243378;32.98856762;4.78231191;-0.649071542;-0.273267301;-1.424853825
-7.720842096;13.12505319;8.543747013;10.55069179;4.871318765;0.614681075;11.10458818;7.759210222;13.38574467;-28.86096669;3.452159306;7.36029137;4.998845414;-2.129098377;28.84690283;1.880435215;-0.119080482;-1.549224817;0.381298567
-6.80784672;18.74134308;-8.008400092;8.947947678;4.235084981;0.604942056;7.865632369;4.957873979;4.619846716;-15.82841335;3.602799731;6.02846453;3.78324836;-4.780171747;19.92359019;-0.075251638;0.504209186;-0.773071006;1.998356782
-4.96957168;17.43188148;-23.08698348;7.548734998;3.971069851;0.036364362;13.66796999;2.270815821;-2.39544206;-9.800078125;3.323121854;3.185210002;3.700109652;-7.476516568;10.07825207;-0.53469652;0.611027957;1.810795193;2.518141289
-4.099560461;10.59588505;-28.79338119;7.542838416;5.206319008;-0.549159587;24.73602947;1.146104034;-3.56098887;-10.5456189;1.235991776;-0.06297136;3.567617852;-9.571937077;3.858449929;0.420976812;0.233921775;4.321394333;1.923129765
-5.492732005;3.24031912;-22.57140417;8.714604177;7.746751787;-0.584509913;30.12041581;1.835337826;-0.206632018;-13.77207041;-2.045352502;-2.378239533;2.274661366;-10.44180343;3.687081581;2.018368233;-0.044869825;4.878832021;1.062662265
-8.60262601;0.436782136;-8.410269159;9.59051804;9.935059202;0.00156859;20.25682172;3.02624917;2.305460803;-15.30059498;-4.162355467;-3.33;-0.529770802;-10.03580605;8.328921718;3.176651825;0.284167429;3.411513052;0.900941579
-11.330664;3.955471198;6.238715795;8.859124433;9.832417771;0.703011569;-4.283185556;2.821296535;-0.391320387;-13.96047146;-3.063542685;-3.607491448;-4.188076716;-8.981844047;13.78154774;3.155918178;1.098395309;1.821635401;1.682949113
-11.76042823;11.40710834;15.14271868;6.733598421;6.795067965;0.882041893;-31.46465877;0.359189322;-7.331405673;-11.27665286;1.109620618;-4.072600829;-7.301480163;-8.042672832;16.03585253;2.028855381;1.694287368;2.177169859;2.731346893
-9.920202464;18.19865744;16.17695089;4.899138216;2.091499857;0.347461721;-45.71901879;-3.297409877;-12.51720584;-9.0280819;6.037000952;-4.556446583;-8.377238775;-7.366245834;13.78738077;0.598634444;1.433704855;4.508085448;3.036011944
-7.962594417;20.60231152;10.99323491;4.953766529;-2.023141607;-0.460163244;-39.25044254;-5.860486712;-9.919164897;-7.372086206;9.070638602;-3.644296123;-6.576395792;-6.247177316;9.194702825;-0.213193506;0.402078628;6.330405421;2.116969833
-8.400607246;17.75413869;2.699536185;6.703070561;-4.031892381;-0.853677328;-17.74978404;-5.61;0.92472117;-5.216851741;9.24429735;0.151025342;-2.208493678;-3.716328134;6.191780026;-0.042825147;-0.545806283;4.595632999;0.424889079
-11.76062929;11.55753576;-6.11455723;7.954303241;-4.224578212;-0.513542176;4.124045596;-2.792759869;13.61700674;-2.081998939;7.759477748;6.752629383;3.326211607;0.48153873;7.620753457;0.733604447;-0.438637174;-1.445300484;-1.035550702
-15.69903528;5.092285034;-13.74307869;6.216002049;-4.213419749;0.225494623;13.87206768;0.587993947;19.39541595;0.7748697;6.730890367;13.93658306;8.198397364;5.383784534;13.24909452;1.478061037;1.008544661;-8.9858077;-1.503320985
-16.55767703;0.903615468;-18.74212479;0.974401736;-5.35749089;0.680184904;9.957241987;2.438998661;14.001206;1.327958641;7.466746785;18.55;11.0943847;9.299097378;20.00699722;2.011817889;3.140574257;-13.34523249;-0.993571128
-12.29019723;0.109816156;-19.75951931;-5.457945227;-7.51527969;0.442768617;1.43078131;2.265014608;1.30780769;-1.043161733;9.753209581;18.73149677;11.87212134;10.96116425;24.12890318;2.897366433;4.878616046;-11.44344182;-0.15550163
-4.396071921;2.339161996;-16.37662274;-9.448081024;-9.238224217;-0.245823887;-0.773274524;1.399477803;-9.427183521;-4.45863106;12.48962949;15.35023261;11.477016;10.40888868;23.57453684;4.935634246;5.550782136;-4.280769095;0.34844629
2.852519373;6.032288321;-10.05580806;-8.840648475;-9.21021789;-0.717969141;6.765855203;1.573776529;-10.63168593;-5.905161558;14.76451847;11.38858076;11.15587623;8.85131527;19.07257131;8.238085161;5.317583285;3.688857015;0.36124863
5.442186581;8.882345499;-3.853200564;-4.788213105;-7.598217176;-0.496614287;17.7340676;3.111794845;-2.171733331;-4.046187747;16.25277727;9.646819506;11.53137104;7.633771051;13.2799962;11.70211564;4.85782721;7.88580341;0.222344761
2.556948227;8.582408024;-0.659508325;-1.036089947;-6.040637894;0.258648362;22.50969501;4.411415674;8.796283907;-0.845371164;16.72804328;10.57861658;12.2242857;7.193017051;8.911497738;13.48710146;4.654415153;6.962274562;0.319778014
-2.926639137;3.955869354;-1.269356165;-1.133127434;-6.223631885;0.891116232;17.26724718;3.264592948;13.62427827;-0.203486132;15.50593273;12.02402254;12.28685721;6.882716893;7.242305926;12.27551184;4.561784673;3.452409642;0.675488529
-6.76898802;-4.034791818;-3.956398375;-5.745868748;-8.289270586;0.849529518;7.636019238;-1.076282283;8.808635681;-4.482234371;11.7095299;11.07917922;11.05421521;5.765417049;7.844372638;8.368363774;4.039787046;1.224174485;0.951829786
-6.592788621;-12.28753324;-5.969619847;-12.1714935;-10.51468161;0.200690233;3.674163383;-6.902055117;-1.849577881;-11.90781023;5.314309906;6.585499369;8.684711002;3.607226146;9.371704735;3.671898502;2.790858464;1.934410344;0.830073242
-3.383013845;-17.00832366;-5.626179916;-16.34951465;-10.60539086;-0.424569598;10.5435585;-11.07204972;-10.9835308;-17.36811933;-2.051746208;0.2094091;5.951880013;1.1537735;10.54965951;0.457849171;1.1516159;3.540078125;0.354608393
-0.159356976;-15.93801878;-3.156434084;-15.69229642;-7.527513085;-0.409693156;23.07494547;-11.28565075;-13.81803571;-16.27480337;-7.576715047;-4.754395807;3.531322756;-0.548552493;10.67019879;-0.213995144;-0.169599244;2.174760402;-0.107049103
0.862135567;-9.854828486;0.283972141;-10.54119176;-2.325959903;0.274020352;29.17486769;-7.737069453;-11.49467404;-8.380582472;-8.958031705;-5.869234938;1.486412122;-1.125986733;9.539135352;0.81658716;-0.778360097;-4.191150582;-0.24248691
0.076239314;-2.152321529;4.177595039;-3.357263822;2.736344216;1.02973695;19.54278737;-2.798272892;-9.045299366;1.756037234;-6.098034224;-3.344546837;-0.540407165;-1.209267585;7.29267916;1.577636381;-1.040650247;-13.47207118;-0.124817467
-0.258863452;3.34064424;8.947032579;3.341202102;5.927079069;1.173846215;-4.216850649;0.955101624;-10.21651581;8.247305351;-1.397705609;0.21776353;-2.623224361;-1.793820409;4.411615928;0.593520695;-1.821361973;-20.63737576;-0.153602157
1.492421509;4.76569657;14.51808157;8.438150392;7.163178397;0.557912245;-29.80018859;2.677116387;-13.93098963;8.501118049;1.7137847;1.780102766;-4.083600249;-3.226754288;1.819653042;-1.923073708;-3.696239349;-21.50075928;-0.645721899
4.504975103;3.131984183;18.70461088;12.06389203;7.613094135;-0.300290538;-42.73012751;3.541647374;-15.47492829;5.105970355;0.981268904;-0.09276752;-3.858737447;-4.798111563;0.69379513;-4.261348928;-6.324166892;-16.0394698;-1.462479351
6.08383155;1.151301396;17.59717421;14.43271704;8.285603923;-0.697999766;-36.58440316;5.252852751;-11.16766011;3.33236082;-3.340201377;-4.607773513;-1.529072;-5.368149435;1.848158708;-4.60103417;-8.55245933;-8.460490215;-2.038503188
4.22022702;1.05917504;8.458007504;15.12835957;8.984453475;-0.392385874;-17.12048205;8.179458215;-2.186118501;6.352073759;-8.897364056;-9.724474904;1.896150469;-4.479993722;5.055084512;-2.448672836;-9.191425499;-3.891102109;-1.810597709
-0.21779221;3.160917802;-6.999650578;13.62397598;8.592129854;0.194236979;2.522833012;10.79435379;5.944246117;12.30738695;-12.92761175;-13.66984939;4.292314305;-2.904776529;8.90870713;1.027066023;-7.817235457;-4.380844401;-0.679130334
-3.772819492;6.085490212;-22.12071723;10.38252147;6.353800008;0.401108217;11.45714258;10.91061142;7.772189571;15.85758686;-13.88920593;-15.72926955;3.814468011;-2.04222075;11.50870157;3.957436779;-4.966614762;-7.501900606;0.88991567
-3.115515598;8.241059213;-28.91093954;7.149065711;2.878918708;-0.018254253;8.101477501;7.62232597;2.389566616;12.98917054;-11.95062838;-15.95810291;0.363183014;-2.650143715;11.58186078;5.155353526;-1.650225818;-8.696808004;2.187469687
2.064936117;9.056334619;-23.54383913;5.796842273;-0.151156626;-0.645050353;-0.180306031;2.267494562;-5.882974763;4.957861481;-8.280951584;-14.49349211;-4.104430323;-4.042113756;9.248656156;4.760019531;1.306034302;-5.407440918;2.713151731
8.530489236;8.997083479;-9.488468701;6.623440982;-1.348008563;-0.799907559;-3.758510464;-2.395632486;-11.03865314;-2.210191117;-3.958289633;-11.34865252;-6.804795325;-4.533949158;5.873031461;3.711307636;3.520273475;0.481354699;2.396983135
11.90052851;8.59877007;4.599343209;7.776382478;-0.798208921;-0.228727054;1.83472326;-4.08368991;-9.962857084;-2.557563892;0.613932829;-6.855838561;-6.038396055;-2.82378468;3.134757321;2.674065027;4.825029431;3.977278566;1.493033524
10.05551674;7.654383814;10.98495629;6.629504948;0.050041809;0.59438883;13.10385473;-2.405786274;-4.177612091;4.477285704;5.512073596;-2.098588779;-2.319889946;0.864520523;2.041496593;1.47066797;4.979789362;1.069525236;0.349485195
4.714794397;5.43335503;8.306259592;2.115062389;-0.287114803;0.870787863;21.72705634;1.223116767;2.365539717;12.74858016;10.71249265;1.388550755;2.139130248;4.87145868;2.568897557;-0.470203549;3.779287574;-7.744904716;-0.697237025
-0.103944066;1.696163446;2.010384099;-4.060897401;-2.006069679;0.240692722;20.60581916;4.87349897;7.00050145;13.51942307;15.69797861;2.602842736;5.140550475;7.354219131;4.039698206;-3.148365065;1.509345157;-17.39055634;-1.285742171
-1.40798166;-2.584545157;-0.575506395;-8.594460815;-3.912358712;-0.812840943;8.3763243;7.379156402;10.01099011;2.047733273;19.51628173;1.877004943;6.008770862;7.619799051;5.761345139;-5.533491984;-0.8;-21.71730535;-1.053994848
0.461826026;-5.645957645;3.567286485;-9.324050626;-4.609142896;-1.340508195;-10.16553437;8.625986358;12.9358274;-18.41179808;21.17061918;0.657879921;5.738652297;6.416404089;7.348389197;-6.180078125;-1.812384207;-17.85837311;0.127383814
2.399037923;-6.243643965;10.89333037;-7.172003906;-3.826514339;-0.784646986;-27.16069573;8.932239142;15.60494255;-38.34590376;20.08456931;0.32095585;5.81411947;5.022158221;8.586187865;-4.460698198;-0.856050442;-8.117306168;1.860998678
1.359485745;-4.686308187;14.82249956;-5.448499716;-2.59962573;0.460737029;-35.86;8.41555201;15.2818768;-48.23334202;16.46758252;1.03461422;6.832043718;4.04916607;9.184306585;-1.320307955;1.363373311;1.892405337;3.223028033
-3.029885212;-2.623919928;11.90887034;-6.945032889;-2.102129101;1.337652785;-33.59420316;7.072887288;9.202628563;-44.6865067;11.47749646;1.731327727;8.130597506;3.084593112;8.83079103;1.19160386;3.051815019;7.183155664;3.24680119
-8.244688989;-1.746878619;5.156675918;-11.2915336;-2.260772729;1.047702377;-22.53728906;5.395944312;-1.717052616;-32.08042836;7.038017611;1.255057078;8.633716718;1.439783724;7.550100006;1.299731731;2.563022574;6.300796398;1.62462494
-11.0572932;-2.565731045;1.41804034;-14.98433485;-1.557242477;-0.206924878;-8.363078954;4.664245061;-11.80923731;-18.80226415;5.188147696;-0.376436694;8.007384981;-0.815558446;5.932313972;-1.328649881;-0.350391176;1.242752635;-0.951846171
-10.15808766;-4.359285347;5.008200854;-14.23783213;1.648913777;-1.358922469;2.571014785;6.31471691;-13.98080552;-11.24632656;7.099457689;-1.834437254;6.995902242;-2.644584429;4.827527737;-5.567547013;-4.329777954;-4.977933249;-3.199689499
-6.997709283;-6.253634803;13.15518811;-8.291679362;7.404812874;-1.405655858;6.470972344;10.74953421;-5.215801664;-10.06017473;12.28125012;-1.689408661;6.649049653;-2.9556632;4.618975628;-9.894111186;-7.475556829;-10.69813738;-4.173346453
-4.310745411;-8.282390519;17.54638677;-0.282902874;13.66354149;-0.314867605;4.243476312;16.65662516;10.31607434;-11.05174518;18.60889128;0.123386652;7.249135491;-1.777636665;4.709982602;-13.52012136;-8.808003174;-15.93222596;-3.975162668
-3.766316963;-11.26264117;11.0740865;5.169765574;17.59630202;0.923708795;0.97512299;21.62446594;23.52526262;-9.463453878;23.37926741;2.030431479;8.048290496;-0.472983898;3.823202115;-16.58527558;-8.866395535;-20.82061272;-3.610657722
-4.772615023;-15.47403023;-5.704397548;5.652191133;17.6898324;1.176860992;2.439271192;23.73041449;26.66239493;-3.96015245;24.83564173;2.160646331;8.130419533;-0.603969564;1.047998367;-19.33649626;-8.931916927;-24.14750192;-4.053398497
-5.27291644;-19.39816466;-23.90337654;2.737360625;14.84159723;0.200296927;10.49347964;22.86572201;18.76310147;2.669206451;23.13804418;0.18809156;7.567915094;-2.382164576;-3.166967253;-21.21144153;-9.60544275;-23.70688419;-5.301701623
-3.612942999;-19.9352034;-32.29604108;0.331346856;11.50251912;-1.117949795;20.70591536;20.70310944;5.988918411;6.229792565;20.07183859;-2.049444466;7.662353459;-4.174330635;-6.991796577;-20.85925631;-10.09118177;-18.37176177;-6.277765758
0.18694986;-14.31364567;-25.3566336;1.08625802;9.629708952;-1.548874682;24.61547593;19.33278564;-3.305727253;4.735759226;17.72217797;-1.90968834;9.862980807;-3.707563305;-8.367829598;-17.23404611;-8.918297631;-9.868180842;-5.71721506
4.640911404;-2.358244185;-7.103455909;4.113827754;9.253885643;-0.648301341;15.74902556;19.70460487;-4.70473474;-0.027221378;17.13941716;1.741543796;14.24293512;-0.080059509;-6.543956028;-10.80883654;-5.485941398;-2.261533715;-3.308326702
7.974810848;12.72655075;12.03678043;6.068426627;8.878958832;0.81208362;-4.778716637;21.12705639;-0.197321377;-4.038336492;17.97949669;7.276937735;18.96682248;5.169300313;-2.783571273;-3.715274579;-0.968957996;0.863193256;-0.068668519
9.092284264;25.84620578;22.52993751;4.603470085;7.241795632;1.525542906;-27.6508541;22.10529275;4.619538034;-4.202835119;19.23964469;11.34607241;21.41064873;8.994153198;0.402596046;1.500549737;2.391517172;-0.672852338;2.418427781
7.703434748;32.80398768;21.38884769;0.986351553;4.72021;0.843697435;-40.89673136;21.64836328;5.777670604;-0.538161474;20.28520543;11.47740146;20.12351388;9.128745624;0.998193795;3.568974296;3.129873327;-3.219517654;3.273704128
4.003543601;32.42580587;12.29532047;-0.667377162;3.038645534;-0.608681316;-37.94531849;19.87952953;3.997160558;4.213089442;21.20711733;8.079451207;15.97870693;5.841239677;-1.094485805;3.229763837;1.919646748;-2.056984008;2.984326199
-1.370305531;26.6605002;1.187439387;2.958488271;3.555642028;-1.483954172;-22.18306069;17.55920798;3.195197517;6.994577308;22.28269396;4.091085007;11.4738505;1.639933289;-4.020360164;2.383447526;1.136035729;4.698718795;2.862409307
-7.017886116;18.9114568;-8.226915615;11.05138232;5.79730061;-0.948995735;-4.392344413;15.18865316;6.201171975;6.80178659;23.2193958;2.515095942;8.728164477;-0.844835348;-5.340636197;2.402258317;2.839136333;14.23166754;3.784816776
-10.80386557;12.08159082;-15.3714598;18.74685795;7.710808914;0.521697001;5.080938969;12.67971771;11.76010143;5.158590397;23.06143927;3.918983909;7.887454197;-0.988935786;-3.773542481;3.069044076;6.865036712;20.8772429;5.368132851
-10.85954443;7.674314832;-20.39411016;20.78098384;7.493850851;1.550333433;3.401694931;9.879664443;15.48603382;4.511907699;20.93781874;6.053364647;7.309715337;-0.47813218;-0.059702753;3.030597345;10.74482507;20.35235626;6.351626929
-7.110905149;6.088312902;-21.89806661;15.70675515;5.31417066;1.118943451;-3.82464012;7.266223546;13.71924742;6.027329548;16.92568053;5.915310094;5.324261994;-1.558663626;3.573003642;1.273918519;11.64811369;13.02930025;5.843924406
-1.921077026;7.196636397;-17.69935889;7.067973448;3.250048828;-0.460146513;-8.115441681;5.892796357;6.673807258;8.653806546;12.11797313;2.447407199;1.939607205;-4.830346208;4.848244223;-1.787268955;8.757565628;3.644892466;4.25419073
1.212267917;10.36785926;-7.92786337;0.50137637;3.40622216;-1.784679491;-5.262345352;6.44562945;-1.911088969;10.18679216;7.748078989;-2.4975936;-1.080877284;-8.583522739;2.761794287;-4.641293024;4.025174118;-2.281078438;2.978130356
0.301817928;14.06565817;3.127118832;-0.755926308;5.90674231;-1.633319618;1.877044334;8.305172913;-8.089633462;9.363902869;4.204941015;-5.765938563;-1.858308652;-10.28360543;-1.970621535;-6.100406324;0.6096769;-2.409365485;3.062789236
-3.267836557;15.93342568;9.214191702;1.86079318;8.671243267;-0.116498146;6.892669909;9.696447834;-10.80683217;7.151368964;0.963994971;-5.646228052;-0.23213807;-8.850901844;-7.399433607;-6.436002162;0.308883313;1.175999748;4.085440069
-5.549520086;13.93566155;7.165978821;3.995452126;9.272320813;1.374594816;6.073135735;9.056846791;-11.99088708;6.036660331;-2.410313594;-3.30593452;1.954444005;-5.643625626;-11.30749711;-7.087054341;2.200503295;4.19289228;4.376374136
-3.260707806;7.945215211;0.258212098;2.404871938;7.198181211;1.42020027;1.640276434;6.493833938;-13.83720387;7.828529972;-5.167868534;-1.655095567;2.454176025;-3.222701081;-12.1501126;-9.149333308;3.656854346;3.749245163;2.516225335
3.127500538;0.345639209;-3.846268363;-2.374419377;4.372122995;-0.099392358;-0.781985958;3.906213639;-16.15015726;11.82645288;-5.410475379;-2.675688792;0.665979233;-3.013172143;-9.676973079;-12.06249655;2.801297893;0.262699641;-1.193409698
9.268045658;-5.254066668;0.392945859;-6.969315334;3.340863107;-1.840133243;2.192258753;3.437174107;-16.43952982;15.08741814;-1.499899194;-5.622286751;-1.783153555;-4.016841109;-5.086439485;-13.8185283;0.194579204;-3.628021472;-4.686790027
10.2818017;-6.500710594;10.85065414;-8.590774754;4.756792888;-2.196249268;8.462831637;5.507489892;-12.6673885;14.85646487;6.299527607;-7.699370314;-2.532580329;-3.79210438;-0.570456584;-12.63970022;-1.755920076;-5.790701177;-5.707060812
4.966649557;-4.03300581;18.4681653;-7.578870595;6.564747933;-0.797194119;12.73453188;8.248009087;-5.838040334;11.27825498;15.49576708;-6.577059645;-0.71958031;-0.826171369;1.766829446;-8.657819326;-1.094811158;-6.30321217;-3.700355044
-2.810575133;-0.898761562;14.45064106;-6.684047961;5.821614038;1.093495815;12.09996056;9.034953499;0.32938493;7.913178562;22.85595876;-2.452923413;2.1603805;3.901177091;1.217111209;-4.013203482;1.814868819;-6.675634145;-0.343982781
-7.053215321;0.057445091;-1.774276632;-7.904918403;1.598224032;1.700307492;9.300370567;6.913252037;2.584780718;9.077155592;26.55825091;2.195025872;3.671215094;7.665542212;-0.842853973;-1.164915019;4.611227977;-7.624188617;1.841963418
-4.65682767;-1.266403034;-20.84823772;-10.10552167;-3.760624049;0.391127654;10.04773013;3.719226305;1.213468647;15.67835989;27.17733218;4.891084621;2.893078782;8.429847333;-1.64120932;-0.854483049;5.168955172;-7.833774171;1.640765894
1.79607264;-1.975341668;-30.13823858;-9.918808944;-6.398544106;-1.66992866;16.53348502;2.705190018;-0.116328675;22.94996235;26.67669073;5.339187683;1.574603065;6.718207915;1.032978287;-1.559880396;3.663645695;-5.130342757;0.143621561
6.106594823;1.414306089;-23.67315562;-5.232669572;-4.347572358;-2.538462484;23.42468313;5.681474345;2.123324544;22.60334716;26.41139793;5.468119512;2.697169807;5.129233438;6.870283628;-0.981046719;2.474500332;0.988083229;-0.325042185
3.844068384;9.807929108;-7.05951542;2.110019531;0.488824488;-1.300651619;21.04291867;11.16511569;7.607407347;8.691728864;26.07288544;7.321168382;7.550514812;5.850679518;12.73647703;1.75879172;3.920187409;8.053303742;1.565678333
-3.592578372;20.25716872;7.031507298;7.256266214;3.742092801;0.992212035;3.990359241;15.32117285;11.92;-16.82332636;24.57343118;10.81179707;13.97261895;8.462462647;14.6830511;5.220533126;7.900123731;12.17864014;4.794467412
-9.967402551;27.72346032;9.247873541;6.423674143;2.332150952;2.202590548;-22.1335945;15.07552836;10.40149034;-43.39902391;21.89355153;13.53823504;17.59903946;10.17;11.06427493;6.934458305;11.7221314;11.36519027;6.792629331
-9.634105466;28.51785457;1.052270529;0.47576606;-2.730569444;1.076941394;-42.66385444;10.75780454;2.774326998;-57.63011092;19.82600535;12.94392612;15.35501898;8.420163512;4.312052758;5.712593861;12.44268613;7.543244214;5.750410968
-2.714886708;22.68626203;-7.143887776;-5.495979166;-7.129921282;-1.490835046;-44.1909321;5.885827057;-5.841961814;-52.01511392;20.54284866;8.865182204;8.281035877;3.567493096;-0.415776797;2.816014134;9.657361177;5.158217175;2.330310895
4.701328692;13.55272424;-5.627403796;-6.544861851;-7.090591878;-3.147798425;-25.38234334;4.149821947;-8.902872044;-30.5426005;24.17831092;4.030285555;1.113949483;-0.970473719;0.874779786;0.79917582;6.093179737;7.17247829;-0.854054139
5.810425018;5.03533153;5.66836764;-2.393764883;-2.885739229;-2.206043855;0.970240369;6.191766148;-4.186901096;-6.569966192;27.9505823;1.884252627;-1.270989704;-1.458961086;7.469494707;1.028946259;5.244242281;11.94185342;-1.619919153
-0.693089362;-0.906209636;16.95928171;2.124288273;1.286208496;0.703694141;17.23783859;9.084134627;3.8542363;6.047928288;28.20706952;3.601468214;2.312922639;2.811479292;13.80797681;2.228314953;8.043320607;14.02727672;-0.306780811
-9.086590386;-4.727268859;17.54891155;1.405171605;1.158464134;3.044656187;14.57880765;9.081335233;7.613601817;2.356202616;23.95534417;7.006235194;8.508407344;8.622688438;13.37785361;1.574814842;11.64555488;8.687394561;0.433102306
-11.47752857;-7.754501849;6.027691875;-5.554134635;-3.411398329;2.616901246;-0.283975722;5.23779949;2.976649205;-10.78523812;18.56083076;8.473357934;12.29744315;11.36828012;3.948249207;-2.48099796;11.67684056;-3.628351361;-1.891874906
-4.990545341;-10.49564266;-7.641312102;-13.71556738;-7.875493809;-0.344408739;-11.07978137;0.563805744;-6.719323307;-20.56903378;17.44052386;6.159943715;11.15971654;8.9441138;-10.01292975;-8.275136684;6.172324032;-16.84526831;-7.06649961
5.190786835;-12.49848455;-10.57821717;-16.09843228;-6.908693328;-3.201033708;-6.052693623;-0.506994481;-13.19696903;-18.39211639;23.14782584;1.624104333;6.909471705;3.545430289;-20.02514348;-11.88721047;-2.292707639;-23.65942763;-11.98243741
10.02965597;-13.62574737;1.106214165;-9.946333369;0.501730572;-3.210256335;11.80789395;3.800450426;-10.3761381;-6.300696937;32.11629918;-1.70820505;3.656703465;-0.336926683;-19.69582197;-10.43686178;-8.395261952;-21.27792959;-13.2060744
4.730660478;-14.98825696;17.66485682;0.645126561;9.49465862;-0.110136663;27.38198933;10.69916427;0.025299197;5.407793624;36.57333709;-1.855416345;3.811683775;-0.024150615;-9.613032096;-4.855589388;-8.460648489;-13.5804469;-10.11947562
-6.468396689;-18.05969373;23.17489069;8.254876329;13.12952872;3.415543014;26.99807621;15.06820207;9.580524326;7.392073565;30.86029941;-0.247282307;5.851646729;2.861347582;2.930528966;0.55032399;-3.669479622;-7.667917922;-5.717950036
-13.4976474;-22.51176748;9.328512097;8.797218099;8.531200463;4.010863198;11.29776597;14.04405638;10.3457559;-0.467789451;17.10167503;-0.346745603;5.997290351;3.938188726;9.372744459;1.693343646;0.891718842;-7.65835758;-4.093245937
-9.332447513;-25.07084364;-16.33531676;5.160418928;-0.091275674;0.766520019;-4.310549715;9.855555402;2.017719186;-8.882074903;4.895576524;-4.035312762;2.319937796;0.41546632;6.291229138;-1.567277265;0.71287961;-11.18849955;-6.662863036
3.194308087;-21.25293046;-35.50965159;4.169872164;-4.652025483;-3.666559842;-2.94212699;8.084807326;-7.40816114;-7.435258266;4.311462719;-9.145862158;-2.617794205;-5.715570765;-2.307501585;-5.028612478;-4.005550988;-11.87940421;-10.58367933
13.13166253;-9.244435923;-33.95331735;9.409741836;-0.269980924;-5.205388419;17.66007813;12.57085092;-8.449870504;5.664284332;17.42999425;-10.74602725;-3.37495178;-8.845174782;-8.644105525;-3.797962294;-8.374269464;-5.719187438;-11.07718436
10.86894464;7.274500233;-13.67552607;16.71022931;9.91473857;-2.035065478;40.61643645;21.42529657;1.302063173;21.07076821;35.69918229;-5.427823024;3.546071738;-4.634301793;-7.718845102;2.984685934;-7.237098817;4.451342462;-5.899417479
-2.712215223;20.40046641;8.340794761;17.20792092;16.8397444;3.414545402;42.40039116;28.02819707;14.53324547;25.87247146;46.16075074;5.118251997;15.89334464;5.580386997;-1.275648091;10.66523873;-0.199498426;10.82451677;2.016748717
-15.90552545;23.25614202;14.46665209;6.015363095;13.30889838;6.244531436;13.18422701;26.63245897;20.26377036;15.2875368;42.13770409;14.74077906;26.61638983;15.07259382;4.165218748;12.6328999;7.390670682;7.743675463;6.470110028
-15.92930349;15.43047949;1.886963256;-11.28360357;0.928110851;3.385147452;-31.95711798;17.88852742;13.7277429;-1.733955816;29.53388219;17.6472462;29.3071825;17.01221786;3.505700786;6.272269622;8.824401295;-2.164118601;3.271506965
-0.906973564;3.956704228;-14.417594;-21.20429876;-10.25182252;-3.270176742;-61.82611373;9.145920416;1.373573648;-8.806105127;22.73990439;13.49537952;23.70397413;10.48954266;-1.924614889;-3.856571055;2.26114865;-8.87589101;-5.538539124
16.68469035;-1.663683173;-14.61010509;-13.29948668;-9.903165403;-7.926505585;-52.715795;8.576767707;-3.993396256;3.871332885;32.54525822;8.138993451;16.30054495;1.877589915;-5.130764084;-8.899388794;-6.764138083;-3.130349048;-12.55287787
19.37128934;3.035721199;7.514112863;9.274074678;3.057915882;-5.704956925;-8.686785088;17.66777592;5.535504521;29.27289395;55.66504306;8.832465615;15.00361089;-0.229898389;0.323179555;-2.900535179;-9.326728689;14.57861325;-10.86678506
0.107313903;13.44672545;36.49779996;29.42219066;17.98116482;2.663687932;38.56295532;28.64431982;24.78909274;46.66631889;75.15697083;17.55557391;21.99768089;7.314765031;13.8073753;11.47518126;-0.80199164;32.23888534;-0.392470782
-29.17045952;19.02130103;45.7432689;28.17751963;20.12796399;10.49233875;52.03907152;29.80212604;38.00221216;37.26167404;72.72495567;28.20914935;30.97958013;18.48970541;26.66975857;23.85046451;14.13676036;34.4607206;10.88933242
-44.32871771;11.6387735;19.24346541;0.64179311;3.05216609;10.01726505;18.00974695;15.15436532;30.94077033;0.773736647;44.01758585;30.65448062;31.68146099;22.08677371;28.30072361;23.67504126;23.92841113;14.84956757;12.48876711
-27.37300702;-7.254554749;-32.99084275;-37.2854691;-24.33566472;-1.057787181;-41.24238139;-9.315503666;3.269559309;-40.81219129;4.6889523;18.93471497;18.53023766;10.83773884;14.76704895;8.773299056;18.73749893;-17.34333411;-0.116143806
17.65702913;-26.68162126;-79.31198882;-58.3034301;-42.58136709;-16.71200986;-81.37196629;-28.44226205;-29.17805569;-56.90054171;-18.59196364;-2.836469639;-3.563805413;-11.55697964;-6.979105186;-12.05163235;-1.307307769;-42.42400908;-20.83299664
