Channel 1 - P4;Channel 2 - O2;Channel 3 - P8;Channel 4 - T8;Channel 5 - C4;Channel 6 - Cz;Channel 7 - Fz;Channel 8 - F4;Channel 9 - Fp2;Channel 10 - F8;Channel 11 - Fp1;Channel 12 - F7;Channel 13 - F3;Channel 14 - C3;Channel 15 - T7;Channel 16 - P7;Channel 17 - P3;Channel 18 - O1;Channel 19 - Pz
-71.99;-34.83508681;-192.9618725;-79.56601117;-55.93730024;-15.24013745;-217.3918262;-63.89673555;-64.07345246;-202.4191414;-110.0854716;-1.396024189;-18.12;-3.484199388;-8.798734171;-21.38737657;6.787015551;-46.32864187;-15.70633144
-24.38969975;-35.75340891;-137.1727278;-62.60407881;-51.15840893;-22.24180671;-183.6746798;-63.4762728;-70.17354151;-133.4573312;-97.18050107;-15.48305007;-31.78198206;-23.07732933;-20.43752253;-29.71963928;-8.507942564;-42.45770302;-23.63055267
16.80993368;-19.28776377;-38.97085854;-26.79941851;-28.86409424;-19.47794505;-89.44785769;-44.19;-54.3282914;-34.84623929;-55.57072207;-18.35749664;-32.81497518;-29.44481244;-20.85915426;-22.37517494;-14.96963258;-19.28120928;-18.73226706
27.85370252;5.022276435;45.78528488;5.475951272;-2.233205438;-9.06045471;8.294548866;-18.35741193;-30.4412441;36.80007813;-9.652300344;-9.663891387;-22.30934344;-21.52494842;-10.9315449;-4.254623461;-9.544131082;9.487665451;-3.960416394
8.250300326;23.37395683;76.12372144;16.08256053;14.3770775;2.159629461;57.11243968;-0.522420367;-14.95910234;48.51652253;17.7997594;3.518963185;-8.013071572;-6.912632983;2.161223255;12.84705422;2.633160986;27.82315987;11.27980433
-21.68735339;27.15496008;51.19464703;3.781749256;14.91120001;7.532410987;43.45723232;2.029568717;-14.97656431;11.14645343;19.22944728;12.18517388;1.394481904;4.127691809;10.59233343;18.76074614;12.56311872;28.08873505;17.9439854
-38.20399791;18.17500901;5.348804578;-16.0312083;4.594045791;5.138763529;-3.415203255;-6.963199013;-24.39788475;-33.56206998;4.20842752;11.86041369;2.133100627;5.915743871;11.50355732;11.96961316;14.22153824;15.17674401;13.6029919
-31.93720861;6.14856013;-20.8972904;-24.0321584;-5.304126037;-1.422279093;-38.4347355;-16.97106832;-30.57923428;-46.92459079;-10.31289665;5.145933124;-3.038541059;0.44531971;8.174923015;-0.126544974;8.540701933;1.494562459;3.492897216
-12.59500479;0.845913742;-10.42003906;-11.97708076;-6.387655237;-6.316983135;-35.61128412;-19.14507439;-25.50370152;-21.10086777;-13.03647332;-1.23317147;-8.141708639;-5.540149739;6.163895411;-7.572305015;1.716192546;-2.798571037;-4.09714812
1.672731547;5.136320423;22.30346272;11.62875143;1.209199846;-6.037172982;-3.765414431;-12.43319328;-12.28642459;19.68969378;-4.895361602;-2.130889385;-9.127351595;-6.569582984;7.983527729;-5.563797641;-0.333586618;3.342364395;-4.199219722
0.081428937;13.98411953;47.80580359;29.15188615;10.3007011;-1.669337113;26.55379804;-3.107023407;-2.076041905;42.59;4.515121488;2.213125232;-6.61769977;-2.541603833;10.9329847;2.54168674;3.371680557;12.67961788;1.673723515
-13.05537849;19.50209917;47.09733671;28.12611186;13.30391678;2.629450289;31.07794543;1.144704287;-4.421021799;33.20047222;6.255215472;7.02953046;-4.388257732;2.078707757;9.812952259;8.880231953;8.727935816;16.68414692;7.671216376
-24.04545529;17.50971365;25.02498862;10.66694245;8.309432976;3.354541557;10.59616222;-2.607844451;-19.25434896;4.571712316;-0.975711988;7.384603074;-5.41932252;2.70257428;1.985357394;7.936625178;10.59375732;12.54107821;8.818565227
-22.78468758;10.32017086;2.672337844;-9.115772214;-0.119781846;0.395242593;-13.43780258;-10.87076557;-36.86757878;-16.99921328;-11.18446729;2.225590215;-9.175654969;-1.380288497;-9.747369773;0.819154295;7.305186446;4.658306481;4.860134719
-11.32045537;3.982791158;-2.166110913;-16.93572232;-5.422927866;-3.293972578;-19.83181404;-17.28218347;-45.44916732;-15.19077721;-17.16108188;-5.096038125;-12.35704932;-6.732738709;-19.00272316;-6.304003112;1.84850277;0.119761168;-0.177226919
-1.103009294;2.827422936;11.13;-9.424922098;-4.564071572;-4.496184206;-5.505550459;-17.91456721;-39.77937835;4.207905816;-16.33541208;-9.868513585;-12.14156652;-9.083992062;-20.82666963;-7.834084012;-1.031559521;2.456979887;-1.866348218
-2.196247512;6.083150979;28.42759345;4.274578136;0.009127057;-2.447627785;14.5286537;-13.89811166;-24.28712081;21.15393734;-11.62146329;-9.778557997;-8.811969631;-7.065577303;-15.54729192;-3.422819731;0.964015419;9.033475141;0.856193733
-14.34691067;9.1974042;35.20312946;11.03717676;3.162798528;0.780075684;22.89743834;-9.644009634;-8.750078125;20.4925444;-7.471486995;-6.258052982;-5.400620557;-3.127537891;-8.223179368;2.166914342;5.84381813;13.84122989;5.159926997
-27.52050638;8.316063526;28.84083149;4.825066929;1.759958203;2.324419095;15.66144003;-8.720412613;-0.859301211;4.921086636;-5.495034489;-2.636953444;-4.795395206;-1.078873041;-4.279024922;3.572602621;9.263595917;12.85286142;7.144081474
-30.87480893;3.801378236;18.34242279;-8.842914325;-2.913815585;1.048434765;3.945433105;-11.07654379;-1.752048711;-8.894011947;-3.762812376;-1.085450528;-7.035687567;-2.64791376;-5.171700583;-0.417021564;8.355386635;7.210337949;5.299541845
-21.967221;-0.259242793;13.31482052;-18.22674888;-6.794147943;-1.654273689;1.154175503;-13.7079898;-7.329433281;-6.332471363;0.024748457;-1.12875456;-9.279761202;-6.124072203;-7.776114354;-5.969928236;4.063750264;1.774860112;1.593181584
-8.324428242;0.03189314;13.71410811;-15.51976234;-6.915562336;-3.30419634;8.789052035;-13.71052768;-13.03568016;11.9293455;5.071366832;-0.832614909;-8.450019531;-8.111340926;-7.822898003;-7.749173085;0.094643281;0.686860107;-0.55066262
-0.555646341;4.608392335;10.2591814;-3.219849334;-3.94081608;-2.592357013;14.54680005;-10.79902165;-17.33976952;30.90932276;7.406310535;0.748111641;-4.137399844;-6.641741986;-4.156261444;-3.622287477;-0.399520035;3.961738098;0.63307431
-3.458404211;9.176182366;-5.21435359;8.258129594;-1.251687014;-0.422708819;4.430598471;-7.213351578;-21.20342694;34.86807442;3.449919125;2.32185649;0.863781272;-2.832723316;0.060309952;3.563495863;2.589145865;7.912069654;3.833050823
-12.78848095;8.735819949;-29.7405107;9.255140327;-1.692905352;1.075839884;-22.62583993;-5.461766349;-25.01967496;20.87007813;-6.149646495;1.527879403;2.873158726;0.259463453;0.264300104;8.532158794;6.221345034;8.686904872;6.052587825
-19.91593208;1.894774567;-49.53839106;-1.579290939;-5.037751062;0.548578939;-51.52441569;-6.181642845;-26.81355213;0.558510773;-16.18981841;-2.587628447;0.436426715;0.388366233;-5.107074241;8.079977129;7.523100417;5.621970651;5.383491029
-19.64973329;-7.688012871;-51.00157528;-16.81481215;-8.376464107;-1.414247686;-62.65981631;-7.996367398;-23.8913069;-10.65356377;-20.70354637;-8.147552811;-4.497206683;-2.056488331;-12.7312104;3.611403617;5.981189093;1.547760761;2.622950555
-14.20065336;-13.9452592;-32.70152613;-26.62825627;-8.877497219;-2.924689678;-48.38921511;-9.203970341;-16.34751963;-6.74225659;-17.67027856;-11.51135803;-8.308077499;-4.67673825;-16.81499682;-0.315571929;3.762297396;0.066571778;0.382329294
-10.23052407;-12.95083794;-7.531646116;-26.33100043;-6.290270436;-2.578401776;-19.77998595;-9.455184265;-8.632536372;5.033796119;-10.53190834;-10.04242223;-8.755408076;-5.391328061;-13.80838576;0.048924842;3.525652709;2.419225575;0.639937167
-12.2591563;-5.698560091;7.244623174;-18.94505141;-2.951580481;-0.712777807;2.342348789;-9.776642243;-6.949468477;12.19800359;-5.202194642;-4.25069135;-6.653674408;-4.242834967;-5.378566973;4.685315351;5.920828491;6.681289939;3.010559042
-18.63886706;2.98960206;3.614894546;-11.37103446;-1.433412565;0.963717497;4.257960155;-11.04739561;-14.20584831;8.999537637;-5.230513599;2.506888661;-4.794846126;-3.084751025;2.908521502;10.24383008;9.021356191;9.758135342;5.232009114
-23.51065213;8.314174642;-11.48267855;-8.073031612;-2.098970947;0.966665287;-10.36181399;-12.59662241;-26.89372355;1.199288821;-9.326956531;6.521088056;-5.220506277;-3.582822926;6.074779152;13.20287754;10.10837063;10.16481162;5.306236818
-22.51597356;8.875110623;-22.94514591;-7.812398143;-2.820193558;-0.628418493;-25.14450888;-12.47085871;-37.0150882;-0.246200146;-13.22044826;6.371821168;-7.371027182;-5.497448855;3.60328197;12.80219546;8.112472828;9.075159725;3.284360083
-16.78996283;6.988013756;-20.51047719;-5.802729885;-1.061409235;-2.299775276;-25.89972437;-9.265239294;-37.93280665;9.764289149;-13.89020307;3.652586135;-8.761990945;-6.874629827;-0.456791975;11.26431829;4.520636117;8.886949915;1.110932183
-11.67325428;6.052382944;-6.674259242;1.183480089;3.626492901;-2.488244927;-12.41022766;-3.818352629;-29.50034625;25.16597639;-12.17384109;1.403696272;-7.501345105;-5.941286858;-1.03564972;11.39796639;2.019390163;10.83347727;0.767374846
-11.61357565;7.468293701;6.835261956;11.5123487;8.98473839;-0.994355357;2.742230622;0.938297239;-18.18804956;34.05519355;-11.42593104;1.741439047;-4.288491527;-2.903392742;3.899148666;13.95993523;2.179176355;13.8980549;2.474263778
-16.14234459;9.716449789;10.14189642;19.96210789;11.84755648;0.883039352;6.371791295;2.065543881;-11.99456878;29.6497377;-13.68082781;4.626859206;-2.017069515;0.057684825;12.10733829;17.14590438;4.257044857;15.91904191;4.575704862
-20.58289181;10.14524867;3.665274244;22.14866915;10.7403859;1.543111884;-3.515350293;-1.051065008;-14.26780996;16.74758978;-17.1432864;8.51453291;-3.276426797;0.627974904;19.35915305;18.46232567;6.086855805;15.69538261;5.133630673
-20.62417969;7.652491149;-3.303755962;18.05079711;6.989298496;0.499295313;-16.67226732;-6.118244297;-21.44787643;7.731658931;-17.58450644;11.95245705;-7.950770197;-1.60631828;22.90799081;17.05675558;6.122052301;14.0559982;3.708379995
-16.36591738;3.819535107;-1.924847433;11.65674961;3.439772208;-1.249194112;-20.5327937;-9.640521721;-26.43080177;11.69451083;-12.49889309;14.56053384;-13.05749384;-4.75695404;23.06905007;14.32616291;4.734566633;12.94361541;1.696141041
-12.10070343;1.563844672;7.9;7.320390564;2.006988894;-2.171903008;-11.5797044;-9.517474496;-24.58110571;26.43541057;-4.128520941;16.64945295;-15.01916109;-6.212315692;21.84282531;12.38930295;3.662979348;13.47720605;0.972960672
-12.17527977;2.59094052;17.7872824;6.209073411;2.235648342;-1.577644805;2.090830132;-6.420039063;-17.35366701;40.41797421;1.708222375;18.14512375;-12.46298688;-4.789351111;20.3220729;12.04229131;4.241732804;14.88264049;2.150713924
-16.89203719;5.909313693;19.06505311;5.892422854;2.044442894;-0.163688997;8.787098186;-2.930715845;-10.68675032;42.82357465;0.29508997;18.1064657;-7.220058594;-1.588990803;17.5964679;12.2014015;6.113960495;15.29592573;4.059834443
-22.25811438;8.656111674;11.02516833;3.174480127;-0.151301451;0.701358266;3.987995016;-1.333192661;-9.80046018;32.71744776;-7.788887889;15.43781023;-2.772765256;1.109313068;12.20400043;11.2864199;7.595786495;13.63593823;4.895046776
-23.72543101;8.452575077;1.559376341;-2.557599148;-3.906200334;0.252140738;-6.030276305;-1.9735331;-14.92644936;19.35803411;-16.75455432;10.13278034;-1.546428665;1.836839711;4.538481531;9.062908751;7.280792255;10.73257739;3.916432844
-20.37222489;5.253448783;-0.256912069;-8.473200242;-7.126186479;-1.015207425;-10.60357426;-3.44727864;-21.44435587;13.71715622;-20.11291811;3.790305881;-3.297578121;1.025628459;-2.435835174;7.020469852;5.339123024;8.614394489;2.113626169
-15.65772304;1.192123354;7.397628314;-10.59479947;-7.914592371;-1.863368159;-4.743847561;-4.191165324;-23.99345747;19.00516934;-15.84904333;-1.21481357;-5.758687466;0.328551341;-5.239005841;6.834116894;3.302376875;8.609054641;1.23471679
-14.13672605;-1.312851918;17.49801723;-7.156283947;-6.164076343;-1.484085735;6.550779684;-3.903358676;-20.82536529;28.55879314;-7.826419617;-3.268038375;-6.722940965;0.934227644;-3.020983123;8.409019631;2.574247566;10.04332911;2.108699188
-17.25621946;-1.499479528;20.84827377;-0.129625408;-3.512082056;-0.224895857;13.43394715;-3.555343095;-14.73687202;32.57757474;-2.224827686;-2.448942873;-5.656626669;2.491148234;1.196772128;9.535855964;3.096473741;10.79207322;3.83637517
-22.11985545;-0.648337599;14.75680271;6.27093856;-1.821416813;0.770689174;10.62614488;-4.170271242;-10.11141815;27.25329537;-2.151170952;-0.103985699;-3.587699736;3.586362663;2.695220022;7.718043112;3.432982494;9.221049862;4.608347483
-24.27322312;-0.724152615;5.611046648;8.723699941;-1.641500544;0.636469818;2.186479903;-5.6721625;-8.98157052;17.95393223;-5.169327047;2.453905946;-1.702495482;3.219018845;-0.91047647;2.615136234;2.191219692;5.772625735;3.398764819
-21.83574571;-2.545616647;2.925592021;6.970322913;-2.002833821;-0.438592172;-2.642418065;-6.94438464;-9.66787955;13.79503065;-5.917256846;4.865009997;-0.194314227;1.792912946;-7.236442081;-3.205098182;-0.558351826;2.743914947;0.973304825
-17.14019595;-5.045602749;10.36379048;3.442138379;-1.581487413;-1.427601998;1.656447223;-7.005163605;-9.0395772;18.83477066;-1.458059504;7.439362423;1.522061972;0.659867954;-10.64697224;-6.105409064;-3.210414652;2.421856073;-0.72450094
-14.44531998;-6.162486591;22.10095408;0.954408102;-0.019712064;-1.440242672;11.70157767;-6.115189019;-6.128647941;28.08153746;5.468091483;10.05961303;3.58273991;0.666939326;-6.781287542;-4.356413725;-4.004000836;5.196670317;-0.266513036
-15.95058702;-4.531802427;28.042627;0.519326531;1.850078125;-0.530980048;18.54522431;-5.702047298;-3.654991482;31.95866497;8.343487754;11.49394772;4.84347336;1.141474715;3.534952041;0.343451419;-2.614957345;9.269182769;2.006822357
-19.84867311;-0.581676019;23.24264113;0.9391573;2.99170098;0.396567734;16.18766936;-7.122594829;-5.942905735;25.09918687;2.455952821;9.990636354;3.48777535;0.362620553;14.31456958;4.225158504;-0.513991275;12.13818108;4.28880297
-22.16088956;3.754180612;12.84758996;0.193976834;3.291015954;0.467853805;7.14820445;-10.39639348;-14.95196447;11.43312233;-10.61667402;4.792053659;-1.314859684;-2.827128708;18.55715444;4.593298851;0.251142311;12.51639025;4.876823257
-20.54173406;6.340556587;7.762454716;-2.748475893;3.651549904;-0.343076603;-0.104343874;-14.08586905;-27.8532133;0.950306442;-23.59182738;-2.762736631;-8.215069104;-7.722037084;13.34074278;2.057557721;-1.21783043;11.04612332;3.601031959
-16.45084649;6.097127546;14.58936078;-7.137404364;4.944778459;-1.214723735;0.729676957;-16.44365825;-38.3260813;1.071551047;-28.83756961;-9.653451773;-14.19251071;-11.99807224;1.897952727;-0.087710695;-3.939410808;9.354479441;1.863132423
-13.69817695;3.377103942;28.74707418;-11.03959318;6.870378871;-1.277653301;7.950515841;-16.78868507;-40.68727225;10.37352046;-24.13990756;-12.95778525;-16.53708367;-13.37779692;-8.840875992;1.212094008;-5.915506285;8.481211161;1.308327695
-14.80437702;-0.549318638;37.16871986;-12.62;7.926252863;-0.444993312;13.90675925;-15.88446676;-33.71311336;20.19767794;-14.16314539;-11.65441584;-14.7343652;-11.32187806;-13.16217985;6.10247967;-5.775814388;8.16617852;2.365243572
-18.64090353;-4.299974585;28.71983274;-11.11936193;6.6473297;0.5081523;12.904936;-15.0340633;-21.37443075;22.52870242;-6.506530127;-7.060258673;-10.70533304;-7.320854772;-10.09212949;11.71134039;-3.752263746;7.543421617;3.955491964
-21.55431057;-6.890244052;3.700443927;-7.076961971;3.0234509;0.682594093;7.217035913;-14.78756504;-10.18922263;16.94843264;-5.738429639;-1.646190753;-7.228565595;-3.585007923;-3.073983816;14.6251853;-1.206338046;6.398337131;4.572131308
-20.8654126;-7.841426168;-25.58;-1.982696695;-1.253692271;-0.091247917;5.054455095;-14.48522345;-5.346071519;10.44888679;-10.31965243;2.710837995;-5.891710179;-1.304224913;3.424700405;13.71229454;0.737257558;5.629669393;3.686169896
-17.40360732;-7.160907228;-43.70059339;2.28748886;-4.050087891;-1.088317456;12.00408659;-13.0462951;-8.259045346;10.45221213;-14.70295738;5.629671504;-6.242815942;0.044719415;7.302584816;10.82640417;2.134890281;6.385016223;2.187825081
-14.67718344;-5.401954651;-43.21354617;4.110805582;-4.509934001;-1.366502089;23.95583437;-10.23308045;-16.68896833;17.55885973;-14.47601699;7.737991395;-6.690146324;1.860456168;9.572084494;8.895473522;3.903011589;8.694940774;1.500706085
-15.48245965;-3.669808207;-29.08897931;2.813245721;-3.718923659;-0.650459437;28.74241961;-7.170714308;-26.56898547;24.76510903;-10.00853623;9.506898347;-6.168689068;4.924860952;12.36285096;9.255236294;6.615458727;11.0056003;2.236270969
-19.18626281;-3.275852084;-13.51930243;-0.807469361;-3.691996468;0.406381044;16.00407789;-5.591407597;-33.87846368;23.98753575;-5.623559602;10.62067534;-5.018655392;8.633100498;16.38953917;10.68956542;9.629376319;11.23;3.650151006
-22.28219045;-4.999895961;-6.050019531;-4.605196743;-5.549817963;0.827305416;-12.94513808;-6.446919512;-35.65507403;14.02983112;-5.326127137;10.44604609;-4.36646771;11.56662594;20.23744571;10.97359068;11.42289938;8.509265911;4.382742627
-21.7188482;-8.382172673;-7.309981228;-6.122676817;-8.481280879;0.220620197;-44.12310868;-9.1079377;-30.43390928;2.651891327;-9.036914748;9.031873279;-4.731582923;12.77045624;21.89847;9.345254063;10.87376414;4.127636677;3.76055095
-17.85423792;-11.65654176;-10.8094236;-4.110325656;-10.40244855;-0.856420948;-60.33809608;-11.82941806;-18.75821411;0.514006298;-12.63508627;7.539369538;-5.273361705;12.50541189;20.88527555;7.459152139;8.309854965;0.685492215;2.425107915
-14.20865459;-12.5906515;-10.1155423;0.516931707;-9.723667069;-1.417961345;-53.72195563;-13.02672738;-3.687918183;11.98656596;-11.62720007;7.559573657;-4.435756932;11.82611037;18.84674562;7.818905244;5.348532713;0.135328526;1.70220022
-14.19143191;-9.836222971;-4.558409999;5.15532598;-6.6636574;-0.970012207;-31.19111357;-12.23039669;9.586022257;30.78777086;-5.077271596;9.867049711;-1.394355468;11.4840618;18.12781889;11.11234196;3.63092607;2.29513154;2.310009766
-17.85260177;-3.94;1.241022907;7.272967491;-2.966793111;0.027147877;-8.55360415;-9.967783204;15.71190739;44.48942604;3.678629228;13.73735978;3.063106725;11.2665402;19.65035507;15.02347131;3.54644706;5.061103814;3.624158054
-21.7415128;2.694462993;2.724945074;6.21905987;-0.30593578;0.588880332;1.626355397;-6.862677945;12.12618823;44.43963664;10.06124305;17.46950655;7.072422644;10.39830445;22.0622157;15.84759861;4.038096515;6.099150209;4.200393838
-22.07473465;6.954479;0.092474061;3.669197664;1.187902387;0.133066712;-1.542168065;-2.949665394;1.114730537;32.96868242;12.22195056;19.6630176;9.181288518;8.55435702;22.87852468;11.67077929;3.607750235;4.575345368;3.087759802
-18.29773336;6.64087088;-2.062875948;2.305927016;2.958959646;-0.957008706;-8.842037932;2.087142301;-10.79518743;21.82200242;12.39242502;20.1303268;9.449324741;6.417032569;20.53701328;4.321633398;1.600529878;1.539787593;0.72920934
-13.69833174;1.658126921;0.513632063;3.755546005;6.598640582;-1.663872684;-10.14692327;8.023440451;-16.23792129;22.84452608;14.44579763;19.70012354;9.188480275;5.158766122;15.56620017;-1.76722038;-1.333506477;-1.196591023;-1.380153704
-12.43532451;-5.857527772;7.421532112;7.426657899;12.21908571;-1.26683554;-2.872062381;13.54191548;-11.278555;38.17256131;19.91186497;19.21772941;9.635511731;5.309544426;9.99190641;-2.989624676;-3.906818457;-2.581579209;-1.973449274
-15.69226587;-12.50983108;13.88895811;11.15288665;18.05344284;-0.020629691;7.174016153;16.75183793;2.200352038;57.58378963;26.08992508;18.77075802;10.82345051;6.125229623;5.720394391;0.564781193;-5.292437063;-2.917546877;-1.077020172
-20.52985924;-15.21402489;15.32200178;13.04133443;21.63310901;1.04618334;12.21285838;16.50524965;17.60169557;65.09499411;28.08538908;17.88046077;11.7014899;6.150078125;3.418367875;5.254549448;-5.652768481;-3.170887216;0.086297365
-22.54749648;-12.62584329;11.72107713;12.95278615;21.55146513;1.038786277;9.707612308;13.41311128;27.51043334;49.95501712;23.15507676;16.39228491;11.3533728;4.537241471;2.723757783;6.945623966;-5.721473238;-3.815804334;0.238496917
-19.92994598;-5.776259506;7.739654559;12.41785249;18.37873703;-0.00950458;3.977589257;9.622274387;27.89573026;14.19275056;13.65711243;15.0618826;10.11024015;1.92283803;3.244377515;4.399561739;-5.966348985;-4.360338389;-0.822525271
-15.13374227;2.395906893;8.308388394;13.16570185;14.07429371;-1.172718788;1.512206148;7.44039387;20.07616025;-28.25811391;5.952665174;15.10378093;9.437822396;-0.000436274;5.110267918;0.146916671;-6.187819415;-3.940459986;-2.116924313
-12.62099366;8.43803533;13.92705409;15.59174739;10.50619417;-1.460130893;4.966202449;7.875326621;9.485993513;-59.76391371;5.908861056;17.01514958;10.63200782;0.113824871;8.470230207;-1.814433955;-5.889212919;-2.302748412;-2.454982434
-14.71226741;10.06247742;20.04946045;18.43859539;8.326207916;-0.684290862;11.40982042;10.20849663;2.279767654;-68.79517045;14.44903664;19.79909122;13.5097498;2.132489974;12.56862653;0.547474015;-4.946726422;-0.153680067;-1.556098626
-19.40709911;7.244868965;21.19503128;19.83088512;6.982334485;0.408322486;15.86359219;12.81309651;1.914918019;-55.34497582;26.60778636;21.46228243;16.34891593;4.611587568;15.60122423;5.657659972;-3.821406733;1.472024948;-0.279828253
-22.22897656;2.102639777;16.04848748;18.65688158;5.599383317;0.841885207;16.13959108;14.39272049;7.557875092;-29.51389232;34.82513964;20.51566131;17.22218743;6.117995467;15.81584088;9.761029223;-3.06543496;2.171112261;0.212412869
-20.4162292;-2.423954706;8.8726063;15.13804828;3.799070501;0.292405366;14.25925268;14.58094696;14.92660099;-5.133205995;33.99887666;17.21317476;15.58899911;6.486700049;12.99333998;10.03105624;-2.652841619;2.470745086;-0.455458393
-15.56134318;-4.315610541;5.886827709;10.3115812;1.790161776;-0.656307226;13.56376096;13.5720473;18.87759539;7.39936462;24.62812009;13.39174885;12.73600586;6.842918943;8.86303733;6.644598826;-1.906586154;3.13844548;-1.57406832
-12.1931989;-3.550087891;9.805499129;5.157553161;-0.122767823;-1.093446768;14.98909392;11.41373998;16.29791944;5.388650509;12.00776956;10.98217704;10.66178209;8.36172198;5.847478846;2.196974602;-0.21975077;4.186894311;-2.108364339
-13.55531259;-1.830078125;17.38706875;0.274559152;-1.922735515;-0.639732462;16.50391096;7.857482129;7.839752096;-6.280989364;2.42611394;10.4749714;10.38695881;10.93141658;5.089760211;-0.745767419;2.079938933;4.619998556;-1.771558272
-18.48547182;-1.202390854;22.17919048;-3.742144723;-3.696184311;0.216428042;16.06446822;2.990573983;-2.386492339;-18.86344693;-0.687516016;10.70851452;11.18040812;13.01185358;5.519259722;-1.620705387;3.639659578;3.290129124;-1.354843693
-22.35047504;-2.581621471;20.08748961;-5.907529628;-5.125180902;0.604134048;14.50928644;-2.056266643;-9.076483547;-24.82318081;1.907090123;10.16250194;11.35772319;12.88869934;4.905577432;-1.697069698;3.035008473;0.136143943;-1.950250563
-21.25718338;-5.220364211;12.98045758;-5.161579718;-5.32397483;0.106868334;14.75226524;-5.27353293;-8.827655805;-21.66758066;6.851251366;8.534010406;9.884444087;10.20764322;2.065910981;-2.230043945;0.030947801;-3.396328917;-3.766833071
-15.68168743;-7.415463066;7.295203482;-1.291432115;-3.38058304;-0.83938129;17.64677869;-5.004241739;-2.319812483;-12.65216392;10.97515826;7.05645781;7.298569501;6.357509937;-1.763164081;-2.97256064;-3.995245384;-5.290311586;-5.675836502
-10.12141512;-7.799806368;8.863411833;4.458910061;0.778942157;-1.357593828;18.93090575;-1.350844146;5.859468914;-4.094932227;13.05691266;7.155135977;5.111519163;3.287849774;-3.772057846;-2.612126892;-6.970927363;-4.555740079;-6.001886149
-9.019912992;-6.19386472;18.21224919;9.908006834;6.014304135;-0.959331795;11.36923468;3.511001295;9.87932772;-0.995317037;13.56592718;8.640658944;4.26781338;1.792023089;-2.089632024;-0.687139288;-7.709215884;-2.121947469;-3.94738515
-12.70171736;-3.459223689;29.96413544;13.36231755;10.54259369;-0.009538638;-8.640914434;6.604471162;6.317541751;-3.816355839;13.17147422;9.240334461;4.138797253;0.829511247;2.176564709;1.069754471;-6.826948175;-0.192336764;-0.419952237
-17.11987356;-0.670046387;36.48834043;14.72984323;13.07633902;0.612958447;-35.68224927;6.176800239;-3.542297364;-8.631650158;11.64805546;6.209913803;3.059976412;-1.436598036;5.281438059;-0.376262175;-6.181973799;-0.541345375;2.4991762
-17.71847321;1.57249527;32.75678874;15.21422857;13.59918941;0.342829384;-56.85022914;2.923452492;-14.38614642;-10.48751745;8.200538864;-1.110128748;-0.003588741;-5.772061346;3.534674208;-6.680428707;-7.280039063;-3.162967311;3.055268859
-13.83517737;3.13257039;18.95122961;15.74804544;13.13216567;-0.533784891;-60.30675103;-0.584106919;-20.17608496;-7.379938786;2.82136128;-9.981312192;-4.175151535;-10.86898771;-3.718480107;-15.98447014;-10.01154933;-6.389209938;1.075258838
-9.443405716;3.842841883;-0.368372392;15.62386524;12.72066129;-1.141363397;-44.45207721;-1.847483993;-17.90358762;-1.695189894;-2.704592448;-15.58833554;-7.027955009;-14.19233424;-13.25649243;-23.50819391;-12.80057069;-8.333626677;-2.013405327
-9.356245705;3.215603447;-19.09958924;12.80706554;12.54712664;-0.839855684;-19.93431685;-0.254917769;-9.275259003;2.02714116;-5.318931618;-14.29268862;-6.434827197;-14.02348914;-20.05059329;-24.81198333;-14.00855966;-8.394992615;-4.339961596
-14.30863889;0.808948728;-32.1829306;5.953278539;11.92705104;0.157148082;-2.207966201;2.611467436;0.694714667;1.085398071;-2.667952692;-6.440293407;-2.403773181;-10.94288597;-20.69966612;-19.2625841;-13.32992354;-7.55969079;-4.916566092
-19.60827992;-3.056099222;-36.82850931;-3.569387925;10.11803061;0.956924007;-0.264657247;4.309818892;7.013126186;-3.089807387;4.81482844;3.476091946;2.677584921;-7.428847103;-15.63932291;-10.80653379;-11.94226366;-7.337356148;-4.088652637
-18.96773402;-7.030703478;-32.77318159;-11.69700217;7.136001078;0.806492643;-10.58786442;3.372904052;7.551701139;-6.3460864;13.40718673;9.541626355;5.673006356;-5.872344298;-8.580058594;-5.215641593;-11.30977395;-8.354043071;-2.904311955
-10.36116935;-9.426133283;-22.2725354;-14.20516784;3.808570759;-0.197665888;-21.13867071;0.224695645;3.618819293;-5.658718899;17.90529933;8.091800346;4.927365442;-6.693207432;-3.831438415;-5.853574047;-11.76134996;-9.858617624;-2.117684298
1.372096088;-9.460850518;-9.724826893;-9.98209163;1.051660464;-1.17305976;-21.78658114;-3.37050014;-1.671456891;-1.921064159;14.82513676;-0.272378827;1.325669872;-8.162146529;-3.677647902;-11.28904148;-12.16549111;-10.5095131;-1.731795198
7.844111395;-8.01274867;-0.257170261;-2.303415766;-0.897460403;-1.243149388;-12.30637634;-5.679781737;-5.624823718;0.932670345;4.911320696;-11.59330901;-2.60247941;-8.049014963;-7.628405849;-16.63786054;-11.01643669;-9.646069462;-1.352740655
3.840339155;-7.085013;2.713111238;3.252390278;-2.534130895;-0.337103072;-1.442741349;-6.035694051;-7.122422301;-0.245899583;-6.91234115;-21.4477017;-4.711401734;-5.637947303;-13.64229245;-17.52716176;-7.943641051;-7.866979093;-0.83086137
-8.23738633;-8.251917841;-0.440127546;2.885367654;-4.38770796;0.739588936;1.574571635;-4.871789512;-6.291471398;-4.552086828;-14.39519714;-27.56344452;-4.717448217;-2.361902696;-19.88692011;-13.5049372;-4.247449318;-6.440078125;-0.465280519
-20.12743767;-11.30444138;-5.657661209;-2.513901039;-6.289836186;1.035752817;-4.722868946;-3.033119055;-3.573698201;-7.461821122;-13.86691567;-30.42279994;-4.012547705;-0.549308873;-25.51158956;-8.241099648;-1.92907566;-6.156966139;-0.586974404
-24.3065897;-14.27214002;-7.941734927;-8.036666703;-7.382348075;0.321538616;-13.20078839;-1.133945145;0.712833484;-4.776992928;-6.529157725;-31.86623867;-4.148677642;-1.429881248;-30.13810236;-6.489111484;-2.045505104;-6.705835233;-1.030921565
-19.87215128;-14.90444475;-4.952520665;-8.604795463;-6.913190094;-0.702523284;-14.98348936;0.558800919;6.095859033;3.426086102;2.568858093;-33.18874923;-5.39365275;-4.154605754;-33.05288766;-10.31423595;-3.845313252;-7.081103271;-1.145312252
-12.75026663;-12.45099211;1.365824599;-2.983205776;-5.056959842;-1.047809315;-7.490204371;1.899638337;11.65603929;12.5491028;8.235310779;-34.30240621;-6.572513324;-6.638773831;-33.22624502;-17.52951044;-5.458288712;-6.551817679;-0.422591366
-10.19109374;-8.280591054;6.552232047;5.247299135;-2.902212227;-0.343645203;3.600410025;2.790101016;16.40436299;17.36003906;8.84094977;-34.3697383;-6.219537807;-7.413825643;-30.26597112;-23.39933948;-5.532058998;-5.236622365;0.857621805
-14.44541699;-4.829115426;7.391654694;10.52248859;-1.509958811;0.823126981;9.907900613;3.426921909;20.11344165;16.60829978;7.220058594;-33.03201312;-3.954068216;-6.82583912;-25.30867174;-24.11733231;-4.373629616;-3.801329468;1.688319652
-21.13227847;-3.773115534;4.505117383;9.626687402;-0.873954098;1.445215657;8.025574614;4.501155743;23.63123201;14.1088004;8.036875283;-31.03;-0.892297975;-6.568238213;-20.77229659;-19.37809479;-3.608688227;-2.70408068;1.171976337
-23.58178187;-4.962081273;1.565188888;4.050965994;0.19295266;1.013788898;2.233024772;6.868051009;28.03277293;15.13123684;13.68151031;-29.75181931;1.184785248;-8.052916854;-18.928169;-12.31148489;-4.696268242;-1.842325609;-0.584341794
-19.13003906;-6.93897574;1.890175345;-1.418990767;3.008009978;-0.024626273;0.003593956;10.72920223;33.18658069;21.2640079;22.05012564;-30.23713981;1.131284902;-11.12594317;-20.40787122;-7.154873855;-7.633913719;-0.978566218;-2.392462119
-11.65761885;-8.455319588;5.491925515;-2.5969512;7.654749614;-0.689351316;4.776834151;15.01827847;37.19741285;28.51474546;28.15513581;-32.5315652;-0.868314041;-14.24843772;-23.92093232;-6.562324794;-10.97496501;-0.430333153;-2.908261542
-8.071689487;-9.521870918;9.21590699;0.939516569;12.54258806;-0.371610248;12.83076103;17.73760483;37.65749681;30.63375174;28.36580735;-35.81688826;-3.651959518;-15.89333394;-27.43757963;-10.35724738;-13.07754208;-1.137381682;-1.799471018
-11.88391201;-11.02074221;9.783183857;5.862510955;15.39605526;0.611947867;17.05439498;17.2568341;33.94650522;24.87734315;23.7281591;-39.02194283;-6.017620802;-15.8292153;-29.80920502;-16.2006231;-13.42161722;-3.807701849;-0.095829662
-19.67386725;-13.30919547;6.897235425;8.039386771;14.93589443;1.325625991;13.89329088;13.65412449;28.5027753;14.99855221;19.3456069;-41.32928412;-7.40891558;-15.13820225;-31.42952155;-21.30490473;-12.83623818;-7.864680014;0.662367629
-23.71403035;-15.27546449;3.546716243;5.849413017;11.85970409;1.090973717;6.842042205;8.941827554;25.49;8.524111128;20.01262914;-42.30052353;-7.913793036;-15.03456174;-33.42016609;-23.92856112;-12.52727452;-11.33771652;-0.222824633
-18.5956381;-14.96892808;3.246337763;1.229794748;8.277686514;0.116937375;3.211563305;5.808639847;27.47638129;10.46422371;25.63052618;-41.80612862;-7.837579725;-15.65587584;-36.15532192;-23.92873512;-12.89134836;-12.1247096;-1.95635535
-6.139709482;-11.45913607;6.790354092;-2.149892211;6.059037683;-0.700276701;7.260790467;5.731422749;32.79443159;18.94525272;30.49217057;-40.05077547;-7.417623809;-15.97326195;-38.52147018;-22.42176799;-13.23576633;-9.759184587;-2.9280811
5.6815394;-6.289766052;11.52017194;-1.870489563;5.464269517;-0.6180518;16.16082917;7.908951075;36.15516199;26.72407407;27.54816779;-37.68447998;-6.932023949;-14.86985577;-38.6330026;-20.98545276;-12.60786757;-6.139670475;-2.164930896
8.944925853;-3.013659426;13.74927684;1.502846918;5.171060158;0.257074046;22.54364749;9.874709263;32.5715275;27.36815458;14.52061562;-35.70619054;-6.919586514;-12.32120321;-35.4176806;-20.79724388;-10.86326744;-4.369323408;-0.274964726
1.89321321;-4.840467056;12.0652407;5.050474432;3.588798792;1.069365565;21.20560266;9.313515801;21.67272669;20.67481824;-3.210713016;-34.99447165;-8.062045344;-9.526999463;-29.71585828;-21.98879108;-8.89363134;-6.434882173;0.992107796
-10.04529879;-12.11886254;8.471657705;5.649367128;0.274759554;1.017146257;13.71584397;5.656418132;8.716936963;12.51479702;-15.77143767;-35.74364691;-10.66144714;-7.857011504;-23.95728542;-23.50519772;-7.778000659;-11.56470584;0.231486852
-18.91903925;-21.71474664;6.41498944;1.861976224;-3.746443991;0.108975599;6.749511823;0.264422558;1.019878968;9.269360943;-15.96138013;-37.33667953;-14.17100346;-7.617060559;-20.67286461;-23.69852852;-7.697203038;-16.6913822;-2.364964996
-20.45103458;-28.9450032;7.655498182;-5.580957919;-6.93054553;-0.836569709;5.882535645;-4.789120204;2.328501295;11.93055962;-4.868405932;-38.88103365;-17.33225698;-7.827175636;-21.0041368;-21.50339958;-7.713111749;-18.75156963;-5.096165284
-16.63876622;-30.69036829;10.92409453;-14.50586282;-8.486607938;-0.951574933;10.73291903;-8.215670544;9.66540188;15.27563348;8.713471904;-39.98960009;-18.97611609;-7.250317651;-24.25610086;-17.47869806;-6.692236488;-16.99498803;-6.122085132
-13.01771374;-27.33414427;13.47620524;-22.30360432;-8.831104896;-0.130579365;15.86103091;-10.08063664;15.44222931;12.91889576;14.8480747;-41.05451811;-18.8982335;-5.710229157;-28.60870098;-13.80738091;-4.520638578;-13.41679443;-4.941383855
-13.45937467;-22.0913323;13.838466;-26.64558057;-8.918168596;0.869098437;16.27155005;-11.17810792;13.39466143;3.626597688;9.885152052;-42.6661753;-18.05039477;-4.42626963;-32.24079548;-12.9463235;-2.411106698;-10.97793902;-2.718306281
-17.16468101;-18.35838943;12.99684047;-26.07396922;-9.19740551;1.138489482;12.07160183;-12.00806384;3.615289994;-6.984933273;-1.195621414;-44.67931951;-17.8128658;-4.983327664;-34.03234452;-15.72585692;-1.916309878;-11.13500311;-1.22318664
-20.15077106;-17.22704146;12.9832451;-20.76300163;-9.232659666;0.476040035;7.895331437;-12.37871911;-7.483350897;-11.11659712;-9.382863963;-45.90483728;-18.8969696;-7.833713341;-33.61573896;-20.39276746;-3.500481864;-12.76588898;-1.358461564
-19.38869771;-17.05228579;14.52729211;-13.10499557;-8.293267665;-0.416759849;7.968439829;-11.90767135;-12.34944873;-5.733188392;-9.31736653;-44.94337709;-20.77425189;-11.70620853;-31.15525553;-23.5968048;-6.012272838;-13.35580932;-2.558379735
-15.6019539;-15.22267244;16.37754623;-7.212535286;-6.23599207;-0.599213896;11.95164904;-10.75083528;-8.408737025;4.504563501;-3.641838244;-41.58631912;-22.11139754;-14.51351399;-27.27207626;-22.82850527;-7.631848441;-11.3572698;-3.514639259
-12.32177414;-10.53865152;17.05350247;-6.886660016;-3.712669805;0.200097046;15.76424607;-9.679312703;-0.074102075;11.09815165;-0.406042242;-37.49187534;-21.85861032;-15.0048627;-23.08860369;-18.49429551;-7.502509037;-7.650934085;-3.47372238
-12.40468523;-4.268394967;17.01720042;-12.98193446;-1.448175318;1.290470682;16.37786767;-9.340826632;4.999321167;9.012068913;-5.793634981;-35.28293033;-20.10942228;-13.73057088;-20.02804643;-13.87431547;-6.561286853;-4.855216369;-2.876610389
-15.44063322;0.820943658;18.50245351;-22.15514898;0.6630228;1.639496887;15.315756;-9.45475242;2.251904623;0.907402974;-18.41742614;-36.56536635;-18.06368229;-12.49155005;-19.2015008;-12.78176028;-6.743060722;-5.119726667;-2.781061753
-18.3925049;2.501249136;22.56111958;-28.45020016;3.611309328;0.846503263;16.72336919;-8.860611972;-6.158553348;-5.468134929;-30.09790154;-40.46286848;-17.16928254;-12.78620568;-20.74503234;-16.62663707;-9.19625827;-8.329709478;-3.675491042
-18.634532;0.531172098;26.15492874;-27.10955235;8.228231286;-0.442583089;21.54086184;-6.546778682;-13.40609441;-4.316524341;-32.49394086;-44.02888126;-18.13944317;-14.6231887;-23.715071;-23.18742234;-13.09064906;-12.23579708;-4.864391435
-16.36828094;-3.447936179;22.91202332;-18.0056301;13.93703075;-1.091695506;23.94646575;-2.768798637;-13.83140215;3.175227989;-23.93110577;-44.38362674;-20.54535181;-16.68098851;-26.74835438;-28.113657;-16.12796695;-14.31496373;-5.049148441
-14.17321387;-7.193664564;8.155625134;-5.988039218;18.57335356;-0.513066502;14.88003906;0.860222054;-7.505949615;10.35565583;-10.60429957;-40.89207833;-23.14798418;-17.55151384;-28.97093463;-28.01617425;-16.36689504;-13.6996088;-3.574026621
-14.30127441;-9.163781861;-15.57715511;2.381932275;19.71159589;0.770294046;-9.231516529;2.558756091;0.315765926;11.6690778;-1.189190954;-35.54652289;-24.58386797;-16.8646927;-30.33792705;-22.74663168;-13.78591341;-11.55816691;-1.146974002
-16.45169686;-8.985411194;-37.84272403;3.406450893;16.55334936;1.579575668;-40.30300736;1.889768991;4.185768413;8.053204548;0.407302788;-31.19346915;-23.90968233;-15.30285588;-31.09540062;-15.18333947;-10.2192458;-9.76409276;0.688506588
-18.17172886;-7.142738827;-46.35939282;-1.304771519;10.77963099;1.158440669;-61.77158782;0.235118215;3.366150214;6.03888651;-2.155187956;-29.12289584;-20.81913614;-13.63224875;-30.95587529;-8.907352197;-7.743247668;-9.195401735;0.885359706
-17.39336435;-4.500265938;-35.9065103;-6.352758989;5.519112005;-0.113259909;-60.15192101;-0.282317052;2.279023373;11.31544535;-1.680381241;-28.13954861;-15.66816911;-11.81587068;-28.96909009;-5.79737857;-6.967363995;-9.216094786;-0.192935212
-14.54386249;-2.07101535;-12.93143517;-6.75203017;3.16127541;-1.045922378;-36.01653795;1.447944771;6.146103085;22.81023874;5.376522609;-25.94639831;-9.448343033;-9.134967281;-24.45399578;-5.416584683;-6.743991736;-8.679557479;-1.139194456
-12.1511052;-0.870827975;8.474973512;-1.488000899;3.76995783;-0.731356305;-4.782496513;4.632216457;15.77063761;33.02387388;15.0870314;-21.57315924;-3.615139655;-5.188055435;-18.22019949;-6.335167322;-5.49725446;-7.339070318;-0.831912476
-12.37486308;-1.51388291;16.65630623;6.210206929;5.381959362;0.596673609;14.32400303;7.352393619;26.20959625;34.61024921;19.21714597;-16.56549361;0.414421846;-0.704144205;-12.75427882;-7.834938249;-2.884003398;-6.215855306;0.500964878
-14.93706365;-3.642143753;10.67532008;11.73780916;5.875090063;1.740087891;12.63655937;8.321783787;30.65304061;27.25249929;12.80913767;-13.71130171;2.008069478;2.764436473;-10.76899956;-10.29670586;-0.209620264;-6.545939016;1.488269086
-17.48984564;-5.807115935;0.107596293;12.51577326;4.756277748;1.615960036;-2.034409442;8.00659984;26.19519848;18.34585119;-0.489738551;-14.35287908;1.814842864;4.105886769;-13.02498468;-14.0352236;0.800750991;-8.360138467;0.923615794
-17.99335734;-6.30051959;-3.425926343;9.222709572;3.341210186;0.260271036;-12.88540021;8.057321766;16.44673919;16.54842412;-10.3410766;-16.77478202;1.467485813;3.693929706;-17.27920838;-17.97996535;-0.28456881;-10.16412948;-1.034494858
-16.64065104;-4.572618729;4.15104148;4.330794046;3.270474762;-1.175356089;-8.608370226;9.560599307;8.652664749;23.90788494;-7.729006567;-17.36350214;2.475763563;3.133632078;-19.57015303;-19.81570272;-2.052237309;-10.16132877;-2.909414464
-15.32711545;-2.064135308;16.66809843;-0.217063506;4.80923511;-1.45366164;7.495121339;11.77239597;7.770757397;33.82920995;7.430788889;-13.77944626;5.038766106;3.813434145;-17.15896126;-17.75626253;-2.439255983;-7.953053262;-3.19633667
-15.21050793;-1.452267462;23.87605471;-3.929294107;6.5460673;-0.377212247;21.39810944;12.62112111;12.61751937;36.97857304;25.52859019;-7.413142932;7.760783749;5.55455755;-10.8730231;-12.38883179;-0.618723746;-5.098432395;-1.724696893
-15.00237692;-4.575317911;20.76586727;-6.773617875;6.783262927;1.029364471;21.43488959;10.64526699;17.36601225;29.90795647;34.24636523;-2.769207674;8.653236172;6.67309075;-4.814683671;-6.701409291;2.173152442;-3.893420318;0.175236506
-12.06762436;-10.63351633;11.73766768;-7.843608316;5.304034801;1.464067508;8.785412433;6.61529297;16.98873372;18.47426018;27.80610143;-3.976733689;6.741804862;5.521537072;-3.417612055;-3.925508375;3.686094531;-5.373358545;0.880672561
-5.566072189;-16.35576721;6.138439729;-5.577205973;3.799428063;0.558586286;-3.919180824;3.232278797;11.80832361;12.69923328;11.1273105;-11.21317626;2.983678926;2.1651902;-8.057275167;-4.874540848;2.672383148;-8.331825123;-0.042833357
1.5039964;-18.33616315;9.546352028;0.361380016;4.441579899;-0.770354428;-4.356100712;2.965944139;7.15657429;17.56651583;-4.274875062;-20.13199537;-0.340075684;-1.386615185;-15.93314931;-7.126681666;0.037768513;-10.30251678;-1.465156606
3.887788923;-15.81015347;18.9362367;7.510788038;7.823034085;-1.175992557;8.211652552;5.836780734;8.48419191;28.18784459;-9.142709568;-24.99073527;-1.347602076;-2.730119816;-22.18586995;-6.952036696;-1.945012143;-9.69202222;-1.783121973
-1.524100779;-11.49264032;26.07892052;11.49303126;12.14775824;-0.166327249;22.43164543;9.152743743;16.26609676;33.99623136;-2.964657777;-23.04683845;0.001966257;-1.090793629;-23.57760517;-2.503025543;-1.654173258;-7.174263075;-0.46367504
-12.29774095;-9.518209419;25.70162927;9.296205919;14.50379463;1.383740863;25.49784253;9.594017698;25.19463246;28.38325216;6.717323201;-16.62257014;1.969659394;2.005295266;-20.75942121;4.417108209;0.49208646;-5.075966342;1.42792657
-21.53591785;-11.97828004;20.38299032;2.307889348;13.18558108;2.005107987;15.05539133;5.965705846;28.35860143;14.99893666;10.97556996;-11.11787714;2.561364054;4.083916233;-17.31879577;9.579548505;2.569709943;-5.275986676;2.24910312
-23.1223509;-16.94206583;17.26468847;-3.954506789;9.04953637;1.009954871;1.344058667;0.25753256;22.7561507;4.72;6.337240288;-10.62683902;1.195993232;3.930900288;-16.49106158;9.593812456;3.103335514;-7.495566063;1.410104087
-16.85736974;-19.81703605;19.67710953;-3.906640848;4.703477199;-0.807005839;-2.424691886;-3.964053235;11.41541043;5.762462385;-3.520058594;-14.80720538;-0.951714014;2.646619906;-18.35625269;4.509265286;2.574216108;-9.52499132;0.043300408
-8.844506393;-17.13917898;22.13807263;3.246475681;2.246912099;-1.835004985;7.47746102;-4.510275642;0.479352808;15.89962342;-11.80364147;-19.54038102;-2.231694792;2.529376058;-19.87854363;-2.368839651;2.990643698;-9.189415161;-0.005685891
-6.411321568;-9.68818609;14.50127496;12.082088;1.573789337;-1.116340968;21.66903843;-2.355166778;-5.959795543;24.13989005;-14.29739529;-20.66198992;-2.236557819;4.760411193;-17.68829874;-7.173363536;5.852002701;-6.27630088;2.007801355
-11.77340086;-2.183431733;-7.656105964;14.69094403;0.735878173;0.726643172;26.39283583;-0.725243208;-8.667252303;20.70014205;-11.91958086;-17.46759599;-2.322478497;8.040671126;-11.17704754;-8.302708878;10.42529685;-2.678314262;4.824263867
-20.07395451;0.399024726;-36.0309892;6.944086022;-2.010293515;2.002424752;16.57801144;-2.302866025;-11.43800011;6.326025484;-8.72956678;-13.02527776;-4.352711355;9.550019531;-3.264807363;-7.040716415;14.07394688;-0.637980702;6.150661919
-23.76745652;-3.076541219;-53.63273301;-7.807369585;-6.387839484;1.486351696;0.951589051;-6.983757545;-16.65114614;-7.776568609;-8.027986166;-11.21827324;-8.745846057;7.487045861;1.756693046;-5.709675303;14.50726959;-0.728156194;4.738021989
-19.59748736;-8.87422436;-47.90103048;-20.91569839;-10.21560916;-0.410494187;-5.86243996;-12.10957226;-22.54783034;-9.79023114;-10.29897501;-13.30472227;-13.66810761;2.903306133;1.41648983;-5.296862484;11.94597894;-1.449660764;1.677723847
-11.80467808;-11.42570224;-22.06998365;-25.00973172;-11.36594834;-1.952324855;2.867629761;-14.88627521;-24.84697246;1.76752372;-14.28277094;-17.08164278;-16.29038967;-0.953361784;-3.370048828;-4.814438077;9.115063373;-0.821653036;-0.380889391
-8.327143587;-7.989500505;5.755186042;-19.65;-9.743629432;-1.648358976;19.24808589;-14.77343347;-21.16581633;16.1030341;-19.18112594;-19.26057285;-15.16902007;-1.37135446;-9.488045907;-2.853997453;8.881800642;1.544700239;0.470905228
-13.11624202;-1.005843797;16.2871572;-11.33007813;-7.407394664;0.329845024;27.78452139;-13.71412472;-13.99166038;19.43496609;-25.17057602;-18.69314759;-11.66326489;1.38886469;-14.2781538;0.383879115;11.58102805;3.901502244;3.612331159
-21.60229736;3.912500987;4.584109499;-7.761854305;-6.662765196;2.221757868;20.02484988;-14.0851;-9.19859616;7.450175208;-31.68270945;-17.34866196;-8.990553746;4.211787001;-17.24720473;2.77859786;14.52817063;3.963792564;6.308459776
-23.98668736;2.712632015;-15.96505104;-11.26179984;-7.874120738;2.251445956;3.129745995;-16.34733;-11.21354159;-10.41899701;-35.78477933;-18.11701818;-9.554976583;3.845712275;-19.50427129;2.181443992;14.35237648;1.221945655;6.090058594
-14.10717241;-3.662008172;-25.20207175;-16.90586925;-9.075805095;0.303949716;-6.195437106;-18.63789725;-19.13842382;-19.17927457;-33.32154017;-21.57927673;-12.80878109;-0.115479958;-21.79637176;-1.277381164;10.1751102;-2.251560756;3.019870557
3.832303005;-10.1014406;-13.77880359;-17.08073154;-7.83333232;-1.867845088;2.578125769;-18.70752245;-27.42898327;-11.86941358;-22.68594326;-24.97489996;-15.61021076;-4.70899452;-23.27060589;-4.865022419;4.705496077;-3.434727219;-0.259985553
17.20630467;-11.74433565;8.539601362;-8.520523409;-3.673017845;-2.190653987;22.97699453;-16.3554705;-30.66332784;3.810595622;-7.865542269;-24.60396178;-14.94922134;-6.167127421;-22.25554245;-5.540267481;2.039763674;-1.100793625;-0.878221131
14.84862166;-8.166790072;21.5221544;4.321538013;1.24208222;-0.226346413;36.41667733;-13.95456062;-28.17137624;12.30635704;2.809564167;-19.59625709;-10.7798795;-3.401604647;-18.27149834;-2.923999222;3.940318054;2.820310241;1.557016861
-3.135412272;-3.673468665;12.87489249;12.62615119;3.971869468;2.283347754;29.32834712;-14.384184;-24.32126695;4.728570738;2.278073622;-13.43917978;-6.432288864;0.742721357;-13.16348134;-0.079432834;7.947638917;4.670407852;4.405944566
-24.31572085;-3.386587322;-9.908044225;10.51696608;3.586929685;2.903199093;7.010621489;-18.16868137;-24.15857369;-12.14564292;-9.499562375;-11.46394211;-6.038314012;1.781860284;-10.00190637;-1.022356627;9.27030696;2.209375349;4.288931135
-33.31580682;-8.539874616;-25.39097298;0.044357985;2.249701416;0.77952544;-9.519847715;-22.54252418;-28.38813878;-21.22753329;-24.78659536;-16.17542728;-10.99573334;-2.399539562;-10.55385367;-6.916983232;5.067737171;-3.255865097;0.309357538
-24.26293181;-15.17640547;-17.35433824;-10.51149405;3.361675869;-2.377510245;-2.44648542;-23.56048104;-32.42188509;-10.77178964;-33.65037817;-24.55237312;-18.46864724;-9.346707709;-13.64784043;-14.41352663;-2.601774476;-7.759351472;-4.735706897
-5.770957264;-17.53485932;9.550078125;-13.6046941;8.248002719;-3.649071596;24.52179064;-19.57877104;-30.58153725;13.67420406;-31.67606044;-30.03628684;-23.33700308;-13.76659035;-16.11098544;-17.97310206;-8.020493119;-7.971748251;-6.494229727
6.222581761;-13.24948486;32.34925336;-8.634795357;14.40399758;-1.552849914;45.9562111;-12.98457292;-21.73460125;32.63196331;-23.29391681;-27.88299661;-22.12113922;-11.91997483;-15.61906532;-14.51216465;-6.534412212;-4.077741087;-2.911863698
2.131387907;-5.730078125;29.57753606;-2.011519333;17.17977524;2.367489065;35.13561225;-8.397714954;-11.06463816;29.60090109;-17.56384693;-19.37392447;-15.66769307;-4.931229951;-12.89276868;-6.370724914;1.173813334;0.37842823;3.569867682
-12.72065185;-1.388812088;1.57398647;-1.065289131;13.7587915;4.602657387;-11.21099062;-8.676499531;-5.960771749;6.966465993;-19.76366667;-11.03102577;-8.340304061;1.998890425;-11.06126491;0.275448844;9.158617157;1.703076899;7.658758271
-22.47100298;-3.881631835;-27.37551047;-7.252594096;6.019232379;2.700443941;-65.85769404;-12.20374346;-9.387455959;-14.04781971;-26.13899347;-9.145920189;-4.376124027;4.029362647;-12.52413714;0.588834918;10.99395456;-0.423946681;5.628335167
-14.97277512;-10.35744949;-28.7947582;-14.79254671;-0.494097555;-2.301168729;-90.11322289;-14.07129535;-16.72476061;-11.04568185;-26.86217982;-14.13215378;-4.487877121;1.040004883;-16.08949632;-4.467537319;5.467276281;-2.320144678;-1.153705227
5.99623532;-13.27729549;4.040718966;-16.07958718;-1.030186054;-6.312799063;-65.01662688;-10.46466603;-19.35557171;18.5793226;-15.1984639;-19.7019211;-5.611085107;-1.983032586;-17.24588256;-8.445210235;-1.764727898;0.617829705;-6.805728401
21.59919775;-6.703870325;46.72694384;-9.091444024;4.073372229;-5.448016624;-8.917103583;-2.573634637;-12.34255394;52.15272158;4.94899356;-17.97733817;-4.009195444;0.817252757;-11.8365852;-4.698433904;-2.41647644;9.583681318;-5.535305707
12.44013898;8.049410042;61.13683575;0.006711169;9.096418123;0.463974254;34.66581539;3.588414175;0.442207847;58.48351776;20.24396813;-6.518509199;0.979845227;10.69322461;-0.268575965;7.519192438;7.383436561;20.55675136;3.315675281
-24.39012452;22.37569001;27.27333832;1.822593899;7.355626081;7.143764238;30.84614605;1.798997079;8.667502943;24.60531296;17.89735128;8.710755314;5.910842178;22.28925707;11.50264138;21.37602485;23.00614441;26.8728355;14.0405575
-69.84851393;26.50118905;-36.4433961;-7.700984393;-2.972059932;8.833212742;-17.90639893;-8.841885221;4.045814305;-29.71304285;-3.276876346;17.33686928;5.998680409;27.16538022;15.6113316;27.05274471;33.91186112;24.3593369;18.51172321
-94.63425458;17.19787653;-82.89848394;-22.6184629;-16.44028146;2.839070367;-71.95278638;-22.116075;-11.91050258;-63.41974882;-30.0796561;12.6894107;-0.527118441;20.33724962;8.121822283;19.28018317;31.34036349;14.90332424;12.44308401
-80.04458321;0.891979005;-70.73959841;-30.77011051;-23.68944225;-7.95840467;-84.52973654;-28.54017957;-27.72039945;-44.53138902;-43.52659457;-2.438221119;-10.2074968;4.639483231;-7.449673821;1.843945781;15.24856325;5.390982038;-0.949277544
-32.2892589;-10.61196696;2.527184952;-23.46365658;-18.31758535;-16.80154944;-38.30945417;-22.2522055;-30.20847755;23.87327573;-32.6807969;-17.22753181;-16.37697021;-10.75394171;-21.93836762;-14.72058676;-5.041828662;2.644685168;-12.92687015
20.89192594;-8.770866612;95.3562969;-3.193800817;-2.010957789;-17.84159829;40.48443283;-5.688427787;-14.9828587;103.0793323;-2.971805596;-20.6291782;-14.04269863;-16.72637468;-26.60895966;-20.62995172;-17.22245194;8.277732264;-15.48550154
49.08853671;5.261840409;150.3472602;17.2639204;16.17947672;-10.40322929;101.5173175;11.6874264;9.346280366;145.1769109;27.6660246;-9.529305206;-3.794496034;-10.66681765;-19.08476407;-13.75245947;-14.64947049;17.53901527;-7.133093648
39.63091573;21.38235714;135.1043694;24.14541801;26.04298723;0.546442366;107.7564304;19.81225192;26.94778153;126.8390261;41.8941343;9.05440482;8.417824879;1.961091919;-4.751986046;-0.582589145;-0.74188239;23.06215046;6.206292381
4.717916959;27.93484498;64.86473834;13.185952;23.2509717;8.062966307;61.50935388;14.85614892;26.32960086;64.88431494;35.05795064;23.35669389;15.54023181;12.00092842;7.288223426;9.275580668;14.0478922;20.53603485;15.7396351
-29.20466707;20.15737975;-10.00555012;-7.058756809;11.95851427;8.176350034;-0.256866383;1.451435679;8.750827169;2.356216314;17.0026567;25.48265689;14.40394109;13.37404101;10.55610894;10.54720231;20.11316577;11.8484528;16.18749759
-40.9723544;3.383476138;-41.4768141;-21.74935317;1.183227622;2.380523314;-35.74417871;-11.09285193;-13.00636495;-23.30145477;2.793387459;16.55848573;7.6205244;6.997212658;5.135957153;5.744990758;15.28503058;3.367202838;9.142346158
-28.35996786;-11.16069428;-17.46298307;-20.96602668;-2.02852921;-4.044641874;-28.57801625;-15.46932515;-24.38671444;-5.291910358;0.393251191;4.752581323;1.088852943;-0.878057095;-3.34067323;2.194680066;5.353504552;0.922144598;1.122759164
-6.633174536;-14.51366674;33.09299158;-6.754809905;2.642342357;-6.306944116;4.549676348;-10.90756951;-19.61663809;32.28411947;5.385888594;-1.707477226;-0.700036621;-4.111102963;-8.350058594;5.44931675;-1.295067327;5.545755353;-1.760063477
5.232077605;-5.912567763;65.42738197;9.281638349;9.476176686;-3.526738648;32.06860981;-2.559872411;-5.031238028;56.74370733;6.532372441;-0.642218048;2.218277056;-1.306460326;-6.936409205;14.6512708;-0.261063857;13.18482485;1.816297234
-0.939129237;7.600339374;53.28144242;15.4841017;11.80728984;1.198095128;34.14499467;3.146497801;6.840039063;52.39154085;-3.2148471;3.531230011;6.018754852;3.899476678;-0.825567872;23.48526124;6.216381611;18.26605803;8.158371221
-18.08013998;17.0117373;5.983010226;8.894568597;7.2016781;3.771697413;15.67744787;3.220265653;7.166193777;29.42828688;-19.94231144;4.614558218;6.728889663;6.625434173;5.956526666;25.59298397;12.09862062;18.00140108;12.15261485
-31.44101873;17.81576847;-42.66726669;-3.49606069;-1.24567962;2.462970232;-2.666640836;-0.587439322;-3.232747293;11.40168115;-31.97235193;0.272516415;3.57163069;5.058830107;10.42933581;19.75143976;12.95183799;14.03179093;11.41981214
-30.78464516;12.37728597;-62.19273038;-11.34758537;-8.030674428;-1.041450401;-4.699659364;-4.245891017;-15.98854585;13.88585788;-30.0620793;-6.300102107;-0.694865135;1.652660264;12.17639535;10.61356887;9.278361612;10.4499907;7.710780537
-17.35388321;7.005497574;-46.97764643;-9.465715812;-9.792353986;-3.465705003;8.381451422;-5.083381796;-22.71022561;32.64858493;-15.70334968;-9.748519124;-2.468238451;0.488865987;12.29294048;4.717595077;5.335030009;10.21417649;4.820500718
-1.145147052;6.623167476;-16.10570284;-1.20847161;-7.52392489;-2.845715838;22.34679829;-3.52690711;-21.29423158;49.79333877;-0.376446654;-7.658876314;-0.533850502;3.388567459;11.35364692;5.3514666;4.963094218;13.00951554;5.18112472
7.870388041;11.32289078;5.281641926;5.44517098;-4.992677494;-0.010636491;25.18473526;-1.924905367;-16.15535621;50.65678185;3.617663074;-2.811114422;2.939254376;8.231277874;8.585843408;10.50714991;8.267872833;16.06977918;8.091138484
6.836768709;17.0991331;5.979460467;5.191794325;-5.166031745;2.423874341;17.94638688;-2.006704534;-13.09711839;36.09996631;-6.966752236;-0.71453908;4.368553941;10.83207015;2.976215449;15.26832719;11.88177534;16.86663475;10.81433251
0.27031612;19.57981503;-5.720249246;-0.357904882;-7.856483104;2.450043945;11.51118796;-3.413078625;-13.93299945;20.30003906;-23.9085658;-4.719377274;1.887315398;8.597080054;-4.950796078;16.21014474;12.24578565;15.17838286;11.23454302
-5.38019179;17.48777783;-12.95708776;-4.813997706;-10.3915666;0.300960421;13.61245534;-4.405190509;-15.56570718;17.37902952;-34.37032446;-12.99316236;-3.056266767;2.747552655;-12.60531475;13.96056443;8.814731956;12.89967259;9.599661736
-7.361278775;13.25334804;-6.218388562;-3.151060676;-10.34178968;-1.978531853;19.53714311;-3.754828739;-13.79319365;29.34054631;-31.13346949;-19.8966644;-6.905049451;-2.718753412;-16.77864146;11.99258211;4.408586416;12.0868962;7.95962709
-7.748260297;10.74695411;9.634671004;3.782482436;-7.678760174;-2.457368177;15.95240925;-1.880326948;-7.832170233;45.47354819;-17.80094077;-20.47666995;-6.881659285;-4.308916706;-15.91464638;13.09474373;2.600515872;13.18652669;8.058161485
-9.998618772;12.27278289;21.74577873;10.26533724;-4.507171454;-0.955625692;-5.523434911;-0.228630063;-1.207399098;52.62895157;-5.055679131;-14.25428968;-3.112760308;-1.717590524;-11.24962445;16.81670373;4.595057353;14.97828798;9.715271097
-14.82007813;17.15244534;21.68492063;11.07780953;-2.841676836;0.981990007;-37.93976917;0.323321801;1.68494444;46.53554563;-1.5735261;-5.293444503;1.675571742;2.248062432;-5.832720607;20.04728024;8.321527942;16.03688705;11.11018693
-19.30331053;22.61889767;12.41123308;6.330242994;-2.627202905;1.600528529;-62.18423678;0.374513701;-0.109157564;34.37456225;-7.339114285;1.204415881;4.453924124;4.215170274;-2.27359331;19.96700576;10.38098456;16.14292664;10.56
-19.83530695;25.89532097;4.429074774;1.468549347;-1.848562942;0.491613078;-61.79343584;1.297082642;-3.158790445;27.2929217;-14.64203067;2.723597289;4.154801203;2.953644879;-1.11620845;16.58322395;8.996605081;16.27150777;8.083563204
-15.77897772;25.72615482;5.769589662;2.500650722;1.419058413;-1.168071948;-36.75922761;3.627736299;-3.102661782;30.33429201;-15.35560912;0.586102338;2.094898657;0.010116891;-1.110416671;12.6121209;5.38876154;17.2619214;5.356158679
-10.39224756;22.48254985;15.23653329;10.62867221;6.944855279;-1.797268821;-4.223731111;6.173294464;0.702431012;38.75518313;-8.007151136;-2.112029471;0.433728021;-2.02116342;-0.957487367;10.95884908;2.524847938;18.57761865;4.197192852
-8.155857689;17.29013549;24.43673139;20.90387638;12.17805933;-0.859083766;14.74762316;6.806634062;3.85457262;43.25717274;1.23169472;-3.574959696;0.189654608;-1.858679987;-0.857707992;12.16134437;2.505294019;18.48022136;5.032529368
-10.95199983;11.240728;25.85033169;26.02654147;14.17885806;0.723128691;11.17427586;4.337972188;0.529932223;38.6617144;4.055723558;-4.595028204;0.551771171;-0.428859395;-2.444892429;14.07059301;4.903912701;15.57502924;6.696519789
-16.47457881;5.296138412;19.25548566;22.0995466;11.9840067;1.480896309;-6.299281267;-0.209718846;-10.8683177;28.12863851;-2.962264583;-7.141924058;-0.051155743;0.330523149;-7.163127525;13.94779641;7.376705367;10.33523733;7.644798906
-20.19530988;0.600815341;11.1411234;11.64761776;7.386088777;0.747000531;-20.26357708;-4.135235383;-25.08399051;19.7494709;-15.74169691;-11.85067757;-2.234466871;-0.505211283;-14.51248934;11.0152196;7.814940685;5.141739058;7.378813825
-19.12611295;-1.503804226;8.469345925;1.617790072;3.497713689;-0.791184989;-19.46220196;-5.05288516;-33.13640356;19.33879242;-26.26923652;-16.88763055;-4.904007992;-1.897631852;-21.71014929;7.185586523;6.078590024;2.660834963;6.776201867
-14.19804156;-0.086408982;12.87631363;-1.827034942;2.347962581;-1.776384771;-6.922041339;-2.719294366;-29.06479014;26.07926453;-28.96244945;-19.26514852;-6.144727394;-1.791059027;-25.14981367;5.390158767;3.89772679;3.861927499;7.102855431
-9.389545954;4.561007332;20.20605178;2.445060307;3.496101862;-1.423222607;4.800309249;0.80044941;-14.90163986;34.2922094;-24.44842737;-17.38102983;-4.953426199;0.963104369;-22.62252424;7.041854363;3.23376639;7.3219356;8.704639031
-8.479830401;10.66863455;24.9409278;10.29574451;4.687546552;-0.181091224;5.851897928;2.723796264;0.295038442;38.76596435;-18.05237958;-12.47474725;-2.286911986;5.454066029;-14.72780253;10.84595823;4.669652242;10.37212782;10.62162998
-12.11752925;15.68499069;24.8972557;15.78073425;3.838876489;0.738416481;-2.560487707;1.56972637;6.790874038;38.38040994;-14.92112228;-7.716867469;-0.496961216;9.336069643;-4.574846607;13.90710885;7.18373274;11.09273;11.46130689
-17.41984433;17.56112096;22.10841627;15.32535991;0.637431369;0.48537657;-10.62415932;-1.971852478;1.035234175;35.3117454;-16.21204698;-5.759207243;-1.584122364;10.65310925;3.903926132;14.08554086;9.294503129;9.508216291;10.68899733
-20.18312801;15.78205846;19.96160997;9.597976759;-3.450697691;-0.689391255;-9.927780422;-5.839055368;-12.17801752;31.81376118;-19.26131843;-6.852403587;-5.655734597;9.290549697;7.892045211;11.58377343;10.36444596;7.110941398;9.130761506
-17.85318591;11.48644254;20.04621909;2.302295433;-6.526157157;-1.716344541;-1.255880329;-8.210952887;-23.6379956;28.57045471;-20.84048356;-9.017696543;-10.76731537;6.886249476;6.812790544;8.544879521;10.8697788;5.306842867;8.235196847
-11.10794514;6.671726398;21.70064394;-2.548897766;-7.653103964;-1.702898342;6.838934587;-8.571597526;-26.38218984;26.11547146;-20.07163884;-9.912662973;-14.20883952;5.395196394;2.245276574;7.188056276;11.54141003;4.229435414;8.781753579
-3.195813299;3.075695384;23.88721943;-2.71199762;-7.180217463;-0.716836359;6.745021704;-7.546274973;-19.94825654;26.77088392;-18.40532824;-8.656856535;-14.22521326;5.586476637;-3.081526533;8.136781356;12.35765503;2.904907286;10.20521881
2.183662724;1.437072484;26.53821325;1.838490341;-5.970445977;0.32865901;-0.796643418;-5.971952381;-9.438864448;33.53097291;-17.18327432;-6.136062588;-10.95571634;6.66793913;-6.62672071;10.22451935;12.42873228;0.462425548;11.11850338
2.908263265;1.472194219;29.48516385;9.552284288;-4.480216257;0.535993728;-7.522535635;-4.207709999;-0.926162787;45.71811807;-15.6358174;-3.806842612;-6.086286361;7.170058594;-7.140735695;11.67992413;10.87497594;-2.837985595;10.53003906
-0.757858744;2.401941376;30.32654785;18.04165349;-2.590604606;-0.179754566;-5.655335479;-2.236503363;2.71140271;55.69692412;-11.55972625;-2.322323111;-1.665350254;6.182784074;-5.109168628;11.4950766;7.811002635;-5.7406414;8.662754342
-6.715786508;3.578352457;24.4463908;24.59721851;-0.207559989;-1.066684622;4.674120143;-0.21222848;2.493520892;51.50289825;-4.090986124;-1.253172721;1.00934356;3.902284471;-2.316803855;9.859636299;4.448990984;-7.142089085;6.690780984
-12.33434802;4.811502292;8.563580883;26.89125804;2.162926391;-1.264114891;15.58108052;1.318712356;0.935405687;25.44367427;4.285581956;0.03508585;1.797214132;1.204754114;-0.671882068;7.555805614;2.186812539;-7.152992668;5.700578678
-15.72180724;6.261153111;-14.76851014;24.10453356;3.607493522;-0.588635044;18.85873028;1.860363482;-0.573391298;-17.50447757;8.843645748;1.424764854;1.406434602;-1.1633368;-0.907331189;5.122568215;1.513393612;-7.06673818;5.836610529
-16.41976207;8.036071842;-36.31882715;17.84106815;3.674435319;0.3327286;13.56953867;1.612497798;-2.13533952;-59.3069806;6.318999091;2.068452112;0.793062538;-2.989163146;-2.033197398;2.612619444;1.727345268;-8.242660813;6.348887805
-15.31349696;9.804752998;-45.14910105;11.74340528;3.051752769;0.670554133;6.678147407;1.534539904;-3.641995707;-78.84804571;-1.908827648;1.367720353;0.677087733;-4.354633186;-2.070914601;0.010561841;1.690754537;-10.9024869;6.398285372
-13.87879972;10.71827279;-36.37037511;9.478921697;3.255065661;0.158458923;6.271636007;2.567191163;-3.390561528;-66.05688675;-10.1444879;-0.149987845;1.310626254;-5.199296402;0.304625641;-2.313836428;0.877864664;-13.90868958;5.816424419
-13.19170786;9.77874304;-15.45280779;12.25138473;5.416991489;-0.683494173;13.87436566;4.630616388;0.963386841;-29.57993357;-12.33279749;-1.062764718;2.434480586;-5.263979803;4.424629685;-3.704620121;-0.264061477;-15.70443412;5.141528899
-13.30665029;6.503608096;5.020895923;17.78692431;9.16636177;-1.047727346;23.1024641;6.377539707;9.644658414;8.474546113;-6.621674178;-0.303550472;3.374020106;-4.497257105;7.779829119;-3.798272172;-0.935817863;-15.57085649;4.986115805
-13.44228486;1.474473056;14.18309182;21.86801208;12.63161587;-0.58210253;25.82419829;6.101252662;18.92843301;27.36223177;3.14221693;1.733143405;3.310659107;-3.4293117;7.795526774;-2.952051848;-0.932167922;-14.11494134;5.411455735
-12.85696162;-3.67952707;10.43948023;21.46349994;13.69896182;0.301678546;19.89526342;3.154165154;22.61041587;21.14088873;10.21736408;3.36318168;1.717120428;-2.974334186;3.980425801;-2.015797805;-0.946917087;-12.6237921;5.915452802
-11.69683946;-7.012644076;1.679448235;17.03671283;11.57087507;0.815294987;11.11077006;-1.324173318;16.3207736;0.789066573;9.83331823;3.049365778;-1.241690752;-3.681863272;-1.313778415;-1.608940249;-1.894995117;-11.92417472;5.99393002
-11.01122424;-7.346521778;-1.922587527;12.10402091;7.362038735;0.504298986;7.564529595;-5.081607726;1.413425838;-15.96629001;2.309094541;0.869218412;-4.651809342;-5.074683013;-4.344734308;-1.586982549;-3.873507743;-11.76745416;5.665324199
-11.77672592;-4.992972358;3.598792806;10.31072822;3.231824489;-0.362871722;11.86216619;-6.381993387;-15.01119044;-18.52418742;-7.805177126;-1.345759141;-7.288469476;-5.757453962;-2.693537356;-1.222001118;-5.775831079;-11.2180232;5.409938155
-13.70617141;-1.546326939;13.29297707;12.38652501;0.749226111;-1.056820188;18.71814455;-5.30591478;-24.52546974;-10.04005859;-15.50133876;-1.422072426;-8.334106165;-4.356689309;2.866736397;0.06650313;-6.012889463;-9.59969875;5.590078125
-14.99715513;1.188712023;18.35641676;15.51320991;-0.194764245;-1.036539074;20.35500685;-3.673585567;-23.1827091;-2.405319391;-18.74985882;1.364431948;-7.888514572;-0.601205977;8.924975781;2.125639983;-3.788856542;-7.103311805;5.965522908
-13.51824797;2.384065446;14.24304753;15.66120568;-1.084833006;-0.394941925;14.58303018;-3.654198856;-14.32293487;-4.861749632;-18.99735089;5.66945097;-6.876784163;4.337352421;12.07096144;4.169530828;0.153705418;-4.555347432;5.845504087
-8.668535741;2.579751768;4.643614833;10.96805116;-3.395290175;0.27523273;7.612766309;-6.174764501;-6.154840212;-16.23878577;-18.84680256;9.180237411;-6.389293611;8.552971359;11.52529906;5.425629;3.972100957;-2.669339691;4.783019511
-2.364523037;2.946198609;-1.983733046;3.35533578;-7.282583782;0.434976064;8.379055605;-10.34706449;-5.879169181;-26.91372472;-19.37470739;10.47809519;-6.919625542;10.62189559;9.590422029;5.663611777;5.988182912;-1.554989801;3.137720351
1.88653498;4.003578072;0.00281419;-2.934890512;-11.3935871;0.052548224;19.22003906;-14.2458384;-14.72740083;-27.91708905;-19.52140751;10.0496991;-8.046279328;10.39094364;9.519477579;5.107899876;5.737533443;-0.934822183;1.900078125
1.352350242;4.900518083;8.583159092;-4.626596917;-13.87521816;-0.434529383;31.67511531;-16.28984194;-27.47076685;-18.76802593;-17.83319041;9.610182149;-8.765958252;8.788564877;12.58039455;3.917184497;3.995952572;-0.762300628;1.854207159
-3.882623131;3.975913705;16.17575216;-1.788528807;-13.71708319;-0.570739035;32.07027657;-16.11281071;-36.4599731;-7.389873873;-14.60405061;10.40862119;-8.20762573;6.923896489;16.82588068;1.903163091;1.889965364;-1.506078029;2.824351327
-10.85881575;0.279168398;16.59326841;2.571598649;-11.3726562;-0.302270565;12.86510558;-14.39694433;-36.93243964;-2.791488853;-12.1705146;12.07105004;-6.214492093;5.272130561;18.67771292;-1.084004526;-0.043961691;-3.697735773;3.743564152
-15.80471736;-5.167031;10.50966274;5.180454993;-8.270138352;0.017132373;-19.80778902;-12.07281599;-29.72033785;-7.406273253;-12.93552288;13.01509983;-3.433141889;3.570078125;16.03210866;-4.450537587;-2.043362546;-7.124595256;3.559711983
-16.74572155;-9.532517699;4.620058594;5.067697491;-5.725545623;0.007933864;-49.24216821;-9.717959004;-19.83515858;-15.75612156;-16.90844489;12.03139379;-0.925171886;1.374322105;10.23652029;-6.69341125;-4.506043273;-10.51427257;2.198479936
-14.63534781;-9.903640311;5.451183375;3.892929712;-4.160153846;-0.351897723;-59.8866108;-7.596525996;-12.59032363;-20.08072704;-21.11654154;9.57373084;0.39843129;-1.31316686;5.181527059;-6.273176478;-7.276337197;-12.20443625;0.687353734
-12.21406968;-5.427499647;13.51674282;3.929839064;-3.150431854;-0.709542972;-48.37885231;-6.040480042;-10.40860847;-17.41311527;-21.65124728;7.570240178;0.203652449;-3.913799261;4.185522259;-3.015964529;-9.564516734;-11.38735911;0.262915483
-11.66810684;1.734554024;23.00120828;5.623956549;-2.100231174;-0.691449366;-25.12671679;-5.540378818;-12.34439349;-11.72758387;-16.77984721;7.89684393;-1.124073037;-5.681162745;7.263621171;1.188696419;-10.57208937;-8.885559422;1.216682408
-13.068291;7.490745539;27.02723714;6.915215662;-0.869844657;-0.280494709;-5.587399045;-6.306234024;-15.91281284;-9.651237488;-8.541944122;10.83645602;-2.610129343;-6.212407549;11.10590127;3.276907166;-10.19434169;-6.683484811;2.528964878
-14.76500408;8.31295283;23.58248591;4.895240406;0.145335135;0.147699936;1.226837866;-7.750484469;-19.20909678;-14.11616998;-1.446086603;14.83562461;-3.044884552;-5.606729402;11.82973892;1.092742204;-9.099626308;-6.4515595;2.687920683
-15.15802465;3.445401485;16.82742177;-1.669168;0.444810205;0.165725461;-2.235995741;-8.593691949;-21.6557154;-21.89169811;0.748930497;17.71097415;-1.511705947;-4.220488333;8.220517316;-4.871461186;-8.098238421;-8.202626206;1.036910235
-14.13084886;-4.701083036;12.91688985;-11.10906711;-0.103116583;-0.306875399;-6.705191314;-7.776665906;-23.34386322;-27.01178087;-2.346080145;18.21786778;2.052250297;-2.360526401;2.74036247;-11.55068442;-7.412778693;-10.20731414;-1.527049701
-12.90962937;-12.20835822;14.45191506;-19.91664792;-1.168622878;-0.918605432;-5.285385616;-5.522319924;-24.17869385;-26.5625169;-7.690749241;16.6720214;6.560317139;-0.250965732;-0.548698113;-15.32130828;-6.568613603;-10.31855274;-3.174237254
-12.66937257;-16.15754823;18.66754052;-25.15714044;-2.276228565;-1.192487841;1.117165621;-3.546509294;-23.85429897;-23.27414942;-11.18573111;14.25300421;10.06874437;1.758265948;0.591753556;-14.49779398;-5.026594744;-7.703747592;-2.627284339
-13.36826113;-16.24440231;20.71603212;-26.26096242;-3.196099245;-0.941232427;6.255877342;-3.993574011;-22.50768017;-22.57690699;-10.50338879;11.80858418;10.70688799;3.094920511;4.669869307;-10.3929716;-2.944554866;-3.617969679;-0.281274044
-13.96543401;-14.49745648;18.58215882;-24.89520724;-4.059775606;-0.414775888;5.590503591;-7.754972463;-21.05615473;-27.06356107;-6.277874318;9.327414933;7.819387495;3.252784516;7.654220113;-6.126694178;-1.287695154;-0.589889449;2.005200875
-13.71963256;-13.4891061;14.81889389;-23.27158973;-5.138637257;-0.056663958;0.822028783;-13.4838525;-20.57109361;-33.68923401;-1.075946056;6.483680084;2.581194989;2.310624422;6.256061625;-4.162082475;-1.092727598;-0.634649455;2.315779703
-13.12442424;-14.43715664;13.58599221;-22.42749073;-6.523502737;-0.103803335;-2.189862389;-18.20964857;-21.16962415;-36.38707711;2.664178644;3.555466071;-2.460960811;1.182218992;0.594555936;-4.546320749;-2.499253921;-3.8457465;0.149434017
-13.36915557;-16.52314675;16.1520759;-21.80288123;-7.993822346;-0.396767316;0.37288532;-19.24186591;-21.59623535;-31.65968441;3.990241998;1.648051223;-4.78853879;1.218949129;-5.884574132;-5.203227685;-4.438508522;-8.37724017;-3.218685809
-14.75061089;-17.75621714;19.53139629;-20.18800626;-9.161973024;-0.561150168;6.348193058;-16.00352132;-20.13666635;-21.92250422;3.301863923;1.865919269;-3.410984264;3.323775994;-9.058595136;-3.909987168;-5.331886588;-11.72744233;-5.738652375
-15.70043753;-16.59298523;19.77423149;-17.01576233;-9.738569323;-0.375234851;9.892800131;-10.42813573;-16.20920642;-13.47981893;1.358531837;4.179655722;0.547849029;7.220943241;-7.112142237;-0.239466679;-4.263892246;-12.28754651;-6.091662617
-13.72495294;-13.08883557;16.63986787;-12.90567108;-9.697384526;0.023281518;7.744375285;-5.621370788;-11.18115102;-10.9958367;-1.350897439;7.145251154;4.616466449;11.49397013;-1.509673521;4.126349517;-1.654210394;-10.05120747;-4.489680316
-7.76289852;-8.826326923;14.66496124;-9.199817941;-9.242498614;0.275967862;3.11523622;-3.782010257;-7.513421385;-13.54075972;-4.321945171;8.91339498;6.592522946;14.43317429;4.580142377;6.87054823;1.131970561;-6.158356624;-2.221672182
0.118994193;-5.79714433;18.88842822;-7.079645129;-8.645724047;0.145616891;2.963336273;-4.877503362;-6.820649129;-15.79110206;-6.415995733;8.750435643;5.896383062;15.08921808;8.840462783;6.97503058;2.886832239;-1.860594695;-0.46833246
5.543579915;-5.100953951;28.83605695;-6.98750155;-8.081970656;-0.263947539;10.74413538;-6.922999262;-8.49316173;-13.18;-5.940813438;7.720113278;3.748916002;13.76224316;11.15756219;5.492653326;3.428198895;2.193946164;0.544819706
4.932515775;-6.336172977;36.70790083;-8.567078537;-7.534783192;-0.610955644;21.43449719;-7.49092102;-10.13054786;-6.172870375;-1.763926687;7.830164426;2.12938562;11.61292775;12.85544534;4.608118388;3.522748199;5.912282585;1.390746523
-1.493253191;-7.989545188;32.48791411;-10.84753939;-6.776086111;-0.635316894;24.09643997;-5.262105595;-9.471449917;0.286694798;5.375003627;10.29200445;2.340910271;9.771186804;14.82742186;5.881875994;4.003944707;9.230348685;2.559867656
-9.476623463;-8.450576139;12.46309484;-12.42818198;-5.420694156;-0.389894347;10.63266449;-0.59179292;-6.163370419;1.595828985;12.66728428;14.37444726;4.226870938;8.659624972;16.43824852;9.148764887;4.921478776;11.74506425;3.759960418
-13.78188059;-6.942764723;-16.02561985;-11.79789732;-3.083235034;-0.170317377;-16.45784594;5.053702081;-1.838720003;-1.958651592;16.70622676;17.87531776;6.51122562;7.982931331;16.18773869;12.84628264;5.488078492;12.86864489;4.076356688
-12.25653942;-3.829371174;-38.28286542;-8.04369505;0.367696724;-0.218891939;-44.23471141;10.1205958;1.522011081;-5.217084618;15.75945985;18.85425744;7.864515234;7.236344107;13.401129;15.29003906;4.836480847;12.30413979;2.838671525
-7.548449406;-0.226438856;-42.22540137;-1.762656621;4.573704977;-0.488935436;-57.89512222;13.65261166;3.408554994;-2.806046552;11.13399588;17.1719695;7.814953085;6.196920513;9.245679688;15.72528207;2.860246538;10.33477639;0.372999179
-4.906384954;2.708666898;-27.00263956;4.592087882;8.666773369;-0.692898857;-51.21500592;15.34963514;5.087724853;5.792393179;6.460160689;14.54003906;6.864166407;4.992638553;6.017491034;14.38696483;0.354487482;7.629634335;-2.08648324
-7.740956112;4.314122022;-3.444654226;7.667825745;11.58666583;-0.585194137;-30.63292809;15.29891185;8.112284024;15.43314627;5.275371773;13.0689405;5.866165578;3.815023808;5.266761278;11.80669046;-1.66715336;4.752946579;-3.297507157
-14.60355079;4.499164757;13.99062301;5.286975297;12.62150412;-0.208107212;-9.935285003;13.81677243;12.45212045;19.59912406;8.625174047;13.5814111;5.283887566;2.674875938;6.436062214;8.233866002;-2.840857997;1.845087312;-2.963971815
-20.1807378;3.446915803;17.33069717;-1.692214534;11.83732248;0.13474719;-0.069495962;11.50757438;16.09086174;16.0138871;14.42590693;15.1158803;4.926686165;1.488881616;7.2744265;3.757054565;-3.70235791;-1.237399461;-1.931000247
-19.58803757;1.300196707;9.459285065;-9.327759739;10.06889139;0.154756998;-2.201063513;9.272114605;16.62413652;8.594795728;19.01437762;15.95968436;4.278287282;0.372269925;5.736966766;-1.11738007;-5.089491101;-4.487946948;-1.460424705
-12.44228979;-1.845766229;-0.016007363;-12.83132507;8.42330313;-0.154207995;-8.95068809;7.996308397;13.50432658;4.041151805;19.68714494;15.20952969;3.019115841;-0.257856942;1.77126049;-5.190518537;-7.252166066;-7.474129481;-2.205191096
-3.302928872;-5.630381905;-3.178815345;-9.763207622;7.606175378;-0.508117793;-11.820634;8.018156697;8.840275598;6.121024843;16.3666439;13.44727227;1.254263263;0.005536262;-2.526345548;-7.064992542;-9.497532097;-9.524048411;-3.732724708
1.934506476;-9.133173355;0.696019676;-1.865692831;7.529176404;-0.592853389;-8.125151192;8.808124049;5.833797239;12.68909966;11.29185941;11.98301383;-0.697648137;1.06507695;-4.521952045;-6.079372832;-10.71435064;-10.24105332;-4.955546736
0.72910227;-11.02560854;6.495905235;5.98147146;7.461250063;-0.350023193;-1.970554225;9.224481571;6.051645915;17.9269721;7.158085722;11.44726973;-2.675238269;2.157591711;-3.094516992;-2.863933169;-10.32264709;-9.893751801;-5.061911774
-4.206838798;-10.28740391;9.173122653;9.071461943;6.590648679;-0.023186509;0.589348362;8.245316829;7.909480714;17.61722495;5.215157273;11.09765082;-4.809381366;2.318158899;0.515616293;0.998832224;-8.806811684;-9.318805466;-4.157018107
-7.34368889;-7.082115172;8.304915255;6.043558405;4.583279629;0.076693295;-2.722607198;5.648603633;7.852779658;12.6773315;4.696770451;9.52230989;-7.294253023;1.184764037;3.658382395;3.926403223;-7.359244942;-9.385901173;-3.118918946
-5.034452258;-3.072576532;7.415006487;-0.433913655;1.76940978;-0.134127863;-8.816899884;2.121972274;3.433237091;7.934219417;3.815087688;6.106340484;-10.03767123;-0.546766103;4.174681183;5.102999972;-6.948477878;-10.43506366;-2.847769975
1.442125808;-0.695903473;9.486004551;-5.897229843;-1.097332855;-0.43349978;-12.57665286;-1.255222676;-4.249876416;7.499921255;1.376032722;1.885536859;-12.55561161;-1.516974624;1.755940645;4.522113081;-7.621148649;-12.09717111;-3.554887
6.975034754;-1.650766063;13.60334733;-7.395530325;-3.261561575;-0.504673192;-11.53373578;-3.710809029;-10.89920613;11.08936825;-2.259995262;-1.070811868;-14.24473254;-0.753708967;-2.122256702;2.516203381;-8.616094691;-13.57561587;-4.638684746
6.857850419;-5.567612037;16.17177677;-5.273871424;-4.264362862;-0.240530148;-7.576498771;-5.112449311;-12.07098577;14.56842786;-5.490688536;-1.287030041;-14.81032574;1.429591834;-5.372857556;-0.550195596;-9.135943688;-14.11567683;-5.174059171
0.61262298;-9.920285541;15.2872212;-2.189663022;-4.002796227;0.144204394;-4.564925902;-5.760968094;-6.584875047;14.03182842;-6.661066664;0.878066376;-14.47811122;3.472805241;-6.517346446;-4.053407545;-9.055353785;-13.31739674;-4.574142473
-7.700185211;-11.48463001;13.46407157;-0.432711287;-2.655554007;0.300837131;-4.541734681;-5.955329462;2.410707407;9.512593291;-5.170935372;3.475415753;-13.80717449;3.621076469;-5.143837594;-6.73695794;-8.94556945;-11.17212762;-2.9328554
-12.7911126;-8.511068374;15.39645307;0.060210624;-0.623426385;0.064755636;-6.172182583;-5.783330691;9.56422566;4.906187992;-1.775069214;4.516527606;-13.26767683;1.230733069;-1.630543161;-6.954664777;-9.447465596;-7.966192571;-0.887962864
-12.22407547;-2.108235575;22.45747063;1.344645707;1.503619733;-0.388338899;-6.562760271;-5.284154564;10.96011581;4.294854356;1.946171909;3.521067821;-12.93736828;-2.688118916;3.265009756;-3.778675294;-10.61942417;-4.237377964;0.784839719
-7.960858099;4.262958129;29.37115722;5.209321744;3.070109045;-0.693411264;-4.32931122;-4.699481268;6.488288715;8.178502041;4.421350481;1.761885222;-12.54708881;-6.145313941;8.508364793;1.788430924;-11.88205307;-0.781983342;1.529439621
-4.335603162;6.992381949;27.10709545;11.0924017;3.633484742;-0.619173807;-0.83505245;-4.424046023;-0.673833094;13.1063683;4.687802266;1.043162681;-11.7962897;-7.565244007;12.72390769;6.749462467;-12.59910402;1.469674637;1.16616656
-4.401724273;4.758496505;10.45604051;16.03097186;3.257220904;-0.271062759;1.419355018;-4.605934587;-6.71724666;14.95515361;2.594134955;2.102237097;-10.64751638;-6.84236694;14.42191147;7.752547593;-12.72414831;1.829378644;-0.101217859
-7.750974329;-0.525675839;-16.04321899;16.70040891;2.545145886;0.008590669;1.411001454;-4.796983972;-9.693285114;12.70048181;-1.227536394;4.007197147;-9.366950732;-5.274919512;12.66785607;3.523212577;-12.874268;0.317574389;-1.740781841
-11.40858259;-4.97479996;-39.53161371;11.82151349;2.270718126;-0.049007867;0.52377515;-4.135196556;-10.01549601;9.141927671;-5.463577968;5.012052403;-8.325016464;-4.48118829;7.752470053;-3.797952864;-13.72869856;-2.162765587;-3.025365312
-12.70831069;-5.34076536;-47.39456336;2.9791017;2.788080454;-0.399437204;0.953183076;-2.101980946;-9.065389267;7.974870466;-8.379122986;4.058087664;-7.766427349;-5.176593999;1.211052134;-9.755185799;-15.29523664;-4.220078125;-3.308643409
-11.51115445;-1.138477037;-36.49915626;-6.67221343;3.664819733;-0.730252951;3.332480729;0.703526584;-7.580306822;10.06486927;-8.423550862;1.595752517;-7.736762788;-6.740830014;-4.987554404;-10.62071069;-16.74107731;-4.791587696;-2.388741713
-9.960141372;5.171066098;-15.611632;-14.5662569;3.883265214;-0.745712525;6.049154132;2.519962117;-5.394830186;12.51881593;-5.111805403;-0.934244696;-8.166347435;-7.829036448;-9.514176847;-6.192067264;-16.99525978;-3.841712891;-0.722141048
-10.25902449;9.971734641;1.153818176;-19.93419628;2.536616424;-0.431455281;6.930199847;1.375004518;-2.553137882;11.48202822;0.318564104;-2.410325268;-8.963967785;-7.458216401;-12.15883775;-0.098130817;-15.63235892;-2.393587054;0.757701859
-12.63030358;10.89298326;4.695134594;-23.29668132;-0.474733664;-0.063041405;5.531818989;-3.51917067;-0.356363152;6.033413858;5.123822558;-2.912676263;-10.00589165;-5.689881664;-13.36879856;2.819971913;-13.27114912;-1.800610334;1.201338663
-15.25253389;8.126961467;-3.133976379;-25.08201746;-4.292591071;0.042656437;3.650275455;-10.95168593;-0.948049607;-0.551435278;6.361318215;-3.410894628;-11.06650347;-3.43465955;-13.36679549;0.164254911;-11.12339238;-2.750869667;0.424107116
-16.06698779;3.888480858;-12.43397751;-24.8967083;-7.642483506;-0.195756932;3.494760957;-18.18623975;-5.527104094;-3.4910801;2.691328297;-4.612125831;-11.83901233;-1.639086102;-11.77426575;-6.152409713;-10.05803919;-4.739528672;-0.952724662
-14.67814793;0.6387853;-14.08996889;-22.16222794;-9.668839512;-0.566076913;5.383808645;-22.507698;-12.7855138;-0.769569974;-4.498577663;-6.092454102;-12.11411864;-0.565378014;-8.171632283;-11.3435897;-9.963734397;-6.420810225;-1.961967345
-12.61262741;-0.514009122;-6.932476031;-17.36226308;-10.4250314;-0.765600685;7.375744085;-22.81278644;-19.21950448;4.927404088;-11.595347;-6.560372999;-11.99253273;0.284497189;-3.06013644;-11.4292627;-9.933667328;-6.592496937;-2.024260924
-11.8001873;-0.160397473;2.464261337;-12.45100812;-10.65438407;-0.672473054;7.307743724;-20.1558293;-21.40919626;8.456195596;-14.8179703;-5.051260993;-11.90640708;1.62229585;1.829773148;-6.301408184;-9.092753781;-5.081995381;-1.367537808
-12.76897976;0.321040304;6.467671445;-9.736603374;-11.06877892;-0.439110053;5.200863162;-16.9124016;-18.55613748;6.682995277;-12.60936982;-1.982799333;-12.34706602;3.70893108;4.445746347;0.221595357;-7.352564875;-2.874305578;-0.772764743
-14.23421791;0.023885613;3.257646137;-10.06747601;-11.72555708;-0.332634669;3.465398252;-15.20330781;-13.16114952;1.184357172;-6.736596297;0.906659594;-13.45941522;6.099157843;3.96433533;3.378626321;-5.468307913;-1.393415474;-0.846002887
-14.40710787;-0.86458743;-2.085663298;-11.97237379;-11.99662798;-0.479820182;4.477488233;-15.68241612;-9.166371435;-3.206189536;-1.226141718;1.749093213;-14.82963003;7.933619636;1.663886412;1.132069834;-4.387638592;-1.476470962;-1.436352081
-12.75490581;-1.40125294;-2.759303282;-12.70335589;-11.11611422;-0.754532422;7.87387709;-17.42449851;-8.98355785;-2.625204413;0.266519835;-0.100162291;-15.68618862;8.48465844;0.195345832;-4.331750286;-4.476874586;-2.78932245;-1.719192257
-10.56355388;-0.733915154;3.406509315;-10.47229946;-8.820502929;-0.905830876;10.50045584;-18.79988579;-11.77920548;2.663259786;-3.102917942;-3.652378357;-15.4148509;7.532852064;1.628699855;-8.360880713;-5.279275046;-4.084183008;-0.903938676
-9.793019462;1.257319514;12.23172556;-6.037231395;-5.552535998;-0.799748577;9.517323756;-18.57457063;-14.35263364;8.934775091;-8.829058706;-7.117642232;-14.01624223;5.367417747;5.762088904;-7.393030415;-5.970285633;-4.081712738;1.024352015
-11.28904766;3.908673614;17.40296027;-2.244926612;-2.103084794;-0.546377351;5.867996513;-16.48024817;-13.80366724;12.65930548;-12.83803367;-9.247530784;-12.14929858;2.523051089;10.09033441;-1.534610579;-6.074258633;-2.337970666;3.177486578
-13.98437861;6.181405202;16.435219;-1.8329633;0.951699456;-0.395901498;4.421480006;-13.04872459;-9.765116569;13.57652524;-12.35254629;-10.08474907;-10.70945914;-0.487357517;11.53932872;5.70564673;-5.814678187;0.483934382;4.395379662
-15.80211216;7.158270397;12.75567109;-5.276423209;3.51753319;-0.503962247;9.823062253;-9.081393775;-4.450982981;14.3008458;-7.795508787;-10.58358671;-10.24523385;-3.282510909;8.639812082;10.11038622;-5.824617867;3.066443701;4.136333342
-15.43554331;6.381431042;12.0772207;-10.43519374;5.757240247;-0.786044385;21.23851771;-5.271524605;-0.672514202;16.98971134;-2.35302807;-11.53658729;-10.63514071;-5.595003905;2.458449535;9.664187327;-6.508729663;4.256493082;2.893896425
-13.42062864;4.013593521;16.6306117;-14.23767764;7.640349931;-0.994784767;30.90352163;-2.18518307;0.371266274;20.51848768;0.486966708;-12.7751803;-11.23983114;-7.247259634;-4.359978601;5.532486701;-7.627748369;3.703894843;1.793276942
-11.59100606;0.854664788;22.81433495;-14.94704351;8.734633771;-0.946603691;28.7239593;-0.395702808;-0.297926658;21.18544588;-0.392446596;-13.29493583;-11.38706787;-8.17972054;-9.540672954;0.665401447;-8.45311579;1.961123649;1.70081122
-11.45993144;-1.864786515;24.58602479;-13.15087702;8.472138106;-0.688160129;10.04346515;-0.444396182;-0.729282307;16.53366388;-2.848511943;-12.12985085;-10.82390538;-8.481407493;-12.48345226;-2.563155653;-8.337874698;0.067900021;2.578493688
-12.98610796;-3.004748207;19.47662985;-10.80346161;6.67010821;-0.451965699;-19.51417181;-2.539880902;0.118721903;8.647969422;-3.076191808;-9.202013993;-9.835735359;-8.349429398;-13.96774308;-3.741163863;-7.213092799;-1.056821803;3.597378046
-14.76541947;-2.197759292;11.51771535;-9.345373618;3.82930707;-0.445716631;-46.47209148;-6.240989925;1.676234635;3.42604392;1.443217738;-5.47213351;-9.000161691;-7.981634442;-14.75664259;-3.953072022;-5.61366813;-1.040818726;3.881947937
-15.37840932;-0.224070637;8.085361722;-8.631204853;0.903472996;-0.669662765;-57.96134626;-10.46108574;2.689319838;5.917798342;9.805052064;-2.34277688;-8.787139419;-7.485411297;-14.52984093;-4.206049125;-4.245506709;-0.100565366;3.241528185
-14.62369014;1.374474321;13.26694021;-7.536968306;-1.314003734;-0.925116327;-50.08891338;-13.8967054;2.728406348;15.65968852;17.96920053;-0.832471497;-9.268326284;-6.871170356;-12.17523486;-4.288784108;-3.462896134;1.251195365;2.284630892
-13.55359878;1.386267653;23.73973899;-5.524947572;-2.702788058;-0.998813208;-30.0004558;-15.6383913;2.757521321;26.360261;21.34989216;-1.099709496;-10.07282597;-6.108354356;-7.137079292;-3.025354197;-3.050968983;2.603058802;1.855445325
-13.37108228;-0.000528316;31.14141668;-3.577024591;-3.815726671;-0.849715309;-10.30196923;-15.57128664;4.21733941;30.66157041;17.92385144;-2.510710393;-10.56567431;-5.161431686;-0.487846982;0.432795726;-2.430126409;3.888585034;2.302090639
-14.27068819;-1.086211265;29.18471447;-3.53602271;-5.371859579;-0.630626969;-0.352425811;-14.33302131;7.525427249;26.11373154;9.691075545;-4.038971519;-10.14579848;-3.96639066;5.390954581;5.51437008;-1.08313619;5.330703016;3.202322086
-15.29538185;0.160825688;19.39395045;-6.415146288;-7.653654112;-0.535348683;-1.006095463;-12.90963897;11.44935319;17.14405571;1.479126281;-4.69704659;-8.558338639;-2.407072988;8.364497938;10.3221373;1.1022557;7.133912861;3.756568777
-15.29544275;4.35556221;10.27774789;-11.24059981;-10.27643212;-0.621840449;-6.167565106;-12.1535991;13.96725285;11.12906377;-2.075542426;-3.881881477;-6.117265221;-0.383208381;8.025558469;12.83648116;3.753823362;9.14236286;3.485792586
-14.05539335;9.748194519;10.30479411;-15.55529214;-12.47424298;-0.775698585;-8.942856551;-12.47160278;13.82101582;11.9149031;0.674663287;-1.652953378;-3.711475638;2.03159168;5.815674834;12.2358229;6.176499865;10.72942743;2.632252465
-12.53054144;13.02534401;20.44199179;-17.22434638;-13.63032886;-0.838832088;-6.929211516;-13.7471307;11.33671463;16.59791006;7.616098337;1.128196034;-2.490465011;4.479762477;3.706300843;9.313329356;7.628879852;11.05617119;1.938710258
-11.98545071;11.50956729;32.56820303;-15.99589418;-13.6187915;-0.771006193;-2.714290704;-15.42412998;7.826819145;18.6570485;14.486279;3.02618233;-3.273420471;6.41799489;2.651986406;5.763247837;7.604014875;9.584789609;2.015006097
-12.84207791;5.214721304;35.28350558;-13.46544996;-12.727465;-0.685195584;-0.190764323;-16.67783065;4.277089808;14.79855642;17.65;2.761941154;-5.956044778;7.428038765;2.214837868;2.997623287;6.044505037;6.51699016;2.830118666
-14.29469818;-2.849321878;22.5628412;-11.50336016;-11.2982851;-0.723660421;-0.677559334;-16.66213518;0.707907202;9.177684726;16.18454769;0.157698712;-9.318592749;7.52792448;1.644050752;1.417619565;3.416693446;2.819346807;3.73293092
-15.02972827;-8.499310499;-1.55479349;-10.5671042;-9.431121338;-0.89806395;-2.296442063;-14.81961817;-3.103728259;10.52541766;12.06487072;-3.388793242;-11.4876389;7.206266579;1.283000018;0.57716324;0.560884647;-0.252385791;3.950873429
-14.38380105;-9.087010949;-25.73375007;-9.408191292;-6.993025614;-1.054216753;-2.516965891;-11.14498159;-6.297900179;23.869654;8.591294223;-5.478153796;-10.89498826;7.091027946;2.789342284;-0.07228129;-1.683904733;-1.85747402;3.141019804
-12.89998616;-5.133252787;-39.1076668;-6.415134725;-3.880671756;-1.004417438;-0.793611977;-6.224058259;-6.533690543;43.79664172;8.272172031;-4.191243641;-7.180078125;7.475798535;7.715573641;-0.555711012;-2.911465047;-2.025273059;1.571951357
-11.81350544;0.279917618;-37.96640698;-1.347030698;-0.271076468;-0.708864781;1.471761336;-0.958717345;-1.328378179;55.77664589;11.50903709;0.485122894;-1.429986884;8.087635031;15.60387215;-0.353581876;-3.348669568;-1.519951431;-0.144854716
-11.9652058;3.825481734;-26.72574249;4.155231751;3.36350246;-0.335091196;3.338459604;3.886749729;9.708011217;45.85316214;16.70017884;6.432662431;4.449258742;8.318177503;23.42890969;1.07850668;-3.631089701;-1.18927209;-1.493805207
-13.12133232;4.162647555;-13.41346572;7.802489571;6.472058144;-0.132022391;6.149668437;8.007626802;23.65226733;11.8645651;21.41852501;10.74186819;8.835909118;7.760129184;27.25281551;3.725926121;-4.260941027;-1.269817651;-2.29959298
-14.26570961;2.463089371;-3.934924912;8.577474886;8.673225381;-0.224730362;12.28943591;11.50381738;35.38051182;-32.68751732;23.788967;11.75553314;11.22866457;6.612536183;25.0654134;6.837703873;-5.139430651;-1.184054989;-2.638784423
-14.53924374;1.037437383;0.545802481;7.62847703;9.840700085;-0.510809475;21.62380591;14.49814675;40.47769187;-65.93879059;23.31297391;10.2766089;12.26551843;5.598942245;18.58423212;9.286624595;-5.567729522;-0.012743655;-2.585547856
-13.95395773;1.351283383;2.11864438;7.294416732;10.00528845;-0.750144502;29.210504;16.76929639;37.8660683;-71.50446058;20.89839264;8.932555921;12.98299137;5.439068237;12.40164192;10.22161782;-4.77108072;2.694136122;-2.073052749
-13.273873;3.065752535;2.992913803;9.062421523;9.21901015;-0.767932648;27.35215866;17.75807876;30.21800723;-49.05;18.30661723;10.10679482;13.93018491;6.297963077;10.90417152;9.600599874;-2.56551533;6.392734513;-1.000836165
-13.24419132;4.735185745;3.814099741;12.22593232;7.532924445;-0.592447029;11.32836931;16.99770445;21.96595299;-14.01273482;17.3771343;14.03329598;14.82036776;7.669165691;15.21764971;8.282912741;0.373141516;9.744898013;0.53599491
-13.91866143;5.358962861;4.338792947;14.43682859;5.098485298;-0.411678664;-15.58227223;14.62752548;16.57818545;13.1324213;19.2988276;18.58688134;14.93386992;8.787172043;22.51485519;7.606753759;2.892156174;11.43939878;2.14218205
-14.6829921;5.341903488;4.862991177;13.71327056;2.260923781;-0.396670664;-42.37180958;11.52095036;15.14396827;20.12137976;24.08882934;20.96751551;13.86794283;9.213857262;28.22546514;8.645219801;4.125864838;11.04594061;3.280048828
-14.88675497;6.055691799;6.402065413;10.19114527;-0.490626536;-0.554175039;-56.55677012;8.835951344;16.94952995;9.331354878;30.43;19.9293208;11.96908134;9.098139419;29.42890598;11.52102201;4.041743726;9.263567569;3.595255878
-14.44204085;8.48245949;9.41574295;6.103206485;-2.718825525;-0.735958456;-52.21857274;7.275455054;20.92987971;-6.39568508;36.02210234;16.73436433;10.08559572;8.90322666;26.80860738;15.18171476;3.333022667;7.366016862;3.164229723
-13.82874947;12.20757667;12.73824878;3.976442404;-4.241646429;-0.784726563;-33.87950314;6.624582269;26.31417984;-14.38950438;38.46128465;14.04677826;8.875079034;8.876529942;23.72604568;17.8413003;2.760657121;6.25028996;2.466324508
-13.54928346;15.65592303;14.27026082;4.562343937;-5.186749277;-0.675464448;-13.26049727;5.955290385;31.92479816;-10.89402949;36.36222642;13.69209332;8.281510153;8.774604779;23.27143223;17.92501234;2.511274447;5.800260423;2.084680501
-13.60265658;17.32307793;13.02901926;6.249909153;-5.854766795;-0.524693037;-1.359984092;4.375306233;35.27679588;-1.926931248;30.16862324;15.16369221;7.640226522;8.126045149;25.71119389;15.0038374;2.123472436;5.046262408;2.332474169
-13.50131464;16.88619131;10.45037338;6.459428628;-6.492410372;-0.469371333;-1.725288773;1.758669686;33.12230774;3.184134966;22.12823503;16.14179873;6.317891361;6.810661241;28.35274258;10.13187016;1.041144347;3.004511435;3.049265641
-12.8;15.24372232;9.316694533;3.847320945;-7.127889625;-0.537203564;-9.566129981;-1.104932139;23.75191662;-0.333366798;15.31834704;14.59694546;4.327537866;5.403575987;27.85960333;5.324423554;-0.703914865;-0.434099066;3.697154132
-11.5951126;13.53632084;11.05110273;-0.518244293;-7.555238715;-0.630172405;-16.65139349;-3.055496629;9.354821532;-9.589847075;12.18257163;10.69635228;2.378578569;4.892088046;23.10462908;2.467822056;-2.312995872;-4.242322059;3.697466835
-10.48095472;12.1099522;14.03033999;-3.97311615;-7.446059423;-0.628918367;-17.65965666;-3.37685054;-3.974240661;-17.36448714;13.38820829;6.86621579;1.309943271;5.91094222;16.28094247;2.344231723;-2.761019174;-6.843675092;2.804820385
-9.987170149;10.38244191;14.92272975;-4.361384653;-6.5089024;-0.509902292;-13.14104518;-2.257526502;-9.445972111;-18.3622511;17.65852041;5.888735226;1.389675562;8.101765755;11.42051196;4.372760347;-1.648904495;-7.15250587;1.292655244
-10.04193384;7.696357917;12.18239887;-1.679126129;-4.630412552;-0.360351671;-7.529306862;-0.572435667;-4.140697419;-13.08598848;22.64271861;8.560435956;2.085430913;10.17065755;11.49530211;7.152194377;0.338068636;-5.341199219;-0.170964548
-10.00271802;4.308444622;8.39056529;2.062806273;-1.967623658;-0.280990795;-4.692551767;0.803988332;8.510877952;-6.588450765;26.24573639;12.83215943;2.512555029;10.68751061;16.29754551;9.337198329;1.780565737;-2.796754292;-0.900234889
-9.259425984;1.532897266;8.685438822;4.571097651;1.034268601;-0.278882852;-4.99546371;1.60150492;20.59782493;-3.760639364;27.58900547;15.16447392;2.189100813;9.064725698;22.5995545;10.22348001;1.452650004;-1.288353581;-0.60407267
-7.852926036;0.834335225;15.95608514;5.108406604;3.738422502;-0.262072656;-5.908263734;2.235339233;24.98213598;-5.342398374;27.08172423;13.05382843;1.461633216;5.976116706;26.33922042;9.758070242;-0.870704165;-1.89689519;0.427847589
-6.506843426;2.638244966;26.835823;4.920796944;5.542339129;-0.144761087;-4.912383131;3.369520901;20.20237248;-7.748106963;25.71968453;6.77651278;1.236466163;2.889168192;25.17011527;8.201482987;-4.32476782;-4.396703046;1.506970521
-6.002784741;5.906793967;32.56254469;5.963960661;6.160414499;0.042710692;-1.75703863;5.361766946;11.33912981;-6.40398045;24.2318573;-0.928938268;2.228251669;1.061079347;19.65228366;5.887933779;-7.610958105;-7.456869651;2.000109376
-6.451573612;8.866172995;24.98855515;9.063025041;5.799175381;0.156804528;1.779869619;8.025005154;6.13347958;0.431916939;22.70879629;-6.870818613;4.337106908;0.7488041;12.51451301;3.285774895;-9.855116393;-9.489249025;1.75574482
-7.139755736;10.26917529;3.42929003;13.07988432;5.071394405;0.067763306;3.940191099;10.82647699;9.271043728;10.3903745;20.89031079;-9.48310212;6.658196172;1.192462282;6.779810607;1.130653863;-11.01947532;-9.581567981;1.191754693
-7.12595235;10.13194283;-23.30807081;15.78378988;4.646347178;-0.203692272;4.630999937;13.2780332;19.12393957;18.91243047;18.73875923;-9.470711242;8.11193802;1.318161169;4.111637822;0.250748767;-11.63325815;-7.954122226;0.961397078
-6.075924744;9.380151954;-41.96750597;15.68694952;4.835274179;-0.475833518;5.172446125;15.16253559;29.2787334;22.49575602;16.71962932;-8.795998237;8.190291252;0.570079346;4.274393497;1.017161632;-12.16873013;-5.727486027;1.435208268
-4.587327399;8.811358571;-43.60717207;13.30925211;5.397602771;-0.547521026;6.669615923;16.45254107;33.46456403;20.69234975;15.50977774;-9.076795461;7.24239171;-0.762478199;5.677064853;2.840307283;-12.63007813;-4.22611562;2.400913351
-3.69457239;8.347203632;-29.55411827;10.81224251;5.725342693;-0.374240464;8.807268566;17.08671627;30.00156969;15.67994323;15.3971643;-10.72425719;6.109738927;-1.909108372;6.356649568;4.276995437;-12.6710347;-4.282255953;3.23358584
-3.974549522;7.218661899;-10.03484618;10.27897496;5.292496901;-0.118512855;10.26319418;16.88633806;22.52111663;10.2744117;15.95171504;-13.28223473;5.433058458;-2.308693991;4.787487175;3.879048641;-12.06466026;-5.923432065;3.413539896
-5.038639878;4.829586064;3.362210677;12.01894429;4.048499279;-0.019324921;10.20031309;15.72268965;16.79547289;6.215433104;16.33902719;-16.31607385;5.176705256;-2.048852024;0.308496464;1.230498459;-11.0507799;-8.525833051;2.966621432
-5.863263235;1.416565602;5.516281576;14.26688021;2.464050261;-0.18708813;9.21495201;13.76242896;16.46243198;3.872667058;16.06484447;-19.84119208;4.700225678;-1.736730918;-6.738081992;-2.675906984;-10.22111803;-11.22473038;2.440774312
-5.673938959;-2.157938396;0.074008196;14.54482691;1.195405537;-0.503003928;8.732497305;11.50191771;20.93146453;3.058310936;15.47905722;-23.91804952;3.262440574;-1.962001432;-15.07793242;-6.123018112;-10.02800775;-13.28043024;2.412875684
-4.612373915;-5.287272588;-4.948448998;11.64604971;0.622416958;-0.715181686;9.477598302;9.477125131;26.6497907;3.76553053;15.47937953;-27.98217375;0.542991142;-2.810019531;-22.85132325;-7.929334572;-10.33871557;-14.22838585;2.936900413
-3.611326671;-8.294503458;-4.133048757;6.698491438;0.607916397;-0.65211765;10.63184255;7.853816454;30.15127922;6.026567267;16.52266336;-30.79341117;-3.17602277;-3.78861459;-28.27091592;-8.244809094;-10.4255346;-13.85744883;3.430616919
-3.598771135;-12.14836407;1.538072133;2.452097206;0.649212884;-0.369731176;10.62311655;6.269237436;30.20818698;9.172787229;17.75149127;-31.27532106;-7.210146584;-4.172521823;-30.37247754;-8.170664311;-9.427448339;-12.17900078;3.145788224
-4.730655175;-17.33953896;6.635135328;1.276486085;0.290356135;-0.105151715;8.818828153;4.13476258;27.65017657;11.48694443;17.13571597;-29.56955002;-10.81692326;-3.465376092;-29.42791608;-8.499325595;-6.949483597;-9.487502626;1.852383118
-6.306105804;-22.87415105;6.618970809;3.339761834;-0.523989892;-0.078904012;6.391637767;1.226560326;23.65494204;10.91937917;12.8128864;-27.27667729;-13.42139659;-1.655644974;-26.71106496;-8.705766285;-3.374020699;-6.443723724;0.138279461
-7.406342203;-26.3810809;1.685046927;6.336091188;-1.407070737;-0.317506155;5.347376258;-1.896552954;18.49263655;6.521400885;4.775517403;-26.47866412;-14.65433965;0.836241887;-23.74171764;-7.202459974;0.31177069;-4.002924869;-0.986266362
-7.672072912;-25.48246522;-3.940168814;7.019160233;-1.805498063;-0.646091644;6.527613878;-4.039970886;11.9082516;-0.527181353;-4.448447689;-28.21118936;-14.32870373;3.386529112;-21.52518067;-2.807545536;3.026598923;-3.081477299;-0.898223653
-7.542100688;-19.52354578;-6.077788865;3.491124523;-1.369217173;-0.848159546;8.565499099;-4.069621858;4.494056389;-7.247216191;-10.91167187;-31.60763797;-12.48765874;5.381607083;-20.28568693;3.763512397;4.107310236;-4.07235148;0.088259308
-7.778235033;-10.37270712;-4.095848931;-3.365482683;-0.157229478;-0.844940306;9.052506878;-1.699402445;-1.64768566;-10.49589914;-11.62298937;-34.44216667;-9.499228468;6.342602917;-19.75425031;9.771098621;3.548883154;-6.509635427;0.932503073
-8.733832587;-1.61692863;-0.825153028;-10.3408869;1.425650936;-0.737930531;7.090503203;2.213164969;-3.946001414;-8.840202479;-6.554670451;-34.66119061;-6.037447579;6.017041798;-19.60569011;12.06347614;1.910594543;-9.16743431;0.711075696
-10.02497053;3.382263294;0.597192031;-13.94816351;2.868251335;-0.688132478;4.851319778;6.128355061;-1.360657;-3.376479318;1.263048569;-31.69693408;-2.841644461;4.492874464;-19.58234535;9.346425978;0.007705988;-10.62853395;-0.594333344
-10.87613401;3.314242708;-0.281457874;-12.66520108;3.789219082;-0.753132496;6.30693663;8.764920491;4.486983983;3.05331605;7.770815311;-26.59192331;-0.355115162;2.276667765;-19.25201764;3.348660096;-1.439844035;-10.03300976;-2.049573482
-10.80361822;-0.513947584;-1.176833002;-7.834124654;4.050254127;-0.834958372;13.67229884;9.875025676;10.23770561;7.667577562;10.61219041;-21.00434251;1.488262634;0.200224654;-17.82155814;-2.148535455;-2.073300386;-7.557599297;-2.543671408
-10.01635914;-5.132197717;0.272198488;-2.63270655;3.744414954;-0.783016525;24.34705674;10.30102718;13.15200813;9.316021088;10.51894668;-16.07691819;3.119530196;-0.902269652;-14.46420207;-3.826111089;-2.002265039;-4.319533717;-1.761469039
-9.191476432;-7.68704248;3.938353332;0.115127642;3.122110494;-0.550892552;31.21861231;11.26159293;12.96145002;8.804278529;10.26666305;-12.13619363;4.892212134;-0.612334018;-9.112536958;-1.065399499;-1.716544136;-1.759537426;-0.523662624
-8.850601358;-6.947743753;7.298196694;-0.268331205;2.498967376;-0.257651854;26.79512807;13.36554324;11.66650085;7.899845412;12.01385091;-9.298911211;6.666177812;0.826354955;-3.062667171;3.743955124;-1.818140713;-0.886526804;-0.166589788
-8.907903139;-3.748554744;8.026197238;-2.142102643;2.148394047;-0.095198409;8.564784205;16.05385361;11.50895742;7.867501059;15.17989054;-8.151532208;7.764395244;2.628545711;1.348114612;7.026683278;-2.679923714;-1.830817484;-1.438662795
-8.786419834;-0.26804824;6.434575182;-3.008331021;2.186000774;-0.166453579;-18.30364632;17.87414067;12.92067034;8.630902859;16.67167862;-9.60625685;7.384481255;3.903677022;2.074058091;6.580755303;-4.216426917;-3.920048828;-3.818279676
-7.980841819;1.345187976;5.250019531;-1.438536745;2.500139817;-0.401755941;-43.16150982;17.40862239;14.2218259;9.101572962;13.41720175;-13.89946291;5.192553906;4.125453392;-1.134354328;2.98426482;-5.926488893;-6.14762007;-5.833684016
-6.552366434;0.234821376;6.865640673;1.983928311;2.802874975;-0.62696262;-55.80689807;14.22296778;13.2555765;8.307725148;5.239360486;-19.68141383;1.665642024;3.329170552;-6.26925251;-1.088290252;-7.207719358;-7.69879614;-6.148499504
-5.114155408;-2.672954433;10.77757322;5.329096493;2.814168518;-0.716994502;-52.30462532;9.199163908;9.435619552;6.373981593;-4.317692836;-24.28496575;-2.084145511;1.94047795;-10.24003906;-2.985234801;-7.745840744;-8.254897653;-4.550769257
-4.3229578;-5.246589985;13.86790534;6.942292128;2.48110756;-0.692909185;-36.9231228;4.053237202;4.368476923;4.561452522;-10.08761036;-25.32739148;-4.900189175;0.412816513;-11.02470522;-1.99054715;-7.709006221;-8.015884523;-2.072784992
-4.322699887;-5.569593977;13.47327617;6.653506229;2.074071709;-0.677292549;-19.08807342;0.395539594;0.535554348;4.332257671;-8.877113364;-22.55692873;-6.192294359;-1.030834743;-9.2398172;0.301303212;-7.609431587;-7.560293441;-0.189815545
-4.620400828;-3.457091981;10.34162024;5.611744478;2.065971744;-0.756660911;-7.565384644;-1.030330649;-0.742486329;6.1724549;-1.857930086;-18.42081293;-6.175443822;-2.379259281;-7.836090613;1.236973773;-7.942124625;-7.667026239;0.219111125
-4.500295409;-1.074067957;8.421481661;4.974173465;2.854821504;-0.885124016;-5.713606346;-0.476083298;-0.245394419;9.108284039;6.117622464;-16.68371804;-5.619241764;-3.613822005;-9.973229008;-1.073708188;-8.873446932;-9.11;-0.669829943
-3.630796104;-1.988121843;11.29651967;4.665679206;4.51132742;-0.922107448;-10.60991414;1.285739305;0.072242743;11.32941714;9.830379195;-19.94010945;-5.318809709;-4.527426875;-16.56761778;-6.645426111;-10.19322486;-12.37247156;-2.016452214
-2.367537693;-8.909252465;18.40662765;3.364837535;6.717788726;-0.76884863;-16.08674084;3.596207156;-1.046251285;11.48361987;7.192629067;-27.80238075;-5.641614666;-4.76656729;-25.37729129;-13.79233507;-11.51579536;-17.31674598;-3.101559147
-1.510593222;-21.40349933;24.79222857;-0.20592139;8.923152187;-0.47412319;-17.22565863;6.216253317;-3.049877049;9.677867992;0.386024744;-37.10101194;-6.392994985;-4.070743105;-32.41135082;-20.22265156;-12.51986557;-23.00856879;-3.781295018
-1.707158272;-35.23575088;25.13482287;-5.800361448;10.59030846;-0.207120191;-13.24402604;9.144354338;-4.162101308;7.422554413;-6.049186885;-43.92856452;-7.001066082;-2.503263151;-34.69044577;-24.21716586;-13.02521398;-27.93514708;-4.279806357
-2.954108077;-44.20184511;18.82922982;-11.35475194;11.37582016;-0.118616377;-7.157508207;12.20464296;-3.001790465;6.543430287;-8.548167403;-45.99977532;-6.843630968;-0.469831607;-32.30118369;-25.25576195;-12.89800262;-30.65262322;-4.648112129
-4.563758668;-43.67187574;11.41081268;-14.30155943;11.17349625;-0.215763704;-2.924244657;14.83736218;0.314709754;7.863995688;-6.711169024;-43.6647178;-5.527213601;1.502411092;-28.16843367;-23.96657622;-11.96365494;-30.55938234;-4.519903007
-5.610102865;-33.67819463;10.4438743;-13.50530756;10.07289454;-0.364211716;-2.363231752;16.32326905;4.564872441;10.63620193;-2.882866058;-39.060315;-3.03088815;3.056715035;-25.69666712;-21.63;-10.10003906;-28.29580761;-3.466661545
-5.540101741;-19.36752717;18.80497386;-10.18967361;8.319331075;-0.414788352;-4.031342251;16.27988159;8.799794472;13.13713382;0.194567753;-34.33018695;0.278764153;4.14882338;-26.08666673;-19.52508166;-7.482492428;-25.43654957;-1.616812783
-4.535899519;-8.228018984;30.99630545;-6.966283492;6.295502636;-0.33826901;-4.668819029;15.01421188;13.25239915;13.98249698;1.560142679;-30.40433142;3.740308334;4.948250807;-27.41574602;-18.33623644;-4.7479676;-23.6068046;0.124662387
-3.385115849;-5.702334821;36.11953156;-5.657544386;4.465827917;-0.245440912;-1.945872157;13.4159201;18.79610851;13.18809856;2.358310596;-27.12834433;6.601542706;5.605083574;-26.22591695;-17.84174511;-2.84985695;-23.58484527;0.600367773
-2.927851588;-12.01958129;25.81871404;-5.707151002;3.233712877;-0.27585717;3.639497371;12.4428616;25.44341299;12.21267999;4.360578877;-24.26701147;8.318602416;6.090241668;-20.41569885;-17.10839059;-2.609826248;-24.99426549;-0.685864866
-3.416173297;-22.34069268;1.209248038;-4.597774197;2.762020454;-0.459174741;9.162841874;12.57943081;31.42417442;12.96161931;8.237622586;-22.20960232;8.844307226;6.244028972;-11.19003906;-15.2275971;-4.245217471;-26.7697972;-3.053135777
-4.204012458;-30.06062968;-26.77620568;-0.064954294;2.89275526;-0.677370432;11.65223498;13.66265065;33.97369278;16.4544145;13.1404066;-21.64054892;8.721439441;5.985066215;-2.51290485;-12.20948672;-7.210934019;-28.00347335;-5.047413929
-4.030271023;-30.95813771;-44.23116399;7.668976153;3.264193876;-0.763143431;10.56574784;15.16220648;31.4;22.05273044;17.77261591;-22.54376693;8.841662131;5.489661662;1.59028131;-9.336891418;-10.47546349;-28.4991472;-5.51491252
-1.817210475;-25.40385564;-43.3499892;15.56675608;3.568715269;-0.645662303;8.336159291;16.63225455;24.70379093;27.72799214;21.70516798;-23.63399212;9.92442062;5.164093776;-0.121018543;-8.485929286;-13.03039036;-28.62034049;-4.484819559
2.458402646;-17.35201856;-27.09104316;19.79659209;3.756162557;-0.412884557;8.411401579;17.9377686;17.22948812;31.1672822;25.51624022;-22.97510348;11.99594579;5.390267572;-5.236040442;-10.67911398;-14.28337886;-28.61540623;-3.112748763
7.421073546;-11.17047268;-6.28435228;18.59427015;4.008044735;-0.236554978;12.25616406;19.0906927;12.44673051;31.04228331;29.56611978;-19.44724227;14.22335369;6.20892564;-9.445630387;-14.91120127;-14.12558119;-28.05813116;-2.706764284
10.85410076;-8.757084638;8.186103236;13.66934606;4.495021013;-0.229512091;17.79159657;19.90411663;11.59916592;27.74351204;32.67131471;-13.85859753;15.2840141;7.175985112;-9.592377112;-18.34063221;-12.75442111;-25.96395043;-3.637092013
10.9737272;-8.888882186;12.08260878;8.948115987;5.130297813;-0.362251521;20.78949916;19.85443089;13.15446246;23.22699196;32.23075124;-8.670315029;14.1114849;7.530384702;-5.761089124;-18.0242561;-10.50174783;-21.57404808;-5.040408795
7.666192215;-8.889008985;8.824077465;7.584686423;5.558396262;-0.507104307;18.37893364;18.36391838;14.50407427;20.07411348;26.1261843;-6.407411471;10.58365199;6.608492369;-0.931320537;-13.09432595;-7.820058594;-15.1982543;-5.562169299
2.795052236;-7.002971049;5.04550302;9.613117062;5.427392254;-0.561041339;11.88657115;15.32625165;14.44665078;20.21268822;15.01180604;-7.930587113;5.712518617;4.266166033;1.426856115;-5.700078125;-5.33277567;-8.380499597;-4.503208566
-0.805773469;-3.609092753;4.992261081;12.13905748;4.736733809;-0.530836287;6.41679854;11.43569135;14.29873785;23.89930202;2.965991323;-11.89493285;1.184813714;1.042411428;-0.070411444;0.209933969;-3.725718038;-3.134788429;-2.403248177
-1.134196907;-0.574864948;8.188300765;11.92388971;3.958933507;-0.506417658;7.005353302;7.988529035;16.63155246;29.49381924;-4.421973653;-15.78318347;-1.494721491;-2.058093578;-3.882044892;1.553793746;-3.401563615;-0.731415782;-0.586913214
1.572026547;0.402760429;11.42477757;8.256957022;3.798622468;-0.556475856;14.08412619;6.229560542;22.668212;34.2448024;-3.436124908;-17.66116404;-1.756676601;-4.057555519;-6.944031664;-1.717666123;-4.115068028;-0.907518955;-0.084257255
4.881913356;-0.983738209;12.41496526;3.755780457;4.746433529;-0.651872042;21.98202474;6.68444126;30.56652396;35.79403636;5.292049554;-17.29148096;-0.184559799;-4.493989437;-7.103660751;-6.655200934;-4.95330745;-2.09839598;-0.849979439
5.780829901;-3.688309126;11.59349081;2.40626492;6.756677028;-0.691594376;22.19298486;8.9399377;36.14808997;33.61519994;17.05786043;-15.85059418;1.901495921;-3.622195979;-4.674762471;-9.589312597;-4.82629438;-2.532338685;-1.913135848
2.805343431;-6.241265802;10.87118452;6.39365501;9.276167078;-0.604822221;9.48066322;11.98774369;35.66738671;29.4753594;25.96470413;-14.66545441;3.215891916;-2.213325364;-1.989812855;-8.902515492;-3.209233609;-1.383969745;-2.2683371
-2.80952438;-7.581850132;11.21298378;14.25275454;11.56541039;-0.428462846;-13.60428651;14.82383642;28.56726946;26.47837893;28.40869434;-14.11794623;3.171709293;-1.083996057;-1.422173677;-6.097085257;-0.590890511;0.852370551;-1.697903424
-7.8571738;-7.171676535;11.79456174;21.79714714;13.03496766;-0.28262057;-37.40947129;16.84667305;18.15759184;27.14467362;24.84411047;-13.58333376;2.08310104;-0.649413331;-3.495243415;-4.293012145;1.775204397;2.998093596;-0.824730465
-9.313661915;-4.639525937;11.55625735;25.06633401;13.35802595;-0.264288605;-50.9651538;17.83439736;9.728117017;31.72154833;18.88529428;-12.29094026;0.854610704;-0.770158027;-6.535118148;-5.375455838;2.708518902;4.287339692;-0.412518591
-6.408564676;0.326437957;11.26785945;22.97327122;12.36709819;-0.35884344;-48.91134874;17.67830519;7.461473899;37.89795621;14.70498539;-10.21148337;0.402308982;-0.963757851;-8.055243502;-8.148114385;1.936243869;5.039842747;-0.598056773
-1.130649669;7.503827915;13.48637234;17.67400236;9.956317223;-0.454066119;-34.64919155;16.24647469;12.22506887;42.20624313;14.65423505;-8.147804016;1.16668152;-0.812029777;-6.720279018;-9.073668373;0.290117504;6.38034841;-0.767703182
3.180149307;15.5436675;19.84061724;12.5699911;6.180852744;-0.445742273;-17.55691511;13.57296112;21.48901646;42.20882184;18.4835451;-7.005378632;2.968310225;-0.276316856;-3.354004679;-5.091929254;-0.902119486;9.237450565;-0.173689739
4.107039243;22.08660359;28.00030077;9.703530433;1.495950638;-0.337115596;-6.487542504;10.18416007;31.05739729;37.9779759;24.15998338;-6.982994822;5.219870708;0.285475255;-0.268916206;3.704889515;-0.777451396;13.42327721;1.30055563
1.647452016;24.88997598;31.60692432;8.632417827;-3.144092694;-0.238463469;-4.368768935;7.151663441;37.25021287;31.87641811;29.25730304;-7.463467866;7.299202695;0.386371411;0.490062256;13.6917614;0.476259616;17.53314832;2.949141892
-2.0901165;23.28511605;24.21427986;7.501077977;-6.561448116;-0.265033277;-7.59321005;5.634897297;38.26465687;26.88692621;31.92495124;-7.696636294;8.827746687;-0.248467698;-1.38857903;19.98161186;1.83541733;19.77164239;3.816504689
-4.628066538;18.7736475;4.665111934;5.179716995;-7.927966455;-0.426417537;-10.04473606;6.127981017;34.32382765;24.76427597;31.19617359;-7.610752736;9.70450723;-1.511853836;-4.378078233;19.6393914;2.252816422;19.10624412;3.519928939
-4.9118749;14.10463158;-20.47543065;2.554474344;-7.24778643;-0.609926308;-8.178216307;7.966973949;27.03715849;25.29505824;27.01191298;-7.96544896;9.935021837;-3.016452648;-6.353958502;13.45156044;1.413188631;15.91045303;2.576092585
-3.833911735;11.38997865;-39.9748851;1.891600183;-5.350772887;-0.675347678;-3.197498887;9.560246588;18.59612426;26.98252425;20.28470851;-9.675168098;9.439406712;-4.363442681;-6.175286874;5.060521805;-0.133490301;11.65080687;1.936015926
-3.229734527;10.68403622;-44.81309468;4.867962115;-3.344493513;-0.576923885;0.889452157;9.30215993;11.12660121;28.36056849;12.8530079;-12.91165354;8.027496071;-5.364352613;-4.44093435;-1.683516553;-1.496161061;7.878867959;2.151372122
-4.264071674;10.17081163;-34.0358803;10.93745881;-1.908052184;-0.403631584;1.161366161;6.596021698;6.203224909;28.80431592;6.951254522;-16.81783989;5.588148494;-6.065314269;-2.964639067;-5.068545804;-2.140634615;5.27086317;2.926486539
-6.505694766;7.829530424;-15.26127926;17.35772782;-0.961224314;-0.303059553;-1.82767323;2.275941286;4.500816036;28.35467188;4.188928454;-20.1263814;2.349583733;-6.594431453;-3.47715576;-5.961671052;-2.192677259;3.371390417;3.453249438
-8.344085646;3.223838404;0.54750279;20.82833717;0.046224915;-0.358554655;-4.931967792;-1.891146682;5.685040637;27.04704016;4.636447965;-22.16373733;-1.030917994;-6.989396511;-6.542898466;-6.398807706;-2.164769079;1.142620417;3.207006004
-8.309504264;-2.07043452;6.181213367;19.47923435;1.486772129;-0.528445437;-5.395862684;-4.303152374;8.632523311;24.61610541;6.770019531;-23.37064727;-3.704171487;-7.158288191;-11.38198933;-7.768839436;-2.424742178;-2.163024501;2.457221246
-6.205025195;-5.770380633;2.073640088;13.83003906;3.112523479;-0.696069905;-3.133089556;-4.486350454;11.86040745;20.92113701;8.445150327;-24.89436687;-5.113151635;-6.996830432;-16.54417254;-10.07707983;-2.90491705;-6.470019531;2.007456113
-3.208787188;-6.844743143;-5.435101702;6.260940383;4.212648466;-0.7776706;-0.432416757;-3.299043224;13.89245577;16.5665248;8.214663333;-27.61839763;-5.415130772;-6.546543476;-20.80659176;-12.59680941;-3.281549498;-11.02857059;2.392018418
-0.97297402;-6.474492903;-9.567281628;-0.381562835;4.254742499;-0.786357426;0.352816556;-2.282634332;13.43408346;12.88320488;5.989834474;-31.46205748;-5.496890057;-6.045964281;-23.65847529;-14.9670466;-3.404480978;-15.04301478;3.273581376
-0.49465065;-7.166231322;-7.886738406;-4.033203912;3.465886037;-0.797425356;-1.109680868;-2.629234649;9.552541467;11.04435703;2.616400236;-35.49976573;-6.466925548;-5.821180637;-25.19182417;-17.55630398;-3.537401265;-18.23807891;3.629402767
-1.599421167;-10.69586896;-3.027407424;-3.943295711;2.829463264;-0.856302594;-3.060894285;-4.442692857;2.14885891;11.04369735;-1.091097347;-38.69912926;-8.880210844;-6.095689066;-25.69554312;-20.78621172;-4.165313832;-20.92388094;2.61124742
-3.300166723;-16.54647935;0.493433568;-0.598936745;3.436031354;-0.923679421;-3.412838785;-6.724533231;-7.374849779;11.58786284;-4.862017417;-40.55635734;-12.20523943;-6.859334677;-25.3718385;-24.19921281;-5.541441084;-23.55655966;0.340525825
-4.607596999;-22.12884594;0.281308993;4.570637887;5.653830081;-0.913354386;-1.565107837;-8.033228847;-15.90293687;11.21454075;-8.56416582;-41.08527045;-14.96080359;-7.878342165;-24.33987085;-26.33197516;-7.393230415;-26.19960594;-2.079395329
-5.122668766;-24.64074443;-2.369506287;9.555565427;8.745411698;-0.785649791;1.334162948;-7.377458404;-19.56707728;9.750846531;-11.43758682;-40.29921565;-15.53427194;-8.811979933;-22.76349165;-25.68864365;-9.062696577;-28.35481811;-3.389515132
-5.049630418;-23.10608882;-4.18176571;12.33419328;11.22480331;-0.60245289;3.692400299;-4.821387922;-15.83375227;8.719758994;-12.01792602;-37.84424275;-13.20501812;-9.330212588;-20.85183069;-22.03218497;-9.959109502;-29.31368624;-3.16561158
-4.789050928;-19.00643525;-2.950986498;11.69569051;11.7005528;-0.484364975;4.926359124;-1.488560185;-5.537889795;10.0975803;-9.186006498;-33.28297828;-8.692043404;-9.157375772;-18.6815028;-16.83166342;-9.920415374;-28.74233772;-2.140648789
-4.54897627;-15.0618374;0.777811032;7.937485027;9.621563497;-0.504419797;5.701596098;1.013967303;6.788097462;14.33324179;-3.556010334;-26.82775475;-3.811407969;-8.061822867;-16.04398807;-12.3762012;-9.172448645;-27.00772497;-1.585365281
-4.275221757;-13.18694296;4.592186119;2.827936503;5.469223076;-0.617099017;6.928160976;1.444048111;15.05519444;19.40276961;2.228375943;-19.75592438;-0.419411716;-5.876240463;-12.55686972;-10.19934503;-7.955348214;-24.94739097;-2.266708848
-3.851528094;-13.25272701;6.517582913;-1.392824627;0.376383784;-0.693218241;8.703174197;-0.391690844;15.18175852;21.97864429;5.00236386;-13.90092427;0.6753678;-2.60284001;-8.040653929;-10.05563766;-6.202832715;-23.23341148;-3.850118768
-3.299725877;-13.5668907;6.570883987;-3.406603574;-4.471329548;-0.634471008;10.31232527;-3.491724599;7.693202145;19.99559685;3.488651368;-10.42844448;0.103298218;1.444971332;-2.8720712;-10.24334669;-3.616435723;-21.83173696;-5.221321366
-2.78243561;-12.56893048;6.344736529;-3.554708775;-8.25576974;-0.465374672;11.19310985;-6.176648319;-2.641571418;14.52577088;-0.389388526;-8.862700682;-0.623947612;5.594739512;2.033248161;-8.975630735;-0.104876613;-20.0233631;-5.424023091
-2.448048231;-10.2827153;7.287340193;-3.266889833;-10.62524985;-0.3171239;11.71742247;-7.040058594;-10.07289297;9.236716845;-2.705475106;-7.289267235;-0.20620745;8.968943839;5.692160901;-5.699443798;3.807422951;-17.03597612;-4.413430248
-2.305742156;-8.327897685;9.398814113;-3.605562153;-11.60161021;-0.314340012;12.85844193;-5.810169752;-11.74348711;7.643290673;-0.661617824;-3.761180768;1.598609468;10.82096348;7.678521821;-1.388457027;7.020830417;-12.83891516;-3.021216249
-2.252117385;-8.508342332;11.46193043;-4.19532572;-11.48026537;-0.464459818;15.04460818;-3.571287946;-9.321401668;10.2903743;4.727923373;2.107701701;3.948040236;10.88730245;8.421716223;2.280989967;8.409346372;-8.468152161;-2.219166176
-2.193043003;-11.15965915;12.38707202;-3.589170311;-10.75886012;-0.648831305;17.46277135;-2.130043945;-7.226166308;14.21581853;8.753014707;8.650164725;5.655394188;9.538706325;8.902199229;4.10588207;7.500313056;-5.545985248;-2.345668423
-2.113248786;-14.61958015;12.26977991;-0.893892376;-9.991186405;-0.724077024;18.6942315;-2.861337098;-8.946065161;15.24412398;6.216192239;13.23800571;6.077178027;7.607526152;9.914723647;3.972650047;4.771884167;-5.252977641;-2.938500692
-2.027618658;-16.2739355;12.18069876;2.750106591;-9.515001484;-0.643824374;18.16309563;-5.775311285;-14.43096501;11.30541682;-4.511908899;14.17545603;5.457467603;5.959938944;11.41906374;2.586578084;1.343617573;-7.463411674;-3.253045488
-1.897928498;-14.38673242;13.01528432;4.324552848;-9.19922506;-0.493772486;16.8830496;-9.472493025;-20.59723636;4.071251481;-19.74012852;11.9247531;4.510822884;5.048212198;12.46784283;0.724168895;-1.693400222;-10.70755462;-2.954921303
-1.64461494;-9.333693997;14.61927114;0.931712078;-8.467532273;-0.412180262;16.53904874;-12.07565133;-24.35532889;-2.430319882;-32.55143312;8.691623571;3.654879679;4.707645096;11.79910632;-1.312196283;-3.802037772;-13.06753339;-2.369624014
-1.270249019;-3.353536648;16.04882922;-7.807053009;-6.705522928;-0.470400488;17.63944847;-12.51781624;-25.45877959;-5.040779347;-37.35049454;6.699973783;2.580650736;4.326524922;8.701390478;-3.683919658;-5.036111335;-13.42984136;-2.10916811
-0.960969489;0.926419828;16.63013409;-18.96490361;-3.82649448;-0.62073874;18.64964597;-11.25923192;-26.66746579;-3.83627139;-33.53681575;6.532943844;0.548990681;3.292512972;3.557303613;-6.624233785;-5.669527571;-12.21283113;-2.460104649
-1.015406203;2.057424915;16.66164706;-28.00717811;-0.549724742;-0.753517567;17.31918499;-9.881849291;-31.06449091;-1.707340125;-25.6267941;6.850874478;-2.825800382;1.443432659;-2.30259715;-10.08104607;-5.813900947;-11.0165226;-3.105654602
-1.607214481;0.337811918;16.98080678;-31.82396999;1.919383606;-0.8038545;13.2590475;-9.833486359;-38.86558817;-1.627985954;-19.87408229;5.674025905;-6.977969878;-0.761154078;-7.317086752;-13.63737983;-5.366294192;-11.39820946;-3.423238771
-2.573431768;-2.849663316;17.83250343;-30.73122281;2.675654273;-0.805438617;9.220555025;-11.25340112;-46.56175612;-4.029965848;-20.04627517;2.16583981;-10.52435332;-2.462861349;-10.47171372;-16.63974738;-4.27727729;-13.62284561;-3.069303647
-3.443927543;-6.215008462;18.31079431;-27.78423089;1.826234504;-0.842419363;9.25229515;-12.78167103;-49.2891405;-6.51749151;-25.44687605;-2.512108355;-12.08670031;-2.888631596;-11.60939849;-18.35578407;-2.813473633;-16.29131085;-2.314930691
-3.738806444;-9.244762008;17.19212571;-25.91879068;0.567930643;-0.949583197;14.69222218;-12.52827258;-44.57548534;-6.059604591;-32.29079295;-5.915102843;-11.18925784;-1.793268744;-11.11362995;-18.12586595;-1.49681767;-17.15185098;-1.833897962
-3.317522121;-11.93220028;14.55986586;-25.3002983;0.498131959;-1.061570648;21.41431959;-9.497433508;-34.41057927;-1.65663287;-36.88257562;-5.986359806;-8.543767893;0.416770677;-9.281201696;-15.61287252;-0.722756707;-14.56898499;-2.135947965
-2.490759822;-13.98186487;12.56761528;-23.1963627;2.593516363;-1.065920295;21.41753588;-4.40946775;-23.9489161;4.837609765;-37.89841195;-2.378144049;-5.518808092;2.944802681;-5.936812973;-11.15135459;-0.39312142;-8.657294692;-3.139213324
-1.78639222;-14.39160568;14.14085167;-16.62791713;6.552935944;-0.914771989;8.505818149;0.686880159;-17.9068111;10.33311632;-36.2338285;3.498776143;-3.232777242;5.062202714;-0.652846129;-5.931451967;0.068325223;-1.319815832;-4.236034213
-1.54813015;-11.98139978;20.19948555;-5.642347058;10.94930983;-0.689936368;-15.96262285;3.715940207;-17.52885564;12.99485425;-33.15753005;9.556931741;-1.976215327;6.455583562;6.5520521;-1.664734197;1.265047438;4.812988031;-4.774062779
-1.690048828;-6.567875111;27.62195322;5.664696611;14.06341099;-0.553614904;-42.12642837;3.841356908;-20.38586361;13.38496659;-28.85297416;14.2843699;-1.345775748;7.257727856;14.59875927;0.302132608;3.283519162;7.818167179;-4.540223086
-1.80221333;0.201527284;30.09888688;11.55466642;14.8177786;-0.619964934;-57.08966681;1.831662247;-22.84278121;13.40648793;-22.7401471;17.26233517;-0.848547931;7.804315212;21.4228586;-0.076384859;5.519988633;7.372851747;-3.873062383
-1.510579339;5.244156917;21.99805033;8.833755963;13.2193396;-0.857311203;-53.37262362;-0.624761237;-22.92237692;14.26773069;-15.03198619;18.81466265;-0.357175334;8.357068168;24.9096215;-1.312885596;7.067419133;4.634131755;-3.368495346
-0.789563548;5.688517033;2.832593665;-0.454590502;10.12179894;-1.107951166;-34.15889414;-2.047919448;-21.24096362;15.51186634;-7.672251723;19.39097133;0.007824584;9.024535135;24.21241871;-1.232623874;7.394788023;1.351163924;-3.463457849
0.021962142;0.783921413;-21.03626234;-10.12093453;6.59347535;-1.211183151;-11.20252981;-1.909433384;-19.59363788;15.99796989;-3.365088512;19.34884352;0.40225904;9.902771049;20.57603483;1.548000998;6.791192747;-1.093458693;-4.216984296
0.496187155;-7.276334213;-39.22393382;-14.0702555;3.370188431;-1.125682775;3.253822841;-0.585135991;-18.82899428;15.71760054;-3.315256649;19.2216717;1.579420157;11.230703;16.96803714;6.552637508;6.208091472;-2.116118706;-5.377741574
