Channel 1 - P4;Channel 2 - O2;Channel 3 - P8;Channel 4 - T8;Channel 5 - C4;Channel 6 - Cz;Channel 7 - Fz;Channel 8 - F4;Channel 9 - Fp2;Channel 10 - F8;Channel 11 - Fp1;Channel 12 - F7;Channel 13 - F3;Channel 14 - C3;Channel 15 - T7;Channel 16 - P7;Channel 17 - P3;Channel 18 - O1;Channel 19 - Pz
-97.91141555;3.823164298;-91.10230786;-48.1335105;-21.58211101;12.74052972;-99.48609939;-23.44101168;-3.065274827;-103.0046694;-60.69987642;46.0054775;25.62266099;35.4170388;28.54641892;4.379453997;40.42208704;-33.15738;24.38893996
-41.16687376;-12.47388892;-81.88125554;-47.312058;-38.7702055;-5.019588968;-92.22923563;-34.36368159;-33.09280006;-69.38346321;-71.24898819;4.512743269;-7.740960705;-0.282763439;2.12649955;-24.79898587;1.094495916;-48.46677797;-0.905712831
20.75872492;-18.03147004;-32.01884345;-21.81546537;-35.32498369;-15.40351729;-43.75755147;-30.37131872;-48.51701978;-0.473193252;-49.62811852;-30.80728153;-31.68989247;-28.01848017;-17.00972933;-40.05072879;-31.17592438;-38.06990566;-18.10781756
52.69581859;-11.41703441;27.14397839;12.23211198;-17.43142864;-13.34430198;14.47511217;-15.18477573;-42.77085966;63.85713703;-14.35284122;-42.87175062;-33.95725499;-34.5511377;-19.6906542;-35.20835923;-40.95799185;-11.96119217;-18.25894835
43.05087312;1.646338378;59.78808626;35.18305744;0.560705086;-2.62648743;47.3176264;0.846666694;-22.35729228;87.1443466;10.60499718;-30.8655145;-17.01449785;-21.57566891;-8.221011634;-17.47400626;-28.6273692;11.0352416;-4.709440515
9.147827284;12.41425809;49.71984423;37.15775112;6.603475536;7.679376063;41.17504357;8.146177192;-1.25215268;60.20917447;12.52638983;-9.078552218;4.83806771;-2.901071395;6.449571903;-1.398625561;-8.257964414;16.82296797;10.37613273
-18.66261504;14.69892762;9.340793663;23.19071389;-1.189836202;10.29764832;11.737244;4.197693698;9.40366644;5.021905269;-2.329227779;4.973930302;16.58572135;6.840899105;13.40315683;2.086914326;3.952934796;5.106231178;15.64697132
-20.54200839;8.106959275;-31.85999948;7.228504121;-14.78688167;4.770566968;-10.95313348;-5.762996987;8.343928413;-42.98751129;-15.44158106;3.456624586;13.02166289;2.819414545;9.375233122;-6.810252131;1.386945705;-12.29101562;8.693911521
0.058695106;-2.751754936;-49.2005496;0.634089009;-23.58813159;-3.172959067;-7.239835027;-13.62523594;3.031390627;-59.75330127;-11.49698946;-7.722247865;0.945484161;-8.006382759;-0.25764624;-18.05363769;-9.864923809;-21.61450574;-3.317143165
22.91034498;-11.8150401;-38.27917993;4.501345735;-22.62748059;-6.855450115;17.54486415;-14.65304832;2.111955236;-46.06872071;9.635369316;-15.94685448;-7.755340002;-14.16595383;-7.117739022;-20.28796526;-17.82141828;-17.41907646;-10.30757674
29.51501258;-15.05767985;-13.75972771;11.15703417;-15.33433088;-3.969049233;39.44682104;-10.30935542;8.078512282;-21.54295;33.49383186;-13.35121405;-5.916700576;-9.557794771;-6.933094901;-9.589413639;-14.95335849;-5.186664171;-7.425861337
17.62358382;-11.82538305;5.131682942;12.39411093;-9.424053081;2.188455021;36.75937768;-6.00432207;15.96186261;-6.355041601;43.08912449;-3.026833781;4.017235285;2.165699047;-2.324526323;8.134425083;-3.54920938;4.693676058;1.799477271
0.646075582;-3.937193324;9.459026942;6.840846975;-10.00462204;6.086764365;7.766710154;-6.21502968;18.46508885;-6.418503682;32.43284314;4.64505783;13.20582352;11.63566352;0.443446239;22.28440878;7.534588496;5.795321186;9.256635218
-5.746249482;6.001833383;4.458402574;0.396346233;-15.73405687;4.737163646;-28.61907614;-11.14587996;12.65254757;-12.75489041;10.87275122;1.670272526;14.21168676;12.0612148;-2.626423257;25.6;11.06055674;0.035888358;9.272066585
2.750426466;15.65145401;1.421792038;0.07946506;-20.76716609;-0.150793483;-48.64936609;-17.31727581;2.437205522;-13.08694496;-4.636374033;-10.47845658;6.667769308;4.537108359;-9.913943562;18.73778667;7.227408771;-5.312557251;2.905787096
16.70043289;23.05650656;6.3117931;7.235443565;-20.22480857;-4.116946339;-42.16059221;-20.99038933;-4.911706223;-4.014492271;-2.584738723;-22.2567035;-3.414957134;-3.729656354;-15.9576281;8.43722654;2.522957069;-4.582874929;-3.672760345
22.68138424;26.53660555;15.20508519;16.17531769;-14.25621655;-3.970587757;-18.78606733;-21.17496728;-4.844160927;6.799558945;15.14898408;-24.30241478;-9.306059074;-6.094346041;-16.35420404;1.594827206;3.290496451;1.588039342;-4.817264679
15.58640528;25.03301633;19.4664829;19.23721473;-7.42688999;-0.330078125;1.843988629;-19.76292232;1.151637061;9.165711142;36.09823429;-15.22031825;-8.931240885;-1.955633058;-11.31138815;0.378362343;9.99631468;7.450705838;-0.038395126
2.50249701;18.80076282;14.76039365;13.60786353;-4.397310834;3.299430376;6.495031528;-19.10180927;7.600895991;0.851240532;47.53637491;-2.35061505;-5.603000634;3.498466448;-4.949456308;1.921340735;17.0767355;7.530141741;6.082620339
-4.608057297;9.688360777;5.26107349;3.891862006;-5.909082968;3.799616405;-2.520823053;-19.51819159;10.2924514;-9.833721361;45.60112819;4.752945872;-4.145407156;4.534679514;-1.383230015;1.966105927;18.08075509;1.183066685;8.178420121
-0.129297415;0.447308522;-0.470416942;-1.702674842;-8.497388179;1.065703353;-11.9653162;-19.08984939;9.926808106;-11.50575073;36.43269784;2.245682207;-6.324428197;0.127158382;-1.330344711;-1.22182936;11.30427166;-7.433650191;4.617250225
10.42303592;-6.636235564;2.364295291;1.837518672;-7.894900988;-2.197112234;-10.59555958;-15.73897768;11.0330809;-0.195988719;29.65718357;-5.415478253;-9.626211478;-5.388862543;-2.197498791;-5.930019531;1.042460972;-13.41091918;-1.533763955
16.11767135;-10.82886026;10.38428464;12.33;-2.930252438;-3.0821022;1.39117718;-9.583327859;17.33184856;16.74327444;30.51580821;-10.03060468;-10.07653971;-6.525456436;-1.231993671;-9.269196698;-6.296861438;-15.19112248;-5.567781597
11.26101178;-12.96398929;15.36712925;22.35226788;3.476853513;-1.035476344;13.98535728;-3.317365338;27.8045837;26.86324485;37.01941465;-7.016622308;-6.178381611;-1.688398895;1.451024622;-10.07322554;-7.510638961;-15.15738411;-5.249753592
1.090452152;-14.45038832;12.13228711;25.19339647;6.903720686;1.857422671;17.4287706;-0.235000246;36.97457692;23.46486012;43.35928748;0.88651354;-0.32141864;5.461138088;2.875972492;-9.718116162;-4.699273055;-16.61726053;-2.386859911
-2.752223721;-16.12877292;3.646002527;19.70604834;5.166922777;2.925583758;11.03315306;-1.624301771;39.13416332;11.50210067;45.43337776;6.489879106;3.429281646;9.351096068;0.209752298;-10.41329817;-2.645555239;-20.32425931;-0.755429298
7.038174382;-17.86756788;-1.40017783;10.31494733;-0.026093222;1.328589335;3.030791637;-5.786348351;32.86212994;3.339261218;43.38079097;4.716438231;2.937975172;7.365402661;-6.119260143;-12.90157035;-4.190759425;-23.8191734;-2.511995845
26.08325602;-19.09203234;3.515961236;2.792198328;-4.750713847;-1.319331254;2.313419896;-9.471233348;22.06757569;7.973610061;39.70279353;-3.031171052;-0.325859064;1.873750033;-12.20172334;-15.84839045;-7.858349466;-24.02728801;-6.35330468
41.03952636;-19.65452204;16.34719954;-0.177973841;-6.188274772;-2.549976586;10.13272707;-10.44445257;12.89542159;22.92682328;35.93271663;-10.32609525;-2.917486968;-2.203942173;-13.69204631;-17.39133732;-9.658779943;-20.48979187;-8.908664056
40.27234657;-20.2423382;27.28435273;0.018570761;-4.670874948;-1.307266089;19.38926086;-9.021428935;9.293444413;35.68266555;31.70030641;-11.38865608;-2.678198147;-1.895585424;-9.485554462;-17.20714643;-7.131729427;-16.12702273;-7.903474516
23.47126478;-21.9941623;26.27204879;0.586903733;-2.872346588;1.175143233;21.8310244;-7.417247347;10.88007813;33.47854138;26.89839051;-5.844613223;-0.587889219;1.368667771;-2.771382092;-17.02598835;-1.779112012;-14.82990096;-4.171005754
2.095385759;-25.6789685;11.02646463;0.560174297;-3.155642165;2.589437541;16.1713099;-7.667817749;14.43979903;13.38757293;23.95036469;1.420545312;0.389003006;3.427639907;1.499339634;-19.08473158;2.297583225;-18.13190877;-0.791840554
-9.673839227;-31.09674622;-10.99972061;1.395080515;-5.571366537;1.670321359;9.407511838;-9.993650637;17.16505872;-15.37360347;26.82028128;4.785612505;-1.73873841;1.48094753;0.545381708;-24.00522168;2.183567586;-24.00624851;-0.285237285
-5.895690577;-37.10672608;-28.13557101;4.569192344;-8.183386077;-0.717126784;9.982668756;-12.90769091;18.55016207;-38.40254755;36.90505539;2.531390327;-6.007203921;-3.209034629;-4.289080979;-30.12197832;-1.185405081;-28.81950727;-2.450791498
7.180899207;-42.18629423;-32.83896014;8.867398081;-9.175960761;-2.436352234;19.03330245;-14.74380626;19.53149712;-46.39597738;49.80706654;-2.406934082;-9.271202064;-6.430568813;-9.143671733;-34.90358648;-3.913431462;-30.58439508;-4.740407439
17.02563486;-45.11793675;-26.26295165;10.39696879;-8.641448396;-2.028572218;27.94502764;-15.09729449;20.28677535;-40.63900029;57.06471284;-5.799001618;-8.959642823;-4.867840092;-11.26256225;-37.14768416;-2.735331982;-30.54307048;-4.693262958
15.28985249;-45.46053079;-15.95449582;5.736132013;-8.394969329;0.029512381;24.99212159;-14.91632689;19.3314925;-30.04863423;52.57398869;-6.121333894;-5.290944195;0.833335776;-11.36891502;-37.92041351;1.978966677;-31.72694313;-2.151705376
4.154905359;-43.69586739;-9.305489342;-4.512885661;-10.08090415;1.840296156;5.747291016;-15.32114327;15.07274182;-23.11870578;38.47660849;-5.437086063;-1.009946883;6.510973801;-12.73369194;-39.39266849;6.513009215;-35.92490101;0.722342918
-6.201426443;-41.07929572;-8.410569288;-15.18047582;-13.41133008;1.828010515;-21.68638425;-16.3765421;8.291317786;-21.75203326;24.64993442;-6.576272953;1.012598806;7.988687702;-17.86089483;-42.67584517;7.097622075;-41.88729989;1.556442319
-6.297515793;-39.21133395;-10.10872716;-19.93160573;-16.20190584;0.104327432;-41.51846035;-16.98697224;2.787531965;-21.59255484;20.94755906;-9.616728168;0.117127604;4.497031396;-25.81333943;-46.67192271;3.249519884;-46.37868332;0.020703866
5.216679404;-39.3604916;-10.2412264;-16.06643813;-16.18276207;-1.73181518;-41.73832132;-15.95854973;2.956090096;-17.59090648;28.05;-11.2848726;-1.879797606;-0.940541967;-32.59709736;-49.00338236;-1.789670195;-47.05053321;-1.827399275
21.10140762;-41.74463318;-7.793871306;-6.777303687;-12.94612313;-2.097590351;-23.15109844;-13.17103694;10.03128974;-9.32497597;35.10146633;-8.026683243;-2.544350081;-4.333905171;-34.2971227;-48.17;-3.843875239;-44.47393523;-1.397129547
31.64459419;-45.1939967;-5.286731433;1.115653545;-8.299808438;-0.826098559;1.24629693;-9.732737925;20.37545864;-1.389651509;27.46269003;0.132080766;-0.986149078;-4.125876762;-30.2405878;-44.95436493;-1.324828321;-41.50025946;2.061456705
31.82377339;-47.57481111;-5.517349433;2.253231333;-4.751481694;0.777842389;16.0663312;-6.969198834;27.77466929;1.140120439;-0.629219791;8.778248577;1.622384299;-2.165653328;-23.45882957;-41.77884402;3.561324282;-40.58718652;6.67288553
23.89984044;-46.91439687;-8.046907615;-3.325625437;-3.494027589;1.202213042;14.78811022;-5.184601751;28.29228643;-2.160942405;-38.76117471;12.5158408;3.481407908;-1.56464239;-18.07614943;-40.5739953;6.84741582;-41.55881514;9.414505757
14.25307507;-42.59879127;-8.851252729;-10.38941603;-3.63092965;0.109010582;3.795687912;-3.335927378;23.77042998;-6.037086281;-65.4017739;9.812353215;4.066556592;-3.554272555;-15.88316812;-41.05712282;6.174207412;-41.82387432;8.551340318
7.99585565;-35.81063397;-3.576356681;-12.51895418;-3.208525021;-1.415758445;-3.586170128;0.076850393;20.85133203;-3.660882683;-62.70891751;4.938730009;4.685248154;-6.253713838;-14.9918433;-40.95632036;2.55561706;-38.81615761;4.943333443
5.993680735;-28.81995066;8.37316782;-6.691627049;-1.025032909;-1.913805118;1.975990409;5.684626501;25.95115886;7.455130393;-30.15279866;4.970858906;7.230119843;-6.402226338;-11.63721375;-37.98745368;-0.829905905;-32.42822492;1.188877149
6.030058594;-23.57252704;22.38567566;4.932802097;2.404023421;-0.897997565;18.50519994;12.62116101;40.03543668;22.57029608;13.92941076;14.08562182;12.37398575;-2.383795574;-3.529213113;-31.8559848;-1.532596114;-25.26348604;-0.547919558
6.034102043;-20.58470953;31.10838642;16.96053859;5.471606746;0.740242929;34.36116295;19.07767114;57.40122556;32.2542319;44.78943425;29.8652434;18.90595109;4.245576537;8.060644579;-24.55675375;0.238769085;-20.52193461;-0.125643384
5.983760571;-18.94516797;29.03409515;24.53862292;6.980217855;1.588451152;37.12431794;23.50546663;69.57024806;28.57800051;48.69598366;44.79429681;24.75854869;10.077596;19.12295009;-18.74495133;2.242055538;-19.42187757;0.834939919
7.049812903;-17.35966033;15.97714571;26.07113564;7.093336162;1.00672754;22.71834818;25.46213985;71.34304949;10.56349846;32.10436015;51.84854102;28.67035289;12.75634263;25.83848457;-15.60513505;2.585000546;-20.38647364;0.651856181
9.480682948;-15.34309658;-2.726635806;23.34255053;6.94090136;-0.332169412;-1.864441479;25.53443902;64.36906676;-14.78144637;15.51457521;49.68029723;30.89662524;12.81671898;27.17554315;-14.02261682;1.552922526;-20.57764687;-0.883747569
11.77003906;-13.561956;-19.08195285;19.70478419;7.385472517;-1.115750401;-23.66191272;24.63131749;55.60179331;-36.32894478;16.78599668;43.27292588;32.38605177;12.85496108;25.18551344;-11.69419243;1.228129367;-18.29656977;-2.464986668
12.02485707;-13.06113758;-26.38201009;18.10299499;8.195147802;-0.619103965;-32.37494392;23.40189182;52.03078361;-44.93368561;36.82017943;39.70563084;33.37628702;14.89577294;23.02669159;-7.171397222;3.370367626;-14.14122777;-2.627078161
10.01599933;-14.06905352;-22.12139796;20.12171984;8.394568324;0.65118887;-26.25430794;22.22192075;55.83797487;-38.05;58.57459615;42.61541124;32.93022736;18.4317354;22.51604849;-1.122211546;7.614526939;-10.0888671;-1.178845143
7.647613258;-15.45445395;-8.771679317;25.90847711;7.384594009;1.463573769;-11.68098022;21.50302081;63.50259863;-20.46531888;59.96044356;49.79328717;29.98567885;20.92917881;23.14423183;4.147425479;11.67384911;-7.586334828;0.599531169
7.207699836;-15.38101364;7.567793337;34.21593374;5.681747852;1.019475435;2.276144087;21.74513155;69.09094082;-1.202176756;30.58751446;55.55265133;24.9348957;20.29342282;23.07417684;6.398732584;13.32960236;-6.509424448;1.120634517
9.07228927;-12.70587484;19.98521274;42.34930196;4.522810864;-0.313664064;9.832248397;23.10996505;68.80627661;11.37417819;-20.24276618;55.57053591;20.09781117;16.98791594;21.01381192;4.970325379;12.34200394;-5.852952765;-0.08392545
11.18255097;-8.024530254;24.0095883;46.64276285;4.707763613;-1.351602993;10.94154245;24.9486275;63.30057218;13.58390956;-69.78237962;50.13644922;18.37860908;13.82902283;17.34432053;1.008973835;10.53137729;-5.268245409;-1.961474716
10.93076922;-3.5029751;19.91323904;44.04172897;5.821012918;-1.179179047;9.373199879;25.94664341;56.42645195;7.660795541;-96.9717235;43.42853268;21.0835453;13.60137206;13.73486491;-3.517514142;9.998460558;-5.757824353;-2.88323287
7.712968219;-1.556617125;12.63304268;34.25704124;6.63124382;0.031275184;8.754515198;25.03621547;51.98550425;-0.226226611;-95.06;39.88578339;26.76266595;16.61485574;11.7846303;-7.062617678;11.1627827;-8.714265269;-2.057260289
3.672743271;-3.295100416;8.787290186;20.86925653;6.334564081;1.201056058;9.888656302;22.41210934;51.24507982;-3.921980936;-73.25920958;40.94315615;32.15653575;20.37834651;11.88532842;-9.075285925;12.4342168;-14.18355112;-0.161559235
1.834124944;-7.798916982;12.11457553;9.997509147;5.451443476;1.331355631;11.07606966;19.68845349;52.84619998;-0.916386719;-47.88208941;44.65349171;34.53849345;21.6781402;13.10880625;-9.748548866;11.80401903;-20.10367592;1.308372645
3.328513845;-12.66853224;20.27569258;6.862161757;5.449228587;0.379833065;10.59725856;18.84597263;54.53655774;6.494987669;-30.89217036;47.98970836;33.53883525;19.23589407;14.02143091;-9.475175544;8.874234053;-23.45682802;1.343278587
6.347012235;-15.41561842;25.72876418;12.44064292;7.336659903;-0.755832941;8.943408775;20.68402828;54.90887826;13.22512714;-24.31731961;49.44282389;31.0026426;14.65804544;13.71953685;-8.571908983;5.450399448;-22.50600373;0.221283291
7.8567109;-14.78827739;20.82905154;22.73721339;10.49186323;-1.094834223;8.807753229;24.0537849;53.85878801;15.22373698;-23.06712916;49.69545657;29.14929832;10.94043781;12.42630463;-7.335513976;4.135170445;-18.20432144;-0.835665808
6.479769488;-11.29476006;3.962490942;31.44017746;12.87584785;-0.459594778;12.75694758;26.62034723;51.95527201;12.42788577;-21.85007813;50.21289806;28.72993983;9.930058594;11.42286187;-6.086002742;6.163829088;-13.49771413;-0.765310411
3.768671076;-6.769434834;-17.91788976;34.18373449;12.59158169;0.414155423;20.40754522;26.64860846;49.804181;8.657484853;-19.65507256;51.48764391;28.75939095;10.97296287;12.44256694;-4.961463112;10.38627236;-11.05203561;0.470158152
2.595537375;-3.355760951;-32.90074799;31.3274777;9.514697896;0.610865412;27.46977207;24.3890514;48.06160283;8.494780621;-18.72529053;52.70673083;27.88777103;11.82218174;16.77176231;-3.670707267;14.25620588;-11.30517538;1.9602249
4.169016205;-2.478166284;-31.93448965;27.23828739;5.564271022;-0.095130171;27.80459893;21.89365892;47.6982925;13.54459463;-20.36902187;52.96364416;25.98358295;10.84725931;24.34921186;-1.624869073;15.91148617;-12.44719425;2.693848974
6.641520664;-4.260191511;-15.38251805;26.70602158;3.288101645;-1.042867513;17.47356389;21.36668472;49.68896598;21.06606742;-22.42917704;52.53639648;24.38397256;8.505785645;33.28977873;1.4560795;15.51832349;-12.24169968;2.371950172
6.887830542;-7.598007993;6.735911;31.25661465;3.873674808;-1.325653033;-1.880461985;23.39157728;54.00582944;26.14711394;-20.99466224;52.75391463;24.59590893;6.815891246;40.30804725;4.93726328;14.78077498;-10.03406448;1.504745761
3.983184867;-10.83659864;21.42297322;38.08682194;6.21832847;-0.654854416;-22.88472862;26.50384554;58.86275726;25.69678897;-14.51631902;54.4964899;26.7358926;7.421021577;42.17;7.332482745;15.17465099;-7.222761529;0.816074947
1.020438365;-12.74127206;21.65068718;42.24573107;7.834206093;0.362977866;-36.12548938;28.4586152;61.33493708;20.94300739;-6.114040024;56.8640491;29.25904606;10.06550243;37.56208729;7.216217979;16.54575337;-5.907422565;0.575026365
3.100708399;-13.25625978;11.00013344;40.25360319;6.848757317;0.788845509;-35.64226716;28.10945427;59.35870128;16.29115269;-1.584590339;57.50359919;30.30341018;12.8381575;28.17226207;4.364456255;17.28951994;-7.038995883;0.451458597
12.75241636;-13.54734578;0.491018282;32.45471757;3.474118733;0.22579793;-22.69226089;26.298314;53.6501057;15.4761876;-4.665630626;54.52344683;29.41320079;13.88631515;18.00192309;0.151389785;15.85545257;-9.743589681;-0.061593393
26.67160357;-15.17340417;-0.037361407;22.58321649;-0.205913339;-0.806715438;-5.101196965;25.0097044;47.74517565;18.34550745;-13.70052512;48.33045124;27.9863377;12.99351873;11.07028031;-3.264583144;12.16003906;-12.32179053;-1.137032403
37.01483774;-18.81966431;10.50515513;15.17242342;-1.876842763;-1.343669706;7.631841249;25.54237901;45.71668365;21.17946959;-22.6742745;41.65435808;27.94407262;11.61032163;8.971942559;-4.431957821;7.660198399;-13.86580145;-2.50619878
36.81672547;-23.45940665;23.62584263;12.84380483;-0.674469184;-0.856700014;10.33169509;27.30977779;49.13423367;20.39865825;-25.79368062;37.59457966;29.80142472;11.38477422;10.08164862;-3.613568416;4.108171799;-14.92649231;-3.794183512
25.46172256;-26.6718191;27.69716419;15.25152357;2.415608104;0.259722083;5.166227411;28.34949714;55.71248442;16.38323298;-21.779509;37.3114811;31.95871619;12.59116686;11.09477339;-2.487149642;2.177702995;-16.63375811;-4.896334291
9.706729532;-26.09063545;16.75971642;20.00381162;5.617448505;1.038549316;-0.446416017;27.14575702;60.90111448;13.74212365;-14.40612481;39.33436138;31.99258849;13.89028402;9.781878104;-2.772321032;1.175854446;-19.1837768;-5.992673109
-0.897746377;-21.07918717;-4.877676821;24.51051084;7.85861504;0.804207271;0.405005621;24.20719591;61.28129441;17.28513428;-9.099865089;41.03488938;28.90029088;13.59732433;6.786084529;-4.89648347;-0.015172243;-21.23375062;-7.206746658
-0.848663868;-13.42313044;-25.4765241;27.37661535;9.421134825;-0.232087631;8.80927677;21.9955662;57.06745612;26.83943439;-8.646398766;40.91036212;24.29855965;11.27047305;4.977143558;-7.754378418;-1.747570959;-20.90330586;-8.304483073
7.475495252;-6.434767486;-33.81826507;28.64893643;11.31048162;-1.173718937;19.00286042;23.15520392;51.68637625;35.54021814;-11.52372694;39.66286362;21.40642174;8.191592707;6.853587607;-9.678066438;-3.298559912;-17.55179182;-8.799463585
15.97414402;-2.992050914;-26.40035063;29.16285752;14.04036378;-1.239816419;22.40152872;28.41736517;48.82777732;33.78376149;-13.88631491;39.2208959;22.56310957;6.354040189;12.15229465;-9.739141003;-3.663458756;-12.69944638;-8.41157054
17.27236776;-3.838578175;-8.97579577;29.70031264;16.97534638;-0.438076754;13.81399822;35.85756784;49.48526411;16.42632718;-13.12277182;40.735615;27.35313769;6.903555077;17.7363153;-8.306004644;-2.609413088;-9.141733196;-7.436985514
10.42462395;-7.301233622;8.078543729;30.51317925;18.79557893;0.482590517;-4.59874036;42.11743037;51.48526509;-12.20984704;-9.863837663;43.46089618;32.93755326;9.392769593;19.97256335;-6.503622305;-0.935658468;-8.877814304;-6.626698954
1.512674984;-10.55034875;16.77220886;31.34338547;18.61991649;0.728676756;-24.39121348;44.65024596;51.82164504;-39.75550362;-7.001896132;45.52314418;36.31166994;12.39374914;17.695174;-5.18387626;0.307069777;-11.5401659;-6.620272602
-1.176587091;-11.435615;15.94725331;31.76871163;16.76660641;0.159815241;-36.09687421;43.27753959;49.65294374;-53.16483961;-6.970356748;45.78504034;36.56624734;14.777751;13.27949963;-4.353793658;0.858768872;-14.63017396;-7.418189077
6.436661077;-9.618823816;10.63364102;31.6167213;14.49693994;-0.635042789;-34.9828033;39.94764514;47.23245632;-46.98690523;-9.812038684;44.9987702;35.26301213;16.45797955;10.86424907;-3.475961559;1.516847602;-15.37380581;-8.373872804
21.08111585;-6.377867121;7.555241639;31.20394656;13.00051074;-0.920584792;-23.47158867;37.02804314;47.86823608;-26.6635435;-13.51309131;45.14913297;34.70848536;18.0131099;13.12169514;-2.204459105;3.341490407;-12.70607379;-8.728312027
34.41841823;-3.479524079;10.32159495;31.2154133;12.51613316;-0.497852872;-8.942598022;35.55364813;52.67353712;-4.594592677;-15.91059569;47.61188724;35.73861047;19.71439193;19.19863285;-0.762071761;6.550717767;-7.863447293;-8.21414964
38.79550907;-2.073590341;17.37951362;32.21479623;12.30999058;0.140192564;1.186899928;34.75279998;59.02840277;8.039435074;-16.25732909;51.86070376;37.00063576;21.00646615;25.48501068;0.396090663;10.18302258;-3.263740624;-7.187675349
32.16811725;-2.289370417;23.47473523;34.07786158;11.45505976;0.3017957;3.646369841;33.04764193;62.27189042;7.844809211;-15.21042293;55.91155003;36.32829994;20.97716535;28.51905497;1.220729862;12.89898311;-0.704740611;-6.180648819
18.89806252;-3.498230928;23.14107572;35.84588902;9.682869057;-0.239509409;0.265606365;29.55072552;59.3531687;-0.113304416;-13.70522173;58.03171604;32.90721251;19.33423161;27.59251211;2.27262218;14.20867963;-0.298589529;-5.305155178
6.355916157;-4.748106196;13.95788341;36.29537027;7.578234732;-1.030496662;-4.329710278;24.79512137;51.39776243;-7.270827406;-12.14105055;58.05540123;28.21526704;16.88496376;24.94439169;4.198005155;14.9707661;-0.778686272;-4.091346735
0.107455972;-5.027324637;-2.017302052;34.91653555;6.007803995;-1.363137242;-6.229581499;20.18946202;42.95729977;-7.975571691;-10.68408937;57.07622828;24.82682511;14.98615136;23.52091963;6.948391493;16.64356285;-0.66687516;-1.944802098
0.975314456;-3.472269028;-19.03727836;32.46770928;5.334980855;-0.933971696;-4.537342659;16.78132831;38.45998191;-2.711332682;-10.07464359;55.92038205;24.10110671;14.43283368;24.32988349;9.544407216;19.91173624;0.732150249;1.171192632
5.492952573;0.202009517;-30.1448296;30.42994009;5.110768976;-0.124893038;-1.279454745;14.42883388;38.74370748;3.558039539;-11.67341381;54.05724595;24.81516537;14.81771942;25.68824475;10.71673854;23.91597992;3.128271979;4.461953402
8.854690339;5.137362451;-30.32233857;29.60773367;4.472356359;0.347736655;0.531063922;12.05269555;40.5224594;5.885331906;-16.31838881;50.21853585;24.02303521;14.9730047;24.96353999;9.921062918;26.812397;5.66199747;6.739231858
8.140039063;9.219037731;-19.04771253;29.08659781;2.870183241;0.083648712;-0.865845417;8.696965469;39.22434292;2.978632344;-23.03089727;44.27032924;19.50153574;14.09548564;21.23815666;7.823123843;27.22192286;7.382547063;7.2586525
3.913711546;9.961337429;-1.008407225;26.76505289;0.507130309;-0.6514225;-4.844497434;4.473594575;32.86930953;-2.419929859;-29.11282951;38.45106593;11.75324117;12.50970672;16.54594463;5.797471419;25.3426452;7.501374878;6.286801966
-0.396384515;6.174285005;15.70653516;21.42481958;-1.832834984;-1.189050828;-8.886719836;0.607191513;23.831277;-6.043868848;-32.01584108;36.41437548;3.878539988;11.35616341;14.57264805;4.882194001;22.79065058;5.596698457;4.939623244
-0.698020037;-0.715053913;23.39679974;14.70038306;-3.36963648;-1.079101331;-10.24496828;-1.44411928;17.10015433;-5.195772893;-31.53099147;40.46410983;-0.60453982;11.49546376;17.86641803;5.13215643;21.33659592;1.99316224;4.425953483
5.244808086;-6.943875224;18.66599228;10.88109259;-3.836503985;-0.491312905;-7.734912109;-1.08674673;16.50671513;-0.243944428;-30.17200916;49.22597744;-0.240089111;12.65583211;25.8255079;5.920649447;21.6290318;-1.894658881;5.289996324
16.22692558;-8.538158048;4.184309982;13.9814404;-3.560187121;-0.035117117;-2.584926617;0.932571675;21.93795974;6.071960529;-30.99980431;57.9809195;3.522252834;13.63003906;35.03130323;6.810996367;22.93819653;-3.829767252;7.19659095
27.80147738;-4.020160382;-12.89999743;23.99636194;-3.138846456;-0.177934606;2.239411085;3.008844862;29.6371526;10.59791162;-34.51514865;61.80282674;7.657008614;13.35346508;41.55208994;8.052354305;24.00910469;-1.918821079;9.322636606
34.36449313;4.291183642;-25.02447431;35.58281696;-3.020874509;-0.807725658;3.961316521;3.747106178;35.13712812;11.61617735;-37.4510558;59.19701759;9.858016213;11.87386966;43.33978445;10.13152682;24.15846697;3.890278244;10.94716958
32.23014457;11.56031637;-28.22624345;41.04107089;-3.270009766;-1.34177457;2.036108121;2.868773125;36.37092692;9.717460968;-34.99092814;53.2875484;9.954762084;10.32195603;40.98466723;12.81247206;23.63270301;11.18208099;11.76376208
21.99552358;13.58255956;-23.62884634;36.05301899;-3.587946901;-1.272580953;-1.131094023;1.381578582;34.61379204;7.479151643;-24.99824687;49.45290414;9.508672509;9.912945475;36.61523697;14.74486121;23.01694934;16.16698347;11.77670505
8.561591537;9.587540823;-15.71405794;23.8361084;-3.489677509;-0.640128876;-1.585827553;0.963509883;32.86728828;8.094121312;-10.77282144;51.19964068;10.20699447;10.90104346;32.2195085;14.31088896;22.39046808;16.06251747;11.03351087
-1.556982904;2.640973755;-8.90571924;13.82090928;-2.514233359;0.004821766;3.283308021;2.989740929;33.34121167;13.35077744;0.362672826;57.55887173;12.53375722;12.4401886;28.86029691;11.18251917;21.11785492;11.12429613;9.529767209
-4.144329535;-2.63635572;-4.976364407;14.87601237;-0.428903614;0.106831457;12.26852858;7.779089285;36.14532057;21.82491333;2.074367421;64.07680277;15.72607984;13.45395899;27.1365166;7.173618514;18.49646059;4.679554578;7.361612014
0.171368536;-3.290903201;-2.869293868;27.69832611;2.596584915;-0.389545575;20.26555891;14.43752743;39.96938476;28.55854957;-6.075932109;66.52264425;18.77835636;13.67895545;27.95154204;5.327086157;14.60975438;0.910002441;4.891759087
6.616589328;0.19191905;-0.547658954;42.45138122;5.936763426;-0.999148295;21.10817781;21.31636032;43.7276662;27.14669261;-17.81240436;64.22261834;21.39772303;13.89308804;32.40709528;7.632317773;10.50229475;1.904185988;2.659605261
9.832106813;4.727168699;2.944254082;44.38756158;8.699788991;-1.149293721;11.69435448;26.79708881;47.46679503;13.69793722;-24.37513147;60.3079688;24.04010841;15.11259221;40.63332807;13.11561444;7.421446346;6.186029919;1.037603439
7.729174395;7.165315694;6.846689218;24.17990945;10.15762151;-0.702924237;-5.418328413;29.98944823;51.76;-9.628298274;-20.76;58.79875557;27.13522404;17.51715301;50.61709675;18.02527739;5.771506734;9.868649797;-0.066497667
2.756104891;6.396571054;9.674795036;-14.38595515;10.19122631;-0.071225067;-22.96080809;31.00546002;56.36672586;-34.31488787;-9.223069799;61.08828721;30.37124502;20.12994505;58.38479803;18.2842974;4.743831916;9.559605002;-1.151740307
-0.360439251;3.491365426;10.65803479;-55.38477415;9.414303879;0.179616041;-33.04944646;30.7023908;59.65720936;-49.51238839;2.637223232;64.81883379;32.77652646;21.58545972;59.88989881;12.49755659;3.006389867;4.779866829;-2.70986273
1.431985904;0.131363543;10.281269;-80.30926121;8.807846877;-0.143718088;-31.76510215;30.07184082;59.56320479;-48.39562376;7.673170591;66.03347715;33.50955329;21.30328211;53.48553097;3.174510716;-0.12185075;-1.925210413;-4.795973141
7.045661068;-3.021436388;9.603267699;-79.73555934;9.066738578;-0.688349536;-21.15977414;29.65084725;55.32617419;-32.66433601;4.314883741;62.68687085;32.57890405;19.99199209;41.20292177;-4.90551884;-4.043695558;-7.14509141;-6.964837453
12.22825821;-6.539231349;9.20574603;-58.88682196;10.12869524;-0.891885087;-7.475481761;29.31564542;48.4717729;-11.75806068;-2.867731611;56.485334;30.80655586;19.00494871;27.80617853;-8.04150326;-7.364717666;-9.218359801;-8.63613468
13.09967326;-11.0243785;8.878168797;-33.28454741;11.26142574;-0.512414889;2.964080425;28.56840104;42.01539113;3.080169331;-7.344842434;51.50451793;29.09167643;19.11506011;18.17554977;-6.14948548;-9.062088014;-9.230129977;-9.56271637
9.273203427;-15.86163115;8.310951049;-17.91428167;11.65907567;0.139698912;7.250577136;27.0857036;38.41233726;5.914237151;-5.986939796;50.78854252;27.69120211;19.8104532;14.74092005;-2.579874044;-9.312492251;-9.738698575;-9.978955618
3.98981273;-19.31250775;7.995987568;-17.87794767;11.08167083;0.480798397;6.603591937;25.10616874;37.88500427;-0.635938665;-1.294053383;53.81253025;26.18566919;19.74587905;16.57334416;-1.431188694;-9.260976875;-12.44339015;-10.30042249
1.256749641;-19.99779109;9.251638199;-26.95374357;10.0245391;0.185421522;4.380100096;23.35341802;38.50618584;-8.265026536;1.083845555;56.91175739;24.11653012;17.94159715;20.51315688;-4.505059997;-9.958317724;-16.77371783;-10.66465598
2.510097656;-18.39229014;13.07893365;-34.22571597;9.289042274;-0.516629627;3.340329343;22.54920231;37.99;-9.634524928;-2.751648874;56.27191766;21.63487282;14.65271028;23.35592235;-10.22461679;-11.42492431;-20.48411068;-10.75649255
5.650583758;-16.80631991;18.7111888;-32.9822511;9.325117754;-1.045444607;4.233752136;22.89501229;35.73244695;-3.654542553;-11.72633237;50.9828404;19.5045033;11.1413312;23.59656961;-15.17586919;-12.66800402;-21.61687498;-10.10116658
7.172356979;-17.64144078;23.19748098;-24.98183735;9.901311937;-0.986339323;6.277760335;23.92379943;33.41867519;4.517083754;-20.75117465;43.6964357;18.43481883;8.581018424;21.77362963;-16.84330845;-12.61860672;-20.119933;-8.568989228
5.393844887;-21.31663592;22.69965713;-17.47374864;10.36566826;-0.446235209;8.479595795;24.82039679;33.6591826;8.368184438;-24.82284115;38.4711294;18.36713661;7.096353872;19.50588199;-15.30375908;-11.14379492;-17.81629172;-6.622863561
1.88761081;-25.68591228;14.88393307;-16.28881793;10.24497516;0.063635348;10.38173406;24.93199918;37.6939838;5.56745161;-22.76007813;37.65786421;18.39139964;5.794995804;18.08950203;-12.69108195;-9.240736622;-16.86909351;-5.056595473
-0.119366377;-27.56525302;0.870786579;-21.06419706;9.643370695;0.097494481;11.79681756;24.06138566;43.97245795;-0.394724769;-17.62021059;40.32629512;17.39421173;3.734257747;17.60888382;-11.16104993;-8.25274456;-18.09432511;-4.426553227
1.151425115;-25.17640887;-14.63221781;-26.28909331;9.094992888;-0.33778531;12.29606774;22.36398758;48.7860784;-3.558917589;-13.76970821;43.33163395;14.88793518;0.922751136;17.03502478;-11.22212159;-8.792643644;-20.47026162;-4.659171014
4.312257584;-19.49197385;-25.28764876;-26.69041008;9.023005438;-0.822156638;11.39677816;20.04359387;48.6131716;-0.735174235;-13.31820946;43.95786593;11.34425398;-1.552157456;15.14975906;-11.76654752;-10.27712835;-22.09652095;-5.166176971
6.095247795;-13.37758492;-26.18881306;-21.97116041;9.311686087;-0.931285741;9.431116843;17.21097453;42.57212062;5.915170519;-14.90990905;41.93641323;7.835665814;-2.372471509;11.68354374;-11.52183512;-11.41268121;-21.67874297;-5.354011727
4.484887528;-9.293224196;-16.41366602;-16.85196739;9.391577149;-0.622282608;8.034817997;14.06869833;33.27175056;11.03368221;-15.62715426;39.34228492;5.386505078;-1.043287258;7.933185358;-10.41982878;-11.16456294;-19.32962924;-5.076531712
0.770755782;-7.510593599;0.245438061;-16.6549251;8.767339604;-0.24087148;9.26131677;11.19877847;25.42515649;10.88585073;-14.04830848;38.67285897;4.587091737;1.764925139;6.356580663;-9.59257605;-9.397761223;-16.2029088;-4.6515659
-1.508024893;-6.294119979;16.76724337;-22.48400738;7.509245017;-0.159955304;13.6121794;9.54;23.07402191;6.551804534;-11.64551916;40.77887226;5.637529945;4.822603154;9.181892079;-10.07431165;-6.752459567;-13.47570687;-4.46768812
0.084574653;-3.751634033;25.95565594;-30.20032882;6.252715858;-0.40600664;18.61394001;9.87472791;27.16376894;2.754987355;-11.33294501;44.2290436;8.507950226;7.280578464;16.73361339;-11.52464425;-4.008240935;-11.6003913;-4.571147363
4.290913125;0.363654988;23.70101719;-33.94899257;5.687702664;-0.634329417;19.57711898;12.13304573;34.97631539;3.503211949;-14.56;46.40827329;12.84651859;9.088006703;26.57992236;-12.26679077;-1.562518485;-10.32130825;-4.615483565
6.93155528;4.483693601;10.93668962;-31.08081266;5.979494635;-0.477493672;12.574675;15.12103927;41.76373664;8.498036088;-19.61829575;45.33174033;17.68742865;10.59529701;34.33429158;-10.70068868;0.584447301;-9.205696558;-4.198132815
4.713829291;6.742762824;-6.724405312;-24.27110665;6.631436184;0.067381148;-2.300757779;17.05742784;43.57344277;13.5015226;-22.7443113;40.8090608;21.43204634;11.84571128;35.95471952;-6.846912082;2.487441361;-8.077909235;-3.243204841
-1.144111649;6.712618786;-21.64512361;-19.1980427;6.913669895;0.589508751;-19.9675991;16.67151673;39.52775126;14.26521291;-21.16539817;34.29780111;22.47716695;12.3261447;30.23423933;-2.598751968;4.009227559;-7.015658104;-2.059922954
-4.922451347;5.737349885;-27.88079836;-19.94186477;6.48294452;0.616117288;-32.79796415;14.08231949;32.14998972;10.43546652;-15.56442035;27.80639964;20.24164437;11.44525543;19.75882781;-0.379124315;4.923603477;-6.091689652;-1.032322498
-0.619401426;5.577829652;-24.01319624;-26.02442267;5.649911352;0.048978962;-35.08711852;10.73535184;25.5362043;5.888037138;-9.920351817;22.72943207;15.77718033;9.241742664;9.44765895;-1.318071631;5.182871462;-5.266968805;-0.259898069
12.72567486;6.647841757;-13.50058023;-33.3671159;5.061499014;-0.719140345;-26.54847966;8.351036967;22.5491029;5.16486641;-8.828770016;19.29024063;11.27223819;6.555698614;3.467193028;-4.514428844;4.965704671;-4.581876725;0.482477625
29.05208308;7.50161699;-2.337111753;-38.01070276;5.081452752;-1.126457914;-12.4208493;7.631843277;22.89594628;9.208157023;-14.37818434;16.7082416;8.604982461;4.400314801;2.610897099;-8.011876511;4.379260748;-4.38477748;1.415605005
38.74071803;6.08016252;4.51901955;-39.23906201;5.418211246;-0.920688965;-0.147391956;7.729612948;23.43916697;14.26228043;-24.86922307;13.80902373;7.986633942;3.073764403;4.053222323;-10.62038196;3.126833652;-5.248196448;2.389991113
35.31129786;1.605276593;5.690314044;-39.55895877;5.334816396;-0.366357843;5.05921378;6.933608174;20.61162669;15.02499202;-36.08840182;9.728899201;7.827701872;1.868197475;3.693846945;-12.96798769;0.58446857;-7.55544346;2.884168262
20.34517738;-4.590318078;3.364463362;-41.89640589;4.27107209;0.003366998;2.842944673;4.091144051;13.29925935;9.342291645;-43.91779839;4.452191215;6.055449342;-0.275721707;-0.665676354;-16.83563192;-3.633600235;-11.13441212;2.437435668
2.717615792;-10.0442455;1.001922776;-46.72907057;2.352338566;-0.136187216;-2.939624882;-0.336245258;4.089505067;0.3213893;-46.34420711;-1.038454719;1.903538382;-3.707905012;-7.745434288;-23.33245749;-9.074858499;-15.32841601;1.151809722
-7.509565982;-13.0645108;0.64302593;-51.69223186;0.353554713;-0.62513058;-7.290275629;-4.439928614;-2.184952764;-6.041029983;-43.80667934;-5.175259512;-3.279803403;-7.573946292;-13.99628408;-31.50308359;-14.42655197;-19.47442709;-0.225903137
-6.057275353;-13.84554882;1.842273177;-53.81834826;-0.859453723;-0.986666223;-7.278017575;-6.186238602;-1.762350532;-5.705624712;-38.29453076;-6.730293719;-6.929413088;-10.39775551;-16.5517324;-38.62234926;-18.24225755;-23.32190019;-0.796852086
2.934073039;-13.8571973;2.839735388;-52.22949918;-0.967268928;-0.876506827;-3.377044929;-4.924572149;5.164339939;0.245808326;-32.32954045;-5.791151454;-7.211278294;-11.28466638;-15.47816827;-42.01256784;-19.89968646;-26.94311555;-0.21585455
10.5068569;-14.18299152;2.723034759;-48.8504032;-0.423564035;-0.400093994;1.543426823;-1.946562234;14.13240026;6.781918157;-28.46997961;-4.06296466;-4.4816427;-10.6914852;-13.48870942;-40.92883702;-19.98048844;-30.19424196;0.987230654
9.90074498;-14.45348507;2.549605357;-46.63181289;-0.126230033;-0.011199696;4.511591944;0.335618122;19.03625241;9.272157363;-29.00491473;-4.034637855;-1.089544618;-10.05326829;-13.42927114;-36.99359572;-19.69307387;-32.30563423;1.786437295
1.641692933;-13.424178;4.342355837;-47.02752825;-0.814102538;-0.091338876;4.390431986;-0.003331647;15.93940674;7.134732977;-35.19551427;-7.323889205;0.312986148;-10.55802803;-15.72966415;-32.86355401;-19.78130816;-32.16056516;1.474632991
-7.039218845;-10.62711802;8.770826577;-49.02230849;-2.633636468;-0.598866387;2.346426307;-3.166546485;5.425224922;3.664208047;-46.12958159;-13.26690723;-1.389898664;-12.12599583;-18.02781075;-30.2515965;-19.84868736;-29.19965801;0.264899171
-7.834786895;-7.401881115;13.59609587;-50.45857253;-5.127605745;-1.107555935;0.783476774;-7.617028078;-8.088409572;2.445763305;-58.20872838;-18.8654156;-5.182642927;-13.48109949;-17.28811137;-28.89737931;-18.70959545;-24.20461921;-0.820710675
2.315803466;-6.089096234;14.4948934;-50.2610796;-7.556850173;-1.195032329;1.559995219;-11.20684896;-19.40408209;3.84655996;-66.33082355;-20.35171628;-8.881234363;-13.23942009;-12.55593662;-27.22140082;-15.49603192;-19.14533149;-0.7024827
18.88145577;-7.884763899;8.004367459;-49.39050806;-9.269730531;-0.823245853;4.641920308;-12.58028935;-25.6225562;4.916735447;-66.61968779;-15.4445551;-10.71594887;-11.04522687;-5.911143038;-23.97141558;-10.56712471;-15.98345674;0.954582073
32.88595913;-11.25492084;-5.467371543;-49.62535464;-9.902477866;-0.365395829;8.071740734;-11.87082361;-27.07874114;2.773839542;-59.02307155;-4.777438979;-10.2309087;-7.765020239;-0.735129759;-19.38920014;-5.408740343;-15.25418278;3.508588221
36.99411265;-12.54699218;-20.8872545;-51.36268777;-9.399975593;-0.260143312;9.380846427;-10.3176359;-25.82288188;-1.829920813;-47.70626185;8.486215644;-7.96214104;-4.6175049;1.234266012;-14.91865039;-1.574098816;-15.56878022;5.83132149
30.06985753;-8.615466203;-30.91618413;-52.60540889;-7.97260024;-0.612570428;7.628787687;-9.228479742;-23.30566479;-4.397050226;-38.54447729;20.54416267;-4.491599902;-2.079327432;1.474078243;-11.78056941;0.445777434;-14.54125212;7.104908815
17.20927661;0.552077506;-29.972533;-50.27055152;-6.058348399;-1.103995046;4.623584435;-9.104218383;-19.39102413;-0.539669962;-35.25021192;28.99196161;0.062249429;0.414490819;3.427697747;-9.72614589;1.464327394;-10.51956985;7.304411186
5.72825461;11.42121575;-17.51181844;-42.84066037;-4.242537251;-1.285957506;4.124333719;-9.488354373;-13.43894275;9.523675128;-36.94134667;33.64796042;5.644197735;3.718630425;9.432234339;-7.12177046;2.767790059;-3.826618759;7.047081874
0.344378565;19.21240526;1.459181184;-32.08491224;-3.065186021;-0.984365555;9.099321966;-9.492351267;-6.212756587;20.13636128;-39.06138426;35.82766174;11.50406422;7.913528527;18.45158401;-2.367676862;4.956559533;3.426535004;7.009341414
0.920478685;21.19767973;18.83399607;-22.2605475;-2.762748985;-0.446610873;18.73977784;-8.483380458;-0.535389218;24.359897;-37.04136349;36.90378073;16.07828006;11.9743882;26.62599995;4.508516291;7.476765727;8.781323497;7.412629502
3.858236631;18.4225389;27.31172383;-17.28359683;-3.119979821;-0.106591935;27.64648455;-6.421781795;0.29236592;19.94190508;-29.90470132;37.38077089;17.91667361;14.54192774;30.26862497;11.44594882;9.228529848;11.00302404;7.945374717
5.499186366;14.55483935;23.65350889;-18.04389637;-3.58686679;-0.192138282;28.49926159;-3.711358589;-4.783204702;11.89562412;-20.97934242;37.08276354;16.9686419;15.12270835;28.82843418;15.57716721;9.670891802;10.63938147;8.089058238
4.742417851;12.89500238;9.836899831;-21.91899917;-3.624368837;-0.535526554;17.00517749;-0.8163339;-13.03159374;8.961397303;-15.13044185;36.02145714;15.00623927;14.60575499;25.32260882;15.24128037;9.404646596;9.302403076;7.517516656
3.132772787;14.01162193;-8.127356583;-24.77044667;-3.041743893;-0.751654559;-4.217407651;1.998320458;-19.15369646;16.33160854;-14.71582411;34.97643212;14.5655847;14.56662459;23.85597718;11.30038546;9.691698471;8.410652753;6.266553161
2.835023569;15.8155637;-22.94216809;-23.80717152;-2.072501598;-0.607405853;-26.02141281;4.647306742;-18.61003906;30.48115798;-17.54268624;35.18426429;17.07279188;15.9260546;26.29481426;6.772914404;11.33036798;8.422918633;4.635291984
4.444853435;15.76465984;-29.10399507;-19.20703629;-1.141295366;-0.235658075;-37.81055788;7.044598646;-10.62269525;40.66285127;-18.54951183;37.39381292;21.65134497;18.14197319;30.86;5.016222714;13.88802246;9.010078125;3.000030518
6.450359301;13.14627845;-25.09843717;-13.5586627;-0.528394265;-0.000391962;-34.17570444;8.986667178;1.424552817;36.43007813;-13.95607186;41.11524754;25.68278405;19.66929174;33.76639724;7.697183873;15.97834058;9.745810125;1.707923444
6.663951768;9.483241639;-13.82598574;-9.900138476;-0.213517229;-0.147365311;-18.39561216;10.21098076;12.42509228;15.61716637;-4.598798763;44.709332;26.79172603;19.3035334;32.47112212;13.8718193;16.3484964;10.53524286;1.042640834
4.355682116;6.880453552;-1.013719911;-9.959008706;-0.006278884;-0.571381692;-0.097356782;10.55567555;18.84488438;-13.3794669;4.26237909;46.26272105;24.71393355;17.23281985;27.78989697;20.67246016;14.83838956;11.41256127;1.144447953
1.312299793;5.96108903;7.721738415;-13.63711731;0.194162964;-0.916663679;11.35278046;10.06607305;20.34286916;-36.86083301;6.649333793;44.61936869;21.53702601;14.87563786;23.16544817;25.03367614;12.40876139;12.05909275;1.854764084
0.895277436;5.321374745;9.676117897;-19.57033913;0.276885985;-0.91224583;12.87278847;8.967287881;18.73613647;-44.70643114;0.329613201;39.93224785;20.09568848;13.66026037;21.80861983;25.3234719;10.26859529;11.70306166;2.63471612
5.671673391;2.967828584;6.124129016;-25.8944673;0.053181001;-0.624662973;8.67647279;7.549625676;15.6077032;-36.35281362;-11.31626895;33.54774016;21.7973983;13.84116533;24.17511862;21.97662585;8.906496751;9.661284025;2.74766524
15.25799882;-1.648708394;0.984465037;-30.65909992;-0.497768707;-0.389323327;5.803582714;6.066675272;10.8832931;-19.8567817;-21.4129827;27.45932966;25.60650842;14.40485334;27.84572295;16.96153341;7.861584849;6.075948276;1.694497489
25.94017066;-6.943499091;-2.022935972;-32.10030322;-1.13935213;-0.484445707;8.050246842;4.694534826;3.624889679;-5.442179923;-24.12168456;23.63723097;28.95316797;14.13081441;29.76090179;12.5878223;6.359314577;2.095185816;-0.391287985
32.49527689;-10.55984509;-1.738273334;-29.26375224;-1.568213079;-0.854645481;13.3366992;3.523900107;-5.887061814;1.181210729;-18.33290076;23.36678337;29.77166737;12.83074129;28.78864254;10.3872231;4.155499278;-0.819102635;-2.752415656
31.19765268;-11.58402817;0.227644991;-22.91701827;-1.726452228;-1.148247932;16.49668999;2.54525339;-15.00133987;0.990918366;-8.053276167;26.66117667;28.00717762;11.62843526;26.44482296;10.57350546;1.788960572;-1.967915696;-4.511060707
22.16565945;-11.56377566;1.451284523;-15.92029005;-1.925972517;-1.04195403;14.75140112;1.643627997;-19.9036497;-1.299415167;0.491073969;31.99064009;25.44431098;12.00837191;25.28786047;12.18440374;0.044167151;-1.959565576;-5.330806065
9.5299921;-13.276348;1.088211607;-12.19853617;-2.617386808;-0.556715798;10.77738346;0.66061563;-18.42188336;-1.930499857;2.784354585;36.71711472;24.12364206;14.47414421;26.52694676;13.70369481;-0.813558358;-2.187025425;-5.700188858
-0.790287017;-18.18367914;0.581698164;-14.46916634;-3.959869178;-0.069460835;10.38879458;-0.463354484;-12.03962028;-0.477305704;-1.656973779;38.35641501;24.72198009;18.01906434;28.96998803;13.84506024;-1.264456989;-3.601784149;-6.549034377
-4.417166247;-24.75;1.995428158;-22.14855654;-5.562011776;0.001756118;16.6945579;-1.55549142;-5.190626245;1.361721194;-9.736072686;36.11804483;26.19082719;20.89665528;30.16093738;12.18656211;-1.994228698;-5.784230859;-8.446315496
-0.915998946;-29.17103486;5.411593223;-31.16807022;-6.65660309;-0.435553095;25.97526307;-2.224330008;-2.151879103;2.473376438;-17.16799999;31.64904814;26.82268162;22.02877446;28.6122111;9.404275176;-3.119150818;-7.111480479;-11.01218735
6.227132987;-28.07152014;7.855899605;-36.25203667;-6.615969272;-1.055535018;29.38763577;-2.075194298;-3.960078125;3.514491102;-20.9521508;28.17694938;25.745405;21.82944101;25.14147824;6.974997241;-3.959792526;-5.935479964;-13.05596186
12.01585374;-21.06285506;5.109670755;-34.32061477;-5.411940089;-1.37944284;19.72523999;-1.009070427;-7.872684785;5.612620205;-20.50382279;28.35563488;23.59319523;21.7454459;22.19688689;6.435348447;-3.636958964;-1.853290586;-13.38847808
13.14456747;-11.11557186;-4.683447914;-26.60855391;-3.645541544;-1.167860573;-2.070697711;0.626867017;-9.816290445;8.40991382;-17.24046478;32.28092267;21.89542286;22.94540793;21.85082983;8.543157119;-1.962631851;3.924673707;-11.70191841
9.871709918;-2.452681523;-18.48876941;-17.8410994;-2.110679711;-0.601101414;-26.18969759;2.199331473;-7.757507406;9.977016048;-13.33912155;37.30067443;21.81195813;25.31888651;24.25082595;12.81874825;0.23129804;9.373464977;-8.830492354
5.371153952;2.36862641;-29.29917806;-12.93848429;-1.230867156;-0.102313672;-40.0946703;3.194728939;-3.160904203;9.059267737;-10.49597918;40.02507507;23.3;27.6395319;27.80854459;17.79068547;1.703522237;12.97370109;-6.183845827
3.136800538;3.94770554;-30.31127883;-13.60899595;-0.803036395;0.027305663;-37.05120104;3.593553859;0.635363819;7.373886028;-9.134226062;39.15477114;25.31406498;28.69568402;30.81443128;21.85515081;1.857226887;14.56058629;-4.795773049
4.381901835;5.094835983;-19.5419628;-17.32291722;-0.223032352;-0.162250266;-20.54354013;3.921947005;1.610904026;9.101239899;-8.210133626;36.85413335;26.72347411;28.34568438;32.93938382;24.23020928;1.283590699;15.16292431;-4.719276081
7.330120142;8.390270764;-1.525946967;-19.37952786;1.019638026;-0.362409096;-1.301198079;4.907350391;0.935975195;17.15279996;-5.741945577;37.31337532;27.10240637;27.55819684;35.28407344;25.36790743;1.252086355;16.10922615;-5.193477474
8.846055311;14.25047582;15.20708464;-16.45316582;2.979470171;-0.312733755;10.52779783;6.96049373;1.808026072;29.15568116;-0.09572272;43.32975369;26.78909553;27.43395744;39.01262057;26.51761491;2.547859302;18.16529849;-5.374141424
7.069524908;20.8978337;23.1123068;-8.94121735;5.276951522;-0.032441544;11.90372955;9.849556141;6.254319441;37.14350681;8.41498797;53.49350917;26.32375066;28.12;43.88739906;28.72218309;4.684363088;21.28315118;-4.990504796
2.958974792;25.98969335;19.63829924;-0.442361416;7.421897867;0.224639262;7.413574767;12.80578789;12.80019277;32.32083217;16.67209651;62.36220844;25.87316424;28.60618289;48.07723557;31.95803373;6.237166151;24.94126876;-4.41142661
-0.483065967;28.40696979;7.806637908;5.063065304;9.132532902;0.228730604;4.165864006;14.99232709;17.26409639;11.91275624;19.71366529;63.82277925;25.13900792;27.58342745;49.44462208;35.06218937;6.065992983;28.60881695;-4.143645839
-0.689202523;28.80044447;-6.413191337;6.056434184;10.407088;-0.008163921;5.812659355;16.00812643;16.23979227;-17.2401323;13.55589223;55.30725325;23.71500098;24.59257218;47.20569551;36.53629043;4.374232535;31.92098813;-4.265756505
2.281014344;28.70226407;-17.55638803;4.209635797;11.35992698;-0.25695434;10.54923071;16.07801041;10.36873601;-41.72797416;-1.656161072;39.69345933;21.45024662;20.440818;42.55260572;35.66576012;2.644200909;34.56179277;-4.317316373
5.643398503;29.19601218;-22.57144823;2.640454485;12.03129421;-0.302378233;14.03559594;15.80826289;4.467892869;-49.66411535;-20.52698133;23.36551978;18.45423681;16.52928032;37.74706733;33.1295172;2.439366594;36.16560582;-3.725045773
6.055987391;30.31653267;-20.66365879;3.2814996;12.35057023;-0.150202587;13.91446125;15.69404285;4.106068727;-38.17397622;-34.72998026;11.82551016;14.80787103;13.69594692;34.47911736;30.62104572;4.064339698;36.47146975;-2.360311998
2.402086153;31.50609644;-12.39266807;5.522785795;12.239363;-0.011184508;11.67018572;15.73230035;11.24200449;-14.87122408;-37.79244086;6.147784127;10.36585404;11.58366319;32.81872718;29.7203542;6.236926961;35.6156092;-0.71378509
-3.019205477;32.45523801;0.484201889;7.109107482;11.69600155;-0.08200233;10.51144022;15.41376282;22.4801626;7.630258166;-29.25220488;2.913863488;4.931572281;9.052345934;31.48049536;30.81802389;7.08774382;34.21737182;0.47436912
-5.931572151;33.412154;14.39288473;6.374021721;10.75204691;-0.34014693;11.81964879;14.10668652;31.48857905;19.96750508;-15.07861605;-2.454455434;-1.322966447;5.233388262;28.99431222;32.86778636;5.672406125;33.05923827;0.803004548
-3.164363079;34.6949896;23.98204377;3.834068983;9.368575324;-0.556229759;13.87364048;11.5828779;33.76097796;21.0592768;-3.704582881;-11.68194013;-7.612618666;0.296973032;24.73384095;34.1397311;2.735014022;32.55308367;0.503261813
4.913335087;35.99870797;24.07907807;1.773854375;7.441137007;-0.51703037;14.07431167;8.338024834;29.96704192;16.78917677;-0.282238904;-22.12705642;-12.7702093;-4.689440256;19.07702092;33.41302617;0.089753925;32.43632061;0.191657937
14.47077399;36.31841413;12.96645477;2.179193058;4.979344685;-0.246271177;12.24878511;5.475933272;25.24629543;14.21557937;-3.312503088;-28.89751107;-15.83019123;-8.607549624;12.84;30.74036327;-0.84777521;31.98917003;0.315820605
20.81184039;34.70614618;-5.443763435;4.786752901;2.310172207;-0.005052648;11.38174087;4.183859767;25.06610321;16.25663485;-6.219067671;-28.82732058;-16.51843211;-11.0493086;6.691641204;27.26606169;-0.145201393;30.62594301;0.786964255
21.61485672;31.22311381;-22.8356366;6.96277315;0.054396572;-0.058309816;14.57673531;5.075640554;31.00109839;20.69659953;-2.764385407;-23.12511629;-15.28059924;-12.35749825;1.059268148;24.30724649;0.827640749;28.38206245;1.114151266
18.45240371;27.16246693;-31.04896836;5.647348554;-1.215651989;-0.41764842;20.93138577;7.781561519;39.76545204;23.39078833;7.774305045;-16.63788371;-12.87970191;-13.01825185;-3.611168718;22.442607;0.638772226;25.89712215;0.904164371
15.4861112;24.1966132;-27.0996191;-0.105960339;-1.422136758;-0.803221176;24.57440678;11.05464673;46.10560704;22.24305418;19.65403015;-14.3843743;-9.933815044;-13.06355398;-6.763513571;21.28627702;-0.993609812;23.9159488;0.26970856
16.28831091;23.05598936;-14.98723145;-8.028334774;-1.146939477;-0.872904507;18.62879607;13.38553111;47.02585547;18.52806564;24.73156303;-18.09755484;-6.745446008;-12.07838015;-8.071123414;20.03262305;-3.032144435;22.72420329;-0.223892208
21.08596105;22.83134996;-2.767806932;-13.95406333;-1.296823733;-0.521745349;1.344740905;13.81335365;43.85405414;15.01621927;18.49407862;-25.36242633;-3.448904312;-9.787656497;-7.876803784;18.2383293;-4.079472705;21.96796175;-0.032201029
26.40456144;21.55938332;3.063485134;-14.67981214;-2.453595203;0.01587369;-20.83991585;12.46748933;40.59183014;13.2761134;3.517252449;-31.78343875;-0.21061591;-6.62297756;-7.147281665;16.166892;-3.585703168;20.97190091;0.886287759
27.38663926;17.7344246;1.711235721;-10.26023781;-4.400078125;0.357098333;-36.52221726;10.49274304;40.14545242;12.87379714;-12.16616097;-34.27611526;2.761814129;-3.675271037;-6.774202028;14.45281348;-2.253115181;19.27453417;2.000353139
21.20848818;11.61687626;-2.290460684;-4.010499977;-6.228995599;0.289779854;-36.95997118;9.364387839;41.74809716;12.90829801;-20.41051072;-32.90214767;5.367763969;-2.00977342;-6.769823214;13.45750561;-1.325805498;16.96918317;2.615858692
9.293081926;5.312701915;-3.419703196;-0.1922813;-6.997140029;-0.058768325;-22.35174804;9.989073907;41.77259478;13.80671455;-17.95778209;-30.06376266;7.669546761;-1.915379494;-6.17948873;12.9457189;-1.429995744;14.6419891;2.425633318
-3.153267386;1.500738899;0.184572033;-1.096612907;-6.434750781;-0.347339838;-1.787396946;12.15332275;37.19657638;17.0470951;-7.6058162;-28.06902977;9.70189421;-2.732852127;-3.99087193;12.38837244;-1.996260643;13.01571621;1.745032846
-10.00124318;1.684003728;5.551232341;-5.672274495;-5.147385777;-0.323641035;13.19124695;14.68145004;28.71873087;22.73416664;4.758780164;-27.2568677;11.19614353;-3.399679074;-0.375736052;11.58920805;-1.756604384;12.57070495;1.244122652
-7.684589418;5.18562415;7.977361713;-10.64759801;-4.139875557;-0.034983768;16.44378216;16.2022567;20.8155189;27.50088845;14.44930644;-26.1688398;11.56783413;-3.235921257;2.8711095;10.99639166;0.13429763;13.34283552;1.400605408
2.77774788;9.571977554;5.579334174;-13.1827463;-4.038236064;0.232365857;10.54961973;16.0063058;18.58269377;25.45034226;20.19554658;-23.40032325;10.32762818;-2.326516799;3.297353473;11.32288094;3.326339899;14.93090794;2.114761512
16.35487783;12.1932041;1.25409903;-12.94784178;-4.63280915;0.218388452;3.469979896;14.40863746;23.86252302;12.29386464;23.08763828;-19.36481187;7.642582998;-1.256457737;-0.415031727;12.7509435;6.493539857;16.65477085;2.783078144
26.74407185;11.80177883;0.224083281;-12.03443207;-5.102435949;-0.085398691;1.77043948;12.38456804;33.72452031;-10.33319597;23.94459952;-16.3796832;4.519201474;-0.530413532;-7.235151852;14.45301694;8.329902725;17.81645958;2.757279569
29.64483701;9.215373037;5.152633737;-12.86623049;-4.720904089;-0.447651572;6.022514186;10.77563228;42.43911603;-34.22579551;21.90147644;-16.97900491;2.309669117;-0.228605418;-14.23745802;14.9757938;8.47246824;18.01910201;1.826116558
24.74138324;6.663421738;13.0332725;-15.88525411;-3.458042129;-0.62118186;11.6679146;9.676828165;45.31522505;-48.92416619;15.51502767;-21.86064004;1.820214588;-0.147107162;-18.52959272;13.31303991;7.618668759;17.41834511;0.365309861
15.41228928;6.304819039;16.7694431;-18.96083464;-1.989331058;-0.564610524;13.82915688;8.470176713;41.43927465;-48.28085022;5.120279395;-29.14682755;2.718652245;-0.172280547;-19.22492621;9.839094445;6.823691896;16.70490359;-0.928320763
6.518464902;8.882441244;10.55478217;-19.04861411;-1.126101064;-0.459791672;11.49926852;6.465420465;33.45099639;-34.48398837;-6.082425903;-35.53067698;3.773057516;-0.438347106;-17.90210376;6.283966247;6.634559579;16.70823031;-1.50023637
1.665016859;13.33359061;-5.074823386;-14.74894966;-1.150085449;-0.519286642;7.67752734;3.630992;24.97580358;-16.44883965;-13.55782299;-38.3766833;3.784771818;-1.093307887;-17.1407352;4.655445109;6.778935183;17.79586947;-1.271023173
1.518323569;17.54534458;-22.64135251;-7.615777962;-1.592358118;-0.772068853;5.984720685;0.820340039;18.08482617;-3.72820356;-14.45852534;-37.17437853;2.468370757;-1.953590054;-18.25559075;5.880229694;6.580602323;19.50455367;-0.641898001
4.021854207;19.73445022;-32.3721222;-1.043741211;-1.609303512;-1.029472303;7.351605319;-0.713933583;12.79102951;-0.459764406;-9.54230857;-33.379021;0.541410283;-2.487128273;-20.03424714;9.209397838;5.64285967;20.78302929;-0.214841656
6.162989623;19.56151104;-28.82700136;2.435643037;-0.620393203;-1.06001709;9.855044976;-0.172754142;8.584159809;-3.666832313;-2.288595065;-28.99781528;-1.043326626;-2.247518867;-19.54288522;12.84988509;4.175592564;20.78889033;-0.434068604
6.032843457;18.26896151;-14.6302216;3.223520022;1.307389334;-0.806529723;11.42175672;2.202360211;6.186650434;-6.705627293;4.003620054;-25.18148519;-2.023571088;-1.388678794;-14.46485517;15.30346017;2.73717513;19.6721248;-1.35845736
3.849946174;17.75612801;1.458040182;4.280757891;3.590068359;-0.442927005;12.26248405;5.240879912;7.644442479;-4.73659462;8.556233246;-21.88553204;-3.039685687;-0.71937624;-5.221431679;16.33414343;1.712953249;18.66368317;-2.658777609
1.40788225;19.19985926;10.69641301;8.479141231;5.594345112;-0.220661558;14.28798229;7.5645172;14.52838956;2.094108735;12.85329973;-18.64380664;-4.880058594;-1.121894843;4.769565462;16.82280941;1.050420357;19.26407118;-3.802472566
0.507953425;22.15428091;10.22853226;15.79965498;7.024242938;-0.249989588;17.98525146;8.395931228;25.87933708;9.803357614;18.16748984;-15.56256865;-7.404698347;-2.75675908;11.00333022;17.72195942;0.469829135;22.072556;-4.314188681
1.588922162;24.77769047;4.468097578;22.78643381;7.949015379;-0.417327538;20.1282863;7.913089136;37.91051439;14.46237915;23.35681431;-13.55632193;-9.170236052;-4.749701569;10.7107861;19.07857893;-0.11258933;26.1837324;-3.990307346
3.524027999;25.08576963;1.197335161;24.93247889;8.550481817;-0.508181642;15.31830215;6.985018514;46.03138599;15.30190042;25.23313439;-13.60830965;-8.255649735;-5.714025377;4.686833058;19.99723606;-0.409076975;29.70906693;-2.977187893
4.625754076;22.40337647;5.42220932;20.24896448;8.899485114;-0.412766188;0.8030679;6.573058383;47.73527441;14.64514653;21.41968096;-15.74761256;-3.761971137;-4.76317004;-3.105209146;19.553088;-0.032441695;31.09049991;-1.680573923
3.992669121;17.99961234;15.51252724;11.14270223;8.980019531;-0.219251111;-19.49028077;7.248642069;44.06501764;15.2359539;13.15343581;-18.71083499;3.19713964;-2.219815307;-7.902539186;17.79331388;1.038513481;30.1879423;-0.550648676
2.133403932;14.41449209;24.31982168;2.922598663;8.882664276;-0.112316975;-35.83713498;9.075743658;38.48083791;17.64003906;5.246837223;-20.6835211;9.889164716;0.560257248;-6.980078125;15.86245271;2.263997747;28.25726688;0.142117253
0.437202073;13.8829526;24.30716295;-0.074585051;8.892744402;-0.182281426;-38.80012914;11.76021769;34.08141912;19.98627566;2.778425855;-20.59142072;13.55476464;2.12062262;-1.207279918;15.06119272;2.847413419;26.83089005;0.409474075
-0.000836993;16.89923242;12.94766187;2.267079493;9.302553243;-0.333566692;-26.19425502;14.8;31.47204256;20.007781;7.053877174;-18.91044505;13.05996038;1.857204411;5.583570804;15.62844014;2.307520639;26.43586299;0.466034815
0.791396728;21.87453253;-5.353929875;5.882140538;10.08136949;-0.382344423;-5.310550152;17.50352973;28.98716241;17.32489915;14.30602017;-17.30581688;9.416944019;0.268623524;8.985940002;16.34782098;0.830175333;26.23408233;0.532162747
1.825608106;26.08550565;-21.9803014;5.962880408;10.73789342;-0.247464643;11.79572804;19.0032949;24.94637329;13.89696121;18.50345769;-17.33044451;4.87144558;-1.611640115;6.706316709;15.41429975;-0.905325774;24.88551241;0.67038919
2.093811779;27.24524836;-29.42595858;1.13134997;10.58765972;-0.044786924;16.63561395;18.48636789;19.8660809;12.36927725;16.17409419;-19.18132693;1.347737469;-3.050953814;-0.061289072;11.90416991;-2.272991021;21.87287916;0.778598325
1.435996821;24.67488465;-25.60102474;-5.062668154;9.2769905;0.015289973;9.894468568;15.66013413;16.56150997;13.90121249;9.283218916;-21.51428162;-0.552741966;-4.015345052;-7.406969826;6.620238234;-3.149508048;18.109811;0.731935474
0.596610516;19.42643284;-14.44552211;-6.723821722;7.139741342;-0.163136919;0.052162153;11.15474343;17.87173389;17.35389706;3.64902154;-22.52584174;-1.37772929;-4.880144654;-11.18260831;1.556920738;-3.897294396;15.26790576;0.53727467
0.473677064;13.46844232;-2.826892708;-0.437170879;5.046612115;-0.446219272;-3.700385223;6.454548441;23.83456151;20.35626349;4.046498727;-21.51570334;-1.870896348;-5.834552374;-9.684147527;-1.624923168;-4.932316784;14.38504722;0.353414984
1.273684172;8.605182056;3.892060918;11.41598265;3.810934643;-0.570232328;1.508327591;3.223374143;30.76454194;21.13306219;9.994922037;-19.7067726;-2.213373035;-6.596880641;-4.82777315;-2.872413873;-6.28476844;14.9714773;0.353270135
2.340848539;5.796535388;4.625999958;21.60930781;3.603832741;-0.378170006;10.74677013;2.367474637;33.27323156;19.52932703;15.79457401;-19.58655316;-2.116811918;-6.711033217;-0.965091084;-3.701702638;-7.542453735;15.42040004;0.554824449
2.794784809;5.09946313;2.137194241;22.82981671;3.858239284;0.020811501;16.14016733;3.467591684;27.92082517;16.62865907;14.94060357;-23.12260993;-1.551107202;-6.11362193;-1.979926946;-5.858396223;-8.20628207;14.39613773;0.786005567
2.364982784;5.997657131;0.195181676;12.82366244;3.757420384;0.323639132;13.70621472;5.023738815;15.79416668;13.66484511;5.413228815;-30.10532542;-1.271526412;-5.392181587;-8.530692331;-9.766141414;-8.119892505;12.00508196;0.831154867
1.631678158;7.76544177;0.676340445;-3.876198188;2.91848371;0.285475174;6.430302519;5.390860584;2.01361809;11.33415023;-8.447710877;-37.89085817;-2.500785244;-5.440951791;-17.36512351;-14.02941424;-7.587342132;9.725475108;0.634336337
1.437267421;9.703875878;2.712662977;-18.93400545;1.706161805;-0.067193271;1.262830429;3.769968088;-7.546888223;9.909361632;-19.041429;-42.88222015;-5.93490973;-6.786715196;-23.34084598;-16.39472001;-7.090862631;9.145719361;0.368070091
2.017699675;11.30081191;4.246479185;-25.71802195;0.907619469;-0.454349369;2.908220407;0.575318307;-9.962169367;9.624950907;-21.12031988;-42.83028933;-10.93103792;-9.174966034;-22.90415897;-15.4016933;-6.882009231;10.60054013;0.287730463
2.693153972;12.37307402;4.43593703;-23.34754185;1.02936251;-0.580970468;9.837720157;-3.025580643;-6.745502528;10.64703949;-15.46959715;-38.37133431;-15.66543098;-11.78405808;-16.63007813;-11.4392934;-6.818189707;12.8843627;0.490417126
2.462812849;13.1058599;4.725292699;-16.50711157;1.801892755;-0.388941525;15.84923536;-5.980382759;-2.206551661;12.64091345;-7.840805325;-32.67238765;-18.26055159;-13.8788121;-8.9457904;-6.45212758;-6.576760351;14.28010981;0.801080312
0.998799534;13.85928433;7.52937717;-11.45717926;2.320561969;-0.100860077;15.6567136;-7.940880727;-0.097509799;14.62684542;-4.192212368;-29.3595425;-18.04893033;-15.33320925;-5.113975046;-2.628138498;-6.030963559;13.99817114;0.910824981
-0.890997949;14.79596008;13.52890162;-11.38478407;1.734996512;-0.017870183;9.589981569;-9.176529799;-1.129749002;15.61937291;-6.178398208;-30.14052199;-15.98961786;-16.58506238;-7.580215061;-1.126064832;-5.43238939;12.77994476;0.666399765
-1.836933776;15.63104499;19.92712913;-14.47633247;-0.05357787;-0.251633867;3.353964908;-10.01023996;-3.100905058;15.60815007;-10.43151483;-33.78885777;-13.91861142;-18.10216937;-14.34302848;-1.719631252;-5.229475552;12.17258932;0.255734322
-1.089688516;15.80763268;21.51518662;-15.84829023;-2.24634493;-0.627906193;3.08928565;-10.36153363;-3.270814994;15.8;-11.94355819;-37.20806465;-13.23967865;-19.86607083;-20.57480263;-3.395991861;-5.682796699;13.14704934;0.101719525
0.728579941;15.05019967;14.25979925;-11.59036488;-3.680238412;-0.845027477;9.992041311;-9.838291638;-0.936592859;17.56161967;-8.546643982;-37.80445234;-14.07737622;-21.33836869;-22.30425176;-5.220958708;-6.616025294;15.27497328;0.52283634
2.039717869;13.82450511;-1.069417803;-1.829389505;-3.63704767;-0.743633798;19.11031162;-8.280549759;1.853042892;20.85105676;-2.789918118;-35.45404908;-15.49312904;-21.92101057;-19.39573471;-6.758404251;-7.516751097;17.13853173;1.435562807
1.621758552;13.17793284;-18.1842882;9.261846857;-2.317149306;-0.446927126;23.39533016;-6.21031561;1.931068894;23.75735667;0.15391875;-32.65477802;-16.48389189;-21.47924217;-15.57382831;-7.912796125;-7.897376797;17.53500169;2.362903031
-0.291308636;13.91506147;-28.56420923;16.21290752;-0.638718407;-0.248869316;19.65728861;-4.688962781;-2.373685051;24.00864869;-3.362910425;-32.78548124;-16.8801239;-20.45932731;-15.49203083;-8.629326598;-7.61503859;16.36893825;2.769579796
-2.127458523;15.72485703;-26.84989484;15.61311131;0.454109794;-0.352850466;11.44745025;-4.603003472;-9.707362122;21.39520862;-12.67574841;-37.75543319;-17.40954211;-19.51477882;-21.10681131;-8.900984292;-6.904447033;14.48583725;2.467573299
-2.296716254;17.0956689;-14.586987;7.845757384;0.633672052;-0.693953198;6.373112538;-5.941835737;-16.39897049;18.74404858;-23.43230491;-46.71301925;-18.92798727;-18.9906744;-30.1309318;-9.046752528;-6.130947234;12.72477272;1.764591522
-0.61629077;16.31376383;0.58578657;-3.585337958;0.31603786;-0.999658175;9.880153615;-7.708772109;-18.83228752;19.90291845;-30.79967352;-56.63792687;-21.50553555;-18.71342364;-37.70683849;-9.794441901;-5.492799727;11.18214557;1.23148199
1.430617872;12.89930314;10.03624023;-14.24544506;0.22906736;-1.030313932;20.42906517;-8.619011274;-15.72763899;25.82098471;-32.51131352;-64.25274353;-24.14355041;-18.22956067;-39.95599138;-11.81812366;-4.911883834;9.415789012;1.27579282
1.921414843;8.300692739;10.02692445;-20.88957041;0.798972612;-0.784041851;29.95705306;-8.076820751;-8.77578556;32.04908868;-29.53313182;-67.82519313;-25.35909262;-17.23531808;-36.67495333;-14.97177524;-4.169081365;7.338681834;1.865009468
0.218389242;5.10989551;4.101329239;-22.44445203;1.833641805;-0.488022234;29.43746318;-6.651663939;-1.36526587;30.55271906;-24.37989738;-67.69708719;-24.18276399;-15.80896381;-31.21279393;-17.93780252;-3.140947955;5.805727127;2.611910771
-2.320313818;5.231748579;0.105079192;-19.79312845;2.711537162;-0.390922611;15.45133021;-5.643370515;3.521757528;15.46768944;-19.00308124;-65.46157814;-20.82724254;-14.29131537;-27.8039113;-18.8276549;-1.940812558;6.13508939;3.129067157
-3.374532887;8.395373087;3.946538169;-14.93843433;2.883654191;-0.544753343;-7.049078155;-6.055947944;4.773190686;-11.2168705;-14.12494992;-62.69145162;-16.57890409;-13.00250662;-28.53266791;-16.48750267;-0.873920548;8.85077365;3.341153883
-1.683914435;12.26414354;14.7353778;-10.09036019;2.279044087;-0.766642796;-27.73349363;-7.790920925;3.191491992;-38.87126129;-10.17942888;-60.24159758;-13.05418121;-12.09842349;-32.20485897;-11.53934497;-0.263186672;12.81042662;3.496191416
1.643619157;14.17715682;25.03054892;-6.889651286;1.316864946;-0.806562185;-37.40482482;-9.709856491;0.447821638;-53.94504415;-8.371406269;-58.42755096;-11.36986342;-11.66760363;-35.73576766;-6.224330453;-0.267345265;15.70789541;3.88829975
3.77885881;13.19462202;26.15457152;-5.838658361;0.551198927;-0.567183338;-33.42620418;-10.5227367;-2.080004883;-48.75258344;-10.3337853;-57.5407046;-11.73573526;-11.88078108;-36.67664053;-2.987353591;-0.778825307;15.76938052;4.55549456
2.448672989;10.78177997;14.69908933;-6.142467829;0.245088022;-0.18487425;-20.52188843;-9.796922627;-3.807326928;-27.01741701;-16.41604828;-57.95697348;-13.60246565;-12.94237781;-34.79414068;-2.77808101;-1.427235641;13.30278218;5.229237267
-1.899784514;9.51499992;-4.614374482;-6.221371604;0.193292134;0.088841687;-6.883719589;-8.290889297;-4.708532567;-1.788350255;-24.25220727;-59.65644231;-16.12524104;-14.82851813;-31.64476219;-4.365965087;-1.68884561;10.69798346;5.581166058
-5.864393561;10.82340921;-21.872037;-4.828118585;-0.099003976;0.09185446;1.274368847;-7.36726824;-4.838703459;13.12011229;-29.34088812;-61.70958778;-18.59253404;-17.08398879;-28.85404886;-5.250748802;-1.097170426;10.67769455;5.543178879
-5.194006482;13.63711126;-28.55119218;-2.145027654;-1.039459701;-0.134881271;2.884057894;-7.974300637;-4.114806147;12.07630216;-27.73953801;-62.4588274;-20.61928018;-18.97086691;-26.78988414;-3.53133907;0.492717373;14.09703862;5.406895305
2.164391847;15.1340636;-22.93999056;0.007097817;-2.653497869;-0.407456963;1.163663268;-10.00339674;-2.460245487;0.508150658;-19.02715739;-60.52780996;-22.12184359;-19.94991546;-24.75418295;0.654000719;2.717191627;19.08541815;5.598616862
14.26867235;13.06769218;-10.57279125;-0.75557355;-4.562742842;-0.559677558;0.062344319;-12.48763577;-0.051429046;-10.15243061;-7.169677126;-55.9568607;-23.19825333;-20.11272763;-22.31347653;5.181269757;4.764173295;22.32142807;6.310467382
25.97280126;7.811662347;0.327156714;-5.589170898;-6.222577529;-0.555901157;1.08621318;-14.4066017;2.611252843;-11.31786296;1.625608683;-50.48175738;-24.00468887;-20.13905685;-20.32248979;7.421308368;5.747757018;21.51281905;7.300755407
31.81007813;2.409086563;4.738930859;-13.18614837;-7.238002309;-0.471733069;2.854647503;-15.39565905;4.833689008;-3.069671695;2.696968012;-46.566734;-24.64712562;-20.72581364;-20.49725679;6.037526243;5.239638767;17.14495828;8.042350735
29.05610145;0.472195444;3.670058594;-20.13572741;-7.554382544;-0.389005257;3.299461724;-15.79745716;5.892841644;7.163981185;-4.273540182;-45.80770627;-25.08900049;-21.91870509;-23.76813584;1.828333518;3.615969278;12.12238386;8.110680882
19.07036897;3.493061908;2.145411135;-22.81918813;-7.429795098;-0.321778625;2.269435077;-16.09418922;5.14190342;11.42213595;-15.31935959;-47.87778872;-25.11028102;-22.92736364;-28.85688122;-2.880907619;1.923928065;9.608387202;7.504181061
6.316832395;9.613737054;4.403570505;-19.61221593;-7.24277149;-0.240257354;2.092970779;-16.29255405;2.169736724;7.695780228;-24.85231169;-50.79519568;-24.37086767;-22.64319595;-32.49203709;-5.740097656;1.27556433;10.78031973;6.643124772
-4.028648587;14.7887595;10.34090784;-11.87255764;-7.273901835;-0.148889275;5.473025187;-15.84608001;-2.837988389;0.964318686;-28.90067848;-52.26713933;-22.5856882;-20.48794999;-31.39188167;-5.690872277;2.137252728;14.21336691;6.04961278
-8.345961251;15.47003906;15.95366588;-3.043234283;-7.58414968;-0.11822283;12.44527208;-14.19610778;-8.660138953;-1.576710046;-26.78226909;-51.06321473;-19.73851102;-16.91244712;-24.65968777;-3.320909927;4.00953135;17.23149896;5.959742613
-5.674008772;10.8764774;17.13364732;3.444896597;-8.0301246;-0.223204167;19.11102238;-11.44155257;-12.98192804;3.285834133;-20.51530258;-47.45423231;-16.2148271;-13.12732728;-14.77902652;-0.245537306;5.746381224;17.99929023;6.162307272
2.415741947;3.341080588;13.46291298;5.983439234;-8.373040222;-0.447151607;19.61422063;-8.508678147;-13.15206444;12.39445855;-12.95742621;-42.59954734;-12.75960161;-10.27416881;-6.355187758;1.901987866;6.303987559;16.65756122;6.173665939
12.64775166;-3.297734514;8.765118067;5.167301489;-8.403039296;-0.659342372;10.26685467;-6.608249599;-7.646780516;19.35728428;-6.267737231;-37.60690371;-10.24380442;-8.701914437;-3.379764348;2.234234613;5.388120243;14.74246061;5.602673153
21.1278197;-5.988863986;7.918653291;2.76648273;-8.020156042;-0.710043945;-7.166712662;-6.382827004;2.58502805;20.1846377;-1.54376073;-33.10058603;-9.309577439;-7.906510286;-6.851430501;0.839218007;3.54838141;13.59806522;4.432160615
24.57856399;-3.954873985;12.53922176;0.323019076;-7.257473204;-0.568039405;-25.67790971;-7.434728392;13.9707749;16.4701822;0.729349645;-29.48532394;-10.02939371;-7.118572152;-14.30395807;-1.446302729;1.693331501;13.23661553;3.027339272
21.62764277;1.294823618;19.10173173;-1.513323419;-6.263560456;-0.369468044;-36.92087543;-8.635981512;21.8306039;13.52197861;0.342679089;-27.35062884;-11.74740434;-5.988793006;-21.44348429;-3.505629725;0.435774006;12.55820479;1.891763088
13.65455085;7.051275506;21.16482196;-2.621353922;-5.262901249;-0.31614167;-36.26557421;-8.99204842;22.87712184;15.31223065;-2.394835926;-27.34976025;-13.24573891;-4.78608638;-24.70536799;-4.471522341;-0.22489852;10.58222766;1.360469061
4.440284067;10.75472416;14.13943093;-2.679602892;-4.496939148;-0.499231267;-25.49595667;-8.381153576;17.14933915;20.80410239;-6.242333619;-29.50926027;-13.25758364;-3.999809105;-23.0680943;-4.148549562;-0.684987601;7.500907353;1.434191058
-1.678611824;10.9910445;-0.955422214;-0.986544528;-4.141855776;-0.803282796;-11.30409437;-7.588400083;8.016498852;24.90045541;-9.194402651;-32.65337113;-11.14152863;-3.78124977;-18.12633639;-3.116517489;-1.233665629;4.626985835;1.834154392
-2.357955522;7.957835502;-17.56999706;2.879851365;-4.218033868;-0.985620946;-0.767864874;-7.614371641;0.128753678;23.17861568;-9.459226513;-34.70319556;-7.347863867;-3.778977362;-12.64473858;-2.358482583;-1.729455848;3.351459726;2.204381256
1.166413292;3.397736403;-27.52456279;8.172294733;-4.537066473;-0.874036806;2.894303791;-8.805694505;-3.358314939;16.26531405;-6.60578511;-33.87895041;-3.317714365;-3.522476618;-8.718597544;-2.535169068;-1.733503794;4.078418911;2.31438669
4.821680032;-0.065667349;-25.99864005;12.80899515;-4.740606007;-0.516139816;1.41827687;-10.48283348;-2.400148316;9.956443369;-1.896127637;-29.93545848;-0.74606204;-2.970798298;-6.728842004;-3.380161334;-0.964778041;6.036688781;2.148512667
4.602131987;-0.166174335;-14.25228997;14.3485589;-4.446304713;-0.148709608;-0.891883364;-11.34645527;0.545474697;10.73234239;2.606491421;-24.36602257;-0.578562188;-2.671740081;-5.594086194;-3.759296815;0.336848375;8.024455657;1.860289692
-0.277938602;3.647485023;1.49158873;11.54250217;-3.443584373;-0.008566313;-0.768965046;-10.356444;2.78602286;20.16885832;5.537818045;-19.29543556;-2.385096553;-3.333954986;-3.936423745;-2.514001676;1.468612042;9.340125862;1.649932732
-6.391657747;9.614714696;13.87448208;5.323432361;-1.828207657;-0.144119093;2.057261485;-7.451379576;3.5350158;32.74366127;7.15444349;-15.91817366;-4.591334101;-5.170239462;-1.260588883;0.46678434;1.711201958;10.09889168;1.649467617
-8.299799451;14.52165644;18.21280381;-1.581127665;0.018122763;-0.386651459;5.687089041;-3.629515163;4.281165503;38.94458941;8.906473219;-13.80265709;-5.487416494;-7.608229101;1.645900918;3.847432116;0.809944279;10.79963201;1.875489834
-2.590560649;15.75375345;14.06136565;-6.217483695;1.604742743;-0.502046105;8.367968557;-0.383894207;7.151858364;31.54909018;11.97876384;-11.68911995;-4.351263609;-9.656406561;3.294935091;5.621051649;-0.87625948;11.70610424;2.260231278
9.172930364;13.19850536;4.218946306;-7.08578678;2.559809385;-0.389131552;9.968923339;1.099871704;12.63249048;10.6251291;15.98385718;-9.095165154;-1.8881751;-10.63132196;2.596613385;4.619251849;-2.640917393;12.68169224;2.724900275
20.94910753;9.458859398;-7.417883846;-4.793592237;2.764191732;-0.15546568;11.43138597;0.491573564;18.53673847;-16.15519457;18.91166802;-7.25582766;0.340286724;-10.62347335;-0.324413408;1.58854372;-3.870134892;13.55361317;3.236257404
26.04765062;7.957564349;-17.45595527;-1.328259717;2.315032774;-0.013160402;13.14330234;-1.641077117;21.16528033;-37.91099233;18.46917561;-8.416776646;1.070965026;-10.30552298;-4.185968872;-1.149671263;-4.323558648;14.48855415;3.801321855
21.64534818;10.22237654;-23.42591597;1.401769878;1.371477688;-0.093997985;14.21851909;-4.215260787;17.8764292;-46.57980755;13.84402023;-13.92130395;0.202762033;-10.26674427;-7.445885498;-1.36442955;-4.108495763;15.85234178;4.403182335
10.70994661;14.51458585;-23.65342013;2.65360109;0.022586947;-0.345976804;13.61017025;-6.171709184;9.15274398;-40.79860562;6.555895708;-22.6765896;-1.268277203;-10.47060171;-9.378478288;1.321689383;-3.468642195;17.61518543;4.935091589
-0.103046969;17.08617684;-17.5377772;2.86814426;-1.711204317;-0.591952064;11.88494387;-6.913637109;-1.427438509;-25.68238137;-0.300599476;-31.41342986;-2.131768845;-10.30930768;-10.49407648;5.011422802;-2.61729984;18.94720692;5.206493601
-5.049426539;15.25216311;-6.396038756;2.818753385;-3.75605366;-0.684683212;11.47447462;-6.507589556;-9.359029655;-9.270791249;-3.952799512;-36.72745195;-1.903817721;-9.186759572;-11.92847278;6.901610655;-1.724050816;18.59573484;5.047451348
-3.029003712;9.835275927;6.021644972;2.744989249;-5.869557736;-0.614804277;14.49850908;-5.609287217;-11.9808549;1.851093586;-3.682529504;-37.37426207;-1.06017626;-7.092462721;-14.24224047;5.440107163;-0.966459481;15.92241756;4.451809263
2.203090346;4.853922888;14.44159488;2.244298425;-7.661584178;-0.484160103;19.80786192;-5.138899073;-9.885861345;5.327533147;-1.178665483;-34.98835936;-0.437379816;-4.653357947;-16.61834452;1.564933997;-0.495771812;11.75063693;3.643536619
5.31596315;4.495469602;14.51082381;0.979098306;-8.761562704;-0.387399258;22.27176918;-5.802223328;-6.0459397;3.145201581;0.76292184;-32.61966285;-0.407120479;-2.634852106;-17.23536258;-1.996089699;-0.296862523;8.160566008;2.985319467
3.560009766;9.723037086;5.468434056;-0.491835189;-9.005700934;-0.32536888;15.89470181;-7.654665585;-3.414365785;-0.413482774;0.316500466;-32.25121663;-0.601562136;-1.357679113;-14.68909203;-2.82742162;-0.099086126;7.180883056;2.764474406
-1.329241086;17.32374614;-8.869773338;-0.61801129;-8.488274882;-0.232308712;-1.022433192;-9.957284155;-2.833144487;-1.553069854;-1.970043945;-33.30460904;-0.424842832;-0.553262878;-9.406184349;-0.640843434;0.489196065;9.30112306;3.001939414
-4.746046062;22.30100894;-21.84839824;2.202957296;-7.435033777;-0.080076904;-22.86136514;-11.47455957;-2.749032001;1.021149652;-3.495582644;-33.33529132;0.181638756;0.243223356;-3.83276894;2.648066944;1.644200889;12.99549172;3.43582164
-2.894629127;21.74328053;-27.61447514;8.220638689;-6.018101637;0.056401862;-38.9839953;-11.11162965;-0.828855883;5.795524561;-1.549128237;-30.32141115;0.529775127;1.164982334;-1.03619038;4.587699406;3.0448963;15.7122108;3.709018034
4.369521235;17.00049749;-24.3897997;15.53441902;-4.291460777;0.050648604;-40.48068854;-8.53966402;3.847258449;9.854435066;4.397646966;-24.64429692;-0.163978367;1.866758526;-2.634546682;4.166489159;3.936495695;15.61945886;3.628529303
13.59144291;12.34665387;-15.20469445;20.68627941;-2.316918906;-0.147146554;-26.59601655;-4.417322197;9.710715342;11.0606823;11.71640995;-19.12067675;-1.819429497;1.897493135;-7.631567084;2.445020413;3.586268534;12.78282488;3.29698683
20.36960557;11.24464903;-5.6211841;20.49597857;-0.358937315;-0.430003662;-5.731826767;-0.055931922;13.5583852;9.569665344;15.8868473;-17.04246634;-3.19068479;1.220891424;-13.15063376;1.377409748;1.838137399;8.907395;3.011169361
22.39132887;13.38457478;-0.063766463;14.05580697;1.071583384;-0.593037853;10.16163991;3.256569028;12.70907079;7.604437582;13.41055306;-19.780348;-2.703922064;0.353545366;-16.5964523;1.915506753;-0.666880024;5.929117124;3.009654891
20.57834351;15.04478853;0.686189987;3.546520554;1.440103637;-0.496269715;13.79880573;4.837065937;6.909835708;7.607356195;4.48845858;-25.81328392;0.110354131;-0.058617435;-17.5803273;3.079098549;-2.824402241;4.622293256;3.277570835
17.76672676;12.49418424;-0.7955942;-6.795974173;0.554174432;-0.193623872;7.156441455;4.755691867;-1.342969982;10.15594506;-6.528056098;-31.86107856;3.810510015;0.137069814;-18.05045905;2.797913039;-3.754786271;4.287426454;3.5699245
16.30090346;5.509072318;-1.178285694;-13.03780237;-1.221292691;0.091292036;-1.001341805;3.546910017;-8.261967726;13.35602926;-13.5543767;-35.14673153;5.731890058;0.366084716;-20.4754255;-0.232023607;-3.355254766;3.630019531;3.630108602
16.56470657;-2.084970157;0.868161378;-13.7757524;-3.123391424;0.133457467;-2.51388597;1.777735586;-10.98764783;14.35205593;-12.68775152;-35.04552899;3.852043271;-0.249643146;-25.53551961;-5.313915704;-2.311396789;1.975757612;3.413170012
17.42152991;-5.419438103;3.911031964;-10.79040545;-4.466049874;-0.116662795;3.90046168;-0.200356925;-9.103896855;11.82689997;-4.990630878;-33.03036791;-1.549714906;-2.133136009;-31.24325548;-10.21096458;-1.568683283;-0.208874087;3.120078125
17.81725104;-2.639255254;5.446988396;-7.670591226;-5.094443623;-0.494194535;12.42285732;-2.21882683;-4.554156834;7.366716256;3.941267531;-31.24343022;-7.82;-4.812715936;-34.29489208;-12.8847057;-1.668779514;-1.826859878;3.015127961
17.90443117;3.462644417;4.484574565;-7.30645264;-5.456016713;-0.750154301;15.76632366;-4.144720721;-0.179547327;4.350048828;7.555681167;-30.99413625;-11.66237242;-7.212489362;-32.6258744;-12.99414566;-2.43754033;-2.125051568;3.18961426
18.66196774;7.694406784;2.712761219;-9.937016729;-6.201169623;-0.740944124;11.61902954;-5.842247995;2.029669584;5.116297221;2.702935477;-32.27882649;-11.45103344;-8.463268228;-27.11702426;-11.88753761;-3.215493464;-1.242215491;3.482321616
20.4715034;6.751014593;3.11746019;-13.09089093;-7.603807579;-0.522257274;4.391744516;-7.288121707;1.817465318;8.829867526;-8.276749164;-34.37105381;-8.37800544;-8.564987613;-21.05723955;-11.16928486;-3.397436619;0.081187555;3.627048891
22.11824926;1.919028513;7.081034175;-13.47276;-9.262593256;-0.280040894;0.995604931;-8.669073721;0.247686913;12.09455508;-19.23488862;-36.64571096;-5.540751348;-8.341533898;-17.79045243;-11.16514287;-2.838061232;1.25759857;3.493929611
21.32861414;-2.102650729;12.4254591;-9.492258459;-10.34818045;-0.170274234;4.584956936;-10.26982734;-1.496619425;12.05818703;-24.42419311;-38.81783152;-5.664003887;-8.720715732;-18.44254035;-10.64962788;-1.836589229;2.327702289;3.206579459
16.56764814;-1.268622285;14.30934665;-2.656472917;-10.23439161;-0.208029819;11.85768927;-12.17335866;-3.089419558;9.370824091;-22.14550899;-40.55238103;-9.195361761;-9.93895994;-21.50325998;-8.036615839;-0.781284742;3.751571676;3.028907793
8.619729808;4.32113007;8.679466576;3.191144887;-9.02812836;-0.290054321;16.22439729;-14.03617315;-5.071982012;8.11607375;-15.24955852;-41.11134995;-14.17831061;-11.32903943;-24.44057271;-2.93184626;0.200807547;5.788756478;3.124101106
0.523607677;10.47101485;-4.200883645;4.317502247;-7.56357235;-0.31178686;13.89183676;-15.2103121;-7.965837141;12.23831295;-8.409060149;-39.65436245;-17.87742575;-11.85809558;-25.82655389;3.334974582;1.289176138;8.108117877;3.405151522
-4.279940623;12.41976824;-18.99163783;-0.409384361;-6.828508155;-0.262561642;7.337242355;-15.2058403;-11.29870053;21.18981945;-4.575616293;-36.07460116;-18.78409335;-10.96832262;-26.11677066;8.624740551;2.701421471;10.00681662;3.614010145
-4.261949553;8.826772027;-28.24155269;-8.666691437;-7.235788064;-0.216290139;3.044397612;-14.15060414;-13.46630014;28.71210084;-3.503866868;-31.57837444;-17.44591639;-9.048552358;-26.52366306;11.48465847;4.37579814;11.01258888;3.55814636
-0.823769673;2.836001534;-27.22407875;-16.02626065;-8.288081344;-0.239979553;5.568610447;-12.82941112;-12.72640237;26.50701148;-3.290207282;-28.29575105;-15.63046802;-7.193843702;-27.19759265;11.9095603;5.898220096;11.28394811;3.288327413
2.7658289;-0.624629816;-17.19897235;-18.59584162;-8.896246518;-0.317707167;13.32758282;-12.18806994;-8.694773654;10.53968484;-3.189711578;-28.01915935;-14.7115107;-6.484119207;-26.58722877;10.82029772;6.746082103;11.43659786;3.05349836
3.706148977;1.069031853;-4.610364674;-15.22663953;-8.122504617;-0.365461049;19.97149488;-12.64433548;-3.18482225;-14.86148161;-4.870151945;-30.98320747;-14.69965887;-7.345863506;-22.77824214;8.938614516;6.653183383;11.98115932;3.072258998
1.515946625;6.266178765;3.359232423;-7.936776857;-5.809508809;-0.319285753;20.13290876;-13.76338666;0.441461758;-38.71422493;-10.73920457;-35.66311389;-14.6423168;-9.4136624;-15.73077871;6.256461049;5.809649309;12.91173909;3.330068359
-1.926371315;10.78292569;3.730660705;-0.440612165;-2.660871009;-0.207039103;14.3416868;-14.60905888;-0.781579519;-50.16587668;-20.787902;-39.78685974;-13.86327986;-11.86746002;-8.33139946;2.6217883;4.755870496;13.80719689;3.590148879
-4.052305328;11.70969414;-0.443601209;4.117677103;0.236698282;-0.130930691;8.574746802;-14.54138757;-7.391925345;-45.54606951;-31.03023656;-41.79149901;-12.81423807;-13.89326587;-5.005902885;-1.246432896;4.069888578;14.29197802;3.610631598
-3.603045541;9.888275848;-2.737425665;4.753446445;2.05620233;-0.175320012;8.750816027;-13.83610909;-16.82150636;-30.45369526;-35.5;-41.63457332;-12.74449742;-14.94729934;-8.674985945;-3.550165327;4.082214791;14.36727316;3.369578418
-1.432646535;8.907379596;1.451991143;2.698927335;2.571985841;-0.326912799;15.14643679;-13.59940197;-24.69469923;-15.35616373;-30.68987768;-40.45158615;-14.52135562;-14.78666652;-18.35625795;-2.541648579;4.791370878;14.29360081;3.088740617
0.381191371;11.57493627;11.04171682;0.155100173;2.023985691;-0.483158787;21.934227;-14.98978495;-27.37728861;-8.139111586;-18.90168315;-39.49860584;-17.7183049;-13.44417977;-29.38471604;1.835903346;5.97801288;14.20055301;3.030745977
0.27896398;17.05725904;19.6684975;-1.260804247;0.722954166;-0.541166397;22.49270506;-18.31420956;-24.12523006;-9.274159221;-7.44993813;-39.31121964;-20.83583316;-11.27080376;-36.24637925;7.341731629;7.383629087;13.90658483;3.254519025
-1.609423707;21.28167768;20.15522144;-1.357960956;-1.211603643;-0.484136398;15.80858715;-22.68538632;-17.39680461;-12.9966613;-3.853409072;-39.6691716;-22.48063365;-8.952434674;-35.9974415;10.7106043;8.82307047;13.21880776;3.556193329
-3.720130901;20.32097605;9.817810228;-1.119091695;-3.761832228;-0.386579721;8.021671652;-26.51025471;-11.1443842;-13.01767024;-10.50569852;-40.16075306;-22.45610042;-7.310892246;-29.82171402;10.0342776;10.19873485;12.44065199;3.654473416
-4.406005205;13.84843784;-7.253939905;-1.721419146;-6.701543875;-0.338091526;7.276075987;-28.45866101;-8.305833941;-7.838398034;-22.96815962;-40.64912346;-21.79935103;-6.873937797;-21.77183228;6.358378129;11.46758494;12.49362113;3.452601269
-3.222309605;5.667279219;-22.6126023;-3.586339598;-9.414710216;-0.362124279;16.05489862;-28.22679447;-9.236823862;-1.441442099;-33.28528105;-41.17814785;-21.75643733;-7.492209874;-15.8810094;3.054490369;12.61290792;14.33410053;3.133687096
-1.142727123;0.83433221;-28.84222771;-6.067710607;-11.08888161;-0.40758606;27.76526018;-26.60447305;-12.07311579;0.764849738;-35.75368924;-41.53241597;-22.64647889;-8.371979436;-13.88400248;3.29089008;13.6209342;18.0239356;2.995975719
0.360529297;1.806822752;-24.11047974;-7.9084025;-11.19689509;-0.416805464;31.03960531;-24.8890831;-14.55861174;-3.071504327;-30.65938055;-41.08452991;-23.65543383;-8.619967452;-15.00129671;7.545817494;14.43697143;22.26826782;3.175479657
0.525527175;6.820857089;-12.7930571;-8.120483654;-9.902217613;-0.396414787;18.68961965;-24.12172067;-15.83057516;-9.664666017;-23.24460034;-39.28736869;-23.73712353;-7.951068632;-17.43176973;13.17010728;14.91169907;24.97857293;3.512937393
-0.205969133;11.72535027;-1.993835461;-6.728561443;-8.040962607;-0.414069783;-5.926793723;-24.64109784;-16.80492932;-13.55914206;-19.10750851;-36.4537973;-22.76567458;-6.992977885;-19.95550592;16.38630434;14.79888359;24.59067288;3.694395538
-0.744915584;13.52156863;3.313966282;-4.920860395;-6.642638365;-0.518929965;-30.5087165;-26.11605176;-18.99681381;-11.82104908;-20.04292061;-34.02241317;-21.82646189;-6.878653259;-22.33199871;15.13104655;13.85601675;21.16162167;3.542231543
-0.401338146;12.49596096;3.028572146;-4.486436221;-6.307567931;-0.665310773;-42.33781119;-27.86170995;-22.87364382;-6.297873728;-23.65584839;-33.82827135;-22.30568723;-8.383015328;-24.54521907;10.46974117;12.01405054;16.34148185;3.188203995
0.510093994;11.22302091;0.861350376;-6.811815829;-6.877763526;-0.72532619;-37.06147762;-29.15473195;-27.1641131;-1.633104021;-26.59397883;-36.76582563;-24.56042389;-11.26763252;-26.04273996;5.514338684;9.494606288;12.17728518;2.96131481
1.006824936;11.56555839;0.720151476;-11.98124717;-7.625206064;-0.595776087;-20.96777731;-29.43450617;-29.70509029;-1.03202931;-28.06172688;-41.88237458;-27.40190389;-14.37613051;-25.95418701;2.840058594;6.758476063;9.665504789;3.084712547
0.386825667;12.56400174;3.563595925;-18.52070709;-7.803529217;-0.309509748;-5.398482025;-28.46114491;-29.11718697;-3.653379879;-30.21863991;-46.74188431;-28.96121731;-16.43904728;-24.11115341;2.581813382;4.287287692;8.204334116;3.459008108
-1.063591482;11.23739359;7.125203483;-24.00669685;-7.156603183;-0.04340057;1.772785876;-26.48281881;-25.92555991;-5.861097475;-35.15317921;-48.94229624;-28.27773759;-16.9699994;-21.72741709;2.719439402;2.340931655;6.373761189;3.740142272
-2.236462523;5.620548549;8.459419021;-26.26555702;-6.035117029;0.0020129;0.756385658;-24.28884356;-22.22014022;-4.985210508;-41.52889937;-47.7256401;-26.23831742;-16.54980081;-20.81498178;1.151594479;0.870425445;3.373013083;3.652866642
-2.119265451;-2.744227344;6.968966322;-24.50597947;-5.080824182;-0.238316366;-2.48017893;-22.94324756;-20.15329285;-1.978157791;-44.5395245;-44.48753003;-24.96663777;-16.28331107;-22.63100305;-2.330450011;-0.346581428;-0.106441716;3.256801102
-0.688260147;-9.266889362;5.23;-19.72703314;-4.752195308;-0.628678389;-2.541766676;-23.18707595;-20.49142039;-0.436012153;-39.83468122;-41.8042193;-26.0631945;-16.87629778;-26.50109543;-5.869603483;-1.456775064;-2.323434099;2.911682959
0.990651413;-9.576512447;6.783170077;-14.16778498;-5.05096203;-0.922612617;0.951187937;-24.84875785;-22.32766457;-2.870885254;-28.17395674;-41.7;-29.12865809;-18.0712525;-30.18713909;-7.227276799;-2.368849706;-1.89020714;2.956134532
1.566849154;-2.953633147;12.62883566;-10.15033763;-5.621245359;-0.941717843;4.324723726;-26.76374548;-24.06208143;-7.753669554;-16.3446251;-44.39460524;-31.85788832;-18.87045942;-31.63850103;-5.754774626;-2.80309678;1.032643377;3.383177776
0.4718319;6.964993903;19.40294236;-9.014318909;-6.096200201;-0.702027894;4.521581781;-27.42993291;-24.73508606;-10.27302832;-12.73182145;-48.32706157;-31.74174939;-18.33325544;-30.66967439;-2.886672137;-2.499970014;4.756263069;3.816881033
-1.622861835;14.86454228;21.07502421;-10.70988465;-6.394932592;-0.389804551;2.557274658;-26.05033047;-24.60649702;-6.427634463;-20.6247992;-51.27063487;-28.07661807;-16.296714;-29.06705445;-0.758408715;-1.408019579;7.305777651;3.835153373
-3.33335975;17.65229303;13.29303966;-14.12969561;-6.744147407;-0.212302921;2.399510905;-23.20545822;-24.61358362;3.068892765;-34.7924578;-51.64031667;-22.67382747;-13.47701884;-28.95768342;-0.237438946;0.294673917;7.890652481;3.366487616
-3.646285076;16.42602508;-2.74096308;-17.80434381;-7.437381179;-0.247416933;6.570780586;-20.56359906;-25.32572734;12.69025942;-44.66458648;-49.155652;-18.65971814;-10.93695285;-30.82536251;-0.16671893;2.332981672;7.432195387;2.799658339
-2.674363198;15.01156851;-19.96060163;-20.48988048;-8.550738903;-0.407794287;13.04948566;-19.73399165;-26.38;16.27190677;-42.14296424;-44.66627846;-18.26003906;-9.391834461;-32.93144193;1.482965787;4.474109565;7.752347852;2.678225905
-1.480344377;16.43694913;-29.37103844;-21.44032647;-9.849733362;-0.532980335;16.82494692;-21.0717951;-26.85597338;12.16810998;-28.00522203;-39.54802485;-21.25440065;-8.882623028;-32.70691312;5.576265674;6.541691725;10.098508;3.214693053
-1.140616116;20.35581402;-25.78571401;-20.47563809;-10.94963444;-0.519484791;14.886052;-23.35624663;-26.15207686;5.007098854;-11.61895224;-35.16534821;-25.24;-8.974119411;-28.95028873;10.72895352;8.320209908;14.17139441;4.036560362
-1.84659638;23.51363655;-11.39608637;-18.01678764;-11.58185369;-0.380680867;9.827683052;-24.63277217;-24.49546904;2.273943886;-3.894782725;-32.55376991;-27.42518971;-9.197533192;-22.93072763;14.20167814;9.499619443;18.36996127;4.404074252
-2.795922827;22.71994852;5.480128855;-15.05369352;-11.74211664;-0.203023103;8.165012475;-23.60418278;-22.61608184;8.185311303;-8.914348327;-32.17196097;-26.5304255;-9.326365103;-17.43535507;14.07518431;9.789491739;20.98226349;3.753032285
-2.946376189;17.7105338;15.79720512;-12.83340335;-11.60780139;-0.058052295;14.25032546;-20.50897077;-20.95265703;19.68321369;-20.89418612;-33.64372242;-23.40097387;-9.319158047;-14.59944726;10.87809139;9.158959867;21.34731209;2.139702629
-1.967884314;11.47248336;15.65945837;-12.19443001;-11.31275948;0.042705516;25.08828569;-16.82379145;-19.21998978;27.88789814;-28.94795527;-35.71521919;-20.02945748;-9.110716949;-14.41769939;7.272542348;7.990261717;20.12231469;0.233728768
-0.560352618;7.813366026;8.566240986;-12.87822526;-10.78934776;0.118175036;31.17839832;-14.06622483;-16.81128634;24.17317994;-25.83372881;-36.7441331;-17.9264773;-8.549625412;-15.197859;6.022300266;6.945093188;18.5578686;-1.136935442
0.144398435;8.259680741;2.429999122;-13.41913541;-9.828400787;0.160277918;23.57721814;-12.68498283;-13.66326634;6.472286685;-13.6483717;-35.66618635;-17.1624901;-7.576922341;-15.44692412;7.88714702;6.560656252;17.45078019;-1.535159668
-0.422983088;10.85474503;3.509155429;-11.96505712;-8.316734117;0.120179138;1.789822703;-11.91658382;-10.68577655;-18.76019583;-1.920968748;-32.82819942;-16.70995989;-6.443639293;-15.37276244;11.12273525;6.848325916;16.61517194;-1.147088356
-1.756829184;11.78071827;11.64880596;-7.669073673;-6.447162789;-0.040238496;-24.1977063;-10.65282575;-9.191956882;-40.28093392;0.268551863;-29.92481113;-15.596389;-5.681845939;-16.54357881;12.92821498;7.230548973;15.21972891;-0.556694781
-2.715085759;8.414821354;20.3049356;-1.6712167;-4.699120554;-0.282891261;-40.04344979;-8.511819086;-9.703395005;-48.77846622;-8.28468993;-28.84262244;-13.78496628;-5.767711631;-19.98024509;11.62625126;6.929337051;12.63613453;-0.281221522
-2.540489939;1.365269621;21.35583554;3.225949799;-3.566207308;-0.487355546;-37.03042834;-6.163713629;-11.19380719;-42.011144;-19.9079551;-30.14355598;-12.06823408;-6.734654715;-24.50115494;7.857700692;5.56180506;9.090219022;-0.441621362
-1.556989996;-6.012882664;11.19583112;4.200591007;-3.222448139;-0.525393438;-18.27304132;-4.648255452;-11.58974333;-25.26447487;-24.16815583;-32.40276711;-11.19453588;-8.095028627;-27.05291631;3.962049031;3.492830127;5.62394188;-0.787486874
-0.888547659;-10.07037824;-6.347821796;0.322529252;-3.394048635;-0.359760179;3.687301272;-4.333992173;-9.301824268;-7.432130004;-16.0966217;-33.10760997;-11.10627531;-9.190877873;-25.03478228;2.176276144;1.635374675;3.427542771;-0.989263125
-1.40650602;-9.304790247;-22.40660798;-6.67610999;-3.563597194;-0.08169087;16.03367629;-4.502661236;-4.599614649;4.255031199;0.015582676;-30.60065196;-11.00567082;-9.71461554;-18.74727009;3.10865903;0.798948117;3.044452003;-0.918319445
-2.835970939;-5.052478283;-29.00809428;-13.42928703;-3.375447788;0.149804283;14.52755088;-3.989484299;0.356770914;7.526025087;14.04412972;-25.58487221;-10.16923623;-9.959932931;-11.76382139;5.553215096;1.058220151;3.996758839;-0.698667739
-3.87694421;-0.211105066;-24.23315653;-17.07403986;-2.935302795;0.220091553;5.4749686;-2.342996645;2.97961505;4.934101945;17.68138752;-20.88262905;-8.733468053;-10.55977017;-8.633292083;7.566594908;1.642502408;5.06221376;-0.542275878
-3.330922777;2.784304261;-12.94049302;-16.92573395;-2.753910088;0.132641456;-0.228769644;-0.442693087;2.127739236;1.182643414;10.20985659;-19.44117464;-7.686255116;-11.89100883;-11.5622207;7.833226962;1.480881117;5.016625122;-0.555188063
-1.289279693;3.227902628;-2.773204244;-14.46938281;-3.348443284;-0.010353014;4.056221531;0.075514747;-1.073914361;0.028474457;-1.795379448;-22.0201682;-8.001957018;-13.62031434;-18.68386215;6.346777488;0.037315625;3.397604642;-0.683289785
0.721906758;2.022835868;1.357239913;-11.79022952;-4.791139407;-0.095256056;15.82660924;-1.796498943;-4.11259962;2.527466351;-9.979823897;-26.38293682;-9.635617694;-14.77899326;-25.32978534;4.154131195;-2.182018674;0.852710612;-0.805233459
0.914693877;0.661078985;0.16026384;-9.820820425;-6.563352615;-0.074787522;25.80783934;-5.398923216;-4.95237911;7.165068797;-10.16722524;-28.7417117;-11.26916919;-14.35132394;-27.33518123;2.616295233;-3.860997067;-1.139242665;-0.847430287
-1.169049913;0.23833797;-1.685785499;-7.885752489;-7.862946084;0.021894065;25.16532486;-8.67256083;-3.418686931;11.31188938;-4.244281536;-26.46536927;-11.11992005;-11.96572211;-23.81119525;2.781219752;-3.728787089;-1.059720188;-0.810739801
-4.041149999;1.064113795;-0.033728099;-4.864960062;-8.16835138;0.138079488;11.8205765;-9.653202748;-1.09996999;12.97504354;2.735062784;-20.02804132;-8.257358089;-8.202353277;-17.32450655;5.097828659;-1.457277868;1.746670815;-0.719786659
-5.320499964;2.791436605;5.202059193;-0.84452506;-7.644458086;0.239251643;-8.519102534;-8.052748396;-0.0156387;11.91470372;7.043683514;-12.71233851;-3.43563658;-4.318984663;-11.57361583;9.328270267;2.031781722;6.570882013;-0.590770202
-3.746642892;4.714311443;10.3078819;2.357353898;-7.062974244;0.317660857;-26.61807012;-5.623436793;-1.246767825;9.606739944;8.438130587;-8.288371549;1.211125721;-1.606913458;-8.614990645;14.51272581;5.077386614;11.588565;-0.471470819
-0.49504283;6.058495437;11.4057514;2.448747683;-7.255504555;0.361281115;-35.54827111;-4.9157414;-4.577695702;8.111805152;8.697407272;-8.425431111;3.421255266;-0.805949729;-7.854860597;19.09969677;6.267715513;14.79696086;-0.492652993
1.476184898;6.325580707;8.217902227;-1.245147343;-8.471935179;0.33628959;-34.00646554;-7.32460145;-9.158431016;8.540778553;8.666308665;-11.74756768;2.133060513;-1.898318314;-7.34736252;21.45766929;5.247895371;15.12840308;-0.822565287
-0.21964357;5.679618888;4.621492091;-6.686890607;-10.11174208;0.214961992;-25.60529495;-11.93288221;-14.26904434;10.18144582;7.011961847;-15.12134322;-1.999097409;-4.29675963;-5.949352412;20.70170579;2.839247899;13.0522021;-1.507637877
-5.105427367;5.088065322;5.364596264;-10.17367199;-11.04939982;0.025226689;-15.65980981;-16.08615503;-19.31898556;11.0705802;1.903466252;-16.04566814;-7.161535475;-7.19884455;-4.297301985;17.3437068;0.454270745;10.25484964;-2.330593331
-9.554097204;5.877525676;11.6090444;-8.923989147;-10.35844506;-0.136575725;-8.142633468;-17.30418801;-23.17675383;9.799543487;-6.203706976;-14.26353774;-11.51782405;-9.860171984;-3.818075031;13.19392554;-0.743652119;8.589282512;-2.858940402
-9.040833195;8.77930785;19.1171546;-3.229899989;-7.952155599;-0.16140104;-4.444414316;-15.09657157;-23.83433262;7.228382608;-13.67574138;-11.47305432;-14.11170922;-11.70050906;-4.868903153;10.41403985;-0.375875084;8.994493447;-2.716076369
-1.477994918;13.1161133;20.8989467;3.600263196;-4.708457137;-0.016038488;-3.817773604;-11.31742904;-19.29704667;6.512921136;-15.95926956;-9.592213832;-15.01859301;-12.32323104;-5.907952984;10.30629902;1.191935363;11.10770122;-1.890616554
10.82088081;16.90791603;12.53879722;7.597622264;-1.993730301;0.213861392;-4.478288041;-8.805280218;-9.420285797;10.92022922;-11.24059799;-9.122445597;-14.84186723;-11.56040727;-4.619530279;12.69820722;3.299834615;13.77376158;-0.814051752
22.14563216;18.06120501;-3.884459067;7.039206371;-0.89513917;0.375721559;-4.605216307;-9.33539505;2.787859096;20.72378449;-2.275746562;-8.92288973;-14.08449628;-9.559841318;-0.066166822;16.33936855;5.437014035;15.98439866;-0.093719415
26.82428762;15.87046993;-20.48039307;3.672399512;-1.642410163;0.365309562;-3.093977581;-12.38527116;11.90640191;31.6031158;5.396736167;-7.436199995;-12.88617698;-6.824857811;6.096403082;19.90817665;7.363338717;17.48619011;-0.077922758
22.74306085;11.64041957;-28.57527454;1.311001382;-3.549019516;0.21241927;-0.045465095;-15.5594351;12.97491577;36.28490846;7.542772542;-4.206603851;-11.21296677;-4.110306914;10.57039318;22.75220977;8.922859307;18.62273601;-0.599804489
12.52075768;7.820019531;-24.48941454;2.893066912;-5.459223104;0.061678185;3.286711453;-16.28831333;4.766103313;28.88561644;4.285103666;-0.3779319;-9.196363235;-2.173530433;10.8839274;24.79851777;9.830288514;19.65130759;-1.124780402
1.613271661;6.236474272;-11.85;8.251450777;-6.395087045;0.059328168;5.340649696;-13.55241812;-8.956311353;9.183947366;-0.362017386;2.196547653;-7.253031034;-1.490135154;7.35675311;25.89325428;9.701264912;20.22308394;-1.193847376
-5.18796912;6.819284539;1.192402321;14.23325544;-6.031582967;0.23749578;5.503535357;-8.480344791;-21.39333453;-16.30443067;-1.993590079;2.416461136;-5.878188931;-2.080567984;2.899065618;25.39457244;8.338447504;19.54870245;-0.79409337
-6.382993644;7.858382948;7.702894612;16.95611759;-4.785659693;0.49079559;4.764771496;-3.554446671;-26.76221132;-37.55736127;0.626534728;0.725489761;-5.326042355;-3.533615206;0.7689967;22.59104225;6.015336557;17.12900536;-0.338060308
-3.887332381;7.568260531;6.432799138;14.40952859;-3.543452597;0.661973104;4.97993737;-1.105504127;-23.69326108;-46.66683144;4.830876555;-1.379925525;-5.482376777;-5.207421878;2.105777657;17.65100702;3.459698294;13.38047642;-0.269088766
-0.977039997;5.607833452;1.920682906;7.511055554;-3.212802397;0.662170703;7.152666162;-2.117125299;-15.62127005;-42.17274504;6.520199364;-2.639928623;-6.037215945;-6.505677735;5.209600825;12.14097232;1.471611173;9.527821936;-0.643924828
0.13258957;3.238305492;0.464291311;-0.926238697;-4.315393782;0.526922956;10.25562881;-5.966043202;-8.018630728;-29.30421827;3.553252326;-3.012869823;-6.778942766;-7.103079542;7.053195259;8.372884598;0.426106222;6.760614518;-1.074902909
-0.682525444;2.007323487;5.165866377;-8.246226787;-6.76616075;0.370155567;11.9073431;-11.01724994;-4.626125555;-16.19408063;-2.795773002;-3.574495782;-7.723587546;-7.027827511;5.679612784;7.845315674;0.0398381;5.322719404;-1.098848962
-2.199723746;2.186353027;13.67138412;-13.36189461;-9.899393709;0.287470635;10.598366;-15.52659048;-5.45402321;-8.84860631;-9.274901445;-5.499301172;-8.96022275;-6.578732501;1.513313772;9.965476478;-0.395915018;4.322317759;-0.647718092
-3.314685368;2.449920547;19.99322583;-16.64372557;-12.72467663;0.296418814;7.509041688;-18.32258168;-7.796762487;-8.240058594;-13.410637;-9.01789841;-10.37825864;-6.134339461;-3.345066398;12.20071324;-1.468163284;2.481638677;-0.1804837
-3.840626663;1.182526195;18.79374302;-18.75318349;-14.32348413;0.356276268;5.979593142;-19.06771746;-9.095941435;-11.06778517;-15.06441465;-13.18640216;-11.57743887;-5.96744774;-7.028324073;11.73544627;-3.185390735;-0.745373612;-0.318145879
-4.152006724;-1.726218367;8.975329924;-19.64880987;-14.22918864;0.430573544;8.67967469;-18.1885728;-9.146368431;-13.0429394;-15.62746824;-16.57916631;-12.10946132;-6.173002291;-9.283111982;7.45962532;-4.958819905;-4.596519816;-1.270578622
-4.363614671;-4.306802043;-5.711804571;-18.61670845;-12.61043413;0.519536434;14.83326903;-16.62457262;-9.899182154;-12.03331586;-15.96554248;-18.2792968;-11.88325714;-6.737601068;-11.21850923;0.765388292;-6.039801036;-7.457060311;-2.559942703
-4.088733849;-3.890488766;-19.02573436;-15.14;-10.151242;0.629632971;20.24236929;-15.46302571;-13.25920377;-8.990509491;-15.29433011;-18.38807199;-11.36707871;-7.667377187;-13.853683;-5.469871819;-6.081631725;-8.005927502;-3.321293625
-3.073734279;0.556246274;-25.64818426;-9.697560458;-7.683630349;0.72104926;20.61699596;-15.49990142;-18.96599187;-6.520658034;-12.11921572;-17.75551758;-11.33881977;-9.034571058;-16.93138853;-8.902044285;-5.39701295;-6.157802605;-2.970786279
-1.947050393;7.128275993;-23.52369837;-3.753396997;-5.786046088;0.704787654;15.61458367;-16.86035205;-24.48483532;-6.609940139;-6.279239679;-17.27501821;-12.30228324;-10.86597657;-19.11327435;-9.157989283;-4.71481798;-3.088501492;-1.695601606
-2.040393577;11.98812921;-14.19241268;1.002817526;-4.590846805;0.514110707;9.869944258;-18.90155465;-27.00931421;-9.245636196;0.003243145;-17.34339814;-14.00385125;-12.9484562;-19.32136953;-7.647578062;-4.622363284;-0.378703632;-0.341291107
-4.099001642;12.07493349;-1.601028068;3.473942144;-3.901614168;0.193023857;9.515352864;-20.53425674;-25.79423288;-12.63672546;3.284538013;-17.81911683;-15.46738863;-14.74340238;-17.90558223;-6.080791395;-5.11714823;1.011934928;0.233969689
-6.941592782;7.417576554;9.561222345;3.420563947;-3.497706571;-0.090447158;16.63715892;-20.83649305;-22.73030799;-14.49981759;1.424179345;-18.33588531;-15.59286403;-15.56068467;-16.48556207;-5.05266963;-5.60525113;1.170264807;-0.183214544
-7.537508302;1.163848083;15.32267023;1.17979027;-3.370212917;-0.143792362;26.3695892;-19.59479133;-20.6085913;-13.37611683;-4.696802901;-18.59196482;-13.91557679;-14.94278769;-16.56135534;-3.881735499;-5.34443689;0.845643065;-1.033235741
-2.975118898;-2.75875382;13.57139485;-2.66432824;-3.702944739;0.102088818;29.62781873;-17.42;-20.57671275;-9.28527692;-11.77477266;-18.3959282;-10.96430807;-13.00244373;-18.15508191;-1.699507415;-4.001119703;0.708502335;-1.485802654
6.898728346;-2.512487507;4.852066404;-7.27237176;-4.634724144;0.517883785;19.9185155;-15.3724458;-21.06948291;-3.625625286;-16.4742996;-17.57613591;-7.937822094;-10.43269663;-19.75779189;1.335632168;-1.917421574;0.904212246;-1.144628599
18.32456147;0.518096241;-7.54574011;-11.36445859;-6.032075643;0.847867602;-1.00645686;-14.37263331;-19.28238757;1.449984146;-17.53844688;-15.99634573;-5.933865769;-8.125212621;-19.68736628;3.89423926;0.089941308;1.179787719;-0.358359272
25.31496565;3.159519418;-18.68532906;-13.37976023;-7.49727877;0.884986608;-23.3909686;-14.79498684;-14.03611331;3.94778342;-15.89637308;-13.74;-5.304636783;-6.639209009;-17.6644108;4.570097656;1.236330254;1.307353401;0.119052711
23.41660449;3.169579844;-24.17312271;-12.23417338;-8.630919663;0.616165856;-35.82205696;-16.44763466;-7.542573138;2.987747836;-12.949278;-11.24939597;-5.5987419;-5.9049985;-15.16393635;3.206755341;1.219189287;1.313787135;-0.182768089
12.9769845;0.951353294;-22.402722;-8.243764988;-9.332586285;0.224505273;-32.97354839;-18.82393227;-4.330009766;-0.619409486;-8.896030817;-9.158776493;-6.071094182;-5.382740429;-14.15279184;1.195493817;0.322976291;1.310726659;-1.013515955
-0.619745614;-1.115069401;-15.38575089;-3.366302758;-9.866309321;-0.050469649;-18.84109164;-21.3474011;-7.891017326;-4.653806734;-2.849673167;-7.839487917;-6.293219521;-4.542588105;-15.26596016;0.388235634;-0.842944646;1.181000515;-1.602723764
-10.2291398;-1.047453669;-7.413711055;-0.275901426;-10.60206875;-0.080558573;-3.161789997;-23.44884108;-17.616798;-6.716625441;5.312324903;-7.024140693;-6.351559781;-3.278012169;-17.03413786;1.524463784;-1.748990143;0.541807157;-1.337320317
-11.59966603;0.773330496;-2.300832427;-0.722152228;-11.62535408;0.084921575;5.875231637;-24.5633558;-28.58461244;-5.758896212;13.24491459;-5.93098713;-6.515384855;-1.931899615;-16.93298093;3.547969863;-2.213080135;-0.893030032;-0.34364109
-6.101361409;1.783321559;-1.097034652;-4.339102133;-12.54386369;0.292338178;6.798462266;-24.24613366;-34.66097197;-2.800917552;16.56116176;-3.939695291;-6.74500333;-0.954637101;-13.48077489;4.444933973;-2.395967297;-2.887291345;0.527143622
0.497214689;-0.56115911;-1.909168826;-8.869938674;-12.68421653;0.418041837;4.21530056;-22.45351044;-32.77835985;-0.15205491;11.55838098;-1.352492547;-6.561025684;-0.530609414;-7.682149231;2.915011986;-2.594423563;-4.672286704;0.318797223
2.379715936;-6.424307785;-1.886785178;-11.72719955;-11.56044707;0.445743493;3.682107267;-19.77108809;-25.20019282;0.40432176;-1.733149824;0.42884916;-5.46141059;-0.519732057;-2.599766475;-0.54570092;-3.013330335;-5.481350333;-1.294063337
-1.98119063;-13.10231723;0.274580708;-11.74347869;-9.263294271;0.434463312;6.908360284;-17.28422063;-17.9852584;-0.965955538;-18.70511844;-0.37355534;-3.540039063;-0.749064653;-1.33363409;-4.067439571;-3.659277146;-5.219751587;-3.733805832
-8.669760169;-16.88489912;3.371915128;-9.786969455;-6.463468338;0.429043965;11.24570358;-16.02252864;-16.67501577;-2.361325924;-32.43959012;-4.663992148;-1.710162866;-1.338846156;-4.949899897;-5.952228812;-4.378281177;-4.653912563;-5.911770664
-11.21190824;-15.80524125;5.044301254;-7.810078125;-4.016781946;0.410994698;13.21652066;-16.3013525;-22.31771744;-1.895071615;-37.55890956;-11.56275608;-1.223369321;-2.690890434;-11.89606573;-5.999905857;-4.967917487;-4.867207621;-6.96116022
-5.410629618;-11.09714786;4.221898266;-7.151924866;-2.468475304;0.336005398;12.24889562;-17.47277192;-30.71985967;0.525369436;-32.92803714;-18.56945327;-2.784880379;-5.079816712;-19.21310567;-5.488393292;-5.28338859;-6.373951952;-6.749077812
7.358161435;-6.243372222;2.448014074;-7.493004983;-1.825959786;0.210420855;10.99347068;-18.362254;-35.45251519;3.051840168;-21.50723873;-22.82691741;-5.970899556;-8.196571656;-24.45926514;-5.871167192;-5.298434732;-8.630393084;-5.824669532
20.7358423;-4.425348925;2.724534811;-7.286835393;-1.744874377;0.116205078;12.1912548;-18.14216909;-32.42181005;3.645224429;-7.951014992;-22.73177066;-9.47026779;-11.1105029;-26.83957237;-7.368181104;-5.115068433;-10.3891645;-4.924423807
27.40514041;-6.37882506;6.659361243;-5.253065592;-1.937982425;0.145404392;15.50682765;-16.99999947;-22.74888051;2.187069978;3.885053415;-18.86137337;-12.01076489;-12.79375814;-26.8665772;-8.695821395;-4.918414877;-10.63576407;-4.470826199
23.71509885;-10.20273902;12.32286058;-1.648131432;-2.445947577;0.301139275;17.72823035;-16.0528815;-12.01585459;0.895466686;11.79136181;-13.62464732;-13.23819781;-12.84434592;-25.17945965;-8.165252227;-4.874351476;-9.335359565;-4.430352827
11.79541444;-13.03594159;14.9038066;1.758036351;-3.541245579;0.467129268;16.2886965;-16.51389742;-6.565808144;2.396332516;14.50550698;-9.881094863;-13.8207506;-11.80589912;-21.7868816;-5.181807879;-5.00155138;-7.366818831;-4.545721977
-2.049128955;-13.10642509;10.0958709;2.980131462;-5.35793647;0.492137157;12.53711064;-18.7106168;-9.531488467;7.027256969;11.00889592;-9.415072603;-14.68968057;-10.76316887;-16.46468516;-0.843870975;-5.099148413;-5.715576674;-4.651839485
-11.28605576;-10.58013096;-2.194535578;1.328934985;-7.581939231;0.326382766;11.09659793;-21.71101771;-19.23458463;11.95563694;1.06156474;-12.17342219;-16.08013396;-10.49055616;-9.856848442;2.863426479;-4.815110406;-4.635784364;-4.775818399
-12.67244443;-6.816860661;-16.81151781;-2.064765712;-9.497887589;0.086764646;15.31176797;-23.87967748;-30.73016092;13.33983116;-13.44465279;-16.60832018;-17.24570389;-10.8391953;-4.070702111;4.576132525;-3.858747736;-3.511449149;-4.976833463
-7.233337396;-2.975628358;-26.17081566;-5.075504497;-10.4006269;-0.020437551;22.8518058;-23.98964865;-39.06528947;10.00592663;-28.03794714;-20.74885318;-17.1644385;-10.88897215;-1.912100055;4.491525181;-2.235754872;-1.524458858;-5.14176303
1.3870099;0.724160282;-25.200849;-6.035411727;-10.07612915;0.133705112;26.03546469;-22.09151802;-41.87967593;5.361126604;-37.36891758;-23.24662464;-15.66988965;-9.766180577;-5.088425824;4.007617299;-0.323543791;1.47841137;-4.979813483
9.524088666;4.580355113;-14.87575703;-4.659255322;-8.982205625;0.484074282;17.53418337;-19.51619934;-39.82250298;5.31197352;-38.33383288;-23.80356141;-13.98717893;-7.454741736;-12.71053441;4.457937503;1.311375335;4.703237588;-4.247772282
15.10003906;8.460787762;-1.641917854;-1.817236506;-7.972481638;0.810399815;-2.915016875;-18.01846122;-35.0541747;13.24888236;-32.23328147;-22.90158956;-14.06763594;-4.910188347;-21.37353607;6.058676264;2.260053711;6.974217244;-3.000777206
17.51056829;11.40190835;7.01140518;1.480735946;-7.740479813;0.906806504;-26.68681692;-18.66691775;-29.40068579;26.0238124;-23.94514826;-21.21484284;-17.10774069;-3.36030907;-26.97871221;7.905000903;2.534647521;7.654174241;-1.62582399
16.60739774;12.21626022;7.694490727;4.92488415;-8.3610297;0.742712769;-41.55205406;-21.21653924;-23.62889852;34.66270852;-18.41451771;-19.19403637;-22.39694134;-3.367050165;-27.13782529;8.881971581;2.530585351;7.111004316;-0.606516834
12.18048096;10.54846165;3.213166329;8.861443728;-9.23264449;0.480076904;-40.31384791;-24.30879329;-18.08171323;30.09018666;-17.12310604;-17.05790038;-27.49526526;-4.436148917;-22.51486599;8.589635842;2.687656844;6.324955505;-0.206123502
4.582624703;7.353544023;0.059602617;13.49471669;-9.446185333;0.334152537;-25.9456345;-26.27110297;-13.67288285;10.00398136;-17.44327852;-15.05033651;-29.74953948;-5.499305751;-16.1952962;7.480581996;3.099342831;5.997294453;-0.324344707
-4.206809541;4.286006214;3.158793799;18.14184825;-8.331407274;0.398908605;-9.027032526;-25.9610946;-12.01164783;-18.35096949;-15.48594774;-13.61654984;-28.08675987;-5.846082232;-11.57164148;6.217207629;3.39107448;5.964530903;-0.627004851
-10.4750643;2.490951705;11.8081243;21.29619296;-5.846363328;0.586157114;0.434294139;-23.20201696;-14.32541069;-42.01172002;-10.05126332;-13.25128337;-23.74767088;-5.694553148;-10.24749443;4.986360285;2.998371337;5.445491743;-0.816630246
-10.38404936;1.846591612;19.89316728;21.54816682;-2.605296055;0.724460088;0.114390969;-18.71393315;-20.05298749;-50.31546856;-4.190757091;-14.07993025;-19.39603762;-5.904972357;-11.36130601;3.483824108;1.655497638;3.89437246;-0.812947419
-2.546715221;1.305721193;20.2869443;18.66126678;0.429390479;0.722163378;-4.200184024;-13.7374425;-26.44180687;-41.44917261;-2.794143662;-15.50709678;-17.26643391;-7.094285584;-12.64236078;1.555252314;-0.290713455;1.67284669;-0.720773154
10.29830762;-0.008521939;10.20967055;13.92806729;2.393186483;0.644785056;-4.711046701;-9.588360953;-29.78477618;-22.91999408;-8.051470429;-16.29444591;-17.72746681;-8.947638503;-12.27763564;-0.22847101;-2.023446424;-0.106866701;-0.662566429
22.09547189;-1.971438023;-6.411825617;9.466302967;2.874273113;0.638464141;1.38269713;-7.253206062;-27.62411063;-5.886691532;-16.70007813;-15.16953247;-19.28049505;-10.36919335;-10.18865848;-0.775739892;-2.792065203;-0.489339509;-0.655881842
26.69596166;-3.647204509;-21.33825545;6.921187504;2.034340958;0.774052418;10.00330434;-7.048959557;-20.39037183;2.235098599;-21.7557666;-11.68026897;-19.88887764;-10.38867579;-7.883020994;0.571224143;-2.456867507;0.426839794;-0.639333002
21.58093196;-4.297836001;-27.42472154;6.488913785;0.478523901;0.960956191;14.64576115;-8.430636603;-11.25289006;1.550629845;-17.77734444;-6.759471863;-18.54540336;-9.06411139;-7.164925079;3.154067929;-1.620679139;1.398173924;-0.58612867
9.555756246;-4.228956685;-23.13276068;6.942160206;-1.042219804;1.017516332;12.69188172;-10.12478964;-4.229818984;-2.332309327;-5.598288104;-2.549038909;-15.89906677;-7.584954469;-8.799968222;5.085333855;-1.221120208;0.893296153;-0.559763736
-2.902964618;-4.619658286;-12.99389498;6.618883697;-1.961064131;0.840641721;7.683429531;-10.69673551;-1.871825301;-3.758223485;7.444792875;-1.445467221;-13.58773442;-7.428902053;-12.15250805;4.429466007;-1.866616209;-1.753634825;-0.641001092
-9.693617352;-6.425454463;-3.925109748;4.665409993;-2.118318294;0.521548002;5.633622472;-9.373060597;-4.114832725;-1.295450024;12.35278565;-4.83224211;-12.94469387;-9.217203707;-15.96545986;0.633114304;-3.403531417;-5.805758197;-0.805801242
-8.853212454;-9.350039063;-0.313787873;1.667963046;-1.782487787;0.29518666;9.099187377;-6.640729477;-8.977957421;2.203601173;4.893387401;-12.22890843;-14.14106221;-12.1790127;-19.52342009;-4.942443978;-5.035520805;-9.62751035;-0.90148154
-3.480891575;-11.90460436;-1.51201467;-0.755402693;-1.464223505;0.355152574;14.79359238;-4.134238519;-14.38170817;3.002084981;-11.26070393;-21.40194117;-16.33797382;-14.65211636;-23.15817412;-9.865686909;-5.90257322;-11.83105081;-0.777571115
0.791492835;-12.63737391;-3.34468831;-1.117629306;-1.623412708;0.687235683;17.08023397;-3.721815654;-19.57145867;-0.074031305;-27.11208228;-29.42485822;-18.53631968;-15.22276004;-27.63419006;-12.2377345;-5.684697223;-12.18506021;-0.463426388
-0.021670562;-11.52007813;-2.093045915;0.814550103;-2.431025134;1.065426151;13.9503196;-6.281932291;-25.05917258;-5.024833996;-34.66843987;-34.0873653;-20.2961779;-13.6252262;-32.92985048;-11.83459347;-4.786907185;-11.63725009;-0.211911788
-5.388854155;-10.21574132;2.381583833;3.715013542;-3.713881535;1.220080566;9.487057191;-10.98083874;-31.28172129;-8.885631578;-32.20683335;-34.83035499;-21.7432305;-10.761162;-37.52070559;-9.969770417;-3.989197562;-11.51768781;-0.331728467
-10.70589742;-10.82722808;6.816762066;5.45818048;-5.091700553;1.043884365;9.963847904;-15.61551148;-37.27053419;-10.25290994;-24.60784709;-32.69294859;-22.99708168;-7.92635781;-38.96371796;-8.307163197;-3.848999064;-12.58777265;-0.926141564
-10.6891153;-14.04803662;7.684071975;4.487226491;-6.190928755;0.670128587;16.88592297;-17.88511179;-40.6356837;-9.721977362;-18.82993724;-29.40120063;-23.67671191;-5.926040632;-35.5576229;-7.656617734;-4.313316317;-14.62375112;-1.762472149
-3.266573534;-18.26745657;4.515766228;0.901879587;-6.783321057;0.364532174;23.72461054;-16.78423154;-39.06429007;-8.189867565;-18.33299547;-26.26362695;-23.01578915;-4.748694241;-27.88899424;-7.684099936;-4.813910291;-16.72443447;-2.405724628
8.784679405;-20.52078387;0.544846434;-3.483552442;-6.778478177;0.323301205;20.30404698;-13.1804155;-32.20710709;-5.203173012;-20.85442089;-23.59465241;-20.50800371;-3.921071003;-18.96611138;-7.605380797;-4.739518942;-17.97418784;-2.530157148
19.54932436;-18.69298753;0.036365184;-6.206015782;-6.130480027;0.539232774;1.904577587;-9.17647177;-22.37777775;0.549020535;-21.03652341;-20.93986833;-16.48116311;-3.095043531;-12.5820339;-7.093860744;-3.904859433;-17.92310635;-2.165253937
23.75210309;-13.28806886;4.469989521;-5.672855305;-4.785999588;0.831829625;-24.74054037;-6.695154251;-13.33344888;8.809527711;-15.45115578;-17.77466046;-12.0407902;-2.306355883;-10.90043161;-6.543700457;-2.669555947;-16.62985003;-1.679109819
19.9552468;-7.308642285;10.77519718;-2.114061319;-2.744707117;1.000156447;-44.54630532;-6.255714114;-7.911794052;15.90752475;-5.763512312;-14.04714935;-8.378133097;-1.739617214;-12.98731565;-6.516710991;-1.653568047;-14.42546021;-1.515769618
11.08871596;-4.227502051;13.25175213;2.700793487;-0.173555141;0.966818708;-44.80093933;-6.753679288;-6.26540947;15.96601564;2.525645831;-10.14985699;-5.99640177;-1.329365731;-15.46818605;-6.999244977;-1.30374794;-11.72038111;-1.899313499
2.203337582;-5.547927564;7.862379411;6.790430015;2.562782551;0.80707275;-25.1954973;-6.332093066;-6.047435915;5.045768573;4.628165442;-6.434525554;-4.477562358;-0.662325233;-14.96927155;-7.26325287;-1.650142472;-8.999079847;-2.729308154
-2.777652227;-9.813930783;-4.384225736;9.372568928;5.037857582;0.663865348;1.278383877;-3.680798918;-4.418218894;-14.82187086;0.530425502;-2.784061971;-2.944918616;0.680438638;-10.60819312;-6.521426027;-2.404997634;-6.865307192;-3.71774694
-3.068067677;-13.82422519;-17.642591;11.30115009;6.995123398;0.638225172;17.85877153;1.140794916;-0.318005763;-35.31892424;-4.732455666;1.307697899;-0.799658134;2.660442133;-4.644087936;-4.766429981;-3.271646347;-5.923125696;-4.617648242
-0.69241541;-15.09046324;-24.99465637;14.17994172;8.488850245;0.743307891;16.64531783;6.851500691;4.767857285;-46.25677464;-4.801952324;6.16703923;1.876505776;4.665388757;-0.707309416;-2.950484469;-4.179742947;-6.477402567;-5.342935949
1.518993207;-13.62573005;-23.0224759;18.81668724;9.787429853;0.935322499;4.199646566;11.84142589;8.132067991;-41.96777306;3.212607997;11.37361722;4.522122416;5.90546525;-0.884842622;-2.238789183;-5.25711324;-8.293865396;-5.909624179
1.927655925;-11.713454;-13.85853954;24.22821819;11.07660151;1.164885612;-4.450521502;15.10198535;8.165561446;-25.08180175;16.53814786;15.74764485;6.636972777;6.016842879;-3.911035409;-2.950446298;-6.591926379;-10.69007813;-6.305632292
0.730014648;-11.92858986;-3.345791484;28.0260853;12.18452988;1.391605826;1.476870411;16.56505434;5.773445594;-4.83123757;28.67054959;18.01377707;8.14776621;5.361170831;-5.971259485;-4.170357094;-8.022011742;-12.97187887;-6.451391219
-0.853692367;-15.05402991;3.128981497;27.95964789;12.57136964;1.562696763;19.45050893;16.74771337;3.706894586;8.947732745;33.80248146;17.68568629;9.304260737;4.759683931;-3.645411102;-4.49256769;-9.161544058;-14.90893396;-6.300314289
-1.865548332;-19.56150504;3.95630556;23.47980566;11.64273899;1.605460219;35.51125888;16.12497056;4.321123958;11.79894682;30.40427513;15.47269906;10.26691516;4.881456219;3.205049742;-3.354559575;-9.667354394;-16.86394719;-5.965300628
-2.268304039;-23.00995875;1.499097091;16.14603313;9.189537419;1.469352893;35.41635582;14.78003906;7.56654745;6.474498088;21.54496778;12.83275329;10.81098246;5.789221901;10.8874814;-1.816287941;-9.533272057;-19.44463158;-5.710779764
-2.628062953;-24.14179401;-0.557859469;8.583752246;5.630385249;1.190350604;15.90449706;12.55813012;10.86212946;-0.262083461;12.16180395;10.95351697;10.42680375;6.990141465;14.24162276;-1.99970605;-9.157882449;-22.93337639;-5.772482886
-3.346925503;-23.90779437;-0.292883427;2.809923483;1.851361784;0.906852575;-12.85498573;9.483254273;10.99745864;-3.019035728;5.651084312;9.916132457;8.712112269;7.896163745;10.26163837;-5.486384358;-9.096411717;-26.93507546;-6.145414687
-4.23233086;-24.55845468;1.401010072;-0.809029967;-1.275463016;0.785491724;-35.13267564;5.989878662;6.573270769;-1.220380228;2.286362011;8.691170986;5.7007419;8.267743223;0.299908655;-11.88626566;-9.653450844;-30.51359216;-6.539321319
-4.732190656;-27.54909155;2.353072036;-3.269219461;-3.37172899;0.898255277;-41.05426192;2.724041631;-0.949009075;1.59533487;0.224685123;5.993412676;1.868387536;8.275232692;-10.80245328;-18.75372282;-10.60969519;-32.70815744;-6.571084911
-4.505486208;-32.00217932;1.594521158;-5.704184484;-4.697923713;1.151783083;-32.47789232;0.089786715;-8.396866319;1.464245243;-2.193764467;1.357981077;-2.12798288;8.183096701;-18.00616826;-23.02378938;-11.29653509;-33.04807188;-6.053252546
-3.746765173;-35.04673547;0.463030058;-8.317775583;-5.865538545;1.341807382;-19.44310768;-2.02771705;-13.27402392;-2.572871965;-4.907672188;-4.383189172;-5.707525596;7.993637817;-19.32591456;-22.95981763;-10.99277054;-31.72490466;-5.139023194
-2.998758093;-33.8597779;1.338580547;-10.32145532;-7.324354407;1.304597462;-11.20125519;-4.06993041;-15.45112675;-7.910631466;-6.480130496;-9.59714008;-8.432933195;7.389246411;-16.68282329;-19.19282235;-9.390485245;-29.37;-4.195246317
