Channel 1 - P4;Channel 2 - O2;Channel 3 - P8;Channel 4 - T8;Channel 5 - C4;Channel 6 - Cz;Channel 7 - Fz;Channel 8 - F4;Channel 9 - Fp2;Channel 10 - F8;Channel 11 - Fp1;Channel 12 - F7;Channel 13 - F3;Channel 14 - C3;Channel 15 - T7;Channel 16 - P7;Channel 17 - P3;Channel 18 - O1;Channel 19 - Pz
-46.6634583;10.15897735;75.44728684;39.85834522;27.59165819;10.2589384;84.2036697;15.56090913;18.94958501;66.43618108;66.64141334;9.724076975;9.599637852;9.018721568;1.969975499;25.0304982;-0.802423013;26.68829974;6.115124246
-46.04228134;5.287250603;65.71042075;46.98387297;31.96660159;11.36895566;80.78681143;24.25761661;28.92560159;71.18769443;83.04487876;18.09306945;15.53604215;15.4656616;17.72476028;31.33918773;5.522360719;29.76310942;5.420254439
-35.62711024;-0.908663779;30.82040642;36.40838608;24.6489081;9.152102198;53.97404832;21.87403386;31.38436422;50.66990773;82.77311757;24.36943702;16.65706133;17.83319865;26.79298455;29.95157443;10.68732995;23.35833851;2.944669722
-21.79127265;-6.906982712;-9.572060562;14.67616247;9.795710711;4.434509394;17.83148445;10.91283564;24.66052146;14.25083434;59.90751526;25.65419611;12.35012615;15.47079055;25.73723663;21.31232729;12.62147451;11.29317742;-0.749070179
-10.79120745;-12.34963772;-33.25475871;-5.318351573;-4.14390208;-0.50103104;-8.159504222;-1.3023287;12.51999327;-21.51382197;19.14252749;22.1850916;5.004652773;10.33011919;17.25681216;9.306750073;10.9574254;-0.153989384;-4.402241839
-6.056520269;-17.40135786;-31.0560485;-13.47098327;-10.05353775;-3.261753404;-11.7272885;-7.639522631;2.310751942;-42.80964539;-25.84376788;17.07184113;-1.334217995;5.796360372;7.733113633;-1.267939546;7.410406614;-6.798020131;-6.557431833
-7.348563925;-21.75943802;-11.97034698;-9.232150008;-6.681675165;-2.855803837;4.004587919;-5.769387857;0.204438489;-45.56525052;-59.26956525;13.81458843;-3.523106097;4.489629869;2.59771365;-7.587809722;4.667365137;-9.135153593;-6.427862529
-11.72772588;-24.41870884;5.667503363;-0.676628038;1.204472022;-0.290293065;22.88989671;0.932929831;6.902268818;-35.42593741;-71.19722589;13.69906939;-1.292414829;6.582701335;3.038703495;-10.05786031;4.533271525;-10.9810672;-4.52588331
-15.49411713;-24.42129244;9.158307618;3.142645138;6.93782416;2.209598078;27.33607651;6.588401054;17.10536831;-21.93238405;-61.82193387;15.21105629;2.826055134;9.893323012;6.290282277;-11.16868579;6.751047047;-15.39419912;-2.442414793
-16.10768945;-21.78340311;0.226081955;0.026074372;6.9840411;2.810532433;10.86226136;7.402430563;23.33052975;-11.91132277;-39.94156095;15.81311462;5.558690933;11.69436726;8.812068891;-12.97691983;9.429193007;-21.38284383;-1.768015613
-13.31494926;-17.60999116;-8.953006719;-3.959547423;3.012915303;1.321091573;-17.49455972;4.080058594;21.32604155;-6.673291476;-17.21017336;14.3827434;5.341491594;10.8409056;9.459289838;-15.23892239;10.71604724;-24.28269528;-2.899860331
-9.060169366;-13.23391702;-8.101806006;-0.554774272;-0.296643669;-0.839228647;-40.07278773;0.492231065;13.04474818;-3.88950344;-2.102793545;12.12174081;3.260270749;8.542245533;10.01521403;-15.65535678;10.32576248;-19.6302376;-4.704273725
-6.213807419;-9.211637029;1.589701741;12.52039281;0.452019109;-1.879724953;-43.49271573;0.093319004;4.958062642;-1.338906096;2.986739609;11.20963662;1.797844148;7.184836336;12.8737975;-11.96816419;9.648738938;-7.347834221;-5.400430458
-6.726977157;-5.172305014;8.888456272;28.52415949;4.668145288;-1.075081303;-27.89110826;3.212612688;3.058459286;1.034031914;0.689437305;12.54547443;2.495885644;8.199972343;18.13592722;-4.149335813;10.39076262;7.360937568;-4.025163563
-10.28073408;-0.668457229;3.286268126;36.61644323;8.73413655;0.739819902;-5.828700912;7.292608523;8.40497237;2.009182769;-4.591365858;14.73225112;4.527163902;10.76519428;22.83827239;5.155877978;12.95356589;17.39624537;-1.285491871
-14.39684667;3.862114181;-14.66320234;30.70750885;9.480706655;1.964433258;7.758433026;9.48942399;16.55701713;1.267558025;-9.534256949;15.28935548;5.402473204;12.4462817;23.13345686;12.34709527;15.99156693;18.87996085;0.955753244
-16.11447439;7.09784984;-32.68135667;14.74098115;6.968362015;1.606089981;6.499348456;9.12770096;21.16535757;0.292634771;-12.85064801;13.00318153;3.225204452;11.26698012;17.63978672;15.39444067;17.5465106;13.93223134;1.186892997
-14.16665537;7.959551715;-36.49148312;-0.124625244;4.178658937;0.072664415;-3.852352129;7.890359663;18.81424194;1.078182551;-14.58426111;9.236285051;-1.432441374;7.479856802;9.099197462;15.14917319;16.76594638;8.838244667;-0.500630559
-10.03187282;6.846788869;-21.63701237;-4.145208109;4.069532183;-1.250933589;-11.34048481;7.821716454;11.40792187;4.080944754;-14.99634707;6.914277947;-5.680869955;3.532197856;2.829876203;14.40333844;14.6803137;9.039467128;-2.494366407
-6.917948452;5.687155598;2.656938958;3.706556799;6.77362504;-1.234361212;-7.886374628;9.187435104;4.474073632;7.604381968;-14.01664738;8.003258406;-6.456300742;2.208564688;3.084624405;15.49439887;13.32810329;14.94691137;-3.037943718
-7.308643795;6.481055131;20.76746023;15.66393065;9.492692226;0.037972835;4.589718912;10.23422398;2.93818103;9.315374903;-11.37548331;11.69521761;-2.933987595;4.447326811;10.12386252;18.41668275;13.97450003;21.88103498;-1.737599876
-10.95028888;9.444590466;22.87669877;22.04371654;9.138901595;1.392131717;16.38777393;9.019385719;7.677936135;8.434435817;-6.982094189;14.9521049;2.769418136;8.601687599;20.19807264;20.94458741;15.98304574;24.06704243;0.108610475
-14.95487558;12.40068445;11.96295789;19.06499027;5.276467264;1.631179374;18.10709626;5.507265415;15.26758489;6.452721174;-1.202708763;14.99866947;7.186309331;11.72216141;28.28154202;20.58917955;17.34281493;19.34492521;0.662280512
-16.0571776;12.14802774;0.177797445;11.13760108;0.658890881;0.586910451;7.774871367;1.871177588;20.71521633;5.674958439;4.985899626;11.62224608;8.079285297;11.78789238;31.29981504;16.71319269;16.40468015;10.76878452;-0.815579606
-13.26431278;6.869206424;-1.758731847;6.167125883;-1.15656493;-0.763061035;-8.365943035;0.615994053;20.86066093;7.026229869;9.950396522;7.279810982;5.926095285;9.088687387;29.44085463;11.05748139;13.3140258;3.915023782;-3.276711875
-8.715747519;-2.329000898;7.019545635;8.397619674;1.013533509;-1.193131334;-21.27793838;2.198192289;15.99912292;9.278271128;11.68109142;4.917372698;3.181969416;5.733096875;24.92411858;6.310151093;9.887905666;2.252321382;-4.771613102
-5.983807042;-12.0246066;17.99735928;15.07632244;4.870880462;-0.327466719;-25.8070858;4.367559053;8.999587252;10.43011112;8.649068359;5.39995091;2.060926408;3.829544079;19.70003906;3.986949349;8.045687689;4.425613494;-4.146177887
-7.17204717;-18.78554631;21.4483554;19.47268252;6.62020362;1.039472888;-23.32963033;3.96358897;3.093606569;9.813922667;1.005281101;6.779690746;2.75974749;3.911337424;14.18826051;3.407730485;8.163962508;5.604821451;-2.055796125
-11.21010267;-21.34542635;14.77508696;17.07748623;4.310039063;1.671657967;-19.00157091;-0.305418783;0.124108697;8.751335746;-8.758743927;6.014880868;3.567775734;4.829573801;7.928130773;2.551559641;8.77983863;1.65240488;-0.391605958
-14.7662495;-20.98807729;4.010953305;9.258020217;-0.422055439;1.004006341;-16.74247604;-6.511639269;0.177850036;9.053776983;-16.59781419;1.624246318;2.627990423;5.003624414;1.147052555;-0.047177824;7.876280617;-7.381655544;-0.616280605
-14.99736082;-20.01993101;-2.083700442;1.337558768;-3.743074519;-0.360326131;-16.41454166;-10.81401207;2.23130718;10.92624049;-19.1096453;-5.016595031;-0.283284152;3.801879059;-4.540009766;-4.038793716;4.611262004;-17.23766399;-2.482379528
-11.8103812;-19.77696434;0.479961398;-2.680895478;-2.929455761;-1.204693893;-15.12428393;-10.37963053;4.893352059;12.5901798;-15.79922711;-10.80403585;-3.519458233;1.867160481;-7.142366121;-7.682541653;0.005726278;-22.77304809;-4.275496876
-7.7586878;-19.8634467;8.425992336;-3.590900465;1.311359014;-0.79509475;-10.79173514;-5.513019652;6.775442107;12.27344891;-9.612262506;-13.41354137;-5.010893549;0.270061646;-6.123851351;-9.498835309;-3.938913503;-21.85171898;-4.367265996
-5.749974991;-19.09731343;15.26085077;-5.473223471;5.499124816;0.473133598;-4.455156629;0.698361529;6.727363006;10.63730758;-5.005388961;-12.99971791;-4.05754016;-0.561994197;-3.269281666;-9.64063092;-5.846643828;-16.74358611;-2.686628414
-6.605153021;-17.08570661;17.41081684;-10.90108105;6.377514179;1.453513252;0.63021841;4.788228516;4.303956296;10.84123389;-4.758657571;-11.70272646;-1.884154642;-1.09352462;-1.597637512;-9.768964679;-5.881935593;-12.15804309;-0.782651035
-8.560397382;-14.86834263;16.5404866;-17.72038144;3.589292256;1.296253369;1.963031625;5.28110299;0.300211244;15.45953083;-7.943249203;-11.54148749;-0.531102829;-1.952022511;-3.092550555;-11.5593773;-5.270130315;-11.71424922;-0.41443682
-9.035782483;-14.03560909;16.25528843;-20.73509221;-0.261189879;0.208237188;-0.012608761;3.171110445;-3.28665501;22.73204218;-10.74842693;-12.64091114;-1.131595391;-3.050087891;-7.143722598;-15.15965657;-5.011141658;-15.65036692;-1.937555992
-7.002344404;-15.21100175;16.97067202;-16.85727802;-2.076698962;-0.761957708;-2.365088005;0.448430711;-4.255657679;26.00997492;-9.638521519;-13.33056621;-3.10186699;-3.515628741;-11.04555603;-18.93703973;-5.050437191;-21.27579644;-3.95630599
-3.832411717;-17.39570974;14.47451968;-8.778243499;-0.966715891;-0.707010756;-2.165983555;-1.711136426;-1.673856822;18.00982606;-4.35099429;-11.90472243;-4.864378487;-2.551542477;-12.15052826;-20.72017457;-4.638765003;-25.37832136;-4.580898122
-1.96698347;-18.85143016;4.031023909;-3.354162134;1.217598825;0.297072338;1.244164965;-3.412044216;3.309237651;-2.82555933;1.726029773;-8.357857906;-5.313308389;-0.373762711;-9.871345155;-19.47514064;-3.416066278;-26.46331234;-3.173742245
-2.719301198;-18.7250958;-13.70433485;-5.748897253;1.85929558;1.266871778;5.962861111;-4.975733301;8.101723768;-29.15166656;4.157332431;-4.50989815;-4.621214064;1.767805909;-5.901300986;-16.04273785;-2.049794976;-25.24127486;-1.003027069
-5.244414542;-17.88092885;-30.86287572;-14.50081811;0.122679472;1.236360484;9.063368312;-5.728331848;10.40875308;-48.19247296;0.951398451;-2.45524844;-3.705390388;2.622599423;-2.598262372;-12.41824475;-1.715846214;-23.44788041;-0.181565683
-7.534989522;-18.10576972;-37.14339447;-22.18419876;-2.313612421;0.175273227;8.426492056;-4.138613566;9.744576684;-50.09500461;-5.874221104;-2.784327051;-3.00486379;2.107349103;-1.039799355;-10.27431244;-2.886908964;-22.32348385;-1.806877993
-8.388318051;-20.35971427;-27.72644709;-21.48585656;-2.966985042;-0.956298874;3.551295706;0.625372932;7.524554745;-35.03753484;-11.82567857;-4.17125654;-1.884959334;1.466552429;-0.434367561;-9.953572722;-4.644792483;-21.9690021;-4.953078191
-8.428003707;-23.66264245;-7.711415403;-11.59690606;-1.034212291;-1.083069951;-4.693421546;7.232039364;5.732478005;-13.36373502;-13.16363098;-4.623721164;0.652170609;2.166688999;0.738474401;-10.61122701;-5.303416998;-21.72727212;-7.423781362
-9.238833112;-25.67143555;10.90910923;0.700452396;1.73448413;-0.022198584;-14.5426552;12.4717796;5.361794913;1.736826542;-9.159233782;-3.189619769;4.608847934;4.469351584;3.058339025;-11.15232367;-3.884241873;-20.86446363;-7.610493983
-11.52851808;-24.48294916;17.54742876;6.393206479;2.629288657;1.312386986;-23.52321912;13.41824613;5.959166142;3.519846181;-1.78145424;-0.584952486;8.38616509;7.01473859;5.569968;-11.03636286;-1.098699013;-18.88246777;-5.81409222
-14.18203783;-20.08355282;10.04899957;1.594924844;0.567022115;1.719180452;-28.75023058;9.757695888;6.536689907;-4.220585952;6.414962596;1.705031655;9.723878827;7.894362385;6.778980917;-10.35209434;1.153535619;-15.48302047;-3.86875179
-15.20568514;-14.19109995;-4.886730254;-9.32390133;-2.775241364;0.807943051;-27.96949466;4.194386012;6.849435352;-11.28024472;13.98067135;2.86511922;7.530039063;6.331865126;6.212066531;-9.367913808;1.42861105;-10.64649447;-3.429997268
-13.69575344;-8.713699798;-17.64251743;-17.43363967;-4.412133711;-0.619514454;-21.1212854;0.387052639;7.738495143;-9.783036047;20.37499149;3.316059145;2.999366223;3.471935521;4.974333305;-8.212537271;0.081357758;-4.998900272;-4.483145275
-10.9074532;-4.318597095;-22.6829362;-16.53614832;-2.821247381;-1.274083779;-11.14057514;0.045097811;10.18580514;-0.309508377;24.55469432;3.934891079;-1.087008957;1.514385785;4.697839347;-7.034165023;-0.953294001;-0.022666802;-5.418530021
-9.296050019;-0.469847421;-21.06583565;-7.867784075;0.505184914;-0.545693871;-2.78529509;1.651700291;14.01109033;9.389008701;24.3949868;4.819993044;-2.424591549;1.901034274;5.838666242;-6.316361591;0.165649626;2.467375268;-4.594674705
-10.3339097;3.151606899;-17.31118034;1.528626741;2.215888412;0.928847988;0.213691467;1.9504334;17.53391225;11.5651543;18.16483424;4.939561354;-0.912661207;4.137892959;6.970521307;-6.758586838;3.499043303;1.512261747;-1.957933367
-13.13273544;5.354105109;-14.35707288;4.965292875;0.007939054;1.826286966;-2.29274558;-1.062889976;18.63847897;5.180114008;6.978193669;3.098521881;1.423952192;6.289522924;5.862124016;-8.598046512;7.145109471;-2.037505147;0.76913259
-15.20609546;3.80224372;-11.4047246;1.291453856;-5.283503819;1.329766753;-6.755298444;-6.252321459;16.35;-3.508889549;-4.358744452;-0.712075524;2.237476997;6.680965336;1.4759779;-10.99556966;8.771128842;-5.781199824;1.526674498
-14.70059375;-2.922614007;-6.119503363;-5.157039669;-10.28571117;-0.12812;-8.602123018;-10.24015357;11.52780922;-6.648990261;-9.703531483;-4.993908155;0.798467338;5.249578833;-4.89244784;-12.30233767;7.537768913;-7.284337936;-0.291499675
-12.00505254;-13.26550913;1.664107689;-9.22124268;-11.86302289;-1.255670257;-5.722465088;-10.34389079;6.088950104;-1.566047072;-5.893897262;-7.917787857;-1.610284248;3.325916362;-10.42318245;-11.31737751;4.726989368;-5.730576139;-3.291276629
-9.212447804;-22.68630418;8.803608328;-9.593477905;-9.629572741;-1.077728066;0.030311415;-7.000108292;1.529853761;7.261407931;4.389765036;-8.971692086;-3.120983406;2.104004185;-12.90090807;-8.602055436;2.537449194;-2.331686779;-5.25670424
-7.975974212;-26.22354573;11.51667055;-9.300568826;-6.043122692;0.17607122;4.53389462;-3.546063253;-1.892064584;12.45805382;13.94935283;-9.465665294;-3.14869434;1.319654622;-12.34702145;-6.562488484;2.154853738;0.857276691;-4.996285054
-7.898713212;-21.96740329;9.152206076;-11.96117831;-4.122460593;1.289295597;4.845708915;-3.518509153;-4.678395539;10.20242367;16.0539837;-11.25599814;-2.934044645;-0.511372528;-10.76704694;-7.857925396;2.843475831;2.635240891;-3.228425595
-7.126572261;-12.76216318;5.18689477;-17.71252207;-4.928219532;1.189746876;1.525422599;-7.772469612;-6.992037226;3.177644966;9.400248447;-14.76106372;-4.245572751;-4.432519087;-10.30607026;-13.15868895;2.848209541;3.30100037;-1.774591202
-4.634443843;-4.598461038;4.276951967;-22.7874306;-7.040988171;-0.046177406;-1.998321589;-13.84507588;-8.207998023;-2.254549154;-0.882050645;-18.16973377;-7.473678739;-9.544271983;-11.5119267;-20.08616448;1.217261555;3.700307386;-1.859901886
-1.881072901;-2.642916318;8.096588583;-23.05641057;-8.326839155;-1.251062906;-2.279490963;-18.01471407;-7.626002278;-1.727510423;-7.049698915;-18.8002945;-10.96788909;-13.24445277;-13.24906408;-24.466953;-1.194597879;3.742397671;-3.087212862
-1.915975183;-7.72585966;13.94501004;-18.01691692;-8.146059238;-1.247508549;1.587632515;-18.2061284;-5.523014681;3.791276922;-4.396812873;-15.59395989;-12.34861151;-13.25;-14.22370263;-23.23463348;-2.504495719;2.087603669;-3.972103815
-6.442777865;-15.85045815;17.43895305;-11.34871539;-7.833722895;0.040189204;7.681248981;-15.286447;-3.218241976;9.623340766;5.658910889;-10.50883531;-10.66108163;-9.708209722;-14.53950528;-16.85540753;-1.629737363;-2.389666854;-3.45674261
-13.54636058;-21.07197522;16.60232564;-7.52855855;-9.040058594;1.483908236;13.01970539;-11.84815755;-1.789643577;11.84924891;17.21216145;-7.339319541;-7.361837038;-5.42;-15.66102464;-9.32237159;0.591053809;-8.661711343;-1.932632837
-18.54734912;-19.63812844;13.27069339;-7.816555103;-11.66326193;1.777436534;15.46464426;-9.813446432;-0.645078706;10.10932838;24.4851506;-8.695130095;-5.110259069;-3.74588519;-18.70587644;-5.548632369;2.107829156;-13.27855746;-0.810669582
-17.71499114;-12.44488596;10.41912098;-9.507078136;-13.55823596;0.655385557;14.17326172;-9.090880118;2.328903048;6.311853133;25.48876296;-13.62481234;-5.3494665;-5.847951167;-22.70161818;-8.014028999;1.588554696;-12.65739446;-1.085340771
-11.73643384;-4.199536257;8.24923835;-9.1236998;-12.487513;-0.83384054;8.854205792;-8.334365714;8.623824462;1.195699248;22.08753421;-18.0343568;-6.870928557;-9.657633103;-24.68261593;-15.14199909;-0.258636592;-6.369346687;-2.30943701
-5.641139114;-0.081239824;3.413440096;-6.336531918;-8.508528005;-1.283574884;-0.598387474;-6.789865984;16.66401816;-7.067271344;17.2273702;-17.78520844;-6.791214495;-11.58188851;-21.92292742;-22.56953301;-1.304295798;1.536255959;-3.002633887
-4.798190935;-2.335157138;-7.180968394;-4.593908321;-4.382498089;-0.250140477;-13.16259105;-5.241327266;21.60929199;-20.24716452;12.4092099;-12.04675805;-3.226692154;-9.591549049;-14.55671217;-26.26652543;-0.08021603;4.918333643;-2.127830359
-10.20709669;-9.039285258;-21.37336569;-7.628138661;-3.338916504;1.293650026;-25.44392929;-5.078796908;18.40104505;-35.95196945;7.702772559;-4.143461903;2.667900294;-5.052070285;-6.213692301;-25.12348916;2.612868211;0.285807294;-0.20544727
-17.2797784;-15.60191687;-30.93084833;-15.12788365;-6.080878491;1.831491575;-32.17901457;-6.491073044;6.124144723;-46.83516391;3.665024952;0.862298887;7.216421802;-1.659281811;-1.797685795;-21.18495649;4.200122994;-9.843416802;1.066320115
-19.51358193;-17.73589696;-27.03812715;-21.94839066;-9.84426182;0.730118404;-29.2411293;-7.774344584;-9.962519127;-45.25410599;2.455509564;-0.066332878;7.037835367;-2.327329236;-3.967280819;-17.62774889;2.658317981;-18.07163552;0.403118561
-14.14194813;-13.93517147;-8.266717274;-22.06163463;-10.6149666;-1.104227856;-17.21649974;-6.723896273;-21.03842209;-30.10427653;6.334689529;-5.832192536;1.850532008;-6.684775106;-11.12688178;-16.27;-1.385232352;-17.37920756;-1.748986217
-4.854211113;-6.102284684;16.01660305;-13.90719977;-6.707782673;-1.992695135;-2.227182959;-2.964557198;-20.62806339;-9.546494332;14.72928619;-12.33240549;-5.140745005;-11.34796214;-18.62896707;-16.5398078;-4.81135356;-6.611071073;-3.48109347
1.018687302;1.739086214;30.84836175;-2.210963021;-0.487654006;-1.018472332;7.60181174;1.075670456;-9.439300004;3.889186215;23.08619702;-15.72435879;-9.66788764;-12.74373958;-22.27870039;-16.46138015;-4.516318797;8.23482728;-3.128204379
-1.336600668;5.684878772;26.34605829;5.638933024;3.49125529;1.073974542;7.877860921;1.804368131;4.844787206;2.711107421;25.5208119;-15.08485897;-9.633741866;-10.03947702;-21.32248072;-14.57789976;-0.18744784;18.1652716;-0.87321156
-9.993698704;3.899499176;5.503427383;5.606805108;2.454931538;2.484220597;1.280955792;-2.436382472;12.99828927;-9.345169216;19.64418953;-12.45119669;-6.482913042;-5.666923195;-18.54453823;-11.15832547;5.140197839;17.65267126;1.292927565
-17.79815377;-2.608759956;-17.62833403;0.082355307;-2.014282908;1.967708749;-4.620645633;-9.527585857;10.85615474;-20.08948227;9.331519279;-10.58886784;-3.669556068;-3.067135416;-17.53288246;-7.852734416;7.397455555;8.333908908;1.324983426
-18.46412915;-10.62540484;-28.47326369;-4.687016543;-5.212273462;-0.001964792;-3.643297767;-14.85121839;1.955031284;-18.90920518;2.377238692;-10.68235109;-3.683950901;-3.729359057;-19.52486521;-6.313979497;4.79327257;-2.863614083;-0.958660216
-11.99856337;-16.39795762;-22.92011878;-4.316523341;-3.421233604;-1.616425648;3.857946335;-14.87872433;-5.789275406;-5.786539682;4.341829465;-11.91778986;-6.258827099;-6.160058594;-22.49797291;-7.018309776;-0.702982128;-9.386287637;-3.586703802
-4.647538623;-17.50793464;-9.842596487;0.219195551;2.69678205;-1.363364583;11.53378614;-10.10898536;-6.536325854;8.614782918;13.63075089;-12.97684617;-9.195685091;-7.604179497;-23.15217247;-9.122568183;-5.00720751;-9.688889879;-4.133806947
-3.326216526;-13.9933575;-3.111288064;4.487566865;8.4981546;0.564494527;12.98545781;-4.773945167;-0.80083793;12.23819991;22.33165815;-13.68148556;-10.83504091;-6.80846032;-19.92776154;-11.2228923;-5.276314295;-7.136164251;-1.92483842
-9.422979071;-8.101461109;-9.816520339;5.793794905;9.298595357;2.400631763;7.835779318;-3.439515918;5.757626661;2.438771437;22.59524337;-15.06426755;-11.74552687;-5.18701483;-14.39599746;-12.25183813;-2.065173947;-5.738226987;1.27946094
-17.52196018;-2.803355723;-24.57159858;6.262388714;4.404591342;2.409651809;2.209523813;-7.336080751;7.613768589;-11.26288902;13.35754144;-17.86787474;-14.02644855;-5.283743729;-9.898796131;-11.90612199;1.531990417;-5.934622581;2.81230342
-20.25682181;0.009062914;-34.53207595;10.39572521;-2.368359473;0.52138042;2.790647781;-13.53253094;3.931219783;-15.25925092;1.516939416;-21.16461267;-18.92282726;-8.014821193;-8.771995761;-10.58184264;2.856333745;-4.426483587;1.507418643
-14.98238284;0.466426172;-30.60092988;19.28954511;-6.170421046;-1.536378272;9.698893312;-17.60785256;-1.495140887;-3.952860571;-3.756679178;-22.74590756;-25.09089768;-11.39987805;-10.66100366;-9.14013785;1.989024839;1.82595806;-1.225619172
-6.218560027;0.197741632;-15.09438963;27.49559939;-5.439375472;-1.795920375;15.07351724;-17.42326001;-4.486620727;14.84075627;1.126102148;-21.15513637;-29.28681348;-12.15626923;-13.32464565;-8.669373577;1.275219752;11.3542546;-2.703819997
-1.562936124;0.795799899;0.602833897;26.55547037;-3.114920564;0.09023453;9.508049933;-14.67898408;-4.686182568;26.31794292;11.0096029;-17.43938566;-28.9855635;-8.812580509;-14.99703079;-10.10675897;2.595984856;18.04756842;-1.50672944
-4.712925688;2.485338819;6.052801548;12.88109058;-3.615685977;2.427053455;-8.791208883;-12.98918166;-5.638665941;21.62360293;16.48535041;-14.70294643;-24.57341143;-3.421763549;-15.9876459;-13.63660011;5.085576879;15.8250263;1.106586303
-11.99380155;4.018212095;0.491823108;-7.210019531;-8.39026278;2.969089094;-30.4643896;-14.3769568;-10.63848679;5.887653184;12.30805892;-15.51263836;-19.06179975;-0.079978558;-18.00378473;-18.21513493;5.633003488;4.236507968;2.296506325
-15.71638027;3.803457305;-7.323373343;-20.87832436;-14.27241633;1.027128455;-41.16920043;-17.48806824;-18.38703676;-6.084455106;2.362234119;-19.36280688;-15.51522047;-1.370519115;-21.89919412;-21.83700074;1.875194875;-10.15015855;0.332652583
-11.42875088;1.274180482;-7.689324454;-18.82562152;-16.34958009;-1.764116984;-33.06828159;-19.15253494;-22.92727781;-3.024031031;-3.395782149;-22.65030347;-14.51374436;-5.906301251;-26.10093125;-22.73994492;-5.101823754;-18.30895634;-3.616027375
-2.366355308;-2.644255615;1.026504167;-3.673121433;-12.80271221;-2.828691364;-11.93405191;-17.72003906;-18.47364537;12.38025403;2.361935298;-21.50687423;-13.97816923;-9.351023288;-27.37780637;-20.82726418;-11.0921747;-15.75554857;-6.369174982
3.253418684;-6.261892378;11.14732311;11.24777809;-7.125344996;-1.022475866;6.800609959;-14.85707508;-5.05145489;25.54028137;17.41947755;-15.17721179;-11.50306705;-8.221704894;-23.41435115;-18.04413445;-12.16887699;-6.065891937;-5.632832279
-0.093239725;-8.297364869;13.23934961;12.68877878;-5.336897514;2.169862636;10.41239249;-13.91865982;10.32095775;23.24152477;30.92702139;-6.892005121;-6.963963575;-3.142679704;-14.89437953;-17.02622832;-8.232081932;2.262829289;-2.270145284
-9.612050916;-8.445233129;5.345570942;-0.893855629;-10.43365164;3.823748145;-0.606143918;-16.34860093;18.50963651;6.476805446;31.4878637;-1.237436384;-2.840221296;1.490352319;-5.156990597;-18.80834218;-3.365574636;3.084477184;0.287044349
-16.15030028;-6.984907281;-4.813935813;-17.23916585;-19.14913709;2.208737929;-13.16239382;-19.67241131;15.39123837;-9.151576156;15.65268035;-0.183504043;-1.81829274;1.355052497;2.314509454;-21.50029941;-2.371076833;-2.217024676;-0.840191773
-12.47741577;-4.072592728;-6.919655641;-20.37089045;-24.33059937;-1.490306261;-13.1918736;-19.38859893;5.13065969;-6.844530491;-10.10687764;-1.345166893;-3.894903595;-3.767661225;6.302430819;-21.40468066;-6.381810239;-6.198225257;-5.094669829
-0.539646335;0.356351945;2.06316919;-4.798887491;-21.21131823;-4.041314984;1.625677812;-13.39032904;-3.386506952;15.36957421;-35.01195708;-0.253845407;-5.865588739;-9.480989189;7.991898761;-16.11386074;-11.56141146;-2.280401353;-8.624764312
9.293516709;5.885631603;14.57736444;18.55576243;-12.04497427;-3.010860006;19.4383257;-4.822791401;-4.02041724;40.49;-51.72362953;5.183717181;-3.992753716;-10.47453337;8.845347168;-7.194454089;-12.35121645;8.929287873;-7.617517115
7.042099017;10.95909045;19.30030503;30.60282687;-4.626106851;0.906863397;24.73498165;-0.244001313;1.738349882;45.19416708;-59.48405939;12.0787409;2.388128394;-5.310705163;8.467831717;0.051180504;-6.621081997;19.60025347;-1.985082737
-7.496683721;13.31978065;12.15609508;20.1603194;-5.538871503;4.281008992;12.82366482;-4.081145831;6.779052291;19.52705828;-60.86149884;14.50741538;9.70973766;2.023388414;4.829791202;0.123061959;1.906476834;21.16939948;4.040390628
-23.46856644;11.62025412;1.104440291;-5.834410263;-13.94740767;3.9082165;-4.882163505;-14.07834775;5.46370194;-23.11807563;-56.64087878;8.740830881;12.85506238;5.418633213;-3.071668866;-8.293038656;6.453115939;11.7992987;5.289624256
-27.73855204;6.943540541;-0.608533294;-27.30599523;-21.73687301;-0.187160169;-10.38474468;-22.16717313;-0.682770418;-55.12181328;-44.94123002;-2.70938687;9.574595722;2.073929171;-12.66391835;-20.65634875;3.088091233;-1.774313748;0.287355353
-16.581479;2.649130345;12.51685966;-27.62860235;-20.44412503;-4.48967522;4.166099071;-20.75692864;-4.078078147;-56.20781644;-25.79842555;-12.12631369;2.701147137;-4.792829304;-18.3053587;-29.34134695;-5.416550799;-9.768667203;-7.016078836
0.155946565;2.199675156;30.78408956;-7.803810312;-9.189527717;-4.94447591;27.42073195;-9.475796345;1.7264044;-29.68613123;-5.953082793;-12.43222945;-2.078834349;-8.61486872;-15.25779064;-29.04044724;-11.49968138;-7.502640127;-10.28834373
6.904617818;6.493201262;35.46596227;14.32374201;3.62525743;-0.685456892;36.67100489;3.617787735;15.23072614;0.623633597;2.837357106;-3.227336368;-1.202810738;-5.423839135;-4.139671735;-20.63573432;-9.263204755;1.018070488;-6.315239808
-3.823810953;12.98922279;14.89915863;19.69272022;7.040261397;4.823928082;17.27824049;8.067666081;27.10339985;10.69780792;-7.194895934;8.250184099;3.435757232;2.19624759;8.238703527;-10.33901661;0.010438891;7.31202366;1.814207746
-23.68848323;17.6366806;-22.84370344;5.184125579;-2.624301829;6.536490798;-22.62591306;-0.22529857;27.80648633;-3.194532283;-30.75131673;12.58708566;6.049147046;6.988917127;13.19764303;-4.640720028;8.381517732;6.665168716;6.947045743
-34.46961245;18.18080412;-52.74545663;-13.00529427;-17.47720657;2.3299668;-55.85647961;-14.89139512;16.35385768;-21.61110747;-49.87835113;5.977078048;2.397093942;3.525042399;6.819174922;-5.138834154;7.909685804;2.808343786;4.019586505
-23.76478444;15.97822332;-50.96086939;-13.56281962;-23.82528039;-4.650229717;-57.00609105;-23.63028797;2.198663119;-19.80445738;-46.45793076;-6.130058594;-5.62749659;-6.253199049;-6.439016291;-7.601635952;-1.991947725;4.377413852;-5.055804487
2.607599209;14.49455564;-14.75460106;9.919461878;-13.9328225;-8.178350708;-23.9817804;-18.26632599;-2.201215874;8.581264002;-18.21991749;-12.95770394;-10.7196313;-13.6927235;-16.58802251;-6.196126357;-13.08478537;15.90350366;-12.3098245
22.89112567;15.56370542;32.32597693;40.83588233;6.056929483;-4.213933784;18.18464995;-2.169704624;7.643136469;42.84037712;15.62032021;-7.196206937;-6.238776405;-10.44717987;-15.76242957;0.610159324;-14.68262669;31.47564285;-10.24482229
16.00234544;16.78527718;55.95633215;51.70144316;19.48985098;5.08145683;35.96825033;11.51846168;23.24204954;50.54717781;26.43104158;8.339687496;7.221644817;3.696661939;-4.819109339;7.653705197;-3.08933836;37.58573504;1.206198799
-20.28123693;12.88779362;36.66055284;27.49240707;12.2181691;12.24227682;14.4535544;10.12235753;29.15536138;15.57741655;-1.166748194;21.88946283;20.68535991;19.04502953;6.646780839;6.690563838;13.85273265;23.9602547;13.35591656
-64.73880806;0.58997275;-13.98839378;-19.39709114;-14.83070455;10.08478381;-29.09054059;-7.780964099;15.88769343;-44.32363233;-53.65222476;21.36180238;22.8778876;22.56926226;7.413734179;-6.500645786;21.60126825;-6.191534913;14.85133368
-86.70184633;-16.908188;-59.88012742;-56.33327846;-44.16573452;-2.256335538;-57.18724953;-29.93309034;-10.8312174;-86.43950363;-94.32315042;3.910300911;9.25571136;8.18722764;-6.368161377;-27.29686458;10.06322686;-35.60805599;0.801419427
-68.65064605;-30.09043365;-65.74769253;-55.44276593;-53.59010894;-17.80175143;-41.25841188;-38.8973418;-32.61365601;-73.54615386;-88.71566384;-21.08049016;-13.27925431;-17.41019351;-27.38127136;-44.05876221;-17.56400992;-43.8924792;-22.33793401
-19.9690059;-28.86825455;-22.87950092;-16.71491516;-32.8866304;-26.30963483;14.88422701;-25.30062442;-31.69705128;-3.125838274;-31.55219712;-38.19725199;-30.29664754;-38.49093959;-41.82326172;-45.82932257;-45.62275311;-22.31696113;-40.43707912
29.15622714;-10.14811892;43.99994495;30.03818037;7.58311816;-21.70504245;76.11168417;4.466179902;-4.892724035;87.63160046;46.09523242;-36.86104809;-29.94672297;-41.23942321;-39.2530567;-30.29620366;-56.50429186;18.83612334;-41.56994224
49.28490647;18.63015998;93.77844118;47.02546341;43.42654683;-6.678537391;101.3521302;32.306696;32.87281708;145.8467826;96.72139027;-18.68122174;-11.6846911;-23.74625195;-20.1570507;-5.880151877;-43.16776823;56.47283232;-24.69988072
32.2676593;43.2814934;97.19418977;17.42797525;53.3112896;9.154747213;73.78459395;41.34449263;58.55962544;138.5939695;89.75722866;4.141440305;13.17392549;2.623827441;4.508011927;13.84063517;-14.20743381;70.19121498;-0.510395231
-4.657895569;51.78749552;55.64268906;-41.39642017;33.77797321;16.17242534;12.64793743;27.90611879;57.11722015;74.04330566;33.54;17.90430937;29.5931371;21.52022285;21.32303381;19.30750295;12.36023742;55.68973861;16.26613064
-33.52505663;41.99682705;-2.281014049;-90.98457265;0.749522699;11.46123546;-41.88110108;3.538129089;31.55118431;-6.632101009;-30.99697551;16.9311013;29.42526039;23.15576095;23.71531215;10.97717185;21.80019642;26.37131796;17.1448231
-36.82605884;22.45757115;-42.41702141;-100.7692903;-22.94377497;0.312841229;-58.25985543;-14.15620692;-0.298289303;-59.13909067;-60.35592588;6.507693616;16.44727577;10.40099474;15.55486725;-2.091370624;12.28154288;2.562305959;5.083452052
-18.69625017;5.863069707;-47.94607187;-70.20354208;-24.09117193;-8.35502993;-34.61185906;-14.51400185;-19.15039782;-64.80615286;-39.50268806;-2.408052669;2.326448084;-4.762362277;6.764693161;-9.544318118;-5.426439641;-2.989674719;-8.953332347
1.517115434;0.177878474;-27.30657082;-27.14357157;-7.192465515;-8.823023413;3.8363268;-0.720546691;-17.2753398;-37.96241796;9.326212793;-2.018810068;-2.828599744;-11.02495182;4.975646996;-7.080972936;-17.17386467;7.482159398;-14.83850735
6.5455521;4.091114782;-3.452493986;-4.833766771;11.18682618;-2.324851288;26.77800265;14.09467896;-1.68092099;-9.371530194;45.74641133;6.904686033;2.301403072;-5.840571827;10.04668694;1.597503369;-15.92641035;21.04860542;-10.42746249
-5.383852547;9.793066036;5.19700968;-16.5068022;16.26461287;4.841721343;21.59759984;17.74484142;13.58235845;-1.065757895;42.47317259;16.75625705;10.60655717;4.141994982;15.47877009;9.068185647;-5.605397113;25.41297454;-1.788091052
-21.29585661;10.21693506;-2.983353349;-47.45738624;5.784768939;6.84530326;-0.518655465;7.993349585;18.70976902;-12.37938613;4.366299639;19.84085228;13.476934;9.765862266;14.90604976;10.60783286;3.80559768;17.8450299;2.871476319
-26.25298043;4.606942862;-15.32137092;-69.46795783;-10.18414782;2.821628326;-17.62370087;-6.977387286;13.9649519;-25.84756944;-38.31444485;14.35672321;8.122877169;7.078907477;7.85129517;7.389383825;5.017934145;5.302080462;0.098485991
-16.38626266;-1.877223312;-17.81640143;-64.47375347;-18.93076508;-3.087175515;-16.28799253;-16.0935837;6.56622919;-25.18579002;-55.26688754;5.0544142;-0.6982991;-0.2235153;-0.050311923;4.24076768;-1.268970347;-2.970677817;-6.653435092
-1.234729096;-3.576573502;-6.929169851;-37.98806524;-15.5176104;-5.711356476;-0.823919503;-14.22117911;2.822943096;-9.238471379;-39.01937823;-1.298513313;-5.473667419;-5.013938344;-2.225410251;4.476028519;-8.268490589;-3.292396828;-10.79988288
5.631618768;0.297810289;8.865227335;-12.48664506;-5.565572997;-3.218424942;13.56335625;-5.281738268;2.934165122;8.783679644;-7.793247448;-1.415356295;-2.703062073;-3.37818733;2.956835091;6.601958531;-9.717589132;0.600190537;-8.570425397
-1.280009766;5.026166648;17.52922264;-7.796853307;0.90359533;1.735005241;15.62129358;2.11613799;2.470481765;14.1904393;11.99064952;2.568199391;4.220526329;2.177034862;10.69259883;5.788343427;-5.164642455;2.325822648;-1.957937285
-15.17738603;4.798633894;13.82189598;-25.3996023;-1.532683768;4.691923578;7.074497615;2.173212141;-1.848240926;3.687313864;7.716521585;5.835770612;8.223193523;5.423082326;13.82728414;-1.314893595;0.328578207;-0.774309609;3.500205936
-23.74953308;-1.917753238;3.022776021;-48.93180261;-9.628989532;3.320920819;-1.298925038;-3.835899033;-8.052227358;-12.45186808;-11.01283708;5.481792361;4.783400325;2.260177424;8.937413466;-12.77817361;1.203928562;-5.477023694;3.741952836
-20.28189854;-10.85903628;-4.167147222;-58.96354877;-15.19680047;-0.81821587;-1.450161808;-9.555748174;-10.36539402;-19.62639307;-23.11653658;2.887115984;-4.251325989;-5.552570678;-0.757866759;-22.10019018;-3.628359735;-6.239261394;-0.523799222
-9.136764239;-15.56110196;-0.505298916;-48.71833594;-12.66819523;-3.957836174;3.988592378;-9.398437747;-4.619725144;-10.88944782;-15.38;2.071512124;-12.34522856;-11.92199366;-8.023913309;-23.04811154;-10.15388368;-0.802060036;-4.914274444
-1.134397062;-12.81411178;12.45268423;-27.92851211;-3.692658476;-3.526886983;4.850058594;-2.97855439;7.577438063;8.21518693;6.42183796;5.780299108;-13.73126315;-11.65337737;-7.462143372;-14.71874968;-13.12701801;7.377078445;-5.544681967
-3.478456096;-5.177366277;26.12246846;-12.99644537;4.873693637;-0.236497333;-5.810899799;5.338343401;19.81196204;24.89658968;23.41491007;12.85153679;-7.879111348;-4.758409766;0.310041504;-2.655782397;-10.72310987;11.92089501;-2.40555806
-13.43057515;1.521345048;31.42382033;-13.04155013;7.24867756;2.821474298;-23.85365516;10.75796599;26.03375653;28.99127718;20.5634003;19.07532228;0.622116842;3.756322257;9.464859583;4.964965773;-5.855024581;8.889283554;0.949101606
-21.18195589;3.307754974;24.63075948;-23.7414648;3.477694375;3.044293725;-36.66482916;12.08706305;25.22450229;19.23554216;-0.179542596;20.65998709;6.258683057;8.190820036;13.82423998;3.140804807;-3.243044349;-0.028094526;0.87712876
-18.97733033;1.189931995;8.707173983;-33.05658026;-1.317209072;0.528309066;-33.98944245;12.0287609;21.50032831;1.975590465;-21.39386163;17.28239447;7.003361873;6.706983213;11.58883159;-6.590883795;-5.091882326;-9.0120012;-2.981790908
-8.109430301;-0.372688208;-9.589527187;-32.5263329;-2.058733899;-2.239546634;-17.1224504;13.90720668;19.86227025;-14.93429684;-24.60174968;12.22762237;5.269898901;2.359842803;6.135777095;-17.61377905;-9.254260272;-12.64927062;-7.430258504
2.399624176;1.956627759;-23.72400253;-23.88892703;1.65656452;-2.749656372;1.895111206;18.11496187;21.68320991;-27.1282807;-5.351631379;9.6734179;5.027277337;0.060151361;2.586574149;-23.13866388;-11.3432049;-9.49428362;-8.637356715
4.00804219;7.11320911;-29.77043509;-15.99541255;5.490439051;-0.682160406;10.37277927;21.56177232;24.00755014;-34.1240318;23.08748029;11.48203408;8.006035196;2.360148522;3.362330806;-20.72235048;-8.722889508;-2.011368977;-5.545269256
-3.760931939;10.70225202;-26.76428796;-15.95260801;4.620225298;1.960876775;5.363199679;20.50322644;23.02675239;-36.51705112;39.69524628;16.05487055;12.40213958;7.66433032;6.5306733;-13.23357705;-2.802154009;6.252735186;-0.742030789
-13.11066795;9.385339442;-16.27656377;-22.99962103;-1.728145802;2.779558034;-4.73332937;14.08123248;18.22419496;-33.93039384;30.83469408;19.91863212;14.93692259;12.07136839;8.090455312;-6.077364298;2.250113216;13.16274001;1.859484963
-15.15343059;4.404236111;-2.099613577;-30.24172914;-9.53099703;1.130801441;-8.413453583;5.38464316;13.20361811;-25.92129534;-1.058857301;20.48302595;14.05278534;12.86363051;5.880838459;-3.243613953;3.038502866;17.98594384;0.379791733
-7.926621466;0.773567138;10.45369812;-31.77956012;-13.49709925;-1.400683898;-1.465315088;-0.86552694;12.44290678;-14.31428641;-40.6881503;17.68357747;11.19728854;10.48521591;1.534949621;-5.189437225;-0.440638935;19.64877425;-3.582263631
1.90696548;2.648801335;16.52781097;-28.12651138;-11.58097717;-2.531192782;9.820586716;-1.951500147;17.05598724;-3.697053441;-70.98681796;13.41955651;9.156675973;7.520747676;-1.199762249;-9.667341847;-5.22530605;15.92339057;-6.552949488
5.073754573;9.02485029;14.53815151;-25.03114691;-6.504321668;-1.340870982;15.17865193;0.96020315;23.53773964;1.252392772;-83.10194895;9.615489451;9.232309986;5.986188145;-0.163670857;-14.18825036;-8.194516815;5.146029322;-6.268403742
-2.034282646;13.86743451;7.721579575;-27.34928177;-3.14973799;0.982966063;10.29465687;4.112307533;26.65929372;-0.556988497;-78.89531882;6.719782832;10.057049;5.598869513;2.878673503;-17.84179667;-8.609010273;-10.89738994;-3.488840947
-14.15652898;10.93853061;2.431670984;-34.15112478;-4.341742884;2.30676374;0.853514223;4.317499014;23.84847697;-5.538775083;-66.38028378;3.814421066;9.171771676;4.519379041;3.428827602;-21.21592646;-8.236033431;-26.12975248;-1.069347673
-21.75203983;-0.690872755;3.576644152;-39.73265621;-8.743452479;1.48587755;-3.007494106;1.271969414;17.08802352;-8.331263772;-53.3355539;-0.01957431;5.782874295;1.614371552;-1.966676458;-25.0023975;-9.246940085;-33.2504703;-1.295691515
-19.21148224;-15.29043201;10.3934188;-39.36459844;-12.47508971;-0.678713242;3.338242678;-2.709812908;10.73658424;-6.338599584;-43.88186383;-4.470825199;1.961617157;-2.098065628;-12.55480936;-28.87782813;-12.03651927;-28.99728178;-3.934871121
-9.471890929;-24.66813795;16.24168489;-34.10467836;-12.69814894;-2.254180726;13.92184176;-4.958557843;7.45600554;-1.853832206;-38.82323162;-8.024206055;1.00541004;-4.266902747;-23.55224783;-31.69764879;-14.9740717;-17.32992421;-6.651857868
-1.154394236;-24.48890936;13.32394596;-29.99656185;-9.855795538;-1.942712835;16.89637162;-4.578774284;6.09246336;0.219187029;-37.3649058;-9.176104825;4.384754941;-3.499680756;-29.59923866;-32.64772235;-16.14271468;-7.334459174;-7.246727401
-0.961702772;-17.369719;-0.840127145;-32.38770092;-6.755360265;-0.185054433;5.099133149;-2.74132403;3.410708736;-2.969104803;-37.98211151;-7.749042966;10.11666029;-0.89399978;-28.72938609;-32.11382876;-15.26101089;-6.799510876;-5.595491409
-8.080422608;-10.1532259;-20.29444054;-40.74430632;-5.665000548;1.339133322;-16.88323308;-1.244005215;-2.104373912;-9.394528257;-38.51891988;-5.194768686;14.19221647;0.733683667;-23.70644273;-31.38913853;-13.91517062;-16.22792132;-3.586305935
-15.32832594;-7.831140246;-33.83862036;-48.88150658;-6.286069378;1.279822608;-35.55033823;-0.895627292;-8.123118094;-13.77388661;-36.94804837;-3.658102569;13.92163074;-0.689496735;-19.75251315;-31.49375113;-13.92504504;-28.13042423;-3.247853929
-15.73892174;-9.526501699;-32.65434855;-50.45237381;-6.41640317;-0.20066361;-38.99776243;-1.160506318;-10.17995568;-12.18021235;-33.10881956;-4.549398338;10.25961651;-4.557630874;-20.56503145;-32.21199027;-15.46575497;-32.46186295;-4.879382484
-8.614994204;-10.10177814;-16.7890789;-44.62512175;-4.46866372;-1.662498469;-26.21140117;-1.125815751;-5.737689179;-5.504262263;-29.71315516;-7.670252701;6.997670485;-7.972983701;-25.75157359;-32.23191616;-16.78354368;-24.15595976;-6.882217537
0.180991668;-5.889165042;4.527979287;-36.6927985;-1.286901239;-1.752437416;-7.386167369;-0.625079965;3.150427278;1.333307026;-30.70775462;-11.43227992;7.453219669;-8.182694516;-31.5136816;-30.26449517;-15.81774485;-6.943246635;-7.351918469
3.665678197;0.792452222;19.19547281;-33.05336592;0.531097952;-0.415492976;4.693357914;-0.377880378;11.12582659;3.667288882;-37.48759188;-13.90871912;11.51171379;-4.956472233;-33.77852652;-26.17;-12.23077435;9.475830699;-5.879565281
-0.131965463;2.783394377;20.56905146;-35.21482736;-0.84426099;1.123026002;4.64320043;-1.120624727;13.70726378;1.003411497;-46.2080498;-13.98168413;15.6032846;-0.835629681;-31.18446846;-21.15925757;-7.944043397;16.60398289;-3.890097656
-6.748700444;-5.636793876;11.64283294;-38.40912425;-4.541941829;1.523339736;-2.479035753;-2.731565868;10.66690922;-2.88059247;-49.41022063;-11.93157206;15.65858598;0.95735799;-25.70773664;-16.96472278;-5.637854186;13.04186669;-3.259735853
-9.599408271;-22.64353592;2.100948079;-36.18625627;-7.545357895;0.536179774;-7.001040783;-4.299896278;5.637366603;-3.584580906;-41.6878149;-9.246000913;10.52115329;-0.851782232;-20.76789616;-14.72156227;-6.527626359;4.690686816;-4.550910792
-5.962716329;-38.55453731;0.674765242;-26.85696495;-7.306509665;-0.840421805;-3.573066967;-5.072083562;2.439753205;-0.071632723;-25.06435956;-7.842581744;2.930111059;-4.628343331;-18.59216557;-14.44139751;-9.37837542;-0.511933017;-6.514628842
0.711555885;-42.28105438;8.663910636;-15.87033472;-4.053500761;-1.339445333;4.750681434;-5.283661879;1.596039012;4.591930357;-9.082995554;-9.109847809;-2.698751555;-7.2519074;-18.94289083;-15.36489957;-11.59600513;1.130624638;-7.29289324
4.053068427;-29.7390812;19.34371447;-11.77268644;-0.669350996;-0.593721173;10.36602825;-5.98;0.237370979;6.248642794;-4.557280195;-13.19682417;-3.756510004;-6.617665382;-19.95432783;-16.73031181;-11.38896425;6.710505553;-6.169547274
0.488494188;-7.454194281;23.3512303;-19.09683273;-0.210014648;0.577891086;8.718962465;-7.946288975;-4.613069138;3.499777652;-15.43139402;-18.89325066;-1.287471714;-3.118519876;-20.06356132;-18.24691422;-9.101699876;9.759656829;-4.231342866
-7.696701028;11.75018356;15.72083817;-34.28574984;-3.254711796;0.988541526;2.413194928;-10.79260717;-12.60666934;-1.152560661;-35.37317786;-24.22881884;1.177528233;0.958531005;-19.30542176;-19.95428272;-6.646392714;5.843880384;-3.335318812
-14.51167938;17.75807679;-0.645460409;-48.15380599;-7.417696058;0.209178716;-1.731937138;-13.14755753;-19.88305193;-3.765754107;-52.27369729;-27.56515647;0.591678758;3.359849688;-19.00955164;-21.7516754;-5.693299215;-3.900108621;-4.354388477
-15.49804004;9.875201484;-17.2441964;-52.79295231;-9.404895074;-1.046237382;0.508982131;-13.8605547;-22.47473795;-2.530375172;-57.35994592;-28.59456882;-3.41961977;3.367517666;-20.38064094;-23.14196764;-6.325888533;-13.86330116;-6.334276228
-11.33339399;-3.797594329;-25.79985551;-47.16950639;-7.75598483;-1.609012065;6.759690859;-13.10458749;-20.18073093;0.970043945;-51.62169098;-28.57789983;-8.817862393;1.751439695;-23.30690424;-23.46895578;-7.314443303;-18.41325698;-7.346920091
-6.773295233;-13.3926986;-23.2154327;-37.01401876;-3.880782946;-0.953907746;10.62454081;-12.29213916;-17.16105743;3.892499698;-44.30215616;-29.54178496;-13.27471896;-0.43578204;-26.39615338;-22.43696447;-7.590058594;-15.94011929;-6.261464906
-6.166846784;-14.73115323;-12.45981736;-29.5876938;-0.597431472;0.315044623;8.247562436;-12.79206938;-18.39636734;5.372693131;-44.74139321;-32.85346164;-16.0606744;-2.865578328;-28.11058031;-20.4456018;-7.39926329;-9.480368745;-3.810148963
-9.715625139;-11.2754278;0.405967498;-28.05368083;0.39124602;1.026263478;2.380541249;-14.57859408;-24.99274171;7.435720539;-54.38623285;-38.10973992;-18.08177876;-5.798605506;-27.97156311;-18.44398163;-7.99269402;-3.898344945;-1.966676921
-13.72166156;-9.566655192;10.19719987;-30.01270986;-0.201885589;0.515354276;-0.181338542;-16.07403315;-32.5739833;12.39580346;-65.57852177;-43.16039276;-20.32436321;-9.13767516;-26.83986587;-17.40703919;-10.16041492;-2.235591205;-2.187397017
-14.31426358;-12.63440124;14.66802906;-30.76739688;-0.227816469;-0.778526683;4.415440482;-15.4047939;-34.4413365;19.14844231;-67.98823447;-45.33282746;-22.4277672;-11.84319465;-26.11249993;-17.80185954;-13.07638856;-4.076260764;-4.097168846
-11.05990115;-17.29589237;13.94426696;-27.83396592;1.691698591;-1.727501456;12.32444989;-12.00595333;-26.99877558;22.25571662;-57.19623823;-43.06201705;-22.83652598;-12.49497786;-26.55574006;-19.36213136;-14.66971383;-6.768722946;-5.804817667
-7.177824982;-17.55016969;8.870471585;-22.64253269;4.831291792;-1.541669259;14.39064403;-7.160612213;-12.86040971;15.51210367;-38.33310282;-36.82528338;-20.3454076;-10.57262197;-27.71314615;-21.23908102;-13.31960578;-8.007298231;-5.574100788
-6.35267708;-10.77088734;0.285403081;-18.4197303;7.090331917;-0.463118979;4.137156755;-2.984977675;1.027932356;-2.458004578;-22.04269183;-28.79048479;-15.46155657;-7.203357423;-28.29291794;-22.39;-9.392046592;-7.512768325;-3.36847733
-9.256595384;-0.922294153;-10.2166287;-16.83634636;7.008596197;0.490562552;-15.58570914;-0.74746471;8.658433776;-25.36893042;-16.45347371;-21.51551527;-10.18934192;-4.52227802;-27.15480509;-22.02243291;-5.190727216;-6.699425739;-0.903902672
-13.03013094;4.315342791;-19.31393087;-16.80678309;5.125654797;0.472938045;-33.50091537;0.001862522;9.162321422;-42.2390682;-21.81667129;-16.65758645;-6.391452697;-4.062780885;-24.11184131;-19.95645133;-3.258413379;-7.025531067;-0.164589687
-14.1090425;0.183925319;-22.50753849;-16.34775481;3.412919516;-0.432076778;-38.16951094;0.749956865;6.518274417;-44.5317668;-31.71830593;-14.50248287;-4.290873778;-5.551101036;-19.99017595;-16.78550821;-4.420446821;-8.622357389;-1.680839127
-11.64884132;-10.5373396;-16.57996065;-15.24591658;3.347465657;-1.319787623;-26.93284397;2.441814587;5.324832074;-32.17934142;-39.01940292;-14.39192671;-2.587096205;-7.196824724;-15.99620331;-13.69776108;-7.208296779;-10.24066496;-4.057954458
-8.290399995;-19.16691434;-2.404242279;-15.54732787;4.470357022;-1.316159966;-8.023140469;4.456754546;6.573202964;-13.71980837;-41.04226281;-15.45961386;-0.129574818;-7.271403334;-12.9304462;-11.9081149;-9.122117985;-10.29148;-5.142000817
-7.547161574;-17.94637128;14.25093976;-19.20382326;4.80596982;-0.375246831;5.976722063;5.078316506;7.174345578;-0.246853597;-39.92265609;-17.02;2.442648476;-5.616696213;-10.827708;-11.89675744;-8.635049327;-7.965631107;-3.803012468
-10.28616343;-6.489369476;25.12131857;-25.24036817;2.768650501;0.69978888;7.846556357;3.038974114;3.491330217;2.285364024;-38.80061335;-18.45954452;2.758858412;-3.77012924;-9.226389164;-12.91392448;-6.266366004;-3.623380189;-0.828751486
-13.6579949;7.574032653;23.95663786;-29.52140377;-1.215117083;1.007096388;0.565512431;-1.252464493;-4.512436657;-3.405059254;-38.12134887;-19.02608408;-1.373672017;-3.59931827;-7.790410605;-13.21032137;-3.917815892;1.578177825;1.767861781
-13.59;14.46293697;10.35290671;-27.81864041;-4.894977503;0.361953262;-6.438740312;-5.90945192;-12.42815327;-9.032387243;-35.6385323;-17.98032279;-9.790572032;-5.631874744;-6.762763439;-11.04990593;-3.168037085;6.310521709;2.369339098
-8.649406431;9.949610197;-9.654762111;-19.64031881;-6.06569957;-0.566107887;-5.943264387;-9.024034259;-14.77232258;-7.755344765;-29.73523101;-15.12334544;-19.4715198;-8.507802449;-6.864820776;-5.965906683;-4.032933734;9.514266946;0.923544522
-1.739873425;-1.32100308;-26.77368365;-9.287491421;-4.447775116;-0.898327881;1.191093953;-10.09546525;-9.670992351;0.522938968;-22.35162901;-11.21992353;-26.29682378;-9.989648736;-8.663125664;0.606572687;-5.172287644;10.61275346;-1.233323635
2.037399883;-9.566610191;-33.52353682;-2.906030769;-1.892765794;-0.360666665;7.801816846;-10.18793371;-0.73457493;9.553936567;-18.25865627;-7.804079246;-27.71869367;-8.646194638;-11.83646403;5.902156634;-5.204929467;9.658384838;-2.607285046
-0.388178618;-7.622186091;-28.13442772;-3.863835579;-0.735109404;0.483953791;7.801006979;-10.72711678;5.577612753;12.16066797;-21.08050819;-6.350967478;-24.24036133;-4.830630763;-14.91892057;7.389815727;-3.886502941;7.415411635;-2.70297637
-7.391424476;3.499987833;-15.0118462;-10.34194976;-1.766619435;0.783745845;2.174041536;-12.06539614;4.920988726;6.120971894;-29.75702214;-7.378896381;-18.63830799;-0.271013514;-15.84729836;4.367422879;-2.159147756;5.172523984;-2.174009658
-13.88936392;15.57939233;-1.675185604;-17.12793945;-3.619203474;0.205006737;-1.940356221;-13.13863526;-1.757384443;-4.11229292;-38.88991701;-10.16329456;-13.76079781;3.217360161;-13.11796952;-1.500123609;-1.17482061;4.173332266;-1.996160496
-15.45134402;19.72368528;5.814598133;-19.94170999;-4.0540732;-0.750389916;1.753615839;-12.53649311;-9.316914688;-10.94704537;-42.8702146;-13.27022731;-10.80806523;4.772803746;-6.876901677;-7.125412941;-1.283490773;4.921845315;-2.51853117
-11.78794115;13.15483968;6.147958454;-18.50856301;-1.961111954;-1.203236792;12.06550596;-10.01411441;-12.63799771;-9.396308616;-40.18956885;-15.4621522;-9.356983626;4.579910169;0.822579886;-9.845673965;-1.891009153;6.858868978;-3.24053015
-6.708836379;0.960696375;2.915442274;-15.89170657;1.706060708;-0.70311969;20.26553409;-7.043451582;-10.34222908;-0.507676443;-34.17236277;-16.27130886;-8.712618345;3.260539089;6.917365472;-8.962004243;-2.197612586;8.690711067;-3.415420365
-4.711151347;-8.263906497;1.713933745;-15.05060291;4.817437711;0.355745807;17.05957257;-5.823816043;-5.157234512;9.920121557;-29.65774326;-15.89128615;-9.029211852;1.346182366;8.960879857;-5.968260249;-2.014345166;9.132329522;-2.828266932
-7.209352271;-9.126264896;6.120708132;-16.01121217;5.890719481;1.080711992;0.749125183;-7.524721591;-1.129679038;15.94579288;-28.8108491;-14.66235647;-11.05613062;-0.706726144;6.492287516;-3.367446871;-1.864653366;7.506930389;-2.006331785
-11.59876511;-3.141626214;15.06689461;-16.24775744;5.190541951;0.865811647;-20.49500827;-11.23742381;-0.442993483;15.64477435;-29.86202506;-12.74256326;-14.86228911;-2.24300054;1.235373121;-2.922493189;-2.336198763;3.856403266;-1.709047665
-13.79154937;3.198551768;23.25864864;-13.70969892;4.190677502;-0.093533069;-34.40036147;-14.55414402;-2.487451824;11.76116187;-29.66024352;-10.28680977;-18.99859353;-2.49800852;-4.051098911;-4.526455709;-3.382522768;-1.257672182;-2.218836827
-11.87267399;4.026896627;24.43384769;-9.39389342;4.01735633;-1.002967596;-33.75567658;-15.35434926;-5.442555644;8.773553836;-27.29766278;-7.877756435;-21.18854292;-1.226149995;-7.322905439;-6.400862043;-4.284668593;-6.821835214;-3.096073234
-7.68016382;-1.315754944;15.48215186;-6.831876092;4.381228185;-1.180944133;-21.49;-13.39015261;-8.350643263;9.046731154;-25.15787898;-6.633366262;-20.12695293;0.711056456;-8.404467263;-6.40966729;-4.297831616;-11.19249875;-3.589340031
-5.048815302;-8.21398326;-1.153621638;-8.863781314;3.971149835;-0.627956088;-7.691726104;-10.43864995;-11.56211311;11.1855776;-26.37241616;-7.679955803;-16.76169824;1.594101164;-8.755864236;-3.55646845;-3.324303816;-12.13439593;-3.287214576
-6.381873089;-10.88425466;-18.41328754;-14.74763604;1.872603426;0.039898141;-1.335144918;-8.946999287;-15.39215073;11.71602819;-31.26914997;-11.29735753;-13.73404015;0.057280022;-10.06300734;1.325063943;-1.941090397;-7.655203986;-2.419679957
-10.5739102;-7.059781335;-28.47946694;-20.44863744;-1.380235461;0.192385682;-3.696232842;-10.25993295;-18.77391565;8.51017148;-36.46958365;-16.43883216;-13.26693687;-3.609327724;-12.73340878;6.088352206;-0.765337333;2.467922737;-1.587329588
-14.01229775;0.468139804;-27.26662597;-22.01358198;-4.137034505;-0.252884049;-8.649327158;-13.76485001;-19.6736641;3.055440803;-37.761209;-21.11226835;-15.26695922;-7.274847399;-15.45600604;8.597121585;0.193939678;15.5446259;-1.225732762
-13.67774274;6.352058863;-16.73461354;-18.99417133;-5.047621131;-0.812238423;-9.002627162;-17.49280265;-17.10233221;-0.354018905;-34.13115261;-23.44070227;-17.3503345;-8.317379803;-16.18202152;7.968029429;1.53334471;26.52974969;-1.304080992
-9.632002458;6.8728768;-3.514451295;-14.72329761;-4.242712032;-0.939818009;-3.022564896;-19.58563525;-12.68704391;2.001523594;-29.01822544;-22.67130798;-16.88003906;-5.600127095;-13.79586534;4.961108453;3.788179042;30.57635849;-1.475408052
-4.842994644;2.384875157;5.317297125;-13.09555521;-3.183075569;-0.552105654;4.478772939;-19.47871032;-9.905683359;9.848542166;-27.31452527;-19.44363754;-13.31202307;-0.480283849;-9.194879108;1.345100059;6.763759073;26.1864229;-1.456825006
-2.649802202;-3.632339105;6.593278781;-14.76926325;-3.318991809;-0.078183461;7.094741073;-18.00912112;-11.24234441;18.15591897;-30.69355514;-15.21205484;-8.802007105;4.08108313;-4.90934489;-1.263751971;9.555067048;16.63647484;-1.2508462
-4.115931509;-7.678367507;2.696253146;-16.35235538;-4.792079317;-0.008924638;3.101748312;-16.54202804;-15.68281362;19.8989888;-35.6324722;-11.33338061;-6.482202463;5.698925775;-3.466004914;-2.281738881;11.27889525;8.2315939;-1.045345732
-7.446622031;-8.698248122;-0.559722796;-13.48261232;-6.35;-0.395813911;-2.667437886;-15.87996256;-18.99584164;10.7053348;-36.20947352;-8.473889483;-7.83327319;4.305028408;-5.630314115;-2.192514104;11.82474082;6.219550985;-0.976565729
-9.764328949;-8.023386096;1.681812028;-5.123787861;-6.510449442;-0.788674589;-3.074872409;-15.73438019;-16.92792041;-7.733132494;-29.37618992;-6.603800084;-11.38927644;2.029081032;-9.770078125;-1.79738825;11.87507487;11.16192166;-1.04165591
-9.564835131;-7.273606104;9.685887646;4.848117055;-4.872224011;-0.674122509;4.66292237;-15.02045472;-8.789408772;-27.95710861;-17.97041546;-5.339566561;-13.89229658;1.328653411;-12.80346915;-1.316759642;12.13951846;18.5146093;-1.223029041
-7.770572835;-6.416382114;18.73303994;10.3946993;-2.379860275;0.006261299;15.76915038;-12.66380036;1.636248408;-40.82467399;-8.607356975;-4.226805364;-12.9256572;2.941112493;-12.10793248;-0.090026245;12.54130986;21.92332857;-1.607740718
-6.65654404;-3.826438626;22.2138477;8.184374756;-0.36102326;0.759946423;21.09889211;-8.368725713;8.764580182;-40.87987316;-6.179259478;-2.81362881;-8.810282243;5.367473317;-7.144207598;2.835924646;12.20510569;17.92036376;-2.277250876
-7.750314001;1.776228936;16.09152694;0.412753303;0.694175825;0.975169706;14.26366348;-2.93104677;9.334055593;-29.51193918;-9.831300956;-0.704056528;-4.214528839;6.279164851;0.215602416;7.656411791;10.36342848;8.545438082;-3.032971523
-10.53870523;9.407447788;1.755390036;-6.880193724;1.436635047;0.485749348;-3.07728102;2.027819112;4.616127946;-13.79187368;-14.02545242;2.192285813;-1.898283816;4.597531921;6.792873555;13.16160982;7.378236719;-0.088641423;-3.295498622
-12.96089704;15.84733899;-14.53459538;-8.568724162;2.783911029;-0.259192786;-22.01751215;4.774352876;-0.998292333;-1.774496721;-13.71140491;5.31987148;-2.561250328;1.446442657;9.890605074;17.13707707;4.846753161;-2.211240273;-2.43542401
-13.11070591;17.83047921;-25.11995169;-4.232333462;4.763054734;-0.588498139;-32.61872765;4.326251585;-3.66560742;2.51188891;-8.866874933;7.451192247;-4.572923493;-0.818465951;8.673972472;17.68052695;4.507929042;3.516283524;-0.374404269
-10.66921657;14.65655553;-25.06495328;2.120092773;6.256462963;-0.212284347;-30.63803402;1.068981862;-2.845208782;0.968597757;-4.236899862;7.258921636;-5.656498369;-0.632883582;4.398723768;14.53336131;6.764868456;13.2153388;2.07059603
-6.990893927;8.980452626;-14.52427976;5.877050155;5.974990259;0.515824022;-19.71606787;-3.2525026;-0.988044051;-0.93764825;-4.545595299;4.242921611;-4.918514625;1.453681181;-0.520546729;9.390167343;10.09399729;20.70837259;3.532112599
-3.963686384;4.954810177;1.678434966;5.647718992;3.775138797;0.919493177;-7.793570974;-6.306747805;-0.80445901;1.146951126;-9.715606668;-0.693654473;-3.423343651;3.263944307;-3.959873071;4.8343894;11.95852817;21.78236792;3.002968513
-2.676458553;5.07397259;16.57364473;3.74255737;1.034974261;0.612893877;-1.020796196;-6.413032451;-2.789011171;7.073783451;-14.72341153;-5.615601634;-2.912757322;2.821337559;-5.193402301;2.590356636;10.59805488;16.63922996;0.63852504
-2.883255645;8.2074427;24.07880011;3.158623676;-0.378409692;-0.15088425;0.003103796;-3.550775075;-5.173754023;12.60493175;-14.43574966;-8.763190557;-3.963140072;-0.063458248;-5.072376409;2.375163349;6.297694468;9.015790726;-2.242563515
-3.473162898;10.44951322;21.19853104;4.133547865;0.29500669;-0.710552375;-0.83071403;0.54771132;-6.045544576;13.13245789;-8.986302129;-9.73614233;-5.33848344;-3.750601626;-5.253838572;2.257792041;1.132045432;3.074125781;-4.048128018
-3.400343283;8.206840562;8.874922685;3.659285091;1.985208339;-0.592985663;0.540307365;3.389354684;-5.346892043;7.625154248;-4.441918218;-9.691018802;-5.154548578;-6.198471836;-6.997672495;0.307778837;-2.585735962;0.644341845;-4.036447115
-2.366404354;1.147133326;-8.428931343;-1.477692883;2.667437881;0.067485268;4.719086648;3.226245144;-4.753706102;-0.382224128;-7.624063924;-10.31632809;-2.782407988;-6.552243976;-10.28488853;-3.71202147;-3.889627261;0.727747346;-2.7848018
-0.922331787;-7.317985296;-24.22149272;-10.93570244;1.148398894;0.662313795;8.818829044;0.09838675;-5.643805526;-5.49343631;-19.40782844;-12.36033658;0.283440305;-5.55511517;-13.80963997;-7.9553782;-3.560395307;1.135272976;-1.630282489
-0.104869083;-12.45769189;-32.35437206;-19.96792806;-1.775421898;0.664336648;9.649323466;-4.275663192;-7.34172471;-4.580058594;-32.63231977;-14.92348479;1.462288102;-4.570524145;-15.8571843;-9.792281411;-3.158097568;0.532111673;-1.559616813
-0.888547541;-11.73607523;-29.69834239;-22.60478457;-3.832351601;0.095984937;7.045689782;-7.641526612;-7.603701071;1.031316904;-37.05656282;-16.16309096;-0.796290246;-4.231054672;-15.50281312;-7.873215971;-3.625499755;-0.800750636;-2.476253454
-3.659828485;-6.725666244;-17.91845074;-16.36945767;-3.079177639;-0.510144574;4.329849737;-8.551494955;-5.064633083;6.98817491;-27.65157839;-14.90522693;-5.622671551;-3.969829191;-13.32169191;-3.389991672;-4.65086718;-1.785021928;-3.429026717
-7.85739991;-1.93489596;-2.999739811;-4.531192249;0.505762072;-0.609516569;5.470609008;-7.00797653;-1.263125063;9.597147515;-9.325436818;-11.86258862;-10.2777013;-2.790668601;-11.08831199;0.484694099;-5.208155487;-1.8639422;-3.545262476
-11.97143787;-1.422594797;7.845400801;6.114968816;4.965217596;-0.138845641;11.34622478;-4.119858097;-0.001226366;8.599996366;6.119983703;-9.406624972;-12.22154817;-0.467674691;-10.62176459;0.654830176;-4.640363354;-1.535998521;-2.811925261
-14.08127902;-5.76827217;10.45854409;10.20395045;7.861379825;0.44376465;18.29572202;-1.239096844;-4.205502003;6.80193763;8.589783811;-9.969956888;-11.01887039;1.998511183;-12.54980616;-3.780936032;-3.253787089;-1.765218553;-2.017407313
-12.84345642;-11.69364363;6.461550605;7.486798442;8.058153713;0.596083308;20.32119967;0.681441915;-12.95658686;7.118867071;-3.002022911;-14.25571628;-8.568805323;3.109386637;-15.86077866;-10.83341843;-1.943635723;-3.01052753;-1.944273332
-8.42567929;-14.60153651;2.195355192;2.375029967;6.344529908;0.19399494;13.40309115;1.149540674;-21.53735557;9.823496028;-20.47574254;-20.60846632;-7.551817879;2.112313124;-18.57525668;-16.80440381;-1.304874679;-4.842191205;-2.585429505
-2.707013987;-12.07712485;4.076753226;-0.043889659;4.507713547;-0.364247771;-1.291689139;-0.124183591;-24.85154639;12.46533192;-33.04262873;-26.01666105;-9.399494454;-0.371683844;-19.06482371;-18.50105166;-1.120875806;-6.409234912;-3.12664732
1.574274974;-5.688650888;13.37986381;1.910073242;3.777709695;-0.540194587;-17.7350905;-3.288046982;-21.51791814;12.42752091;-35.17253723;-27.99204367;-13.36248279;-2.88083687;-17.07464658;-15.01764635;-0.696064709;-7.180682529;-2.725720831
2.312201239;0.239887003;24.38207561;5.583963091;3.997514035;-0.163349776;-28.7214762;-8.034143315;-15.1223313;9.644253125;-29.40474615;-25.97901386;-17.25319022;-4.292256399;-13.74196236;-8.047852403;0.344491768;-7.222805408;-1.372101206
-0.780808045;1.882454524;27.77704019;6.648004094;4.111045279;0.405704926;-30.31012536;-13.2793492;-11.39553583;6.854672065;-22.52351772;-21.40574699;-19.10210608;-4.586749731;-10.67220256;-0.739281848;1.609512886;-6.857398042;-0.014378114
-6.08280725;-1.327313524;17.41536908;2.8198241;3.354967793;0.604758236;-23.9505552;-17.3867893;-13.57954383;7.069563573;-19.17639569;-16.55466363;-18.39613776;-4.57764998;-8.835057866;4.037617002;2.305308612;-6.1979121;0.206091778
-11.08481519;-6.493917785;-4.394216612;-4.445673535;1.986288507;0.185464858;-14.96029543;-19.0221899;-19.88206193;10.59218862;-18.70834665;-13.21705486;-16.10792686;-4.960555192;-8.119010936;4.990450983;2.057390253;-5.104044032;-1.03937143
-13.77103915;-9.655197562;-27.22907606;-11.37852706;0.92142245;-0.558259581;-8.648915154;-18.06024288;-25.18455474;14.48916829;-17.50079581;-12.03669463;-13.76608274;-5.629657294;-7.787380133;2.742381565;1.372145343;-3.538838341;-2.91953261
-13.45053248;-8.81718541;-38.8620505;-14.84333689;0.734762298;-1.053360271;-6.959602939;-15.72841938;-25.51034207;15.23877052;-13.86494692;-12.72288644;-12.43838914;-5.878380846;-7.319948043;-0.713851134;1.246278932;-1.805361314;-4.09023429
-10.68539066;-5.264251283;-33.36628079;-14.24736361;1.047144719;-0.955680081;-7.931004989;-13.71575637;-21.35992328;12.27390387;-10.37495747;-14.62317951;-12.30192812;-5.208566025;-6.843110796;-3.03466591;2.244820129;-0.267880329;-3.797903667
-6.679808647;-2.234504907;-15.19798936;-11.14958088;0.910171511;-0.438515252;-8.062296365;-12.87771366;-17.01057965;9.04491399;-11.27872756;-17.05326349;-12.8277992;-3.887618179;-6.777615853;-2.590816101;3.900029297;1.190723509;-2.491369449
-2.744331953;-2.159820114;3.885394228;-7.469851142;-0.199150987;-0.007439335;-5.48984425;-12.62107702;-16.42566923;10.20960489;-17.56249025;-19.24582226;-13.18557618;-2.673794309;-7.083748432;0.769419739;5.02357606;3.279146032;-1.414044763
-0.089716224;-4.738893243;13.01991667;-4.181889453;-1.761619091;-0.024772819;-1.391226915;-11.56600779;-19.4305259;17.03220364;-24.67912524;-20.26678476;-12.57018042;-1.988918878;-6.891025698;5.570337414;4.701011718;6.610497246;-1.531122201
0.300097046;-7.325494673;9.642028239;-1.475631109;-2.610740655;-0.387228748;1.42400292;-8.990300101;-21.63012677;24.99848151;-25.57737612;-19.27029071;-10.47861232;-1.405494158;-4.989208765;9.372749169;3.106744681;10.73085548;-2.716112505
-1.962773751;-7.177409202;0.699456804;0.293364521;-2.004115376;-0.648233419;1.414239501;-5.795992167;-18.28956164;26.17668615;-16.6795782;-16.03635764;-7.040482006;-0.038432565;-0.882951437;10.09815803;1.419900272;13.91198141;-3.883966484
-6.18442338;-3.641065249;-3.166028242;0.268149613;-0.371300596;-0.459883495;0.080297431;-4.030977461;-8.882559069;15.01177614;-1.490332724;-11.32302447;-3.236156117;2.466301531;4.455387851;7.356439531;0.909186866;14.26278284;-3.933263929
-10.55696998;1.476481389;3.950169177;-2.093782344;0.990775845;0.083733064;0.873560455;-5.193433901;1.702587517;-6.806679048;11.61148637;-6.611356799;-0.612109211;5.308914935;8.849520194;2.879650822;1.971764265;11.4735421;-2.675056111
-12.99554024;5.493103524;18.51293717;-5.958024922;1.040587565;0.522305532;5.925026887;-8.668627834;6.569699351;-30.38149714;15.75446161;-3.314970093;-0.353457814;6.986128259;10.13920818;-0.434915603;3.91786266;7.642546204;-0.968158545
-12.496715;6.912645366;30.05437657;-9.169996479;-0.067256759;0.452036336;13.32;-11.70217555;2.217646392;-44.88098396;10.75762882;-2.011314453;-2.220124658;6.538404382;7.525014517;-0.430820352;5.607814853;6.108514347;0.012737522
-9.985378946;6.204025901;28.91991928;-9.741671206;-1.082183471;-0.098060609;17.52025187;-11.16237328;-8.425359643;-44.34971517;2.753762588;-2.269540042;-4.277140861;4.504442778;2.073043576;2.71362667;6.31485663;8.840992987;-0.284547871
-7.777301073;4.793026566;13.41198745;-7.546294278;-0.732255323;-0.684504564;13.14368685;-5.877565242;-17.85311407;-31.17685298;-1.24988453;-3.169844981;-3.972106086;2.643657193;-3.97212046;6.433281854;6.066395181;14.39523056;-1.434780289
-7.843925146;3.388239203;-8.903506937;-4.573053116;1.162712038;-0.844845713;-0.549995529;2.236500564;-19.34941125;-13.91819683;0.975428964;-4.058578465;-0.047488324;2.535053444;-8.554697032;7.471111765;5.278163745;18.33835799;-2.50184697
-10.17767674;1.306839198;-26.46431798;-3.315879276;3.504743151;-0.50669787;-18.08012374;9.203070187;-11.77455366;-1.385002143;5.842909391;-4.943379527;6.122846776;4.19745003;-10.9034454;4.20229486;4.174400336;16.24645801;-2.851398047
-12.66820808;-2.545963899;-31.43684008;-4.64574173;4.796540087;-0.037807589;-30.73598333;11.48856982;-0.236832815;2.568118275;8.074501021;-6.296725926;11.02;5.950863758;-11.68509786;-2.10388637;2.633093314;7.216567851;-2.58862341
-12.74909303;-8.022596837;-24.24665114;-7.120987489;4.296956324;0.102961247;-32.28307441;8.192331347;7.638165031;0.116914057;5.917850829;-8.542463854;11.23923586;5.728734003;-12.26125401;-8.062402573;0.592334037;-4.849404774;-2.300277559
-9.548625703;-13.12037689;-12.01405313;-8.444773278;2.465549465;-0.210893928;-23.2103176;1.396925632;6.893223463;-3.605375154;2.603592619;-11.69003906;5.996098364;2.803139218;-13.66479493;-10.45512296;-1.479395963;-13.42884624;-2.422564382
-4.723533887;-15.23990405;-2.685182153;-7.768430548;0.388701923;-0.663156103;-10.22486061;-5.43272834;-1.82893674;-4.75621573;2.850308426;-15.33330762;-2.043330223;-1.511049733;-15.9571547;-8.34425579;-2.664005542;-13.65393691;-2.851589075
-1.171260101;-13.38333657;0.400045166;-6.657542491;-1.206661881;-0.793390981;-1.278287937;-9.696737659;-13.30580129;-2.938417375;7.886828709;-18.84877392;-8.389893775;-4.784911885;-18.23864933;-3.498508266;-2.301621588;-5.63386073;-3.124685804
-0.630169531;-9.330692972;-0.359670743;-7.698466999;-2.431912952;-0.425555688;0.087196117;-10.92491761;-21.47050781;-0.221676299;13.82003906;-21.51551991;-9.729050554;-5.298119525;-19.15440238;1.059632775;-0.718184884;5.578816911;-2.937881388
-2.221999704;-6.556515437;-0.161548876;-11.93440056;-3.830887565;0.166120402;-3.283934812;-10.36480929;-23.04277106;1.396721848;15.00920529;-22.51979779;-6.099335429;-3.287534356;-17.57080459;3.158889949;0.7768188;13.30936851;-2.466475832
-3.272675789;-7.596569724;3.645582757;-17.53127373;-5.573866271;0.501227129;-5.277619436;-9.54926436;-18.87321843;1.665250456;9.373900756;-21.0903478;-0.657001351;-0.656252807;-13.16955811;2.637989117;0.779081821;13.44024674;-2.183039652
-1.789816776;-12.04585595;9.553372405;-21.07191359;-7.101491886;0.319854996;-2.013306478;-9.157775082;-12.73324214;1.736089214;0.667206631;-16.95650584;2.716693149;0.541116186;-6.794530726;0.875420956;-1.097332051;6.571745155;-2.374772067
1.546964733;-16.97603839;13.72107947;-20.47825471;-7.606221279;-0.195707872;4.897789597;-9.002285506;-8.828761863;2.616176795;-4.53451584;-10.91329832;2.085770021;-0.43689062;-0.374436494;-0.629364627;-3.827031532;-3.023908909;-2.851653846
3.721961629;-19.51344437;13.69115779;-16.94582628;-6.898876613;-0.597034412;10.03926908;-8.86971983;-9.594570532;4.080492525;-2.513173964;-4.927062897;-1.569463176;-2.728918124;3.734303932;-1.302420939;-5.689143627;-10.47617835;-3.136740089
1.914136072;-19.35255175;10.69260204;-14.00937657;-5.793566537;-0.572330865;9.290078125;-9.227117083;-14.66409394;4.953281978;4.367982507;-1.375389363;-5.598955658;-4.821314046;3.886384684;-1.408726043;-5.545630539;-13.0512781;-2.946787852
-3.883211997;-18.89030342;8.651700313;-14.40154479;-5.558430508;-0.207097809;3.827662825;-11.02622168;-21.17275361;4.262465462;9.853754168;-1.690677684;-7.9;-5.793823834;0.23386737;-1.22737644;-3.647566183;-10.90690754;-2.481193443
-10.48063112;-20.68896631;10.83803159;-17.46326026;-6.848567136;0.123341799;-0.620083008;-14.75292601;-25.17858456;2.110316247;9.435366529;-5.323206842;-8.239947522;-5.806385867;-5.018805446;-0.530236635;-1.336754172;-5.995084351;-2.224072125
-13.84937735;-24.44980637;16.92368125;-19.54699756;-9.056367383;0.113154747;1.145452949;-19.60974342;-23.74241391;-0.376126048;4.314677983;-9.911688978;-7.779965048;-5.573191839;-8.638687956;1.034621592;0.04837708;-0.488879149;-2.447719055
-12.34980959;-26.39439191;22.77107791;-17.26688923;-10.69117241;-0.202048712;8.676229003;-23.64822955;-16.80392516;-1.701072966;0.095715751;-12.72104959;-7.516349064;-5.49145081;-8.257157574;3.106852766;0.106821958;4.045091923;-2.914099871
-8.107698501;-22.07984104;23.07975153;-10.82251942;-10.51054844;-0.503795989;15.32626682;-24.8712315;-7.672386894;-0.595879202;1.456397436;-12.38252293;-7.208533961;-5.302303731;-3.932820522;4.373503696;-0.59554349;6.604643343;-3.095422651
-5.285449902;-10.63514979;14.95324338;-4.342531553;-8.464055744;-0.507723356;13.18696864;-22.50647508;-1.366272216;3.650467336;7.788000683;-9.628124947;-5.761316603;-4.535086344;1.813577141;3.469200043;-1.293575462;6.561572387;-2.730435743
-6.607087573;3.20928062;-0.008730486;-2.653751954;-5.668984388;-0.23064209;-0.25557065;-17.50028915;-1.383729748;10.79188576;13.93039084;-6.432922551;-2.593034862;-3.177657124;5.707969711;0.384942907;-1.779836919;3.887529724;-2.180110514
-11.02907128;11.53146897;-16.26744238;-7.039803305;-3.472310375;0.041420236;-19.22734981;-11.88898344;-6.944730366;18.99185526;15.38849025;-4.249352882;1.414904398;-1.812162253;6.063280122;-2.960173186;-2.429830722;-0.448331187;-2.197019347
-14.55129958;8.784286383;-26.98895619;-13.64888905;-2.421430445;0.043019797;-33.19401666;-7.544486771;-12.95412624;24.55366351;13.11592054;-2.794577576;4.389652232;-1.03375598;4.019176826;-3.795417328;-3.540305411;-4.627501303;-3.259668202
-13.54443394;-3.600866412;-27.2090137;-16.17337072;-1.999472743;-0.207717019;-34.30149886;-5.189290033;-13.26478532;22.98570389;13.12745408;-0.436031627;5.013493796;-0.743844204;2.651040781;-0.606253892;-4.726420949;-6.952994953;-5.054976518
-7.834510709;-17.39103365;-16.06628415;-10.86982332;-1.277325116;-0.426387314;-22.96842118;-4.277514832;-5.251156122;11.57063365;20.86576043;4.105708221;3.751299008;-0.102480395;4.519525658;5.410821874;-5.079264962;-6.997278384;-6.605178537
-0.958193331;-22.87212921;2.633160123;0.102922443;0.159639156;-0.34183482;-7.265696455;-3.658953295;7.708942715;-7.956545194;35.26016991;10.17270429;2.585923041;1.683268281;9.510745509;10.89410583;-4.02484885;-5.878574918;-6.984098397
2.642729847;-15.66226821;21.61279195;9.861670689;1.838827255;0.031980082;3.329613661;-2.441198258;18.06591657;-28.87780869;48.14409764;15.13183231;3.39622964;4.407872637;14.70123998;12.62802982;-2.072897988;-5.269376651;-6.03852018
1.162814766;0.004177132;32.78156949;11.76649749;2.861363659;0.395237658;4.769863098;-0.469728486;19.29204838;-42.34696334;50.23422449;16.09012136;6.339826127;6.694762935;16.46512139;9.864891676;-0.643859355;-5.918122483;-4.504186671
-3.217038387;14.06433595;30.63185294;4.411262062;2.720948851;0.438470093;0.524856782;1.760024414;10.72639354;-42.38073264;38.99421401;12.10939067;9.645763491;6.923148174;13.26784342;4.793603705;-0.970822493;-7.025151354;-3.417567317
-6.25262704;17.52918728;15.10081927;-7.185943529;1.725168859;0.136892871;-2.377103907;3.539783445;-1.65960617;-29.7139456;21.63145567;5.172267156;11.02665101;4.580592301;6.980823294;0.770756696;-2.971343468;-7.114603294;-3.324447138
-5.192455325;8.492713428;-7.679278942;-15.07279796;0.676494785;-0.217084297;0.3092301;4.383544134;-9.351840646;-11.5776776;10.24720273;-0.941689635;9.52866782;0.897943975;1.641017391;-0.223269153;-5.123168165;-5.637489112;-3.944157333
-1.015317046;-7.006979811;-27.70755232;-13.86566776;0.157805433;-0.279445413;6.74367331;4.241663101;-7.305614955;2.770511304;12.71998641;-3.112989461;6.268408614;-1.857908964;0.54847555;1.185872362;-5.568183619;-3.740557624;-4.530931272
2.443512535;-19.60657063;-35.87201796;-4.228977723;0.091200433;0.025949081;11.3261984;3.469132738;2.567746025;7.756227528;26.64791715;-0.898102991;3.47345428;-1.957796847;3.89270543;2.779909731;-3.590371139;-3.293822476;-4.563360301
1.673055294;-23.04594527;-28.75204906;7.967061712;-0.06770557;0.432118926;10.31080146;2.622635424;12.96045115;4.417330623;41.30975976;3.315493525;2.693652638;0.567925206;8.69135696;2.98071153;-0.229458991;-4.903942055;-4.136208271
-3.669854102;-17.70881215;-10.56524129;15.81476114;-0.748003146;0.571387786;5.567107375;2.174376539;16.44985815;-1.384341164;46.04141167;6.027098025;3.717938478;4.015287065;11.03672782;2.243653519;2.518233118;-6.772753904;-3.741698762
-10.49896658;-9.137638711;9.20718923;15.64087771;-1.870906109;0.313851901;3.038395652;2.249654637;10.47515481;-3.829061395;38.19310685;4.896022034;5.056251594;6.302392428;8.89844043;2.360942684;3.266224927;-5.738452573;-3.705107067
-14.66833786;-3.31483483;21.30077267;8.540419239;-2.984877468;-0.11048095;7.141729436;2.534734359;-1.506141603;-1.240061035;24.33966493;0.00075213;5.450204007;6.423035607;3.389372415;4.368966386;2.263951345;0.040891135;-3.844517004
-13.93909953;-2.657556204;21.91305884;-1.310893891;-3.727911825;-0.319597522;16.0186868;2.468902322;-13.0538167;3.523519218;14.16827938;-6.578619842;4.999813254;4.943560091;-2.318975589;7.090979972;1.03415402;8.935148682;-3.68331741
-9.233027183;-5.540448457;14.40212314;-9.75853925;-4.115071106;-0.126799908;22.01262111;1.661465385;-19.22600158;6.17856941;12.52491109;-12.27147332;4.895976958;3.271609078;-5.420669287;7.835619939;0.965557353;16.25118845;-2.994855007
-3.47044505;-8.966529776;6.424875124;-14.83148459;-4.369267239;0.291410762;17.41516379;0.255478472;-19.10790353;4.72318506;16.34160423;-15.43003906;6.048056154;2.425933305;-5.311784063;4.811022352;2.095553263;17.25684804;-2.125232477
0.718484693;-11.53841828;4.517625187;-16.86143627;-4.515411906;0.559550887;1.005961059;-1.087824808;-15.0430448;0.734077732;18.67157327;-15.82044832;7.923049821;2.352700675;-3.555225973;-0.861961054;3.133330186;10.6487643;-1.741570189
2.438715738;-14.09334284;9.751910133;-17.17293012;-4.224725808;0.446060664;-19.99549687;-1.661574242;-9.985936956;-2.371824405;15.82326743;-14.22244611;8.748569658;2.255892952;-2.263594506;-5.491224116;2.681741825;-0.262249475;-2.204918175
2.218241955;-17.81193444;17.24452395;-16.73977039;-3.144974101;0.068848613;-34.4255675;-1.321194706;-5.517109085;-2.149506892;11.01480351;-11.74021121;7.01542913;1.502421357;-2.370577409;-5.49720043;0.573982262;-9.68260577;-3.151078235
0.711936028;-21.98468101;19.64603944;-15.71371013;-1.422072296;-0.22255324;-34.86781199;-0.701832809;-1.859490466;1.500123085;11.21867235;-9.336716517;3.016447314;0.230312017;-3.150387888;-0.321393861;-1.847289178;-13.20925903;-3.707805751
-2.052664076;-23.82994528;12.16921525;-13.73924202;0.155139564;-0.173939284;-22.7189172;-0.75604468;0.879978909;7.151851425;20.03230544;-7.645807388;-0.963508178;-0.840284071;-3.163843656;6.926386634;-2.754143585;-10.49852152;-3.208441414
-6.140555652;-20.72337609;-4.074948431;-10.44160014;0.661542938;0.143223362;-6.82918898;-1.878933255;2.002157559;13.43198428;33.09675024;-6.83910762;-2.106429183;-1.11903216;-1.629260333;11.77393906;-1.285941814;-4.798979131;-1.794100445
-10.60453914;-12.83597758;-22.36859903;-5.68992085;-0.155839796;0.409908491;3.124427495;-3.31685292;0.88092426;19.42126255;40.56099801;-6.479301999;0.910301882;-0.654785422;0.996744327;11.84490577;1.789673034;0.033327389;-0.363699214
-13.23365008;-3.6506052;-33.93194068;0.298982403;-1.486187665;0.368215413;3.424058245;-3.445704206;-1.863539695;23.5789759;35.03703151;-5.596456426;6.9035584;0.02818363;3.617117983;8.618227332;4.724309499;2.469383583;0.112618922
-11.82177028;2.371044247;-32.56628398;6.834791796;-1.923222808;0.067889305;-1.764206143;-0.864510523;-4.231828047;22.8754928;18.54988757;-3.219803552;12.98940594;0.559456587;5.596685273;5.996464936;6.151317301;3.867937212;-0.653144224
-6.096974399;3.157883631;-17.90287142;12.70674081;-0.51186504;-0.182200879;-4.449561348;4.441192944;-4.252383319;14.01175203;2.390508642;0.826541839;16.56957626;1.162662149;7.320468572;6.867494204;6.016565843;6.485945638;-2.07431231
1.406662422;0.601990235;4.254044619;16.52280993;2.451797875;-0.112627665;0.55364356;10.77240628;-1.718315167;-3.448188402;-0.6912249;5.492893489;16.9691117;2.446285833;9.72876083;10.57475058;5.37498284;10.92053633;-3.196365984
6.575367988;-1.061582913;24.49233904;17.47706246;5.548404598;0.239129495;11.53456601;15.57563631;1.54144112;-24.63562005;13.68353681;8.983925218;15.53765263;4.720365619;13.2902199;13.48556165;5.349672569;15.30319019;-3.443778712
6.371146185;1.221874687;34.00839178;16.03939085;7.230739995;0.547097157;21.20650955;16.96161406;3.39;-40.51902814;37.17696572;10.00435641;14.28367117;7.487232208;17.34802895;12.23029093;6.211632485;16.88522265;-2.970369085
0.961706991;6.81564247;28.59816963;13.85447903;6.912132355;0.490652029;22.11643127;14.8461668;3.649707288;-42.92699866;53.42557044;8.870848934;14.23521479;9.623664101;20.41527102;6.876267374;7.321287068;14.50089568;-2.363772821
-6.353372424;11.96822019;10.64215624;12.65604735;5.301144923;0.05541727;11.95054738;10.93867438;4.674717592;-30.24792961;48.64658502;7.500964553;14.82858808;10.15844632;21.17768505;1.278115858;7.843069339;9.668182926;-2.040198128
-11.43262509;12.95785679;-11.91949288;12.90506287;3.765620604;-0.43776403;-5.002960015;7.635290362;9.353218725;-9.325346774;20.76198754;8.08643959;14.69962391;9.011698517;19.40750205;0.172593229;7.484819652;5.367037166;-1.914768015
-12.10081279;9.145504835;-29.31410504;13.30559245;3.293361853;-0.606992227;-20.87295631;6.621942191;18.05962285;8.489019666;-19.14862496;11.36051395;13.09806372;7.079831765;16.12411953;5.328582219;6.595767265;3.618507045;-1.631094329
-9.403764762;3.403428999;-34.65956154;11.7926088;3.888220534;-0.340092773;-29.15842162;8.096280414;27.31461148;14.67861258;-53.72436208;15.83239394;10.69577644;5.596419697;12.95976357;13.91356847;5.639015162;4.005524889;-1.07825826
-6.475919533;-0.355783695;-27.24095574;7.369531101;4.798896403;0.115971404;-28.10671387;10.96101413;31.69833992;8.974211519;-69.5733808;18.70182944;9.120955558;5.285995886;11.2360193;20.46394023;4.655806158;4.362751913;-0.641942041
-6.009961721;-0.383561258;-12.46852752;1.328180969;5.249757926;0.383378215;-20.64344735;13.62881046;27.79360559;-1.224423759;-64.17667589;17.84468098;9.611277834;5.956135331;11.32968254;20.91413439;3.295834092;2.895692397;-0.896092303
-8.286069637;1.68324732;1.544047847;-3.274389369;4.979481986;0.286223909;-11.63039349;14.78218524;17.0066934;-6.887564499;-45.61425738;13.35462709;11.87669725;6.77054554;12.57578262;15.48219268;1.373811209;-0.24133734;-1.999009964
-11.14706078;2.528619764;8.777295189;-3.655150256;4.180400316;-0.015640791;-4.820891451;13.70420497;4.817552969;-4.081098904;-26.30452297;7.428385541;14.08255291;6.897512393;13.60266782;8.184734381;-0.654530978;-3.291975739;-3.383366931
-11.7556544;0.203283257;8.537403398;0.639410156;3.051049261;-0.205075463;-1.479722228;10.2851941;-3.11595354;3.808227059;-15.47067761;2.690940404;14.00075006;6.002729164;12.89135961;3.520773754;-1.861068868;-4.729706559;-4.099459836
-8.701636168;-4.183876267;5.136012762;7.262484733;1.52293919;-0.120139128;-0.947523203;5.023777315;-4.939111418;9.766672171;-15.01230076;0.307994992;10.51778848;4.289783697;9.428256036;3.109815627;-1.599217599;-4.762824596;-3.575513481
-2.950567066;-7.573398278;4.354062134;12.57757237;-0.51815404;0.098703297;-1.994487629;-0.887246747;-3.490672306;9.367426622;-20.51319137;-0.618807997;4.452563887;2.208917124;3.323565675;4.963468408;-0.173383131;-5.031267299;-2.139941222
2.860603499;-7.815253336;9.147172647;14.00898472;-2.76759958;0.164525699;-3.656086469;-5.664521454;-3.47915955;4.234430027;-25.67518085;-1.961387147;-1.862069443;0.164211749;-3.886862326;5.77313006;1.245979702;-6.737192972;-0.809711966
6.076274387;-5.68276385;17.48561195;11.47909309;-4.367551903;-0.050556224;-5.183620547;-7.544434112;-7.38824533;0.05106989;-26.77095468;-4.771413928;-5.94732321;-1.584405348;-9.626310722;4.082609544;1.487035704;-8.983436409;-0.472706232
5.429170584;-4.186113353;23.6811654;6.973294743;-4.405954812;-0.360579864;-5.728052146;-5.794870511;-13.52973476;1.14730534;-24.42121851;-8.320754335;-6.620612783;-2.89518157;-11.4495273;1.579272728;0.329792247;-9.016204239;-1.138073564
1.433297248;-5.731824894;22.16909512;2.777732038;-2.719358952;-0.423216716;-4.510343171;-1.487698734;-17.74810785;6.54765387;-22.16994057;-10.75578787;-4.635549585;-3.761762657;-8.511019414;1.448257174;-1.272557505;-4.408413207;-1.904449345
-4.178013599;-9.643684786;11.17629478;-0.104722869;-0.27677366;-0.073709956;-1.51299143;2.706038823;-17.16062174;10.93594029;-23.36618745;-10.75023539;-2.168902627;-4.388577241;-2.378156809;5.286562861;-1.927147138;4.564818037;-1.701723443
-9.371390103;-12.35823768;-6.003238115;-2.177098302;1.319251865;0.47849623;2.049725395;3.86530523;-12.67403953;9.601006722;-28.62080341;-8.706101075;-1.495952224;-5.153720886;3.570282027;11.30036507;-0.903279783;14.42450055;-0.201583137
-12.53510351;-10.34947956;-22.681346;-4.365835722;0.944377697;0.791010036;4.242213614;0.602138341;-8.201789436;2.913320537;-35.40705294;-6.473521229;-3.650262846;-6.330301213;6.026037928;15.40706092;1.296439447;20.45965903;1.863910266
-12.83339483;-3.420281849;-32.13735782;-6.750108888;-1.168433039;0.561031311;3.820151962;-5.911791971;-7.399105781;-3.707872884;-39.84766647;-5.845890903;-7.847582358;-7.711876835;3.781955603;14.39980278;3.341013015;19.75958336;3.248763861
-10.31581984;4.494984673;-30.69101173;-8.245764355;-3.515878218;-0.098111917;1.498084026;-12.48375737;-10.79488463;-4.413262354;-39.34238015;-7.116292077;-11.99547844;-8.51055894;-1.495572794;8.586069994;4.082218937;13.03686301;3.160298189
-5.894225668;7.945436493;-19.0914487;-7.459487084;-4.36730012;-0.730863076;-0.151305184;-15.76884239;-15.70042851;1.863154874;-34.23308933;-8.88682767;-13.96878869;-7.774519598;-6.366734535;1.721883377;3.334086693;3.96472399;1.862985117
-1.134664195;4.117704808;-1.979210308;-3.916150473;-2.98875777;-0.910714931;1.535841811;-14.2814433;-18.76987554;10.21263412;-27.41943707;-9.227765781;-12.8686751;-5.130885939;-7.862606933;-1.742209859;1.842145074;-3.289809517;0.448841969
2.231767912;-4.723276181;13.9888634;1.387154775;-0.127122635;-0.588807595;6.97676386;-9.226146251;-18.83559717;13.79828134;-22.26871845;-7.165143057;-9.48475356;-1.277681808;-5.285383551;0.068460099;0.582879922;-6.383599136;-0.008687014
2.995589056;-12.52753789;22.56479369;6.514977241;2.575939494;-0.115874844;13.25929937;-3.629297123;-17.57396937;9.815545407;-20.36395042;-3.287493537;-5.676181902;2.275044538;-0.313916004;5.214770441;0.062037746;-5.405344493;0.776315987
1.033487635;-13.62213142;20.21514257;9.743415054;3.741184427;0.078635584;15.47844522;-0.411096869;-17.60625752;2.254535191;-20.73903646;0.892212138;-3.093661417;4.155284038;4.531868837;9.636068563;0.179229107;-1.783904357;2.191193925
-2.609307089;-6.63902601;7.65569799;10.46318853;3.092486824;-0.136123556;9.929773174;-0.708664709;-19.89858192;-1.103642256;-21.12026637;4.106116181;-2.118349292;4.102092988;7.773871587;10.37100121;0.644786795;3.18025222;3.283205929
-6.236678183;4.703241198;-10.09469798;9.30189484;1.425282647;-0.49144382;-2.953715839;-3.489471091;-22.80982668;4.772220149;-20.12456666;5.970323243;-1.758088093;3.178843284;9.730465869;7.789100388;1.438767668;8.858691193;3.476721966
-8.37016729;14.43358957;-25.56834938;7.575053163;-0.129880918;-0.577212584;-18.15019216;-6.53870713;-23.53320117;17.37127579;-18.57667586;6.666801983;-0.570639946;2.986199779;11.67159955;5.189162883;2.835390768;14.77007813;2.884736506
-8.489538778;18.51476583;-32.16528535;6.557755027;-0.887579794;-0.221450775;-28.72252043;-7.995210656;-20.52850909;27.64013332;-18.79207793;6.211837937;2.065481269;4.429864019;14.24212684;6.194408123;5.002622852;19.94264824;2.056986322
-7.229231246;17.23427971;-27.41878021;6.975448165;-0.871654298;0.350070801;-30.00788378;-7.376615394;-14.77780773;26.26147202;-22.35593118;4.224079208;5.286417929;6.989907845;16.58137751;11.98750329;7.629684791;23.12178414;1.479675116
-5.921612631;14.22214632;-14.30484817;8.799924159;-0.526211136;0.712587082;-22.47818701;-5.548904271;-8.896317305;10.51902302;-28.25651513;0.530439769;7.209456369;9.075209797;16.91055572;20.40213324;10.00535017;23.75470722;1.275581034
-5.742453367;13.19051712;0.42849364;11.27682169;-0.275324351;0.615114177;-11.23549497;-3.887693731;-5.082751906;-13.41397672;-33.05420317;-4.005006048;6.221856114;9.201092953;14.07992046;27.38857268;11.50976487;22.70163454;1.284381462
-6.942092028;15.11551973;10.13001953;13.18511529;-0.32884117;0.191577922;-2.483477342;-3.349919348;-3.791903632;-34.39285824;-33.14531223;-7.427227077;2.167425156;7.084879644;8.761348245;29.65156661;12.05358605;21.71102566;1.329281029
-8.625089279;17.96046355;12.0003578;13.39140461;-0.773052525;-0.173050698;0.478823653;-4.057277325;-4.126559344;-43.40585593;-27.4196142;-7.787760726;-3.422801758;3.835447264;3.293202248;26.59159812;12.02901787;21.84735726;1.352654019
-9.26579562;18.83007813;8.351283013;11.58126435;-1.676499632;-0.19178909;-1.129876965;-5.493461129;-5.230724793;-38.7109447;-18.20223388;-4.659610074;-8.208956586;1.140547309;0.306941268;20.39918539;11.8080419;22.20842884;1.312095702
-7.72237831;16.52863792;4.568711984;8.735637907;-2.988308854;0.078905503;-3.356363335;-6.979802846;-7.0947546;-25.70212184;-9.707653558;0.231894636;-10.39473595;0.12319389;1.204987327;14.53344962;11.28151936;20.27046315;1.02437216
-4.14952876;12.3863402;5.166172907;6.855620584;-4.325995305;0.313658218;-3.05901254;-8.020825064;-9.949562101;-12.314952;-5.224349261;3.982534502;-9.636168994;0.730408587;5.554474241;11.78204974;9.925310004;13.9098756;0.214600711
-0.161839362;8.863125372;10.57723079;7.86483965;-4.973425066;0.234395144;-0.272371935;-8.360414824;-13.02101854;-3.827751332;-5.221087552;4.491418532;-6.987456722;2.02138079;11.61422069;13.07459326;7.389372257;3.622896939;-1.20066266
2.006045499;7.350334603;16.78991782;12.29655447;-4.266823554;-0.12650372;2.456368148;-7.878061738;-14.22410746;-0.70694183;-7.7090445;1.929203432;-4.08246704;2.994716007;17.34014969;17.46188511;4.081825883;-6.944764667;-2.858865322
0.921835266;7.157944223;17.99724141;18.71493184;-2.147131985;-0.455259225;2.976479213;-6.535636146;-11.54105846;-0.254062544;-10.27383217;-1.511093531;-2.21373185;3.244568491;21.07028631;22.89634065;1.163361426;-12.87343655;-4.032151583
-2.972934081;6.503534366;10.49003906;24.42;0.603239752;-0.445890679;1.939834531;-4.443113751;-5.088140178;0.158557761;-11.88514437;-3.412447518;-1.872110405;3.001726878;21.6828258;27.18383909;-0.140673411;-11.08982641;-4.072875318
-7.480774031;4.49912704;-4.670870163;27.05780809;2.744228111;-0.081268532;2.366825683;-1.930929197;2.095218001;1.183737371;-13.00591707;-3.021320242;-2.832361754;2.696483041;18.65577503;28.70796867;0.609120534;-2.506530406;-2.899334156
-10.02749715;2.256464784;-21.78259204;26.02756095;3.38023476;0.349986795;6.561984742;0.515406886;5.662076888;2.073015568;-14.2152933;-1.670004883;-4.475360852;2.541049185;12.4471255;26.85948044;2.750652551;8.411447129;-1.106254948
-9.419558746;2.032826589;-33.28260675;22.68752365;2.581251741;0.512334143;13.08903664;2.465761107;3.062962851;2.468407882;-14.94918166;-1.406274789;-6.03532764;2.489718815;4.97455217;22.20897936;5.007417734;16.38665223;0.430418298
-6.694960959;5.096806132;-33.59864955;19.25873563;1.314850792;0.319403794;16.77707909;3.748442444;-4.247168652;3.270407439;-13.77090946;-3.034173588;-6.747373328;2.492102802;-0.574072728;16.3603159;6.378138532;18.4648859;1.158379149
-4.352227638;10.17867404;-22.05354753;17.30346737;0.71805364;2.33283E-05;12.31717142;4.473962207;-11.41500761;5.677981079;-10.00848348;-5.294308328;-6.076135739;2.662821149;-1.103020443;11.38085563;6.709241983;15.43898274;1.178232714
-4.450155074;13.95778907;-3.418057893;16.90634449;1.27537978;-0.119557371;-1.166533097;4.855110987;-13.38334216;9.5119727;-5.129999937;-5.949140619;-4.08394622;3.121766882;4.381469179;8.900019531;6.532699131;10.77184425;1.039562151
-7.002307062;13.36589251;14.135155;17.03801903;2.543823573;0.086123109;-18.39101157;4.982083554;-8.377128526;12.76518889;-2.293966232;-3.880893231;-1.681985314;3.657161136;13.54475291;9.278023443;6.396049086;7.99042731;1.200237776
-9.946087989;7.948355807;22.75688402;16.61822817;3.608836444;0.433380757;-30.86043894;4.761056643;0.900039063;13.17741445;-4.121784251;-0.371672728;-0.385075825;3.613518202;21.52872254;11.36185912;6.322428612;8.42318014;1.628877714
-10.7661032;0.406382991;18.63300852;15.33885384;3.858246917;0.602302298;-32.57655073;4.085864663;9.194517072;10.57496429;-10.45434614;1.645178609;-1.494409168;2.240342431;23.66235028;13.07614815;5.865546432;10.66964185;1.892435827
-8.508375396;-5.15562244;3.880499108;13.68464672;3.430177809;0.426195889;-24.19140386;3.096068195;12.23843822;7.687950621;-18.07301379;-0.126426703;-5.166165379;-0.705060269;18.38648856;12.57787013;4.649716514;11.8646405;1.63305248
-4.549038142;-5.973548953;-14.46026947;12.3698647;3.006357171;0.033384959;-12.31158566;2.26760127;9.284356131;8.239660351;-22.80315202;-5.367570393;-10.09297476;-4.606776423;8.282761419;9.311061739;2.843630309;9.676358454;0.988501045
-1.45460183;-2.323504859;-28.01658531;11.84418634;3.188999307;-0.280278276;-4.450815632;2.191007611;2.975788995;13.49571421;-22.40758095;-11.17505414;-14.19026861;-8.250296776;-1.660652061;4.332159868;1.103372811;3.753331009;0.559091856
-0.847523723;2.989773007;-31.43833008;12.25724021;4.021076457;-0.32201447;-3.616079928;3.148420819;-3.009141945;20.12056074;-17.99;-14.20222696;-15.92007813;-10.55981416;-7.364789805;-0.274576362;0.035914573;-4.070754424;0.928109721
-2.064954604;6.806089956;-25.03623397;13.66329187;5.029221844;-0.164955767;-6.780986484;4.803819371;-6.556607502;21.54883561;-12.88056646;-13.26176552;-15.30953792;-11.26640824;-8.136712053;-2.524186936;-0.309991378;-10.69712758;2.145525162
-2.788112308;7.711905672;-14.05508154;15.97842818;5.681058506;-0.060071106;-8.261882944;6.293017145;-8.08388314;12.43611342;-10.06211685;-10.29232162;-13.86245801;-10.99453102;-6.512127239;-1.548900801;-0.44415313;-13.2048722;3.630303464
-1.172243403;6.575698967;-4.986925427;18.5778804;5.805459346;-0.188405625;-4.943715328;6.730136664;-9.466735669;-6.868034349;-10.28822236;-8.849614697;-13.38352651;-10.71465828;-5.725086224;2.019128288;-0.920849013;-10.16410709;4.593750477
2.315256907;5.378343299;-1.334936505;20.03809947;5.61668258;-0.487775891;1.162703576;5.820163214;-12.05593082;-29.31522297;-12.23503097;-11.25818561;-14.60202919;-11.00752228;-6.922806813;6.428271707;-1.784670277;-2.33834512;4.641344887
4.985975812;5.51;-1.71350297;18.6608291;5.391345815;-0.711722907;5.147672796;4.136065624;-15.37977432;-44.81883097;-14.14457767;-16.65930056;-16.67100948;-11.70548616;-8.388831052;9.684342594;-2.491614277;7.499158423;4.057043298
4.016183816;6.932849273;-1.579870846;13.76833132;5.170621412;-0.659818451;4.101128838;2.813593144;-17.38878587;-46.36655417;-15.21445793;-21.51607168;-17.93232997;-12.13794358;-7.340612695;10.46830869;-2.388062349;15.65451974;3.540237387
-1.118281955;8.685671689;2.75475455;6.846541788;4.799826739;-0.362523937;0.173096393;2.825708099;-15.91242575;-34.4196217;-15.52591693;-22.21819753;-17.31401865;-11.71722292;-2.716598821;8.687209018;-1.322971581;19.14817964;3.619526786
-7.899205632;10.01493855;10.93762511;1.356268188;4.249277706;-0.052117769;-1.144779486;4.328164096;-10.26283001;-16.49644778;-14.95760905;-17.79122503;-15.2070259;-10.37163284;3.461622224;5.447826767;0.152621537;17.14973349;4.225027349
-12.4448487;10.98517484;18.73802778;0.879214677;3.851556076;0.046894999;3.791418018;6.553314691;-1.982200085;-2.212955268;-12.62094912;-10.64830421;-13.09969193;-8.523363602;7.383993909;2.487895954;1.177444584;11.39231282;4.755963744
-12.3616338;12.05273644;21.49490787;6.661369727;4.148023211;-0.090260147;12.67960957;8.348780519;5.679003027;2.736900546;-7.758880928;-4.853952928;-12.28611515;-6.714611244;6.416197277;1.325080284;1.22586829;5.212664405;4.5701596
-8.510758665;13.1411378;18.11712569;16.37661438;5.416385529;-0.288963051;18.1644313;8.976599164;9.301366511;-0.489632664;-1.336324825;-3.268988797;-12.74723816;-5.243230565;1.32681415;2.526255123;0.467816635;1.693398709;3.494670568
-4.25783295;13.25767152;12.31089319;25.26241665;7.294832276;-0.35800288;13.453433;8.57757835;7.12656338;-5.840671712;3.533371787;-5.730304459;-13.16901489;-4.087460497;-4.073926155;5.477217034;-0.423012683;2.018659052;1.96891292
-2.786915687;11.19110076;9.789965407;29.04957857;8.890780094;-0.275386356;-1.790280886;7.951309692;0.240376471;-7.42493874;3.384701622;-9.528245636;-12.11082732;-3.101128325;-5.662625182;8.798351455;-0.796551701;5.070039063;0.744082874
-4.619950012;6.786386522;13.4576569;26.65958572;9.363639018;-0.200597301;-20.28014648;7.836843877;-7.682506316;-3.758172418;-2.653444578;-11.64419588;-9.357135597;-2.237516815;-1.98701153;11.18230435;-0.422812554;8.468391998;0.398594965
-7.311865388;1.650370811;20.38871479;20.70200559;8.545576207;-0.305512367;-31.9593026;8.285257517;-12.23313912;1.830024414;-11.32265516;-10.93464024;-6.296612847;-1.592033922;4.783861417;12.14236081;0.526701127;10.27979327;1.024471122
-7.534984397;-1.498442401;23.30953232;15.41764027;7.09386717;-0.58925747;-31.2142547;8.651022574;-10.89084404;4.559845264;-16.91373239;-8.641521923;-4.943508738;-1.264927125;10.59215781;12.18328201;1.786738478;10.18609238;2.256418548
-3.861053973;-0.532590463;15.89208713;13.64085413;6.02943075;-0.856930062;-20.74212536;8.22019309;-4.802759045;2.392175948;-15.32532648;-7.020352762;-6.32068224;-1.209913576;12.4626813;12.2823677;3.231081908;9.378614082;3.543284901
1.9706234;4.544816878;-1.913697244;15.05848129;6.008633725;-0.886430416;-9.015443597;6.943196143;1.70669776;-2.343449477;-7.373305347;-7.329001491;-9.464194648;-1.209666148;10.41109419;13.0649347;4.80879019;9.396498707;4.428074404
6.266387877;11.40073665;-22.63896096;16.96025057;6.885441136;-0.629583262;-3.483775679;5.616505813;3.952474788;-5.043862854;1.559022568;-8.789576476;-11.85261838;-0.968475845;6.981469487;14.30331569;6.316058502;10.85409173;4.678333724
6.080902435;16.7146976;-35.47276476;16.69629483;7.878701005;-0.260626985;-5.073304259;5.296961764;0.304638587;-2.759513498;5.602994416;-9.231639645;-10.98535881;-0.214153533;5.046844951;15.1395736;7.331189761;12.97415719;4.276010817
1.316800985;18.13332857;-33.21750512;13.78639727;8.177660715;-0.026980603;-8.345430487;6.394567112;-6.317329857;3.351812561;3.098560908;-6.764588587;-5.99041386;1.25070576;5.776187424;14.86777087;7.474173531;14.1694094;3.367014692
-5.302233223;15.50730192;-17.20129978;10.05318843;7.498874285;-0.040027313;-6.886606375;8.213870625;-10.28982925;9.039154981;-1.985630592;-1.112512934;1.831920071;3.497427204;8.301261845;13.6427292;6.788527602;13.16915931;2.228011938
-10.22235957;10.68272215;3.393601659;7.852110241;6.193605346;-0.196530827;0.833381482;9.390622933;-7.436999286;10.5247761;-3.270336638;6.331994932;9.804819459;6.353455828;11.04614903;12.50322691;5.852836749;9.908898618;1.217562459
-11.42909386;6.18716809;17.44782767;7.999852957;4.891658488;-0.296457937;10.14717999;8.93069215;1.517614892;7.606375621;2.658392744;13.5740188;15.35549839;9.274044386;13.308433;12.62964278;5.427962741;5.680491779;0.661074938
-9.502093576;3.829979381;19.03247008;9.128183127;4.016541547;-0.239304772;14.44053636;7.015079508;10.98069311;3.705261799;13.13080373;19.2104143;17.18104222;11.38411738;15.63895543;14.39342822;5.872245792;2.547122891;0.698225613
-6.80030402;4.067009477;10.85666908;8.900151885;3.547257207;-0.111175018;11.18313552;4.875441619;14.26685694;2.851840217;21.22490214;22.83983357;15.50691103;11.81850068;18.79170829;16.97185602;6.813635931;2.371560472;1.203832204
-5.601108023;6.233148411;1.734464359;5.974167893;3.146771677;-0.083063727;4.422250983;3.794695465;8.432350723;6.183567998;21.18216137;24.59494694;11.57203602;10.24250689;22.36535507;18.88541624;7.393151108;5.871911432;1.871636192
-6.594523256;9.121642991;-0.04930289;1.080599698;2.477066753;-0.223260686;1.448751544;4.036991931;-3.521540459;10.95950017;13.01915137;24.48686123;6.913463941;7.199270409;24.54215585;19.07525885;6.918697659;12.05332236;2.423277614
-8.640078125;11.37709552;7.225391834;-3.568463194;1.423609713;-0.410168109;6.352631061;4.61215115;-14.83;12.99257136;2.544653081;22.32248953;2.908881825;3.956996866;23.32990666;17.67695104;5.407920677;18.30543647;2.786442739
-9.701411053;11.64520471;17.48911198;-5.906303638;0.096347618;-0.436598294;15.93322908;4.108835116;-19.85892575;10.49418937;-3.227595441;18.3004096;0.60823453;1.863378497;18.33092652;15.86818964;3.57884837;21.3339372;3.097290557
-8.183947545;8.822872069;21.28098024;-5.297876252;-1.310353306;-0.212088376;21.59307637;1.929016693;-17.88264639;6.036067675;-1.467375653;13.63907202;0.607364376;1.609587654;11.51199508;14.91842613;2.303655782;18.74743475;3.526645119
-3.8812461;2.637193133;12.66386429;-2.573141782;-2.627945348;0.129488515;15.94262526;-1.108690398;-12.85236365;4.776865697;4.714236674;10.44472552;2.824300949;2.917753628;6.207487189;15.23314693;1.975778246;10.59915266;4.081788872
1.84706309;-5.737947465;-6.179779704;0.950973595;-3.709898737;0.32776959;-1.068847535;-3.322371988;-9.567450153;10.14988348;9.473970331;10.64394522;6.352436484;4.863520349;5.011635781;16.19038449;2.281412968;-0.123611587;4.556125419
6.627860936;-13.68379062;-25.89621178;4.435684327;-4.373657984;0.220281536;-21.40054104;-3.433213807;-9.600058594;20.39635763;9.547282565;14.66628147;9.698714468;6.557468628;8.116238379;16.87855499;2.498938868;-8.713503539;4.666513719
8.114388089;-18.15310108;-35.86190627;7.667643684;-4.401663859;-0.107288759;-34.2395011;-1.496007425;-10.41302438;28.85419908;7.053758269;20.91286;11.47276927;7.644617054;13.30268047;17.03574998;2.018641192;-11.28050808;4.253843804
5.160167777;-17.31221292;-31.04822125;10.49191074;-3.641521419;-0.384567016;-33.37520903;1.26414158;-8.273805581;28.10045926;7.382691209;26.54557075;11.16876958;8.270951837;17.52094547;17.27905373;0.658077604;-7.156762538;3.377245597
-1.36875548;-11.75233257;-15.19199588;12.32803373;-2.135784605;-0.38296755;-21.13328546;3.519554304;-2.237855528;15.08738697;14.00075498;29.14741861;9.483437321;8.646295942;18.83390545;18.33589335;-1.388266599;0.513627308;2.243781492
-8.688723313;-4.307122092;1.86872392;12.4098422;-0.175726255;-0.107765456;-6.159413611;4.84482128;4.463033346;-6.399657545;24.71472881;28.11981105;7.87710263;8.678365172;17.35964744;19.95135427;-3.770704326;6.653933525;1.071530463
-13.33074149;1.576980247;10.84732268;10.57850573;1.767942417;0.210995156;2.958540778;5.777187943;6.997468277;-27.70941174;32.75023106;24.85242451;7.636789662;8.053855177;14.72912327;20.58962285;-6.085804049;7.542036453;0.030592426
-13.03519374;3.893717491;9.071227038;7.804349592;3.201859406;0.316049195;3.338280325;6.937144847;3.297169556;-40.32327274;31.95294835;21.601265;9.092357375;6.689790147;12.70233651;18.48937269;-7.79829414;3.291165774;-0.701361017
-8.184480978;3.142304425;1.792094141;5.768558234;3.785440154;0.131503495;-1.215431047;8.108554279;-3.672114196;-40.4986675;21.90062521;19.9393395;11.53082886;5.090474693;12.06410076;13.43629777;-8.214963895;-2.292191361;-0.882512718
-1.687999879;1.660133743;-2.109562322;5.687290495;3.472370596;-0.197047253;-4.063056189;8.249513806;-7.918625589;-30.68083741;8.691956903;19.89146764;13.82169703;4.19155622;12.48257212;7.772860247;-6.754756909;-4.475431199;-0.291518415
2.828880248;1.733071148;3.052403718;7.330533489;2.578387941;-0.452586368;-1.085174939;6.542210825;-5.223226443;-17.2223407;0.669462407;20.27323131;15.23431941;4.73025264;13.15341847;5.49482795;-3.440687255;-1.047360008;1.048022984
3.412689702;3.886060372;15.2958876;9.143742979;1.721570603;-0.538800234;6.461281985;3.543302454;3.252132007;-6.357233186;2.429028794;19.82442672;15.82197025;6.642323153;13.52177329;9.691713183;0.803337662;6.076711237;2.693677938
1.039730198;6.595079782;26.08464772;9.50293322;1.58874546;-0.538877982;13.28207455;1.244298948;11.64300166;-1.120492144;11.79987434;18.19331339;16.13504319;9.0216047;13.52925715;20.03235434;4.451980636;12.29879605;3.888465976
-1.25839498;7.567638885;26.30412073;8.15129856;2.570813008;-0.599975749;14.07924036;1.715431668;13.88872566;-0.767592933;22.01450436;16.06466798;16.57486748;10.7287393;13.39630972;32.26632274;6.230343194;13.76231252;3.977380338
-0.81731034;5.558343401;12.88384835;6.627173219;4.453455638;-0.767664795;7.132243044;5.303922581;8.398295582;-2.379805274;27.12722366;14.47425139;16.96158996;11.18292746;13.34383458;40.42943818;5.953418656;10.18168882;2.882703707
2.522561749;1.32319157;-8.647525982;7.23782588;6.414923124;-0.935428969;-4.890622086;9.940940899;-0.915670575;-3.14681028;26.29101171;13.97345548;16.6723015;10.70259637;13.5603793;40.46568398;4.677668738;4.947590391;1.257705108
6.245761403;-2.971186765;-27.51010074;11.2803932;7.445305526;-0.95585404;-16.93584059;12.36727524;-7.970526456;-1.887382073;23.65308307;14.32053883;15.21403997;10.13587261;14.32304773;32.80972452;3.958336856;2.458854221;0.122642375
7.122257378;-5.35767467;-34.56807371;17.84129288;6.998138141;-0.799246999;-24.59096704;10.53111091;-9.337977655;0.748225424;24.27661887;14.83840678;12.74188754;10.11844292;15.94616642;22.08751643;4.713941624;4.753979551;0.176541045
3.758749961;-5.41325418;-27.94957874;24.11352205;5.437898532;-0.597669152;-26.11144565;5.321729383;-6.574852359;3.098070407;29.59327899;15.00085556;10.0879999;10.59439545;18.42081482;14.11176937;6.556347901;10.03623636;1.270556146
-2.287718929;-4.316391887;-13.59252587;27.06158254;3.900407569;-0.524075417;-22.56602833;0.161766508;-4.338970494;3.683967504;36.02025835;14.68555501;8.261136962;10.97812486;21.02366719;12.27850537;8.11941968;14.20404083;2.465375662
-7.703374279;-3.646222358;-0.624112558;25.28671399;3.570628287;-0.620215561;-16.58775161;-1.399249843;-6.170233452;2.184349061;37.65216437;13.92547024;7.778891765;10.7587283;22.36432295;15.84134456;8.145346779;14.16394816;2.686576677
-9.918450785;-3.951477551;4.898337131;19.82056202;4.842740118;-0.744106855;-10.83725288;1.666974727;-11.64276161;-0.25759091;30.73103583;12.50378689;8.302469523;9.969811689;21.05364727;21.07587446;6.488466234;10.32413339;1.532969633
-8.883085075;-4.284590611;3.448767879;13.35820581;6.98344814;-0.699160407;-7.008837686;7.013427485;-17.16466027;-1.62410703;16.44928116;9.88843424;8.808535835;9.100482589;16.62350841;24.20089692;4.264029925;6.300387883;-0.357444783
-6.746744947;-3.110699928;0.58162517;8.525908231;8.595596713;-0.431867525;-5.567621498;10.55652129;-19.40573634;-0.336292868;0.221255521;5.658747652;8.16396598;8.557986503;10.01187061;23.76466092;3.047645959;6.018098778;-1.684088438
-5.848178824;0.120744751;2.109121182;6.388509752;8.584994218;-0.109879487;-5.97787923;9.389916935;-18.12584972;3.45094708;-11.67075543;0.067506636;5.738385044;8.214688353;3.176503985;20.87850575;3.763163177;10.41233347;-1.366529716
-6.801145685;4.038748539;9.665814019;6.152743845;6.928862928;0.00598104;-7.137847447;3.78452097;-15.94171318;7.596549254;-15.46192105;-5.809140517;1.720275762;7.493310799;-1.947272373;17.54446859;6.09661914;16.28349872;0.683616274
-8.277963046;5.926717305;19.71309679;6.151464141;4.67077511;-0.207631183;-7.86907962;-3.171910984;-15.49298111;9.293259876;-11.21885514;-10.55850415;-2.983393283;5.936157467;-4.41134423;14.80151729;8.812550885;18.29768193;3.454560426
-8.542434788;3.560538461;26.23176164;5.329736108;3.148798076;-0.609571057;-7.376535946;-7.900623747;-16.83733767;7.299596567;-1.866352179;-13.22126801;-7.159390062;3.734536801;-4.472284806;12.31949102;10.64007813;12.8029262;5.476560866
-7.239909818;-2.952038949;24.76219725;4.163765333;3.047844536;-0.893280392;-5.559464235;-8.769693768;-17.58283424;3.401297121;8.743528908;-13.76306183;-9.792318017;1.70228221;-2.996989857;9.581311788;11.02227983;0.76895475;5.772743678
-5.767003122;-10.71907222;14.94626698;4.375436703;3.986658541;-0.834655658;-3.031831779;-6.844609193;-15.60530394;1.601924857;17.29024656;-12.86442545;-10.44406221;0.668635212;-0.633355263;7.27610391;10.2411427;-12.27719634;4.468137125
-5.865640047;-15.49713841;0.320770415;7.638850928;4.911562612;-0.475575822;-0.795294894;-4.593176746;-11.68557623;5.134248825;21.55055303;-11.25460981;-9.364263735;0.802699584;2.538932159;7.332712291;8.988828716;-19.38375729;2.658471222
-7.733868563;-14.19768971;-13.79468913;14.16102261;4.935367181;-0.083188834;0.3325444;-3.785232324;-9.379752847;13.31207422;20.55901709;-9.207597935;-7.292853786;1.473450018;6.636437163;11.32149735;7.851836121;-16.35064605;1.658532131
-9.446932149;-6.84655704;-22.58036823;22.12388333;3.945726506;0.078065232;0.285584856;-4.305466411;-11.96926882;20.85445217;14.83417676;-6.649018813;-5.044558732;1.797347361;11.30743933;18.57444581;7.109189254;-4.249315696;2.159965545
-8.369931031;3.337502791;-23.10927324;28.43541713;2.549782952;-0.039353263;-0.005548352;-4.668897088;-19.13477546;20.79128342;6.476052039;-3.72665251;-3.087308596;1.419689767;15.48453591;25.83726057;6.8575198;11.26924951;3.853046709
-3.473879999;11.85475232;-14.96716854;30.39230959;1.490014648;-0.25046001;1.043201467;-3.570652483;-26.47427031;9.321283255;-1.426918486;-1.21390716;-1.364344839;0.852042981;17.90676822;29.08609426;7.168778055;23.31223362;5.715933707
3.41169718;15.59527305;-0.599928202;27.24343275;1.071207369;-0.324715102;4.7004577;-1.051526285;-28.60915676;-10.83134396;-6.163573825;-0.212445111;0.508168761;1.053131121;18.06719337;26.28422707;8.035506727;27.52032307;6.717475132
8.574420446;14.51012006;14.75060034;20.67045584;1.058052943;-0.199046161;10.70134755;1.637494292;-23.43527669;-31.28344308;-6.740580498;-1.257632902;2.782712906;2.585868063;16.80197408;18.92983055;9.168712059;23.9634213;6.435500355
8.964616739;11.20182673;24.32297438;13.87271555;1.046775654;-0.023177943;16.56782794;3.183145249;-13.91324077;-42.83685115;-4.110623596;-3.562382903;5.19456479;5.053808837;15.94325885;11.10812036;9.939707134;16.23417972;5.205899397
4.349209072;8.789482876;22.69172235;9.82889802;0.906104756;-0.002615442;18.27703939;3.262424763;-5.760234504;-41.05639372;0.01334109;-5.168394649;6.984557372;7.298578123;17.16618109;6.736924195;9.655873064;8.688875144;3.774590878
-2.576266102;8.601633947;9.081632069;9.81438585;0.874431334;-0.192043117;12.42079889;2.617372301;-2.867872895;-28.69536708;4.803921608;-4.103392693;7.397008678;8.217120206;20.81026641;7.132339565;8.025104986;3.855612986;2.756578105
-8.123353308;9.352726052;-11.16303464;13.03453355;1.265017344;-0.435308566;-1.151582309;2.235341082;-4.247337556;-13.37935714;10.9405404;0.214786121;6.341195445;7.56027801;25.52842829;10.70254742;5.429937673;1.642645836;2.291571243
-10.0162065;8.371421152;-28.6857902;17.45529876;2.109569404;-0.509089723;-18.04433186;2.498681695;-5.062533828;-2.430620451;19.54756015;6.401470461;4.707804154;6.106479469;29.04867618;14.77796689;2.746229845;0.517416531;2.095342334
-8.461798596;3.939291854;-35.16871008;21.1413327;3.109860108;-0.33574157;-30.82985856;3.081333747;-0.88730357;1.354929723;30.34470532;11.88142851;4.008777766;5.112841819;29.55528661;17.84830815;0.81702033;-0.599697289;1.803565794
-5.314093511;-3.034437936;-28.24808023;23.19402991;3.945108641;-0.064596335;-33.0752779;3.570202358;8.375059102;0.218806363;40.77614136;14.52333257;5.477103699;5.490287062;26.78271725;20.28241676;-0.011925655;-1.346056101;1.312899933
-2.333223963;-9.303036734;-12.83066602;23.82252106;4.618138831;0.058177722;-23.54144054;4.07520193;18.16196766;-1.481243726;47.16714966;13.95588658;9.193402079;7.296245197;22.14431782;23.08565079;0.052227958;-0.545460332;0.863927578
-0.11086793;-11.38676361;2.315612116;23.77219249;5.470921719;-0.08544925;-7.517846295;5.141169297;22.74203493;-0.861539489;47.16928821;11.61154856;13.86088344;9.82187966;17.88329901;26.06783082;0.587135228;2.248444286;0.828572216
1.594888345;-7.98231964;10.36971981;23.71127751;6.816694379;-0.372609211;6.156071887;7.019509051;19.60776274;2.001950585;41.47660403;9.51149731;17.45114117;12.08758155;15.84022404;27.32557359;1.33836149;5.783648368;1.386814492
2.759580053;-0.924677363;10.49069553;23.99043675;8.524742701;-0.545855764;10.77327373;9.064881179;11.20935307;5.27730358;33.27090264;8.752350399;18.3534778;13.33880196;16.58281874;24.70561526;2.299314262;7.718818533;2.344073347
2.540397852;5.986153862;7.251402543;24.7086475;9.980193337;-0.445412926;6.241587966;9.990486936;2.784613468;7.554188836;25.7915259;8.833296323;16.30161336;13.27432327;19.31084433;18.0148784;3.460872782;6.434074717;3.218384287
-0.036413536;9.411207351;6.221335833;25.74593933;10.52322639;-0.157476294;-1.062137618;8.934641081;-1.72646859;8.846338446;20.13938504;8.254299146;12.48920127;12.03046776;22.43301637;9.902801794;4.53588046;2.534408924;3.521997297
-4.751931711;8.389235965;9.39978564;26.61373606;10.02517816;0.057241664;-3.248111629;6.464878915;-2.267763195;9.838104363;15.29588273;5.819599027;8.82613274;10.0890874;24.37790579;4.373093961;4.989918203;-1.358366732;3.031941473
-9.584752622;4.449882378;14.13447534;26.38199631;9.091672207;-0.007567859;2.855151379;4.554513343;-1.808328152;10.66341444;10.33074489;1.599256096;6.846709103;8.182267374;24.2066487;3.935544061;4.40585319;-2.578016138;1.875620494
-11.64930746;0.049895352;16.14314962;24.067543;8.665958006;-0.321782197;12.95564469;5.352964365;-3.072822085;10.82294645;6.616194963;-3.122575432;6.969525441;7.109227632;21.8352204;7.688691476;2.866459634;-0.664853623;0.408875322
-9.166489876;-3.303001131;13.80377142;19.47205578;9.309623035;-0.645272616;18.33059676;9.592342127;-5.816039456;10.37579255;7.599785768;-6.727682721;8.517585905;7.392993635;17.91898234;11.96367926;0.987714072;2.003031319;-0.992610708
-2.953388728;-5.78219183;9.872645475;13.86284849;10.72911719;-0.736357381;12.49489121;15.85333047;-6.93219218;10.86644601;15.79386958;-8.190899754;10.37148844;8.91047205;13.55084989;13.0694861;-0.467389819;1.915611281;-2.079204474
3.828870701;-8.445094915;9.055252428;9.72404361;11.93790798;-0.55392573;-3.572081185;21.3074282;-3.16869109;14.40516079;29.41763603;-7.393835318;11.73819915;10.80492888;9.891369257;9.936653983;-1.090529922;-2.726034151;-2.750573009
7.604637133;-11.82459386;13.46873505;9.396471376;11.9411428;-0.275089481;-21.7210645;23.44267205;5.938200407;21.15682225;42.03024035;-4.806723947;12.5247274;11.88906932;7.797317989;4.566152977;-1.037402962;-10.31174925;-3.009469429
6.618650235;-15.26378352;19.94593794;13.39412115;10.42297313;-0.120787295;-32.27390873;21.56053354;17.32217678;27.50449289;46.37416744;-1.052304459;13.1554416;11.37794599;7.524004317;0.064430671;-0.799550745;-16.79606415;-2.933092354
1.882499001;-17.57956889;21.7224524;19.69050557;7.936687502;-0.155276535;-30.68107453;17.05318148;26.32269968;27.223167;39.98378831;3.184376297;14.07410136;9.454400816;8.618499284;-1.934391744;-0.777407687;-18.75334749;-2.684155293
-3.747288175;-18.36622429;13.47887998;24.73648076;5.506977273;-0.243860503;-20.15595217;12.40254654;29.64287219;15.66979051;27.99636933;6.958594703;15.33822626;7.201038966;10.10640554;-2.236460288;-1.042477725;-16.12673373;-2.498729995
-7.545549537;-18.61149409;-4.083313736;25.68681751;3.995135271;-0.202155581;-8.537696565;9.713216871;27.08606186;-5.890181027;20.17069002;9.065795157;16.5660593;5.875430077;10.95241514;-2.741642139;-1.459755258;-12.35727072;-2.582409373
-8.470497803;-19.88688335;-23.71358489;22.28332345;3.695729435;0.009219377;-2.202752185;9.75656197;21.06765507;-29.49906211;23.55164265;8.583021319;17.19641877;6.02861902;10.59802723;-4.174736405;-1.975823536;-11.61047265;-2.941353106
-7.321489369;-22.70128696;-35.68355998;16.97677633;4.372545115;0.23250385;-1.948846905;11.95389477;14.70579779;-44.6063639;36.10539742;5.684223419;16.8161047;7.128352152;9.276681675;-5.097162593;-2.721759715;-15.23391701;-3.283142136
-5.689475157;-25.50094782;-33.64326699;13.15945944;5.568851983;0.257139955;-3.790797676;15.01190684;10.1237995;-44.57715921;46.63219484;1.977760834;15.33175912;7.981648402;7.881998958;-3.205520685;-3.788552699;-20.36734595;-3.123632098
-4.714312731;-25.41224865;-18.32221833;12.82646268;6.869748993;0.028639626;-3.365786059;17.6203714;7.966754602;-30.97022488;41.89793037;-0.192022022;12.9468823;7.633403959;7.409767455;2.21190344;-4.904289175;-22.01096427;-2.09403066
-4.571106066;-20.39737834;3.098403463;15.40222733;7.948805152;-0.2755261;0.189033549;18.84902355;7.889321286;-12.37360955;16.32839888;0.783455928;10.06513537;6.049962452;8.272862323;8.94614786;-5.403923822;-17.04639358;-0.257428899
-4.827051939;-11.19858199;21.06969713;18.50306083;8.50146921;-0.383410635;4.130663108;18.28167516;9.13100666;1.384211594;-22.8191675;4.567866139;7.24198723;4.081245097;9.915424375;13.06129787;-4.647839219;-6.991275046;1.819186186
-5.094121062;-1.418231201;28.37586602;19.86258403;8.274318253;-0.165122847;5.389187227;16.07956966;10.6903755;5.386560108;-58.98243846;8.959962354;5.172281942;2.775498321;11.01645909;11.81137353;-2.607582224;2.847941392;3.347532812
-5.327733697;4.562093008;22.89231977;18.81720058;7.249555865;0.241220576;3.821202844;12.99687984;11.39086155;1.782109132;-76.40724425;11.37763303;4.583799161;2.615293554;10.22383027;5.899040486;-0.10544228;7.289154294;3.800519486
-5.624947226;4.422489159;7.627377418;16.29299374;5.810180591;0.531413542;2.294656615;10.17295248;10.34671705;-3.167826765;-69.81314058;10.72301556;5.945022793;3.25666185;7.002107437;-0.862297103;1.583142368;5.171114626;3.260310387
-5.901442243;-0.564236039;-11.11741704;13.61074847;4.65048186;0.483000284;3.650551302;8.608336337;7.746960167;-4.356937869;-46.85665458;8.193542388;9.08349284;3.905294783;2.055130327;-4.296518208;1.537648432;0.071533962;2.364381497
-5.883071357;-6.451070648;-26.2424962;11.38224397;4.394983012;0.137957159;7.654047926;8.566129105;5.181438786;-1.206329527;-21.97983337;6.337608497;12.99089695;3.954434816;-2.986325646;-2.840141858;-0.185851352;-2.770564866;1.86671736
-5.442761162;-9.307506927;-32.27363335;9.483981049;5.172230671;-0.235417882;11.08501205;9.368912017;4.826799499;3.067786412;-6.53945105;7.015654491;16.07694809;3.359251871;-6.454569458;1.600254402;-2.602012728;-0.820976744;2.122355374
-4.892991257;-7.721805312;-27.35070375;7.907897559;6.485473639;-0.366641688;11.05201323;9.866675511;7.792663246;4.990562031;-2.532367555;9.837018718;16.8762668;2.516173367;-7.55410728;5.46272415;-4.474448153;3.708440334;2.869078039
-4.837387382;-3.382114943;-14.17945182;7.380425442;7.518536854;-0.200842627;8.32039825;9.315022701;12.91259522;3.841579484;-3.999661319;12.33195758;14.86437829;1.854374941;-6.692053488;6.381365224;-5.094977749;5.865403288;3.459615019
-5.603383719;0.494035184;0.913535304;8.906609924;7.672493292;0.071052204;7.126017328;7.986163757;17.19426685;1.766692973;-4.016162272;11.78648835;10.86421383;1.539454783;-5.020237204;4.712264439;-4.585458531;2.360728772;3.359174126
-6.724271481;1.553171751;11.05822865;12.58127154;6.93965986;0.185751072;11.11627724;6.963845738;17.86734855;1.395726663;-1.026696637;7.354582511;6.700310662;1.503015114;-3.543973105;2.660579024;-3.567888255;-5.327118201;2.531487824
-6.988898479;-0.240957797;12.76313419;16.92734809;5.849143036;0.028996854;18.92531365;7.213783507;14.51382819;3.420371694;0.613467641;0.818797419;4.218772212;1.666267568;-2.477870491;2.040692046;-2.567651912;-11.81623628;1.438825067
-5.163010289;-2.952928283;8.178614674;19.68431266;5.052915333;-0.281540731;23.7871574;8.657164263;9.48;6.24;-4.185646378;-4.596074535;4.241605839;2.063155685;-1.342809081;2.767962215;-1.682638496;-12.0281211;0.687332297
-0.943398466;-4.275405917;3.713810389;19.58725948;4.882499152;-0.509683894;18.36867596;10.04016993;6.065616924;7.656495224;-15.33334396;-6.454140067;6.131947028;2.726115641;0.292374807;3.339144841;-0.746595208;-5.285061864;0.609003656
4.528516872;-3.062649798;5.41227999;17.54774789;5.190395555;-0.499940378;1.270648441;9.783502927;5.862644524;6.805244346;-26.38051252;-4.70031007;8.289459992;3.490824081;2.070678521;2.65584433;0.260736027;4.11692471;1.085357254
9.015423925;0.191917071;14.13118907;15.96403219;5.538900584;-0.290319749;-20.37539792;7.19445736;7.454479797;4.613868791;-29.33469012;-1.462195847;9.278628964;3.99271993;2.806934962;1.336438758;1.012350222;10.36081547;1.696660037
10.27256704;3.951521938;24.21139606;16.54104368;5.541163806;-0.05581057;-35.00626695;3.100588582;7.666908688;2.719248722;-21.42370674;0.690582152;8.835114003;3.939093474;1.311034009;1.21589243;1.061195076;10.71726384;2.025494497
7.291650752;6.599485018;27.07097509;18.53596757;5.097331638;0.049975299;-34.71235342;-0.600210585;4.450087891;2.191431446;-7.918830591;0.635094182;8.039813152;3.429893999;-2.497567349;3.49078033;0.274270307;7.455520781;1.864937013
1.008167473;7.093638654;17.46457403;19.23116685;4.409211288;0.010689754;-21.01997691;-2.139300565;-0.973906413;3.256595287;1.66024919;-0.682993122;8.503372588;2.987469548;-7.096056125;7.283389573;-0.969538036;5.469727992;1.219933423
-5.951304015;5.167596881;-2.11934613;16.54108286;3.837172218;-0.068301888;-3.648495727;-0.938961375;-4.577882674;5.839390096;1.049930052;-1.249045483;11.10186277;3.18160511;-10.01910809;10.05570959;-2.049587716;7.67202347;0.194347035
-10.42847826;1.328748227;-22.34707055;11.55286941;3.725575201;-0.071343421;6.869710291;2.186826298;-2.414349102;9.761603487;-7.696645678;0.297928017;15.15254264;4.114883058;-9.353388572;9.615912009;-2.625131899;12.14220349;-1.068354936
-10.28260616;-3.197266909;-32.81880939;8.466238595;4.260499495;0.032075739;6.806802922;5.711355043;6.253843278;13.97683963;-15.86461008;3.584353869;18.64709841;5.211759471;-5.065201813;5.975664716;-2.930659039;13.5842559;-2.332585397
-5.556121624;-6.763944546;-28.69680849;11.41398041;5.355880527;0.186128355;1.046107714;8.338251016;18.00230773;15.72637603;-15.21843868;6.811189643;19.43572388;5.542292438;0.789905517;1.401003993;-3.548959964;7.9826725;-3.216473691
1.423409762;-8.067521636;-13.5098929;20.47280929;6.586910084;0.321088963;-2.07449572;9.525506627;27.22829121;11.2268927;-4.83808685;8.075543492;16.58290935;4.469470091;5.154524599;-1.412037823;-4.838270616;-3.461995173;-3.289947393
7.200039063;-7.140149643;3.659850546;30.33214631;7.260274861;0.414426209;1.770665169;9.380432426;29.60241095;-1.661154861;7.952798555;6.612006391;10.97904101;2.119310667;5.622183871;-1.44766309;-6.523991101;-14.59873199;-2.338317889
9.083943243;-5.806026253;14.28476732;33.30651147;6.697478006;0.482480157;9.542363258;8.250155352;24.52116378;-20.54605014;13.36048903;3.065524879;4.798351831;-0.701920382;1.576662329;0.05202543;-7.84672571;-18.8622999;-0.607216508
6.70736156;-6.897978612;15.30254462;24.87020122;4.650496157;0.526384547;14.27109677;6.461511064;15.01165034;-38.22623613;6.924581909;-1.234426645;0.185928239;-3.075453002;-5.8;0.959241844;-8.176889991;-14.54980834;1.21
2.211651758;-12.38298526;9.663828729;7.524158226;1.582518436;0.50494087;11.95661129;4.348804645;5.506539851;-46.31052141;-6.944832181;-5.270180451;-1.931901434;-4.569088491;-14.40983072;0.246772832;-7.58337446;-6.515255517;2.312264492
-1.186372477;-21.58241794;2.895484918;-10.28096401;-1.464851561;0.374195015;5.591941198;2.329569182;-0.700745982;-40.78455042;-18.47418145;-8.800156363;-2.14777016;-5.411707617;-22.22602947;-1.259333977;-6.858413608;-2.702590503;2.260894446
-1.393542137;-30.94286968;-1.10223447;-19.73652123;-3.44403393;0.155170118;2.565626124;0.749750495;-2.675172912;-25.38241649;-20.14040447;-12.06163109;-1.875188244;-6.158459455;-27.77198588;-2.020223106;-6.949893008;-8.04968445;1.247779548
1.101303937;-35.8781998;-1.807371412;-17.74481356;-3.979433962;-0.048717902;7.639695236;-0.45344617;-1.416388339;-9.71566322;-12.244279;-15.14605018;-2.236849821;-7.17627307;-30.12039973;-1.684492979;-8.251201138;-20.46996014;-0.041454833
3.619350564;-33.64776806;-0.677784302;-8.884272065;-3.653193986;-0.119356028;17.78274633;-1.897122908;1.305614822;-3.007497792;-2.139092182;-17.67571165;-3.353812704;-8.384431829;-28.89924286;-1.869397675;-10.31887003;-32.09140593;-0.872640783
3.343387756;-25.28851825;1.38868882;-1.769047068;-3.62352858;-0.024517022;23.72746409;-4.392778144;3.801856458;-7.907119008;1.947839596;-19.04041055;-4.479649433;-9.414873942;-24.6190799;-4.948142097;-12.23086071;-34.89953883;-0.893239915
-0.456187557;-15.1403767;5.087654866;-2.604201523;-4.786350235;0.143748617;17.35687688;-8.216923937;4.724082905;-19.07253323;-2.6914732;-18.91141198;-4.766598698;-9.976616131;-19.02828854;-11.82517966;-13.27445162;-26.56373611;-0.255860175
-5.751699817;-8.2024609;11.33857562;-10.83477301;-7.069255731;0.238640087;-1.140449255;-12.57979289;3.197423729;-27.58935182;-11.68422268;-17.53116247;-4.012884848;-10.06209191;-14.8279812;-20.69867256;-13.40558454;-12.12864336;0.600314109
-9.256989372;-7.145375805;19.02762819;-20.03164372;-9.395012412;0.181912253;-22.4685531;-15.82897493;-0.764217706;-27.69721722;-17.68699246;-15.53601419;-2.827714664;-9.831222352;-14.44134517;-28.03271069;-13.14353148;-0.425886024;1.286825434
